Measurement Sequence started on: 15-12-46-377
Integration time: 28
Scans to Average: 2 
>>>>>Begin Spectral Data<<<<<
432.689 .0000100
433.621 .0000100
434.552 .0000100
435.482 .0000100
436.410 .0000100
437.337 .0000100
438.262 .0279185
439.187 .0592562
440.110 .0982704
441.031 .1421740
441.952 .1142127
442.871 .1193190
443.789 .1240740
444.705 .1285481
445.621 .1327915
446.535 .1368428
447.447 .1392620
448.359 .1398928
449.269 .1383506
450.178 .1343932
451.086 .1280982
451.993 .1199512
452.898 .1107586
453.803 .1014349
454.706 .0927593
455.608 .0852151
456.508 .0789648
457.408 .0747267
458.306 .0714661
459.204 .0688098
460.100 .0665671
460.995 .0646376
461.888 .0629525
462.781 .0614625
463.673 .0601314
464.563 .0589320
465.452 .0578430
466.340 .0568476
467.228 .0559333
468.114 .0550911
468.999 .0543143
469.882 .0535958
470.765 .0529312
471.647 .0523165
472.528 .0517482
473.407 .0512227
474.286 .0507385
475.163 .0502953
476.040 .0498924
476.915 .0495285
477.790 .0492037
478.663 .0489171
479.535 .0486685
480.407 .0484556
481.277 .0482763
482.147 .0481282
483.015 .0480085
483.883 .0479146
484.749 .0478449
485.615 .0477977
486.479 .0477724
487.343 .0477681
488.206 .0477845
489.067 .0478208
489.928 .0478765
490.788 .0479503
491.647 .0480417
492.505 .0481498
493.362 .0482747
494.218 .0484160
495.073 .0485752
495.928 .0488873
496.781 .0491002
497.634 .0493368
498.486 .0495982
499.337 .0498868
500.187 .0502046
501.036 .0505529
501.884 .0509338
502.731 .0513503
503.578 .0518054
504.424 .0521181
505.268 .0526470
506.113 .0532296
506.956 .0538727
507.798 .0545849
508.640 .0553744
509.480 .0562524
510.320 .0572301
511.160 .0583198
511.998 .0595340
512.836 .0608896
513.672 .0624039
514.508 .0640976
515.344 .0659948
516.178 .0681189
517.012 .0704945
517.845 .0731427
518.677 .0760786
519.508 .0793134
520.339 .0828470
521.169 .0866700
521.998 .0907510
522.826 .0950519
523.654 .0995152
524.481 .1040739
525.307 .1086554
526.133 .1131755
526.958 .1175439
527.782 .1216730
528.605 .1254778
529.428 .1288809
530.250 .1318147
531.072 .1342291
531.892 .1360832
532.712 .1373523
533.532 .1380222
534.350 .1380878
535.168 .1375553
535.986 .1364391
536.802 .1347530
537.618 .1325184
538.434 .1297642
539.249 .1265355
540.063 .1228840
540.876 .1188747
541.689 .1145803
542.501 .1100763
543.313 .1054463
544.124 .1007766
544.934 .0961497
545.744 .0916437
546.553 .0873281
547.361 .0832599
548.169 .0794763
548.976 .0760021
549.783 .0728406
550.589 .0699850
551.395 .0674163
552.200 .0651066
553.004 .0630246
553.808 .0611426
554.611 .0594363
555.414 .0578830
556.216 .0564642
557.018 .0551626
557.819 .0539646
558.619 .0528588
559.419 .0518348
560.218 .0508848
561.017 .0500013
561.815 .0491771
562.613 .0484057
563.410 .0476794
564.207 .0469908
565.003 .0463336
565.799 .0457017
566.594 .0450913
567.388 .0445000
568.182 .0439263
568.976 .0433698
569.769 .0428310
570.562 .0423110
571.354 .0418098
572.145 .0413274
572.936 .0408639
573.727 .0404182
574.517 .0399892
575.307 .0395760
576.096 .0391779
576.885 .0387946
577.673 .0384267
578.461 .0380746
579.248 .0377390
580.035 .0374209
580.821 .0371205
581.607 .0368381
582.392 .0365738
583.177 .0363272
583.962 .0360973
584.746 .0358835
585.529 .0356850
586.313 .0355008
587.095 .0353301
587.878 .0351724
588.660 .0350268
589.441 .0348928
590.222 .0347695
591.003 .0346557
591.783 .0345504
592.563 .0344523
593.342 .0343604
594.121 .0342737
594.899 .0341915
595.678 .0341135
596.455 .0340394
597.233 .0339692
598.009 .0339027
598.786 .0338397
599.562 .0337800
600.338 .0337232
601.113 .0336690
601.888 .0335949
602.663 .0335457
603.437 .0334985
604.211 .0334531
604.984 .0334095
605.757 .0333677
606.530 .0333277
607.302 .0332895
608.074 .0332530
608.845 .0332180
609.616 .0331845
610.387 .0331709
611.158 .0331390
611.928 .0331082
612.697 .0330783
613.467 .0330491
614.236 .0330206
615.004 .0329926
615.773 .0329650
616.541 .0329378
617.308 .0329109
618.076 .0328842
618.843 .0328578
619.609 .0328317
620.375 .0328057
621.141 .0327798
621.907 .0327539
622.672 .0327278
623.437 .0327015
624.202 .0326748
624.966 .0326478
625.730 .0326205
626.493 .0325929
627.257 .0325648
628.020 .0325363
628.782 .0325074
629.545 .0324780
630.307 .0324484
631.068 .0324184
631.830 .0323883
632.591 .0323580
633.352 .0323276
634.112 .0322972
634.872 .0322668
635.632 .0322365
636.392 .0322063
637.151 .0321760
637.910 .0321457
638.668 .0321154
639.427 .0320852
640.185 .0320551
640.943 .0320253
641.700 .0319959
642.457 .0319668
643.214 .0319381
643.971 .0319099
644.727 .0318822
645.483 .0318550
646.239 .0318283
646.994 .0318022
647.750 .0317764
648.505 .0317512
649.259 .0317262
650.014 .0317016
650.768 .0316773
651.521 .0316532
652.275 .0316293
653.028 .0316054
653.781 .0315817
654.534 .0315582
655.286 .0315348
656.039 .0315114
656.791 .0314881
657.542 .0314647
658.294 .0314411
659.045 .0314174
659.796 .0313935
660.546 .0313694
661.297 .0313452
662.047 .0313210
662.796 .0312968
663.546 .0312726
664.295 .0312484
665.044 .0312243
665.793 .0312004
666.542 .0311765
667.290 .0311528
668.038 .0311292
668.786 .0311059
669.533 .0310827
670.281 .0310596
671.028 .0310368
671.774 .0310141
672.521 .0309916
673.267 .0309693
674.013 .0309473
674.759 .0309256
675.505 .0309042
676.250 .0308833
676.995 .0308628
677.740 .0308427
678.484 .0308230
679.229 .0308037
679.973 .0307848
680.717 .0307661
681.460 .0307477
682.204 .0307296
682.947 .0307117
683.690 .0306939
684.433 .0306762
685.175 .0306586
685.917 .0306411
686.659 .0306235
687.401 .0306058
688.142 .0305881
688.884 .0305702
689.625 .0305522
690.365 .0305339
691.106 .0305154
691.846 .0304966
692.586 .0304774
693.326 .0304579
694.066 .0304381
694.805 .0304179
695.545 .0303974
696.284 .0303767
697.022 .0303558
697.761 .0303348
698.499 .0303136
699.237 .0302924
699.975 .0302711
700.713 .0302497
701.450 .0302284
702.187 .0302071
702.924 .0301859
703.661 .0301648
704.397 .0301439
705.133 .0301232
705.869 .0301026
706.605 .0300822
707.341 .0300619
708.076 .0300418
708.811 .0300219
709.546 .0300021
710.281 .0299825
711.015 .0299631
711.749 .0299438
712.483 .0299247
713.217 .0299057
713.950 .0298868
714.684 .0298680
715.417 .0298492
716.150 .0298306
716.882 .0298121
717.615 .0297937
718.347 .0297755
719.079 .0297575
719.811 .0297397
720.542 .0297219
721.273 .0297043
722.005 .0296869
722.735 .0296695
723.466 .0296523
724.196 .0296353
724.927 .0296186
725.656 .0296021
726.386 .0295859
727.116 .0295700
727.845 .0295543
728.574 .0295389
729.303 .0295238
730.031 .0295088
730.760 .0294942
731.488 .0294798
732.216 .0294657
732.944 .0294519
733.671 .0294383
734.398 .0294250
735.125 .0294119
735.852 .0293989
736.579 .0293861
737.305 .0293733
738.031 .0293607
738.757 .0293482
739.483 .0293358
740.208 .0293236
740.933 .0293115
741.658 .0292994
742.383 .0292875
743.108 .0292755
743.832 .0292637
744.556 .0292519
745.280 .0292400
746.004 .0292283
746.727 .0292165
747.450 .0292048
748.173 .0291931
748.896 .0291814
749.618 .0291698
750.340 .0291581
751.062 .0291464
751.784 .0291346
752.506 .0291228
753.227 .0291109
753.948 .0290990
754.669 .0290868
755.389 .0290746
756.110 .0290621
756.830 .0290493
757.550 .0290364
758.269 .0290233
758.989 .0290099
759.708 .0289963
760.427 .0289826
761.146 .0289686
761.864 .0289545
762.582 .0289402
763.300 .0289256
764.018 .0289108
764.736 .0288958
765.453 .0288806
766.170 .0288652
766.887 .0288496
767.603 .0288340
768.320 .0288184
769.036 .0288029
769.751 .0287875
770.467 .0287723
771.182 .0287573
771.897 .0287426
772.612 .0287282
773.327 .0287141
774.041 .0287004
774.755 .0286869
775.469 .0286737
776.183 .0286609
776.896 .0286485
777.609 .0286365
778.322 .0286249
779.035 .0286137
779.747 .0286030
780.459 .0285927
781.171 .0285828
781.882 .0285732
782.594 .0285639
783.305 .0285548
784.016 .0285457
784.726 .0285367
785.436 .0285276
786.147 .0285135
786.856 .0285041
787.566 .0284945
788.275 .0284848
788.984 .0284749
789.693 .0284650
790.401 .0284549
791.110 .0284445
791.818 .0284339
792.525 .0284231
793.233 .0284120
793.940 .0284007
794.647 .0283943
795.353 .0283827
796.060 .0283710
796.766 .0283590
797.472 .0283468
798.177 .0283345
798.883 .0283220
799.588 .0283093
800.292 .0282965
800.997 .0282836
801.701 .0282707
802.405 .0282577
803.109 .0282447
803.812 .0282317
804.515 .0282186
805.218 .0282054
805.921 .0281920
806.623 .0281785
807.325 .0281649
808.027 .0281512
808.728 .0281376
809.429 .0281240
810.130 .0281105
810.831 .0280971
811.531 .0280838
812.231 .0280706
812.931 .0280574
813.630 .0280442
814.330 .0280310
815.029 .0280179
815.727 .0280050
816.426 .0279922
817.124 .0279798
817.821 .0279676
818.519 .0279557
819.216 .0279441
819.913 .0279327
820.609 .0279216
821.306 .0279108
822.002 .0279004
822.697 .0278903
823.393 .0278807
824.088 .0278715
824.783 .0278628
825.477 .0278544
826.171 .0278464
826.865 .0278387
827.559 .0278311
828.252 .0278238
828.945 .0278167
829.638 .0278099
830.330 .0278033
831.023 .0277970
831.714 .0277911
832.406 .0277855
833.097 .0277801
833.788 .0277749
834.479 .0277698
835.169 .0277649
835.859 .0277601
836.548 .0277555
837.238 .0277510
837.927 .0277467
838.615 .0277425
839.304 .0277384
839.992 .0277343
840.680 .0277302
841.367 .0277259
842.054 .0277215
842.741 .0277168
843.428 .0277120
844.114 .0277069
844.800 .0277016
845.485 .0276961
846.170 .0276903
846.855 .0276841
847.540 .0276777
848.224 .0276708
848.908 .0276634
849.592 .0276556
850.275 .0276472
850.958 .0276384
851.641 .0276291
852.323 .0276193
853.005 .0276092
853.687 .0275987
854.368 .0275879
855.049 .0275768
855.730 .0275655
856.410 .0275540
857.090 .0275424
857.769 .0275306
858.449 .0275186
859.128 .0275065
859.806 .0274943
860.485 .0274819
861.163 .0274695
861.840 .0274571
862.518 .0274447
863.195 .0274323
863.871 .0274200
864.548 .0274077
865.224 .0273955
865.899 .0273833
866.574 .0273711
867.249 .0273589
867.924 .0273467
868.598 .0273345
869.272 .0273222
869.946 .0273098
870.619 .0272975
871.292 .0272850
871.964 .0272725
872.636 .0272599
873.308 .0272472
873.979 .0272344
874.651 .0272216
875.321 .0272087
875.992 .0271958
876.662 .0271828
877.331 .0271697
878.001 .0271567
878.670 .0271436
879.338 .0271304
880.007 .0271173
880.675 .0271042
881.342 .0270912
882.009 .0270784
882.676 .0270659
883.343 .0270536
884.009 .0270418
884.675 .0270302
885.340 .0270190
886.005 .0270082
886.670 .0269978
887.334 .0269877
887.998 .0269779
888.662 .0269683
889.325 .0269591
889.988 .0269502
890.650 .0269416
891.312 .0269332
891.974 .0269251
892.636 .0269172
893.297 .0269095
893.957 .0269019
894.618 .0268944
895.278 .0268869
895.937 .0268795
896.596 .0268721
897.255 .0268645
897.914 .0268568
898.572 .0268489
899.230 .0268408
899.887 .0268323
900.544 .0268235
901.201 .0268143
901.857 .0267983
902.513 .0267878
903.168 .0267768
903.823 .0267652
904.478 .0267530
905.132 .0267402
905.786 .0267268
906.440 .0267129
907.093 .0266985
907.746 .0266837
908.399 .0266685
909.051 .0266531
909.703 .0266373
910.354 .0266287
911.005 .0266126
911.656 .0265962
912.306 .0265795
912.956 .0265626
913.605 .0265455
914.254 .0265281
914.903 .0265105
915.551 .0264928
916.199 .0264748
916.847 .0264567
917.494 .0264385
918.141 .0264200
918.788 .0264013
919.434 .0263825
920.079 .0263634
920.725 .0263442
921.370 .0263249
922.014 .0263056
922.658 .0262861
923.302 .0262666
923.946 .0262471
924.589 .0262275
925.231 .0262078
925.873 .0261881
926.515 .0261684
927.157 .0261486
927.798 .0261288
928.439 .0261092
929.079 .0260897
929.719 .0260704
930.359 .0260514
930.998 .0260328
931.637 .0260146
932.275 .0259969
932.913 .0259798
933.551 .0259633
934.188 .0259475
934.825 .0259324
935.462 .0259181
936.098 .0259048
936.733 .0258922
937.369 .0258806
938.004 .0258698
938.638 .0258598
939.273 .0258505
939.907 .0258420
940.540 .0258340
941.173 .0258266
941.806 .0258198
942.438 .0258135
943.070 .0258076
943.702 .0258022
944.333 .0257972
944.964 .0257925
945.594 .0257882
946.224 .0257841
946.854 .0257802
947.483 .0257764
948.112 .0257725
948.741 .0257687
949.369 .0257647
949.996 .0257605
950.624 .0257562
951.251 .0257517
951.878 .0257469
952.504 .0257418
953.130 .0257364
953.755 .0257306
954.380 .0257244
955.005 .0257179
955.629 .0257111
956.253 .0257040
956.877 .0256967
957.500 .0256894
958.123 .0256820
958.746 .0256746
959.368 .0256674
959.990 .0256604
960.611 .0256536
961.232 .0256471
961.853 .0256410
962.473 .0256353
963.093 .0256301
963.712 .0256252
964.331 .0256209
964.950 .0256169
965.569 .0256133
966.187 .0256101
966.804 .0256073
967.422 .0256047
968.039 .0256024
968.655 .0256004
969.272 .0255988
969.887 .0255975
970.503 .0255965
971.118 .0255958
971.733 .0255953
972.347 .0255951
972.961 .0255950
973.575 .0255951
974.188 .0255952
974.801 .0255952
975.414 .0255953
976.026 .0255952
976.638 .0255949
977.250 .0255943
977.861 .0255932
978.472 .0255917
979.083 .0255895
979.693 .0255867
980.303 .0255831
980.912 .0255750
981.521 .0255700
982.130 .0255645
982.738 .0255587
983.346 .0255526
983.954 .0255463
984.562 .0255399
985.169 .0255333
985.775 .0255266
986.382 .0255199
986.988 .0255132
987.594 .0255065
988.199 .0255001
988.804 .0254939
989.409 .0254919
990.013 .0254864
990.617 .0254813
991.221 .0254765
991.824 .0254721
992.427 .0254678
993.030 .0254638
993.632 .0254600
994.234 .0254563
994.836 .0254530
995.438 .0254500
996.039 .0254475
996.640 .0254455
997.240 .0254442
997.840 .0254436
998.440 .0254435
999.040 .0254440
999.639 .0254450
1000.238 .0254463
1000.836 .0254479
1001.435 .0254496
1002.033 .0254516
1002.630 .0254536
1003.228 .0254558
1003.825 .0254582
1004.422 .0254606
1005.018 .0254630
1005.614 .0254655
1006.210 .0254679
1006.806 .0254701
1007.401 .0254722
1007.996 .0254740
1008.591 .0254756
1009.186 .0254771
1009.780 .0254783
1010.374 .0254796
1010.967 .0254808
1011.561 .0254820
1012.154 .0254833
1012.746 .0254846
1013.339 .0254859
1013.931 .0254871
1014.523 .0254883
1015.115 .0254892
1015.706 .0254900
1016.298 .0254907
1016.888 .0254913
1017.479 .0254919
1018.069 .0254925
1018.660 .0254933
1019.250 .0254942
1019.839 .0254954
1020.429 .0254967
1021.018 .0254982
1021.607 .0254999
1022.195 .0255016
1022.784 .0255036
1023.372 .0255057
1023.960 .0255079
1024.547 .0255105
1025.135 .0255132
1025.722 .0255163
1026.309 .0255196
1026.896 .0255232
1027.483 .0255270
1028.069 .0255309
1028.655 .0255348
1029.241 .0255387
1029.827 .0255425
1030.412 .0255463
1030.997 .0255500
1031.582 .0255536
1032.167 .0255571
1032.752 .0255605
1033.336 .0255637
1033.921 .0255667
1034.505 .0255692
1035.089 .0255713
1035.672 .0255726
1036.256 .0255732
1036.839 .0255729
1037.422 .0255717
1038.005 .0255696
1038.588 .0255667
1039.171 .0255630
1039.753 .0255584
1040.335 .0255532
1040.918 .0255470
1041.500 .0255401
1042.081 .0255324
1042.663 .0255239
1043.244 .0255147
1043.826 .0255049
1044.407 .0254947
1044.988 .0254841
1045.569 .0254734
1046.150 .0254624
1046.730 .0254514
1047.311 .0254403
1047.891 .0254291
1048.471 .0254178
1049.052 .0254065
1049.632 .0253951
1050.211 .0253837
1050.791 .0253726
1051.371 .0253618
1051.950 .0253513
1052.530 .0253413
1053.109 .0253319
1053.688 .0253230
1054.268 .0253147
1054.847 .0253069
1055.426 .0252996
1056.005 .0252930
1056.583 .0252870
1057.162 .0252817
1057.741 .0252771
1058.319 .0252733
1058.898 .0252703
1059.476 .0252680
1060.055 .0252662
1060.633 .0252650
1061.211 .0252642
1061.790 .0252637
1062.368 .0252636
1062.946 .0252639
1063.524 .0252645
1064.102 .0252654
1064.680 .0252667
1065.258 .0252682
1065.836 .0252697
1066.414 .0252711
1066.992 .0252723
1067.570 .0252730
1068.148 .0252732
1068.726 .0252729
1069.304 .0252720
1069.882 .0252707
1070.460 .0252689
1071.038 .0252667
1071.616 .0252640
1072.194 .0252608
1072.772 .0252568
1073.350 .0252520
1073.928 .0252462
1074.506 .0252394
1075.084 .0252319
1075.662 .0252237
1076.240 .0252151
1076.819 .0252063
1077.397 .0251976
1077.976 .0251890
1078.554 .0251805
1079.133 .0251720
1079.711 .0251635
1080.290 .0251548
1080.869 .0251460
1081.448 .0251370
1082.027 .0251279
1082.606 .0251189
1083.185 .0251102
1083.764 .0251019
1084.343 .0250942
1084.923 .0250873
1085.502 .0250811
1086.082 .0250758
1086.662 .0250713
1087.242 .0250678
1087.822 .0250653
1088.402 .0250640
1088.983 .0250638
1089.563 .0250649
1090.144 .0250673
1090.725 .0250711
1091.306 .0250762
1091.887 .0250824
1092.469 .0250895
1093.050 .0250974
1093.632 .0251059
1094.214 .0251148
1094.796 .0251240
1095.379 .0251335
1095.961 .0251433
1096.544 .0251535
1097.127 .0251640
1097.710 .0251751
1098.294 .0251866
1098.877 .0251987
1099.461 .0252113
1100.046 .0252247
1100.630 .0252389
1101.215 .0252540
1101.800 .0252702
1102.385 .0252875
1102.970 .0253061
1103.556 .0253261
1104.142 .0253474
1104.728 .0253700
1105.315 .0253938
1105.902 .0254184
1106.489 .0254439
1107.077 .0254701
1107.664 .0254972
1108.253 .0255251
1108.841 .0255539
1109.430 .0255837
1110.019 .0256147
1110.609 .0256467
1111.198 .0256798
1111.789 .0257142
1112.379 .0257497
1112.970 .0257863
1113.561 .0258241
1114.153 .0258631
1114.745 .0259037
1115.338 .0259459
1115.931 .0259901
1116.524 .0260362
1117.117 .0260842
1117.712 .0261339
1118.306 .0261852
1118.901 .0262377
1119.496 .0262911
1120.092 .0263452
1120.689 .0263997
1121.285 .0264546
1121.882 .0265099
1122.480 .0265660
1123.078 .0266229
1123.677 .0266809
1124.276 .0267398
1124.875 .0267995
1125.476 .0268599
1126.076 .0269211
1126.677 .0269832
1127.279 .0270463
1127.881 .0271109
1128.484 .0271774
1129.087 .0272089
1129.691 .0272784
1130.295 .0273507
1130.900 .0274257
1131.505 .0275035
1132.111 .0275840
1132.718 .0276673
1133.325 .0277529
1133.933 .0278409
1134.541 .0279297
1135.150 .0280251
1135.760 .0281314
1136.370 .0282222
1136.981 .0281742
1137.592 .0282895
1138.204 .0284129
1138.817 .0285376
1139.431 .0286659
1140.045 .0287993
1140.660 .0289407
1141.275 .0290723
1141.891 .0292147
1142.508 .0293144
1143.126 .0295771
1143.744 .0299553
1144.363 .0295910
1144.983 .0299550
