Measurement Sequence started on: 15-12-46-377
Integration time: 28
Scans to Average: 2 
>>>>>Begin Spectral Data<<<<<
432.689 .0000100
433.621 .0000100
434.552 .0000100
435.482 .0000100
436.410 .0000100
437.337 .0000100
438.262 .0267835
439.187 .0568316
440.110 .0942032
441.031 .1363319
441.952 .1093916
442.871 .1142593
443.789 .1187948
444.705 .1230678
445.621 .1271288
446.535 .1310182
447.447 .1333550
448.359 .1339897
449.269 .1325550
450.178 .1288135
451.086 .1228404
451.993 .1150994
452.898 .1063622
453.803 .0975072
454.706 .0892809
455.608 .0821475
456.508 .0762635
457.408 .0723175
458.306 .0693168
459.204 .0669006
460.100 .0648855
460.995 .0631694
461.888 .0616832
462.781 .0603779
463.673 .0592142
464.563 .0581659
465.452 .0572123
466.340 .0563380
467.228 .0555332
468.114 .0547913
468.999 .0541077
469.882 .0534789
470.765 .0529003
471.647 .0523680
472.528 .0518782
473.407 .0514264
474.286 .0510093
475.163 .0506250
476.040 .0502714
476.915 .0499482
477.790 .0496549
478.663 .0493927
479.535 .0491619
480.407 .0489628
481.277 .0487944
482.147 .0486551
483.015 .0485422
483.883 .0484524
484.749 .0483823
485.615 .0483299
486.479 .0482929
487.343 .0482707
488.206 .0482639
489.067 .0482730
489.928 .0482996
490.788 .0483447
491.647 .0484085
492.505 .0484911
493.362 .0485915
494.218 .0487091
495.073 .0488422
495.928 .0490990
496.781 .0492741
497.634 .0494673
498.486 .0496805
499.337 .0499151
500.187 .0501731
501.036 .0504563
501.884 .0507668
502.731 .0511076
503.578 .0514823
504.424 .0517409
505.268 .0521811
506.113 .0526680
506.956 .0532075
507.798 .0538056
508.640 .0544712
509.480 .0552124
510.320 .0560405
511.160 .0569678
511.998 .0580107
512.836 .0591887
513.672 .0605248
514.508 .0620447
515.344 .0637753
516.178 .0657438
517.012 .0679767
517.845 .0704999
518.677 .0733369
519.508 .0765067
520.339 .0800187
521.169 .0838748
521.998 .0880524
522.826 .0925118
523.654 .0971978
524.481 .1020390
525.307 .1069504
526.133 .1118335
526.958 .1165832
527.782 .1210976
528.605 .1252805
529.428 .1290493
530.250 .1323285
531.072 .1350672
531.892 .1372242
532.712 .1387723
533.532 .1396971
534.350 .1399976
535.168 .1396771
535.986 .1387427
536.802 .1372001
537.618 .1350595
538.434 .1323348
539.249 .1290659
540.063 .1253066
540.876 .1211256
541.689 .1166039
542.501 .1118352
543.313 .1069202
544.124 .1019671
544.934 .0970750
545.744 .0923340
546.553 .0878160
547.361 .0835807
548.169 .0796583
548.976 .0760676
549.783 .0728114
550.589 .0698786
551.395 .0672457
552.200 .0648843
553.004 .0627641
553.808 .0608582
554.611 .0591445
555.414 .0576024
556.216 .0562097
557.018 .0549467
557.819 .0537942
558.619 .0527359
559.419 .0517575
560.218 .0508481
561.017 .0499971
561.815 .0491966
562.613 .0484407
563.410 .0477232
564.207 .0470398
565.003 .0463870
565.799 .0457604
566.594 .0451562
567.388 .0445716
568.182 .0440042
568.976 .0434520
569.769 .0429146
570.562 .0423923
571.354 .0418859
572.145 .0413964
572.936 .0409243
573.727 .0404698
574.517 .0400327
575.307 .0396131
576.096 .0392101
576.885 .0388233
577.673 .0384525
578.461 .0380978
579.248 .0377594
580.035 .0374381
580.821 .0371338
581.607 .0368466
582.392 .0365764
583.177 .0363233
583.962 .0360863
584.746 .0358648
585.529 .0356581
586.313 .0354652
587.095 .0352853
587.878 .0351176
588.660 .0349614
589.441 .0348163
590.222 .0346818
591.003 .0345573
591.783 .0344423
592.563 .0343361
593.342 .0342378
594.121 .0341466
594.899 .0340617
595.678 .0339821
596.455 .0339070
597.233 .0338358
598.009 .0337680
598.786 .0337031
599.562 .0336408
600.338 .0335806
601.113 .0335226
601.888 .0334417
602.663 .0333882
603.437 .0333366
604.211 .0332866
604.984 .0332382
605.757 .0331911
606.530 .0331453
607.302 .0331009
608.074 .0330577
608.845 .0330158
609.616 .0329753
610.387 .0329586
611.158 .0329205
611.928 .0328839
612.697 .0328488
613.467 .0328153
614.236 .0327832
615.004 .0327524
615.773 .0327228
616.541 .0326942
617.308 .0326667
618.076 .0326401
618.843 .0326144
619.609 .0325895
620.375 .0325652
621.141 .0325415
621.907 .0325182
622.672 .0324950
623.437 .0324718
624.202 .0324484
624.966 .0324247
625.730 .0324007
626.493 .0323762
627.257 .0323511
628.020 .0323255
628.782 .0322993
629.545 .0322723
630.307 .0322446
631.068 .0322161
631.830 .0321869
632.591 .0321569
633.352 .0321264
634.112 .0320953
634.872 .0320638
635.632 .0320318
636.392 .0319996
637.151 .0319672
637.910 .0319347
638.668 .0319023
639.427 .0318700
640.185 .0318381
640.943 .0318065
641.700 .0317756
642.457 .0317453
643.214 .0317156
643.971 .0316867
644.727 .0316585
645.483 .0316310
646.239 .0316042
646.994 .0315781
647.750 .0315527
648.505 .0315279
649.259 .0315037
650.014 .0314801
650.768 .0314569
651.521 .0314341
652.275 .0314115
653.028 .0313892
653.781 .0313669
654.534 .0313447
655.286 .0313225
656.039 .0313002
656.791 .0312779
657.542 .0312555
658.294 .0312331
659.045 .0312105
659.796 .0311877
660.546 .0311649
661.297 .0311419
662.047 .0311188
662.796 .0310957
663.546 .0310725
664.295 .0310493
665.044 .0310261
665.793 .0310031
666.542 .0309802
667.290 .0309576
668.038 .0309351
668.786 .0309128
669.533 .0308907
670.281 .0308687
671.028 .0308468
671.774 .0308250
672.521 .0308033
673.267 .0307816
674.013 .0307601
674.759 .0307387
675.505 .0307174
676.250 .0306963
676.995 .0306753
677.740 .0306544
678.484 .0306336
679.229 .0306127
679.973 .0305918
680.717 .0305709
681.460 .0305500
682.204 .0305290
682.947 .0305081
683.690 .0304870
684.433 .0304659
685.175 .0304446
685.917 .0304233
686.659 .0304018
687.401 .0303801
688.142 .0303584
688.884 .0303365
689.625 .0303145
690.365 .0302925
691.106 .0302705
691.846 .0302484
692.586 .0302264
693.326 .0302043
694.066 .0301824
694.805 .0301605
695.545 .0301386
696.284 .0301170
697.022 .0300954
697.761 .0300740
698.499 .0300528
699.237 .0300319
699.975 .0300112
700.713 .0299907
701.450 .0299706
702.187 .0299507
702.924 .0299311
703.661 .0299116
704.397 .0298923
705.133 .0298730
705.869 .0298538
706.605 .0298344
707.341 .0298149
708.076 .0297952
708.811 .0297754
709.546 .0297553
710.281 .0297352
711.015 .0297149
711.749 .0296946
712.483 .0296741
713.217 .0296535
713.950 .0296327
714.684 .0296118
715.417 .0295906
716.150 .0295693
716.882 .0295476
717.615 .0295259
718.347 .0295040
719.079 .0294821
719.811 .0294603
720.542 .0294388
721.273 .0294174
722.005 .0293964
722.735 .0293758
723.466 .0293555
724.196 .0293356
724.927 .0293161
725.656 .0292970
726.386 .0292784
727.116 .0292604
727.845 .0292429
728.574 .0292261
729.303 .0292098
730.031 .0291942
730.760 .0291792
731.488 .0291647
732.216 .0291508
732.944 .0291374
733.671 .0291246
734.398 .0291122
735.125 .0291003
735.852 .0290888
736.579 .0290777
737.305 .0290669
738.031 .0290564
738.757 .0290463
739.483 .0290364
740.208 .0290267
740.933 .0290172
741.658 .0290079
742.383 .0289986
743.108 .0289894
743.832 .0289801
744.556 .0289708
745.280 .0289613
746.004 .0289517
746.727 .0289419
747.450 .0289319
748.173 .0289218
748.896 .0289113
749.618 .0289005
750.340 .0288893
751.062 .0288777
751.784 .0288655
752.506 .0288529
753.227 .0288397
753.948 .0288261
754.669 .0288121
755.389 .0287978
756.110 .0287831
756.830 .0287681
757.550 .0287529
758.269 .0287374
758.989 .0287216
759.708 .0287055
760.427 .0286892
761.146 .0286727
761.864 .0286559
762.582 .0286390
763.300 .0286220
764.018 .0286048
764.736 .0285877
765.453 .0285706
766.170 .0285535
766.887 .0285365
767.603 .0285198
768.320 .0285033
769.036 .0284871
769.751 .0284713
770.467 .0284560
771.182 .0284412
771.897 .0284269
772.612 .0284131
773.327 .0283998
774.041 .0283870
774.755 .0283748
775.469 .0283631
776.183 .0283520
776.896 .0283416
777.609 .0283319
778.322 .0283229
779.035 .0283145
779.747 .0283067
780.459 .0282994
781.171 .0282925
781.882 .0282860
782.594 .0282796
783.305 .0282734
784.016 .0282672
784.726 .0282610
785.436 .0282547
786.147 .0282444
786.856 .0282376
787.566 .0282305
788.275 .0282233
788.984 .0282157
789.693 .0282078
790.401 .0281995
791.110 .0281909
791.818 .0281817
792.525 .0281721
793.233 .0281621
793.940 .0281515
794.647 .0281450
795.353 .0281341
796.060 .0281228
796.766 .0281111
797.472 .0280992
798.177 .0280870
798.883 .0280745
799.588 .0280618
800.292 .0280489
800.997 .0280357
801.701 .0280224
802.405 .0280090
803.109 .0279953
803.812 .0279815
804.515 .0279674
805.218 .0279531
805.921 .0279386
806.623 .0279238
807.325 .0279087
808.027 .0278934
808.728 .0278778
809.429 .0278621
810.130 .0278463
810.831 .0278303
811.531 .0278143
812.231 .0277982
812.931 .0277821
813.630 .0277659
814.330 .0277496
815.029 .0277334
815.727 .0277172
816.426 .0277012
817.124 .0276854
817.821 .0276700
818.519 .0276550
819.216 .0276405
819.913 .0276265
820.609 .0276131
821.306 .0276004
822.002 .0275882
822.697 .0275767
823.393 .0275658
824.088 .0275557
824.783 .0275462
825.477 .0275373
826.171 .0275292
826.865 .0275216
827.559 .0275147
828.252 .0275084
828.945 .0275025
829.638 .0274972
830.330 .0274923
831.023 .0274878
831.714 .0274837
832.406 .0274799
833.097 .0274764
833.788 .0274731
834.479 .0274702
835.169 .0274674
835.859 .0274648
836.548 .0274624
837.238 .0274601
837.927 .0274579
838.615 .0274557
839.304 .0274536
839.992 .0274515
840.680 .0274494
841.367 .0274473
842.054 .0274451
842.741 .0274429
843.428 .0274405
844.114 .0274379
844.800 .0274349
845.485 .0274314
846.170 .0274273
846.855 .0274225
847.540 .0274170
848.224 .0274107
848.908 .0274037
849.592 .0273960
850.275 .0273875
850.958 .0273783
851.641 .0273683
852.323 .0273576
853.005 .0273461
853.687 .0273338
854.368 .0273208
855.049 .0273071
855.730 .0272929
856.410 .0272781
857.090 .0272629
857.769 .0272473
858.449 .0272315
859.128 .0272155
859.806 .0271994
860.485 .0271833
861.163 .0271672
861.840 .0271512
862.518 .0271356
863.195 .0271203
863.871 .0271056
864.548 .0270914
865.224 .0270779
865.899 .0270651
866.574 .0270530
867.249 .0270416
867.924 .0270308
868.598 .0270207
869.272 .0270112
869.946 .0270023
870.619 .0269940
871.292 .0269863
871.964 .0269790
872.636 .0269722
873.308 .0269658
873.979 .0269597
874.651 .0269538
875.321 .0269481
875.992 .0269426
876.662 .0269372
877.331 .0269319
878.001 .0269267
878.670 .0269216
879.338 .0269166
880.007 .0269115
880.675 .0269065
881.342 .0269015
882.009 .0268965
882.676 .0268915
883.343 .0268866
884.009 .0268818
884.675 .0268770
885.340 .0268724
886.005 .0268678
886.670 .0268634
887.334 .0268592
887.998 .0268551
888.662 .0268512
889.325 .0268474
889.988 .0268438
890.650 .0268404
891.312 .0268371
891.974 .0268340
892.636 .0268309
893.297 .0268280
893.957 .0268251
894.618 .0268222
895.278 .0268192
895.937 .0268162
896.596 .0268128
897.255 .0268091
897.914 .0268048
898.572 .0267998
899.230 .0267942
899.887 .0267878
900.544 .0267806
901.201 .0267726
901.857 .0267569
902.513 .0267468
903.168 .0267360
903.823 .0267243
904.478 .0267117
905.132 .0266982
905.786 .0266838
906.440 .0266684
907.093 .0266523
907.746 .0266354
908.399 .0266180
909.051 .0265999
909.703 .0265814
910.354 .0265712
911.005 .0265523
911.656 .0265331
912.306 .0265136
912.956 .0264938
913.605 .0264739
914.254 .0264539
914.903 .0264340
915.551 .0264143
916.199 .0263948
916.847 .0263756
917.494 .0263566
918.141 .0263379
918.788 .0263194
919.434 .0263009
920.079 .0262826
920.725 .0262644
921.370 .0262462
922.014 .0262281
922.658 .0262101
923.302 .0261922
923.946 .0261742
924.589 .0261562
925.231 .0261380
925.873 .0261197
926.515 .0261011
927.157 .0260823
927.798 .0260633
928.439 .0260442
929.079 .0260249
929.719 .0260055
930.359 .0259861
930.998 .0259666
931.637 .0259470
932.275 .0259274
932.913 .0259077
933.551 .0258880
934.188 .0258684
934.825 .0258489
935.462 .0258296
936.098 .0258106
936.733 .0257920
937.369 .0257738
938.004 .0257560
938.638 .0257387
939.273 .0257219
939.907 .0257056
940.540 .0256899
941.173 .0256749
941.806 .0256605
942.438 .0256469
943.070 .0256341
943.702 .0256219
944.333 .0256104
944.964 .0255993
945.594 .0255886
946.224 .0255783
946.854 .0255683
947.483 .0255586
948.112 .0255492
948.741 .0255400
949.369 .0255311
949.996 .0255224
950.624 .0255140
951.251 .0255057
951.878 .0254975
952.504 .0254893
953.130 .0254811
953.755 .0254728
954.380 .0254646
955.005 .0254563
955.629 .0254482
956.253 .0254401
956.877 .0254321
957.500 .0254241
958.123 .0254161
958.746 .0254080
959.368 .0253999
959.990 .0253917
960.611 .0253834
961.232 .0253751
961.853 .0253667
962.473 .0253585
963.093 .0253502
963.712 .0253420
964.331 .0253338
964.950 .0253257
965.569 .0253175
966.187 .0253093
966.804 .0253011
967.422 .0252928
968.039 .0252844
968.655 .0252760
969.272 .0252674
969.887 .0252587
970.503 .0252499
971.118 .0252410
971.733 .0252320
972.347 .0252229
972.961 .0252137
973.575 .0252043
974.188 .0251949
974.801 .0251852
975.414 .0251753
976.026 .0251651
976.638 .0251547
977.250 .0251441
977.861 .0251333
978.472 .0251224
979.083 .0251115
979.693 .0251006
980.303 .0250899
980.912 .0250742
981.521 .0250638
982.130 .0250536
982.738 .0250434
983.346 .0250333
983.954 .0250235
984.562 .0250138
985.169 .0250046
985.775 .0249958
986.382 .0249875
986.988 .0249797
987.594 .0249724
988.199 .0249656
988.804 .0249592
989.409 .0249576
990.013 .0249519
990.617 .0249467
991.221 .0249420
991.824 .0249378
992.427 .0249343
993.030 .0249314
993.632 .0249292
994.234 .0249277
994.836 .0249268
995.438 .0249265
996.039 .0249266
996.640 .0249272
997.240 .0249283
997.840 .0249299
998.440 .0249320
999.040 .0249347
999.639 .0249379
1000.238 .0249416
1000.836 .0249458
1001.435 .0249503
1002.033 .0249550
1002.630 .0249599
1003.228 .0249648
1003.825 .0249697
1004.422 .0249747
1005.018 .0249798
1005.614 .0249849
1006.210 .0249903
1006.806 .0249958
1007.401 .0250015
1007.996 .0250072
1008.591 .0250130
1009.186 .0250187
1009.780 .0250243
1010.374 .0250299
1010.967 .0250354
1011.561 .0250408
1012.154 .0250463
1012.746 .0250520
1013.339 .0250578
1013.931 .0250639
1014.523 .0250702
1015.115 .0250766
1015.706 .0250831
1016.298 .0250897
1016.888 .0250964
1017.479 .0251031
1018.069 .0251101
1018.660 .0251172
1019.250 .0251247
1019.839 .0251325
1020.429 .0251406
1021.018 .0251492
1021.607 .0251580
1022.195 .0251671
1022.784 .0251764
1023.372 .0251858
1023.960 .0251952
1024.547 .0252048
1025.135 .0252144
1025.722 .0252241
1026.309 .0252340
1026.896 .0252441
1027.483 .0252543
1028.069 .0252648
1028.655 .0252754
1029.241 .0252861
1029.827 .0252969
1030.412 .0253077
1030.997 .0253184
1031.582 .0253291
1032.167 .0253399
1032.752 .0253507
1033.336 .0253615
1033.921 .0253723
1034.505 .0253831
1035.089 .0253938
1035.672 .0254044
1036.256 .0254149
1036.839 .0254251
1037.422 .0254350
1038.005 .0254447
1038.588 .0254540
1039.171 .0254630
1039.753 .0254717
1040.335 .0254800
1040.918 .0254880
1041.500 .0254954
1042.081 .0255023
1042.663 .0255086
1043.244 .0255143
1043.826 .0255195
1044.407 .0255242
1044.988 .0255283
1045.569 .0255319
1046.150 .0255351
1046.730 .0255378
1047.311 .0255402
1047.891 .0255422
1048.471 .0255436
1049.052 .0255446
1049.632 .0255452
1050.211 .0255452
1050.791 .0255447
1051.371 .0255439
1051.950 .0255427
1052.530 .0255411
1053.109 .0255392
1053.688 .0255372
1054.268 .0255350
1054.847 .0255329
1055.426 .0255308
1056.005 .0255288
1056.583 .0255270
1057.162 .0255255
1057.741 .0255241
1058.319 .0255231
1058.898 .0255224
1059.476 .0255221
1060.055 .0255222
1060.633 .0255228
1061.211 .0255239
1061.790 .0255257
1062.368 .0255279
1062.946 .0255307
1063.524 .0255338
1064.102 .0255372
1064.680 .0255406
1065.258 .0255441
1065.836 .0255474
1066.414 .0255506
1066.992 .0255537
1067.570 .0255567
1068.148 .0255596
1068.726 .0255626
1069.304 .0255657
1069.882 .0255689
1070.460 .0255722
1071.038 .0255755
1071.616 .0255787
1072.194 .0255819
1072.772 .0255848
1073.350 .0255876
1073.928 .0255902
1074.506 .0255926
1075.084 .0255949
1075.662 .0255972
1076.240 .0255995
1076.819 .0256017
1077.397 .0256040
1077.976 .0256061
1078.554 .0256079
1079.133 .0256094
1079.711 .0256106
1080.290 .0256114
1080.869 .0256121
1081.448 .0256126
1082.027 .0256133
1082.606 .0256145
1083.185 .0256161
1083.764 .0256183
1084.343 .0256213
1084.923 .0256251
1085.502 .0256295
1086.082 .0256344
1086.662 .0256399
1087.242 .0256457
1087.822 .0256521
1088.402 .0256588
1088.983 .0256659
1089.563 .0256735
1090.144 .0256814
1090.725 .0256896
1091.306 .0256980
1091.887 .0257067
1092.469 .0257155
1093.050 .0257244
1093.632 .0257334
1094.214 .0257424
1094.796 .0257516
1095.379 .0257610
1095.961 .0257706
1096.544 .0257805
1097.127 .0257907
1097.710 .0258012
1098.294 .0258121
1098.877 .0258233
1099.461 .0258350
1100.046 .0258473
1100.630 .0258602
1101.215 .0258737
1101.800 .0258879
1102.385 .0259027
1102.970 .0259181
1103.556 .0259340
1104.142 .0259505
1104.728 .0259673
1105.315 .0259847
1105.902 .0260025
1106.489 .0260210
1107.077 .0260403
1107.664 .0260606
1108.253 .0260820
1108.841 .0261046
1109.430 .0261284
1110.019 .0261532
1110.609 .0261791
1111.198 .0262060
1111.789 .0262338
1112.379 .0262623
1112.970 .0262917
1113.561 .0263220
1114.153 .0263531
1114.745 .0263852
1115.338 .0264181
1115.931 .0264520
1116.524 .0264865
1117.117 .0265215
1117.712 .0265569
1118.306 .0265928
1118.901 .0266291
1119.496 .0266661
1120.092 .0267042
1120.689 .0267435
1121.285 .0267844
1121.882 .0268269
1122.480 .0268713
1123.078 .0269175
1123.677 .0269656
1124.276 .0270154
1124.875 .0270670
1125.476 .0271205
1126.076 .0271757
1126.677 .0272328
1127.279 .0272922
1127.881 .0273536
1128.484 .0274172
1129.087 .0274429
1129.691 .0275096
1130.295 .0275783
1130.900 .0276488
1131.505 .0277212
1132.111 .0277956
1132.718 .0278718
1133.325 .0279497
1133.933 .0280291
1134.541 .0281152
1135.150 .0282055
1135.760 .0282842
1136.370 .0283698
1136.981 .0285081
1137.592 .0286004
1138.204 .0286903
1138.817 .0287747
1139.431 .0288612
1140.045 .0289524
1140.660 .0290391
1141.275 .0291285
1141.891 .0292080
1142.508 .0294349
1143.126 .0296004
1143.744 .0293197
1144.363 .0295659
1144.983 .0293458
