Measurement Sequence started on: 15-12-46-377
Integration time: 28
Scans to Average: 2 
>>>>>Begin Spectral Data<<<<<
432.689 .0000100
433.621 .0000100
434.552 .0000100
435.482 .0000100
436.410 .0000100
437.337 .0000100
438.262 .0274630
439.187 .0580839
440.110 .0960583
441.031 .1387778
441.952 .1097522
442.871 .1144514
443.789 .1188161
444.705 .1229185
445.621 .1268090
446.535 .1305244
447.447 .1326480
448.359 .1330348
449.269 .1313160
450.178 .1272557
451.086 .1209407
451.993 .1128552
452.898 .1037967
453.803 .0946632
454.706 .0862150
455.608 .0789200
456.508 .0729283
457.408 .0689360
458.306 .0659122
459.204 .0634830
460.100 .0614610
460.995 .0597415
461.888 .0582541
462.781 .0569496
463.673 .0557932
464.563 .0547579
465.452 .0538239
466.340 .0529745
467.228 .0521982
468.114 .0514851
468.999 .0508291
469.882 .0502244
470.765 .0496667
471.647 .0491527
472.528 .0486801
473.407 .0482456
474.286 .0478480
475.163 .0474856
476.040 .0471569
476.915 .0468608
477.790 .0465961
478.663 .0463617
479.535 .0461574
480.407 .0459821
481.277 .0458353
482.147 .0457155
483.015 .0456216
483.883 .0455513
484.749 .0455026
485.615 .0454734
486.479 .0454619
487.343 .0454667
488.206 .0454875
489.067 .0455235
489.928 .0455755
490.788 .0456443
491.647 .0457307
492.505 .0458355
493.362 .0459599
494.218 .0461045
495.073 .0462705
495.928 .0465986
496.781 .0468207
497.634 .0470649
498.486 .0473319
499.337 .0476227
500.187 .0479391
501.036 .0482831
501.884 .0486568
502.731 .0490627
503.578 .0495032
504.424 .0497959
505.268 .0503001
506.113 .0508505
506.956 .0514511
507.798 .0521080
508.640 .0528282
509.480 .0536207
510.320 .0544954
511.160 .0554634
511.998 .0565379
512.836 .0577367
513.672 .0590762
514.508 .0605778
515.344 .0622632
516.178 .0641561
517.012 .0662802
517.845 .0686583
518.677 .0713080
519.508 .0742444
520.339 .0774739
521.169 .0809991
521.998 .0847957
522.826 .0888305
523.654 .0930534
524.481 .0974029
525.307 .1018081
526.133 .1061852
526.958 .1104431
527.782 .1144961
528.605 .1182594
529.428 .1216581
530.250 .1246224
531.072 .1271072
531.892 .1290726
532.712 .1304921
533.532 .1313495
534.350 .1316369
535.168 .1313548
535.986 .1305119
536.802 .1291135
537.618 .1271727
538.434 .1247041
539.249 .1217482
540.063 .1183531
540.876 .1145809
541.689 .1105024
542.501 .1061953
543.313 .1017458
544.124 .0972446
544.934 .0927732
545.744 .0884101
546.553 .0842219
547.361 .0802662
548.169 .0765751
548.976 .0731726
549.783 .0700666
550.589 .0672534
551.395 .0647184
552.200 .0624386
553.004 .0603866
553.808 .0585391
554.611 .0568736
555.414 .0553690
556.216 .0540044
557.018 .0527601
557.819 .0516187
558.619 .0505661
559.419 .0495890
560.218 .0486780
561.017 .0478238
561.815 .0470204
562.613 .0462623
563.410 .0455439
564.207 .0448597
565.003 .0442058
565.799 .0435770
566.594 .0429697
567.388 .0423808
568.182 .0418087
568.976 .0412526
569.769 .0407130
570.562 .0401911
571.354 .0396876
572.145 .0392035
572.936 .0387399
573.727 .0382965
574.517 .0378732
575.307 .0374695
576.096 .0370846
576.885 .0367181
577.673 .0363700
578.461 .0360397
579.248 .0357276
580.035 .0354338
580.821 .0351583
581.607 .0349008
582.392 .0346612
583.177 .0344387
583.962 .0342322
584.746 .0340409
585.529 .0338637
586.313 .0336993
587.095 .0335470
587.878 .0334062
588.660 .0332766
589.441 .0331581
590.222 .0330503
591.003 .0329529
591.783 .0328654
592.563 .0327872
593.342 .0327171
594.121 .0326540
594.899 .0325969
595.678 .0325446
596.455 .0324960
597.233 .0324502
598.009 .0324067
598.786 .0323649
599.562 .0323245
600.338 .0322852
601.113 .0322469
601.888 .0321903
602.663 .0321534
603.437 .0321171
604.211 .0320811
604.984 .0320454
605.757 .0320097
606.530 .0319741
607.302 .0319386
608.074 .0319033
608.845 .0318684
609.616 .0318342
610.387 .0318195
611.158 .0317869
611.928 .0317554
612.697 .0317251
613.467 .0316962
614.236 .0316684
615.004 .0316419
615.773 .0316163
616.541 .0315918
617.308 .0315680
618.076 .0315450
618.843 .0315226
619.609 .0315007
620.375 .0314793
621.141 .0314581
621.907 .0314371
622.672 .0314161
623.437 .0313949
624.202 .0313733
624.966 .0313512
625.730 .0313285
626.493 .0313049
627.257 .0312804
628.020 .0312547
628.782 .0312280
629.545 .0312001
630.307 .0311712
631.068 .0311413
631.830 .0311105
632.591 .0310790
633.352 .0310470
634.112 .0310145
634.872 .0309817
635.632 .0309487
636.392 .0309157
637.151 .0308829
637.910 .0308502
638.668 .0308178
639.427 .0307859
640.185 .0307545
640.943 .0307237
641.700 .0306936
642.457 .0306643
643.214 .0306359
643.971 .0306083
644.727 .0305817
645.483 .0305560
646.239 .0305312
646.994 .0305073
647.750 .0304839
648.505 .0304611
649.259 .0304386
650.014 .0304163
650.768 .0303940
651.521 .0303716
652.275 .0303491
653.028 .0303264
653.781 .0303034
654.534 .0302800
655.286 .0302563
656.039 .0302321
656.791 .0302075
657.542 .0301826
658.294 .0301575
659.045 .0301324
659.796 .0301074
660.546 .0300826
661.297 .0300582
662.047 .0300342
662.796 .0300107
663.546 .0299876
664.295 .0299650
665.044 .0299431
665.793 .0299218
666.542 .0299013
667.290 .0298817
668.038 .0298631
668.786 .0298453
669.533 .0298285
670.281 .0298125
671.028 .0297972
671.774 .0297826
672.521 .0297686
673.267 .0297550
674.013 .0297419
674.759 .0297292
675.505 .0297168
676.250 .0297047
676.995 .0296929
677.740 .0296811
678.484 .0296696
679.229 .0296581
679.973 .0296467
680.717 .0296354
681.460 .0296243
682.204 .0296131
682.947 .0296021
683.690 .0295910
684.433 .0295799
685.175 .0295687
685.917 .0295574
686.659 .0295459
687.401 .0295343
688.142 .0295225
688.884 .0295107
689.625 .0294987
690.365 .0294866
691.106 .0294744
691.846 .0294621
692.586 .0294497
693.326 .0294370
694.066 .0294240
694.805 .0294109
695.545 .0293974
696.284 .0293835
697.022 .0293693
697.761 .0293546
698.499 .0293396
699.237 .0293241
699.975 .0293083
700.713 .0292922
701.450 .0292758
702.187 .0292591
702.924 .0292422
703.661 .0292250
704.397 .0292077
705.133 .0291902
705.869 .0291725
706.605 .0291547
707.341 .0291367
708.076 .0291185
708.811 .0291000
709.546 .0290813
710.281 .0290624
711.015 .0290432
711.749 .0290237
712.483 .0290041
713.217 .0289843
713.950 .0289643
714.684 .0289443
715.417 .0289241
716.150 .0289039
716.882 .0288834
717.615 .0288628
718.347 .0288420
719.079 .0288209
719.811 .0287996
720.542 .0287781
721.273 .0287564
722.005 .0287347
722.735 .0287130
723.466 .0286914
724.196 .0286700
724.927 .0286489
725.656 .0286279
726.386 .0286072
727.116 .0285867
727.845 .0285664
728.574 .0285463
729.303 .0285264
730.031 .0285067
730.760 .0284872
731.488 .0284680
732.216 .0284490
732.944 .0284303
733.671 .0284119
734.398 .0283937
735.125 .0283757
735.852 .0283581
736.579 .0283408
737.305 .0283238
738.031 .0283071
738.757 .0282907
739.483 .0282745
740.208 .0282585
740.933 .0282426
741.658 .0282269
742.383 .0282112
743.108 .0281957
743.832 .0281804
744.556 .0281651
745.280 .0281501
746.004 .0281353
746.727 .0281207
747.450 .0281063
748.173 .0280919
748.896 .0280775
749.618 .0280630
750.340 .0280484
751.062 .0280336
751.784 .0280187
752.506 .0280036
753.227 .0279883
753.948 .0279729
754.669 .0279572
755.389 .0279413
756.110 .0279253
756.830 .0279090
757.550 .0278926
758.269 .0278760
758.989 .0278594
759.708 .0278426
760.427 .0278259
761.146 .0278091
761.864 .0277924
762.582 .0277757
763.300 .0277591
764.018 .0277425
764.736 .0277262
765.453 .0277100
766.170 .0276940
766.887 .0276784
767.603 .0276630
768.320 .0276481
769.036 .0276337
769.751 .0276197
770.467 .0276063
771.182 .0275935
771.897 .0275814
772.612 .0275698
773.327 .0275589
774.041 .0275486
774.755 .0275390
775.469 .0275298
776.183 .0275212
776.896 .0275131
777.609 .0275055
778.322 .0274983
779.035 .0274916
779.747 .0274853
780.459 .0274795
781.171 .0274740
781.882 .0274691
782.594 .0274644
783.305 .0274602
784.016 .0274562
784.726 .0274524
785.436 .0274487
786.147 .0274435
786.856 .0274400
787.566 .0274364
788.275 .0274329
788.984 .0274295
789.693 .0274261
790.401 .0274227
791.110 .0274195
791.818 .0274163
792.525 .0274131
793.233 .0274098
793.940 .0274064
794.647 .0274043
795.353 .0274008
796.060 .0273972
796.766 .0273935
797.472 .0273897
798.177 .0273857
798.883 .0273817
799.588 .0273775
800.292 .0273731
800.997 .0273687
801.701 .0273641
802.405 .0273593
803.109 .0273545
803.812 .0273495
804.515 .0273443
805.218 .0273389
805.921 .0273333
806.623 .0273274
807.325 .0273211
808.027 .0273145
808.728 .0273076
809.429 .0273003
810.130 .0272928
810.831 .0272849
811.531 .0272769
812.231 .0272686
812.931 .0272601
813.630 .0272514
814.330 .0272425
815.029 .0272335
815.727 .0272243
816.426 .0272150
817.124 .0272056
817.821 .0271963
818.519 .0271870
819.216 .0271778
819.913 .0271688
820.609 .0271601
821.306 .0271516
822.002 .0271433
822.697 .0271354
823.393 .0271278
824.088 .0271205
824.783 .0271135
825.477 .0271069
826.171 .0271006
826.865 .0270947
827.559 .0270891
828.252 .0270838
828.945 .0270789
829.638 .0270742
830.330 .0270697
831.023 .0270654
831.714 .0270613
832.406 .0270573
833.097 .0270534
833.788 .0270495
834.479 .0270457
835.169 .0270418
835.859 .0270379
836.548 .0270339
837.238 .0270298
837.927 .0270255
838.615 .0270209
839.304 .0270159
839.992 .0270106
840.680 .0270049
841.367 .0269987
842.054 .0269920
842.741 .0269847
843.428 .0269769
844.114 .0269685
844.800 .0269596
845.485 .0269500
846.170 .0269398
846.855 .0269290
847.540 .0269174
848.224 .0269052
848.908 .0268921
849.592 .0268784
850.275 .0268638
850.958 .0268486
851.641 .0268325
852.323 .0268159
853.005 .0267985
853.687 .0267806
854.368 .0267621
855.049 .0267431
855.730 .0267235
856.410 .0267035
857.090 .0266830
857.769 .0266620
858.449 .0266407
859.128 .0266190
859.806 .0265971
860.485 .0265750
861.163 .0265527
861.840 .0265304
862.518 .0265081
863.195 .0264859
863.871 .0264638
864.548 .0264419
865.224 .0264201
865.899 .0263985
866.574 .0263772
867.249 .0263562
867.924 .0263356
868.598 .0263153
869.272 .0262954
869.946 .0262760
870.619 .0262570
871.292 .0262385
871.964 .0262205
872.636 .0262030
873.308 .0261861
873.979 .0261697
874.651 .0261538
875.321 .0261384
875.992 .0261234
876.662 .0261088
877.331 .0260947
878.001 .0260808
878.670 .0260673
879.338 .0260540
880.007 .0260410
880.675 .0260282
881.342 .0260158
882.009 .0260036
882.676 .0259918
883.343 .0259802
884.009 .0259689
884.675 .0259578
885.340 .0259470
886.005 .0259364
886.670 .0259259
887.334 .0259156
887.998 .0259055
888.662 .0258955
889.325 .0258857
889.988 .0258760
890.650 .0258664
891.312 .0258571
891.974 .0258479
892.636 .0258390
893.297 .0258302
893.957 .0258216
894.618 .0258131
895.278 .0258047
895.937 .0257962
896.596 .0257877
897.255 .0257790
897.914 .0257700
898.572 .0257607
899.230 .0257509
899.887 .0257408
900.544 .0257302
901.201 .0257191
901.857 .0256998
902.513 .0256873
903.168 .0256743
903.823 .0256607
904.478 .0256466
905.132 .0256320
905.786 .0256170
906.440 .0256016
907.093 .0255860
907.746 .0255703
908.399 .0255545
909.051 .0255387
909.703 .0255231
910.354 .0255158
911.005 .0255006
911.656 .0254854
912.306 .0254704
912.956 .0254557
913.605 .0254411
914.254 .0254269
914.903 .0254130
915.551 .0253995
916.199 .0253864
916.847 .0253736
917.494 .0253611
918.141 .0253488
918.788 .0253366
919.434 .0253245
920.079 .0253125
920.725 .0253005
921.370 .0252887
922.014 .0252768
922.658 .0252651
923.302 .0252533
923.946 .0252414
924.589 .0252295
925.231 .0252173
925.873 .0252048
926.515 .0251921
927.157 .0251791
927.798 .0251659
928.439 .0251525
929.079 .0251391
929.719 .0251258
930.359 .0251125
930.998 .0250993
931.637 .0250863
932.275 .0250734
932.913 .0250608
933.551 .0250486
934.188 .0250367
934.825 .0250255
935.462 .0250149
936.098 .0250051
936.733 .0249962
937.369 .0249882
938.004 .0249811
938.638 .0249748
939.273 .0249693
939.907 .0249646
940.540 .0249605
941.173 .0249572
941.806 .0249546
942.438 .0249528
943.070 .0249517
943.702 .0249514
944.333 .0249517
944.964 .0249526
945.594 .0249540
946.224 .0249557
946.854 .0249577
947.483 .0249597
948.112 .0249619
948.741 .0249642
949.369 .0249666
949.996 .0249691
950.624 .0249715
951.251 .0249740
951.878 .0249765
952.504 .0249789
953.130 .0249812
953.755 .0249833
954.380 .0249853
955.005 .0249871
955.629 .0249889
956.253 .0249905
956.877 .0249921
957.500 .0249937
958.123 .0249951
958.746 .0249965
959.368 .0249978
959.990 .0249992
960.611 .0250005
961.232 .0250019
961.853 .0250035
962.473 .0250052
963.093 .0250070
963.712 .0250090
964.331 .0250110
964.950 .0250132
965.569 .0250154
966.187 .0250177
966.804 .0250200
967.422 .0250223
968.039 .0250246
968.655 .0250269
969.272 .0250291
969.887 .0250312
970.503 .0250330
971.118 .0250346
971.733 .0250358
972.347 .0250366
972.961 .0250370
973.575 .0250370
974.188 .0250366
974.801 .0250359
975.414 .0250347
976.026 .0250331
976.638 .0250310
977.250 .0250284
977.861 .0250253
978.472 .0250216
979.083 .0250174
979.693 .0250128
980.303 .0250079
980.912 .0249994
981.521 .0249941
982.130 .0249887
982.738 .0249832
983.346 .0249777
983.954 .0249721
984.562 .0249666
985.169 .0249611
985.775 .0249557
986.382 .0249505
986.988 .0249456
987.594 .0249411
988.199 .0249370
988.804 .0249333
989.409 .0249330
990.013 .0249300
990.617 .0249275
991.221 .0249255
991.824 .0249238
992.427 .0249226
993.030 .0249219
993.632 .0249214
994.234 .0249213
994.836 .0249215
995.438 .0249219
996.039 .0249225
996.640 .0249233
997.240 .0249242
997.840 .0249252
998.440 .0249263
999.040 .0249274
999.639 .0249285
1000.238 .0249296
1000.836 .0249306
1001.435 .0249315
1002.033 .0249323
1002.630 .0249330
1003.228 .0249336
1003.825 .0249341
1004.422 .0249344
1005.018 .0249345
1005.614 .0249345
1006.210 .0249343
1006.806 .0249340
1007.401 .0249336
1007.996 .0249330
1008.591 .0249322
1009.186 .0249314
1009.780 .0249304
1010.374 .0249293
1010.967 .0249282
1011.561 .0249270
1012.154 .0249259
1012.746 .0249247
1013.339 .0249236
1013.931 .0249226
1014.523 .0249216
1015.115 .0249208
1015.706 .0249200
1016.298 .0249193
1016.888 .0249188
1017.479 .0249184
1018.069 .0249182
1018.660 .0249182
1019.250 .0249184
1019.839 .0249188
1020.429 .0249193
1021.018 .0249200
1021.607 .0249207
1022.195 .0249215
1022.784 .0249223
1023.372 .0249231
1023.960 .0249238
1024.547 .0249246
1025.135 .0249254
1025.722 .0249261
1026.309 .0249268
1026.896 .0249275
1027.483 .0249282
1028.069 .0249287
1028.655 .0249292
1029.241 .0249295
1029.827 .0249296
1030.412 .0249296
1030.997 .0249294
1031.582 .0249291
1032.167 .0249285
1032.752 .0249279
1033.336 .0249270
1033.921 .0249261
1034.505 .0249250
1035.089 .0249237
1035.672 .0249223
1036.256 .0249207
1036.839 .0249189
1037.422 .0249169
1038.005 .0249147
1038.588 .0249122
1039.171 .0249097
1039.753 .0249070
1040.335 .0249043
1040.918 .0249015
1041.500 .0248986
1042.081 .0248955
1042.663 .0248923
1043.244 .0248888
1043.826 .0248850
1044.407 .0248810
1044.988 .0248766
1045.569 .0248719
1046.150 .0248669
1046.730 .0248616
1047.311 .0248559
1047.891 .0248499
1048.471 .0248435
1049.052 .0248367
1049.632 .0248296
1050.211 .0248221
1050.791 .0248143
1051.371 .0248063
1051.950 .0247982
1052.530 .0247901
1053.109 .0247820
1053.688 .0247741
1054.268 .0247663
1054.847 .0247587
1055.426 .0247512
1056.005 .0247440
1056.583 .0247370
1057.162 .0247301
1057.741 .0247233
1058.319 .0247168
1058.898 .0247103
1059.476 .0247040
1060.055 .0246978
1060.633 .0246918
1061.211 .0246859
1061.790 .0246803
1062.368 .0246749
1062.946 .0246698
1063.524 .0246650
1064.102 .0246606
1064.680 .0246565
1065.258 .0246526
1065.836 .0246491
1066.414 .0246459
1066.992 .0246431
1067.570 .0246406
1068.148 .0246385
1068.726 .0246367
1069.304 .0246352
1069.882 .0246338
1070.460 .0246323
1071.038 .0246305
1071.616 .0246284
1072.194 .0246257
1072.772 .0246224
1073.350 .0246186
1073.928 .0246144
1074.506 .0246098
1075.084 .0246052
1075.662 .0246007
1076.240 .0245963
1076.819 .0245920
1077.397 .0245879
1077.976 .0245840
1078.554 .0245801
1079.133 .0245765
1079.711 .0245732
1080.290 .0245703
1080.869 .0245678
1081.448 .0245658
1082.027 .0245644
1082.606 .0245634
1083.185 .0245627
1083.764 .0245622
1084.343 .0245614
1084.923 .0245604
1085.502 .0245591
1086.082 .0245575
1086.662 .0245558
1087.242 .0245543
1087.822 .0245530
1088.402 .0245521
1088.983 .0245519
1089.563 .0245522
1090.144 .0245532
1090.725 .0245549
1091.306 .0245572
1091.887 .0245601
1092.469 .0245638
1093.050 .0245682
1093.632 .0245736
1094.214 .0245801
1094.796 .0245876
1095.379 .0245960
1095.961 .0246052
1096.544 .0246150
1097.127 .0246250
1097.710 .0246351
1098.294 .0246451
1098.877 .0246550
1099.461 .0246645
1100.046 .0246739
1100.630 .0246832
1101.215 .0246926
1101.800 .0247021
1102.385 .0247119
1102.970 .0247220
1103.556 .0247325
1104.142 .0247435
1104.728 .0247550
1105.315 .0247673
1105.902 .0247806
1106.489 .0247947
1107.077 .0248099
1107.664 .0248261
1108.253 .0248433
1108.841 .0248612
1109.430 .0248798
1110.019 .0248991
1110.609 .0249190
1111.198 .0249395
1111.789 .0249607
1112.379 .0249825
1112.970 .0250049
1113.561 .0250280
1114.153 .0250516
1114.745 .0250758
1115.338 .0251004
1115.931 .0251254
1116.524 .0251509
1117.117 .0251772
1117.712 .0252045
1118.306 .0252331
1118.901 .0252633
1119.496 .0252955
1120.092 .0253301
1120.689 .0253673
1121.285 .0254073
1121.882 .0254503
1122.480 .0254962
1123.078 .0255450
1123.677 .0255965
1124.276 .0256507
1124.875 .0257074
1125.476 .0257667
1126.076 .0258285
1126.677 .0258927
1127.279 .0259592
1127.881 .0260281
1128.484 .0260993
1129.087 .0261256
1129.691 .0262001
1130.295 .0262767
1130.900 .0263554
1131.505 .0264361
1132.111 .0265188
1132.718 .0266036
1133.325 .0266908
1133.933 .0267809
1134.541 .0268694
1135.150 .0269665
1135.760 .0270613
1136.370 .0271616
1136.981 .0273786
1137.592 .0274900
1138.204 .0275947
1138.817 .0276912
1139.431 .0277780
1140.045 .0278621
1140.660 .0279385
1141.275 .0280188
1141.891 .0281162
1142.508 .0280907
1143.126 .0283581
1143.744 .0283268
1144.363 .0285296
1144.983 .0290129
