Measurement Sequence started on: 15-12-46-377
Integration time: 28
Scans to Average: 2 
>>>>>Begin Spectral Data<<<<<
432.689 .0000100
433.621 .0000100
434.552 .0000100
435.482 .0000100
436.410 .0000100
437.337 .0000100
438.262 .0284862
439.187 .0603781
440.110 .1000003
441.031 .1446105
441.952 .1154037
442.871 .1204901
443.789 .1252326
444.705 .1297066
445.621 .1339621
446.535 .1380391
447.447 .1404669
448.359 .1410878
449.269 .1395148
450.178 .1354983
451.086 .1291183
451.993 .1208736
452.898 .1115848
453.803 .1021828
454.706 .0934575
455.608 .0858960
456.508 .0796585
457.408 .0754727
458.306 .0722741
459.204 .0696782
460.100 .0674909
460.995 .0656066
461.888 .0639528
462.781 .0624820
463.673 .0611574
464.563 .0599529
465.452 .0588496
466.340 .0578306
467.228 .0568856
468.114 .0560093
468.999 .0551963
469.882 .0544436
470.765 .0537490
471.647 .0531107
472.528 .0525258
473.407 .0519918
474.286 .0515054
475.163 .0510645
476.040 .0506663
476.915 .0503085
477.790 .0499884
478.663 .0497045
479.535 .0494548
480.407 .0492377
481.277 .0490513
482.147 .0488939
483.015 .0487629
483.883 .0486571
484.749 .0485741
485.615 .0485128
486.479 .0484720
487.343 .0484514
488.206 .0484507
489.067 .0484699
489.928 .0485085
490.788 .0485666
491.647 .0486442
492.505 .0487415
493.362 .0488580
494.218 .0489941
495.073 .0491500
495.928 .0494549
496.781 .0496615
497.634 .0498895
498.486 .0501399
499.337 .0504143
500.187 .0507145
501.036 .0510423
501.884 .0514003
502.731 .0517918
503.578 .0522195
504.424 .0525120
505.268 .0530068
506.113 .0535463
506.956 .0541351
507.798 .0547783
508.640 .0554823
509.480 .0562560
510.320 .0571106
511.160 .0580584
511.998 .0591131
512.836 .0602917
513.672 .0616120
514.508 .0630944
515.344 .0647607
516.178 .0666304
517.012 .0687276
517.845 .0710759
518.677 .0736965
519.508 .0766084
520.339 .0798258
521.169 .0833559
521.998 .0871812
522.826 .0912730
523.654 .0955803
524.481 .1000367
525.307 .1045650
526.133 .1090718
526.958 .1134566
527.782 .1176241
528.605 .1214838
529.428 .1249569
530.250 .1279755
531.072 .1304952
531.892 .1324783
532.712 .1339028
533.532 .1347581
534.350 .1350382
535.168 .1347451
535.986 .1338855
536.802 .1324627
537.618 .1304843
538.434 .1279613
539.249 .1249300
540.063 .1214360
540.876 .1175451
541.689 .1133348
542.501 .1088902
543.313 .1043075
544.124 .0996869
544.934 .0951187
545.744 .0906855
546.553 .0864564
547.361 .0824862
548.169 .0788043
548.976 .0754318
549.783 .0723712
550.589 .0696149
551.395 .0671455
552.200 .0649372
553.004 .0629600
553.808 .0611890
554.611 .0595987
555.414 .0581670
556.216 .0568714
557.018 .0556911
557.819 .0546075
558.619 .0536046
559.419 .0526695
560.218 .0517925
561.017 .0509648
561.815 .0501806
562.613 .0494350
563.410 .0487238
564.207 .0480422
565.003 .0473866
565.799 .0467525
566.594 .0461360
567.388 .0455339
568.182 .0449440
568.976 .0443648
569.769 .0437967
570.562 .0432402
571.354 .0426969
572.145 .0421683
572.936 .0416559
573.727 .0411605
574.517 .0406829
575.307 .0402237
576.096 .0397826
576.885 .0393595
577.673 .0389548
578.461 .0385685
579.248 .0382009
580.035 .0378524
580.821 .0375234
581.607 .0372142
582.392 .0369254
583.177 .0366571
583.962 .0364092
584.746 .0361811
585.529 .0359717
586.313 .0357795
587.095 .0356032
587.878 .0354410
588.660 .0352912
589.441 .0351527
590.222 .0350242
591.003 .0349051
591.783 .0347946
592.563 .0346919
593.342 .0345965
594.121 .0345073
594.899 .0344232
595.678 .0343433
596.455 .0342664
597.233 .0341916
598.009 .0341182
598.786 .0340460
599.562 .0339748
600.338 .0339046
601.113 .0338359
601.888 .0337386
602.663 .0336743
603.437 .0336121
604.211 .0335519
604.984 .0334936
605.757 .0334372
606.530 .0333825
607.302 .0333294
608.074 .0332781
608.845 .0332285
609.616 .0331809
610.387 .0331625
611.158 .0331183
611.928 .0330763
612.697 .0330367
613.467 .0329993
614.236 .0329642
615.004 .0329312
615.773 .0329003
616.541 .0328712
617.308 .0328438
618.076 .0328179
618.843 .0327934
619.609 .0327701
620.375 .0327479
621.141 .0327268
621.907 .0327065
622.672 .0326871
623.437 .0326683
624.202 .0326499
624.966 .0326317
625.730 .0326135
626.493 .0325952
627.257 .0325764
628.020 .0325572
628.782 .0325375
629.545 .0325171
630.307 .0324961
631.068 .0324744
631.830 .0324523
632.591 .0324296
633.352 .0324064
634.112 .0323829
634.872 .0323590
635.632 .0323349
636.392 .0323104
637.151 .0322857
637.910 .0322608
638.668 .0322358
639.427 .0322106
640.185 .0321852
640.943 .0321598
641.700 .0321345
642.457 .0321095
643.214 .0320847
643.971 .0320603
644.727 .0320363
645.483 .0320125
646.239 .0319888
646.994 .0319650
647.750 .0319410
648.505 .0319166
649.259 .0318917
650.014 .0318661
650.768 .0318400
651.521 .0318132
652.275 .0317858
653.028 .0317578
653.781 .0317290
654.534 .0316994
655.286 .0316688
656.039 .0316371
656.791 .0316044
657.542 .0315705
658.294 .0315356
659.045 .0314997
659.796 .0314630
660.546 .0314255
661.297 .0313875
662.047 .0313490
662.796 .0313103
663.546 .0312716
664.295 .0312329
665.044 .0311944
665.793 .0311564
666.542 .0311191
667.290 .0310826
668.038 .0310469
668.786 .0310120
669.533 .0309781
670.281 .0309451
671.028 .0309131
671.774 .0308822
672.521 .0308524
673.267 .0308238
674.013 .0307966
674.759 .0307707
675.505 .0307462
676.250 .0307229
676.995 .0307009
677.740 .0306798
678.484 .0306597
679.229 .0306402
679.973 .0306213
680.717 .0306030
681.460 .0305851
682.204 .0305678
682.947 .0305510
683.690 .0305346
684.433 .0305187
685.175 .0305030
685.917 .0304876
686.659 .0304722
687.401 .0304569
688.142 .0304414
688.884 .0304258
689.625 .0304100
690.365 .0303939
691.106 .0303777
691.846 .0303612
692.586 .0303447
693.326 .0303280
694.066 .0303112
694.805 .0302944
695.545 .0302776
696.284 .0302607
697.022 .0302439
697.761 .0302273
698.499 .0302108
699.237 .0301945
699.975 .0301785
700.713 .0301629
701.450 .0301476
702.187 .0301328
702.924 .0301184
703.661 .0301045
704.397 .0300911
705.133 .0300782
705.869 .0300658
706.605 .0300538
707.341 .0300421
708.076 .0300307
708.811 .0300195
709.546 .0300084
710.281 .0299971
711.015 .0299858
711.749 .0299742
712.483 .0299625
713.217 .0299504
713.950 .0299381
714.684 .0299255
715.417 .0299125
716.150 .0298990
716.882 .0298851
717.615 .0298705
718.347 .0298553
719.079 .0298394
719.811 .0298228
720.542 .0298054
721.273 .0297874
722.005 .0297689
722.735 .0297497
723.466 .0297300
724.196 .0297099
724.927 .0296894
725.656 .0296685
726.386 .0296474
727.116 .0296261
727.845 .0296047
728.574 .0295832
729.303 .0295616
730.031 .0295400
730.760 .0295184
731.488 .0294967
732.216 .0294750
732.944 .0294533
733.671 .0294317
734.398 .0294102
735.125 .0293889
735.852 .0293678
736.579 .0293468
737.305 .0293261
738.031 .0293055
738.757 .0292849
739.483 .0292644
740.208 .0292439
740.933 .0292234
741.658 .0292029
742.383 .0291825
743.108 .0291621
743.832 .0291418
744.556 .0291216
745.280 .0291014
746.004 .0290813
746.727 .0290611
747.450 .0290410
748.173 .0290208
748.896 .0290005
749.618 .0289802
750.340 .0289598
751.062 .0289393
751.784 .0289187
752.506 .0288980
753.227 .0288772
753.948 .0288564
754.669 .0288356
755.389 .0288148
756.110 .0287942
756.830 .0287737
757.550 .0287534
758.269 .0287333
758.989 .0287134
759.708 .0286937
760.427 .0286743
761.146 .0286551
761.864 .0286362
762.582 .0286178
763.300 .0285997
764.018 .0285821
764.736 .0285650
765.453 .0285483
766.170 .0285320
766.887 .0285162
767.603 .0285006
768.320 .0284855
769.036 .0284709
769.751 .0284567
770.467 .0284432
771.182 .0284303
771.897 .0284182
772.612 .0284068
773.327 .0283963
774.041 .0283865
774.755 .0283776
775.469 .0283694
776.183 .0283620
776.896 .0283553
777.609 .0283495
778.322 .0283445
779.035 .0283403
779.747 .0283369
780.459 .0283343
781.171 .0283325
781.882 .0283313
782.594 .0283307
783.305 .0283306
784.016 .0283310
784.726 .0283316
785.436 .0283325
786.147 .0283339
786.856 .0283348
787.566 .0283357
788.275 .0283365
788.984 .0283372
789.693 .0283378
790.401 .0283383
791.110 .0283386
791.818 .0283389
792.525 .0283391
793.233 .0283392
793.940 .0283392
794.647 .0283385
795.353 .0283384
796.060 .0283382
796.766 .0283376
797.472 .0283368
798.177 .0283357
798.883 .0283344
799.588 .0283329
800.292 .0283311
800.997 .0283291
801.701 .0283270
802.405 .0283246
803.109 .0283219
803.812 .0283189
804.515 .0283153
805.218 .0283112
805.921 .0283064
806.623 .0283010
807.325 .0282951
808.027 .0282885
808.728 .0282813
809.429 .0282735
810.130 .0282651
810.831 .0282561
811.531 .0282464
812.231 .0282360
812.931 .0282250
813.630 .0282133
814.330 .0282009
815.029 .0281880
815.727 .0281745
816.426 .0281606
817.124 .0281464
817.821 .0281318
818.519 .0281170
819.216 .0281020
819.913 .0280869
820.609 .0280718
821.306 .0280568
822.002 .0280419
822.697 .0280273
823.393 .0280130
824.088 .0279991
824.783 .0279855
825.477 .0279723
826.171 .0279595
826.865 .0279468
827.559 .0279343
828.252 .0279220
828.945 .0279097
829.638 .0278975
830.330 .0278853
831.023 .0278732
831.714 .0278610
832.406 .0278487
833.097 .0278362
833.788 .0278234
834.479 .0278102
835.169 .0277967
835.859 .0277826
836.548 .0277682
837.238 .0277532
837.927 .0277378
838.615 .0277220
839.304 .0277058
839.992 .0276892
840.680 .0276721
841.367 .0276546
842.054 .0276365
842.741 .0276179
843.428 .0275988
844.114 .0275791
844.800 .0275588
845.485 .0275380
846.170 .0275166
846.855 .0274947
847.540 .0274722
848.224 .0274493
848.908 .0274258
849.592 .0274018
850.275 .0273775
850.958 .0273528
851.641 .0273278
852.323 .0273027
853.005 .0272774
853.687 .0272521
854.368 .0272267
855.049 .0272014
855.730 .0271760
856.410 .0271507
857.090 .0271255
857.769 .0271004
858.449 .0270754
859.128 .0270507
859.806 .0270262
860.485 .0270021
861.163 .0269783
861.840 .0269549
862.518 .0269319
863.195 .0269093
863.871 .0268871
864.548 .0268653
865.224 .0268439
865.899 .0268229
866.574 .0268024
867.249 .0267824
867.924 .0267629
868.598 .0267440
869.272 .0267258
869.946 .0267083
870.619 .0266915
871.292 .0266754
871.964 .0266600
872.636 .0266454
873.308 .0266316
873.979 .0266186
874.651 .0266065
875.321 .0265953
875.992 .0265851
876.662 .0265758
877.331 .0265674
878.001 .0265600
878.670 .0265534
879.338 .0265478
880.007 .0265431
880.675 .0265394
881.342 .0265368
882.009 .0265352
882.676 .0265346
883.343 .0265351
884.009 .0265366
884.675 .0265390
885.340 .0265421
886.005 .0265459
886.670 .0265504
887.334 .0265555
887.998 .0265612
888.662 .0265675
889.325 .0265744
889.988 .0265817
890.650 .0265895
891.312 .0265977
891.974 .0266062
892.636 .0266149
893.297 .0266238
893.957 .0266327
894.618 .0266417
895.278 .0266507
895.937 .0266597
896.596 .0266688
897.255 .0266777
897.914 .0266865
898.572 .0266951
899.230 .0267034
899.887 .0267113
900.544 .0267189
901.201 .0267259
901.857 .0267343
902.513 .0267399
903.168 .0267451
903.823 .0267496
904.478 .0267536
905.132 .0267570
905.786 .0267596
906.440 .0267615
907.093 .0267627
907.746 .0267632
908.399 .0267629
909.051 .0267620
909.703 .0267604
910.354 .0267579
911.005 .0267554
911.656 .0267524
912.306 .0267489
912.956 .0267448
913.605 .0267402
914.254 .0267352
914.903 .0267298
915.551 .0267239
916.199 .0267178
916.847 .0267113
917.494 .0267045
918.141 .0266975
918.788 .0266901
919.434 .0266825
920.079 .0266747
920.725 .0266665
921.370 .0266582
922.014 .0266495
922.658 .0266405
923.302 .0266312
923.946 .0266216
924.589 .0266115
925.231 .0266011
925.873 .0265903
926.515 .0265790
927.157 .0265675
927.798 .0265556
928.439 .0265436
929.079 .0265314
929.719 .0265191
930.359 .0265067
930.998 .0264943
931.637 .0264819
932.275 .0264695
932.913 .0264572
933.551 .0264449
934.188 .0264328
934.825 .0264210
935.462 .0264093
936.098 .0263979
936.733 .0263867
937.369 .0263756
938.004 .0263646
938.638 .0263536
939.273 .0263425
939.907 .0263314
940.540 .0263202
941.173 .0263090
941.806 .0262978
942.438 .0262865
943.070 .0262754
943.702 .0262643
944.333 .0262532
944.964 .0262419
945.594 .0262306
946.224 .0262190
946.854 .0262071
947.483 .0261949
948.112 .0261825
948.741 .0261697
949.369 .0261567
949.996 .0261434
950.624 .0261297
951.251 .0261156
951.878 .0261011
952.504 .0260860
953.130 .0260704
953.755 .0260542
954.380 .0260376
955.005 .0260205
955.629 .0260032
956.253 .0259855
956.877 .0259677
957.500 .0259497
958.123 .0259315
958.746 .0259131
959.368 .0258945
959.990 .0258757
960.611 .0258567
961.232 .0258376
961.853 .0258184
962.473 .0257990
963.093 .0257795
963.712 .0257599
964.331 .0257402
964.950 .0257203
965.569 .0257002
966.187 .0256798
966.804 .0256591
967.422 .0256380
968.039 .0256165
968.655 .0255947
969.272 .0255725
969.887 .0255501
970.503 .0255274
971.118 .0255046
971.733 .0254816
972.347 .0254584
972.961 .0254352
973.575 .0254117
974.188 .0253880
974.801 .0253641
975.414 .0253400
976.026 .0253157
976.638 .0252911
977.250 .0252664
977.861 .0252414
978.472 .0252163
979.083 .0251909
979.693 .0251653
980.303 .0251396
980.912 .0251003
981.521 .0250740
982.130 .0250476
982.738 .0250211
983.346 .0249946
983.954 .0249682
984.562 .0249421
985.169 .0249163
985.775 .0248909
986.382 .0248659
986.988 .0248415
987.594 .0248175
988.199 .0247941
988.804 .0247712
989.409 .0247615
990.013 .0247397
990.617 .0247185
991.221 .0246981
991.824 .0246785
992.427 .0246596
993.030 .0246415
993.632 .0246241
994.234 .0246074
994.836 .0245912
995.438 .0245757
996.039 .0245607
996.640 .0245463
997.240 .0245325
997.840 .0245194
998.440 .0245070
999.040 .0244954
999.639 .0244845
1000.238 .0244743
1000.836 .0244648
1001.435 .0244559
1002.033 .0244476
1002.630 .0244398
1003.228 .0244326
1003.825 .0244259
1004.422 .0244199
1005.018 .0244145
1005.614 .0244098
1006.210 .0244056
1006.806 .0244021
1007.401 .0243990
1007.996 .0243964
1008.591 .0243943
1009.186 .0243927
1009.780 .0243916
1010.374 .0243911
1010.967 .0243912
1011.561 .0243921
1012.154 .0243938
1012.746 .0243963
1013.339 .0243995
1013.931 .0244034
1014.523 .0244081
1015.115 .0244132
1015.706 .0244190
1016.298 .0244252
1016.888 .0244321
1017.479 .0244395
1018.069 .0244475
1018.660 .0244562
1019.250 .0244655
1019.839 .0244754
1020.429 .0244859
1021.018 .0244969
1021.607 .0245083
1022.195 .0245201
1022.784 .0245322
1023.372 .0245446
1023.960 .0245575
1024.547 .0245709
1025.135 .0245849
1025.722 .0245994
1026.309 .0246144
1026.896 .0246300
1027.483 .0246460
1028.069 .0246623
1028.655 .0246788
1029.241 .0246955
1029.827 .0247122
1030.412 .0247290
1030.997 .0247459
1031.582 .0247629
1032.167 .0247801
1032.752 .0247974
1033.336 .0248150
1033.921 .0248328
1034.505 .0248508
1035.089 .0248687
1035.672 .0248867
1036.256 .0249045
1036.839 .0249221
1037.422 .0249397
1038.005 .0249570
1038.588 .0249744
1039.171 .0249917
1039.753 .0250091
1040.335 .0250266
1040.918 .0250441
1041.500 .0250616
1042.081 .0250791
1042.663 .0250964
1043.244 .0251136
1043.826 .0251307
1044.407 .0251478
1044.988 .0251648
1045.569 .0251819
1046.150 .0251992
1046.730 .0252168
1047.311 .0252345
1047.891 .0252525
1048.471 .0252707
1049.052 .0252889
1049.632 .0253070
1050.211 .0253249
1050.791 .0253425
1051.371 .0253597
1051.950 .0253765
1052.530 .0253929
1053.109 .0254089
1053.688 .0254245
1054.268 .0254397
1054.847 .0254545
1055.426 .0254689
1056.005 .0254828
1056.583 .0254963
1057.162 .0255093
1057.741 .0255218
1058.319 .0255338
1058.898 .0255456
1059.476 .0255570
1060.055 .0255683
1060.633 .0255795
1061.211 .0255906
1061.790 .0256017
1062.368 .0256127
1062.946 .0256236
1063.524 .0256344
1064.102 .0256451
1064.680 .0256556
1065.258 .0256659
1065.836 .0256760
1066.414 .0256860
1066.992 .0256958
1067.570 .0257057
1068.148 .0257157
1068.726 .0257259
1069.304 .0257365
1069.882 .0257475
1070.460 .0257590
1071.038 .0257711
1071.616 .0257837
1072.194 .0257967
1072.772 .0258101
1073.350 .0258238
1073.928 .0258376
1074.506 .0258515
1075.084 .0258656
1075.662 .0258798
1076.240 .0258940
1076.819 .0259084
1077.397 .0259228
1077.976 .0259375
1078.554 .0259522
1079.133 .0259671
1079.711 .0259819
1080.290 .0259967
1080.869 .0260114
1081.448 .0260261
1082.027 .0260408
1082.606 .0260558
1083.185 .0260710
1083.764 .0260866
1084.343 .0261029
1084.923 .0261199
1085.502 .0261376
1086.082 .0261560
1086.662 .0261750
1087.242 .0261945
1087.822 .0262142
1088.402 .0262342
1088.983 .0262545
1089.563 .0262751
1090.144 .0262960
1090.725 .0263176
1091.306 .0263397
1091.887 .0263626
1092.469 .0263860
1093.050 .0264099
1093.632 .0264340
1094.214 .0264581
1094.796 .0264819
1095.379 .0265052
1095.961 .0265279
1096.544 .0265500
1097.127 .0265716
1097.710 .0265928
1098.294 .0266137
1098.877 .0266343
1099.461 .0266545
1100.046 .0266742
1100.630 .0266934
1101.215 .0267118
1101.800 .0267293
1102.385 .0267459
1102.970 .0267614
1103.556 .0267762
1104.142 .0267905
1104.728 .0268046
1105.315 .0268187
1105.902 .0268330
1106.489 .0268475
1107.077 .0268622
1107.664 .0268768
1108.253 .0268912
1108.841 .0269051
1109.430 .0269185
1110.019 .0269315
1110.609 .0269443
1111.198 .0269570
1111.789 .0269700
1112.379 .0269835
1112.970 .0269976
1113.561 .0270122
1114.153 .0270273
1114.745 .0270429
1115.338 .0270589
1115.931 .0270756
1116.524 .0270931
1117.117 .0271119
1117.712 .0271323
1118.306 .0271545
1118.901 .0271789
1119.496 .0272052
1120.092 .0272333
1120.689 .0272630
1121.285 .0272937
1121.882 .0273252
1122.480 .0273573
1123.078 .0273902
1123.677 .0274242
1124.276 .0274596
1124.875 .0274966
1125.476 .0275359
1126.076 .0275775
1126.677 .0276213
1127.279 .0276676
1127.881 .0277159
1128.484 .0277665
1129.087 .0277865
1129.691 .0278401
1130.295 .0278960
1130.900 .0279548
1131.505 .0280168
1132.111 .0280823
1132.718 .0281513
1133.325 .0282236
1133.933 .0282978
1134.541 .0283781
1135.150 .0284613
1135.760 .0285421
1136.370 .0286216
1136.981 .0286492
1137.592 .0287333
1138.204 .0288221
1138.817 .0289201
1139.431 .0290283
1140.045 .0291455
1140.660 .0292619
1141.275 .0293777
1141.891 .0294626
1142.508 .0296778
1143.126 .0298064
1143.744 .0297978
1144.363 .0298258
1144.983 .0291053
