Measurement Sequence started on: 15-12-46-377
Integration time: 28
Scans to Average: 2 
>>>>>Begin Spectral Data<<<<<
432.689 .0000100
433.621 .0000100
434.552 .0000100
435.482 .0000100
436.410 .0000100
437.337 .0000100
438.262 .0283001
439.187 .0600617
440.110 .0996033
441.031 .1442336
441.952 .1156950
442.871 .1208186
443.789 .1255867
444.705 .1300740
445.621 .1343284
446.535 .1383848
447.447 .1407808
448.359 .1413560
449.269 .1397195
450.178 .1356192
451.086 .1291344
451.993 .1207614
452.898 .1113218
453.803 .1017467
454.706 .0928302
455.608 .0850678
456.508 .0786260
457.408 .0742332
458.306 .0708386
459.204 .0680606
460.100 .0657073
460.995 .0636723
461.888 .0618841
462.781 .0602976
463.673 .0588806
464.563 .0576088
465.452 .0564626
466.340 .0554261
467.228 .0544862
468.114 .0536330
468.999 .0528587
469.882 .0521554
470.765 .0515165
471.647 .0509366
472.528 .0504101
473.407 .0499328
474.286 .0495015
475.163 .0491139
476.040 .0487679
476.915 .0484619
477.790 .0481938
478.663 .0479618
479.535 .0477649
480.407 .0476012
481.277 .0474690
482.147 .0473658
483.015 .0472887
483.883 .0472352
484.749 .0472033
485.615 .0471913
486.479 .0471982
487.343 .0472237
488.206 .0472681
489.067 .0473310
489.928 .0474124
490.788 .0475119
491.647 .0476294
492.505 .0477639
493.362 .0479147
494.218 .0480810
495.073 .0482628
495.928 .0485932
496.781 .0488186
497.634 .0490626
498.486 .0493264
499.337 .0496119
500.187 .0499207
501.036 .0502550
501.884 .0506174
502.731 .0510117
503.578 .0514421
504.424 .0517356
505.268 .0522370
506.113 .0527879
506.956 .0533931
507.798 .0540589
508.640 .0547922
509.480 .0556020
510.320 .0564992
511.160 .0574966
511.998 .0586086
512.836 .0598530
513.672 .0612489
514.508 .0628180
515.344 .0645809
516.178 .0665581
517.012 .0687720
517.845 .0712414
518.677 .0739863
519.508 .0770222
520.339 .0803607
521.169 .0840063
521.998 .0879370
522.826 .0921182
523.654 .0964985
524.481 .1010112
525.307 .1055783
526.133 .1101094
526.958 .1145144
527.782 .1187033
528.605 .1225941
529.428 .1261146
530.250 .1292013
531.072 .1318082
531.892 .1338956
532.712 .1354337
533.532 .1364063
534.350 .1368030
535.168 .1366254
535.986 .1358767
536.802 .1345619
537.618 .1326876
538.434 .1302644
539.249 .1273285
540.063 .1239285
540.876 .1201244
541.689 .1159922
542.501 .1116153
543.313 .1070867
544.124 .1024975
544.934 .0979352
545.744 .0934776
546.553 .0891904
547.361 .0851261
548.169 .0813169
548.976 .0777860
549.783 .0745463
550.589 .0715965
551.395 .0689259
552.200 .0665143
553.004 .0643382
553.808 .0623739
554.611 .0605992
555.414 .0589936
556.216 .0575373
557.018 .0562106
557.819 .0549984
558.619 .0538852
559.419 .0528584
560.218 .0519078
561.017 .0510233
561.815 .0501954
562.613 .0494157
563.410 .0486755
564.207 .0479672
565.003 .0472846
565.799 .0466222
566.594 .0459762
567.388 .0453438
568.182 .0447232
568.976 .0441137
569.769 .0435150
570.562 .0429280
571.354 .0423539
572.145 .0417946
572.936 .0412516
573.727 .0407261
574.517 .0402195
575.307 .0397333
576.096 .0392685
576.885 .0388256
577.673 .0384050
578.461 .0380075
579.248 .0376329
580.035 .0372811
580.821 .0369518
581.607 .0366447
582.392 .0363594
583.177 .0360947
583.962 .0358501
584.746 .0356243
585.529 .0354166
586.313 .0352255
587.095 .0350500
587.878 .0348888
588.660 .0347403
589.441 .0346036
590.222 .0344774
591.003 .0343607
591.783 .0342524
592.563 .0341518
593.342 .0340583
594.121 .0339711
594.899 .0338896
595.678 .0338133
596.455 .0337415
597.233 .0336738
598.009 .0336096
598.786 .0335482
599.562 .0334893
600.338 .0334325
601.113 .0333777
601.888 .0333011
602.663 .0332507
603.437 .0332021
604.211 .0331552
604.984 .0331101
605.757 .0330666
606.530 .0330248
607.302 .0329847
608.074 .0329463
608.845 .0329096
609.616 .0328746
610.387 .0328613
611.158 .0328287
611.928 .0327976
612.697 .0327680
613.467 .0327397
614.236 .0327127
615.004 .0326869
615.773 .0326621
616.541 .0326384
617.308 .0326154
618.076 .0325931
618.843 .0325712
619.609 .0325495
620.375 .0325279
621.141 .0325062
621.907 .0324841
622.672 .0324616
623.437 .0324387
624.202 .0324150
624.966 .0323907
625.730 .0323655
626.493 .0323394
627.257 .0323122
628.020 .0322840
628.782 .0322548
629.545 .0322247
630.307 .0321937
631.068 .0321620
631.830 .0321297
632.591 .0320970
633.352 .0320638
634.112 .0320303
634.872 .0319964
635.632 .0319623
636.392 .0319281
637.151 .0318937
637.910 .0318593
638.668 .0318252
639.427 .0317913
640.185 .0317578
640.943 .0317247
641.700 .0316922
642.457 .0316601
643.214 .0316287
643.971 .0315978
644.727 .0315677
645.483 .0315383
646.239 .0315096
646.994 .0314815
647.750 .0314540
648.505 .0314271
649.259 .0314006
650.014 .0313745
650.768 .0313487
651.521 .0313230
652.275 .0312975
653.028 .0312721
653.781 .0312467
654.534 .0312213
655.286 .0311959
656.039 .0311703
656.791 .0311446
657.542 .0311188
658.294 .0310929
659.045 .0310671
659.796 .0310414
660.546 .0310158
661.297 .0309905
662.047 .0309655
662.796 .0309407
663.546 .0309162
664.295 .0308920
665.044 .0308682
665.793 .0308448
666.542 .0308220
667.290 .0307998
668.038 .0307784
668.786 .0307580
669.533 .0307384
670.281 .0307197
671.028 .0307019
671.774 .0306849
672.521 .0306685
673.267 .0306526
674.013 .0306372
674.759 .0306221
675.505 .0306074
676.250 .0305929
676.995 .0305786
677.740 .0305644
678.484 .0305504
679.229 .0305364
679.973 .0305223
680.717 .0305080
681.460 .0304934
682.204 .0304784
682.947 .0304629
683.690 .0304468
684.433 .0304301
685.175 .0304128
685.917 .0303949
686.659 .0303765
687.401 .0303577
688.142 .0303386
688.884 .0303192
689.625 .0302996
690.365 .0302800
691.106 .0302605
691.846 .0302410
692.586 .0302217
693.326 .0302026
694.066 .0301836
694.805 .0301649
695.545 .0301465
696.284 .0301283
697.022 .0301104
697.761 .0300930
698.499 .0300760
699.237 .0300596
699.975 .0300438
700.713 .0300287
701.450 .0300141
702.187 .0300000
702.924 .0299863
703.661 .0299728
704.397 .0299595
705.133 .0299461
705.869 .0299325
706.605 .0299188
707.341 .0299049
708.076 .0298906
708.811 .0298761
709.546 .0298612
710.281 .0298459
711.015 .0298302
711.749 .0298139
712.483 .0297972
713.217 .0297798
713.950 .0297620
714.684 .0297436
715.417 .0297247
716.150 .0297052
716.882 .0296853
717.615 .0296648
718.347 .0296439
719.079 .0296226
719.811 .0296009
720.542 .0295790
721.273 .0295569
722.005 .0295347
722.735 .0295125
723.466 .0294903
724.196 .0294683
724.927 .0294465
725.656 .0294248
726.386 .0294035
727.116 .0293824
727.845 .0293618
728.574 .0293416
729.303 .0293219
730.031 .0293028
730.760 .0292843
731.488 .0292664
732.216 .0292490
732.944 .0292321
733.671 .0292156
734.398 .0291995
735.125 .0291838
735.852 .0291684
736.579 .0291534
737.305 .0291385
738.031 .0291239
738.757 .0291094
739.483 .0290951
740.208 .0290809
740.933 .0290667
741.658 .0290525
742.383 .0290383
743.108 .0290240
743.832 .0290096
744.556 .0289952
745.280 .0289806
746.004 .0289660
746.727 .0289512
747.450 .0289362
748.173 .0289212
748.896 .0289061
749.618 .0288909
750.340 .0288757
751.062 .0288603
751.784 .0288447
752.506 .0288290
753.227 .0288132
753.948 .0287971
754.669 .0287809
755.389 .0287645
756.110 .0287479
756.830 .0287313
757.550 .0287146
758.269 .0286979
758.989 .0286812
759.708 .0286645
760.427 .0286479
761.146 .0286312
761.864 .0286146
762.582 .0285980
763.300 .0285814
764.018 .0285648
764.736 .0285482
765.453 .0285316
766.170 .0285153
766.887 .0284990
767.603 .0284831
768.320 .0284676
769.036 .0284525
769.751 .0284380
770.467 .0284239
771.182 .0284104
771.897 .0283975
772.612 .0283853
773.327 .0283737
774.041 .0283627
774.755 .0283524
775.469 .0283428
776.183 .0283339
776.896 .0283258
777.609 .0283183
778.322 .0283116
779.035 .0283056
779.747 .0283003
780.459 .0282956
781.171 .0282914
781.882 .0282878
782.594 .0282846
783.305 .0282817
784.016 .0282790
784.726 .0282764
785.436 .0282738
786.147 .0282699
786.856 .0282670
787.566 .0282641
788.275 .0282610
788.984 .0282578
789.693 .0282545
790.401 .0282509
791.110 .0282472
791.818 .0282432
792.525 .0282390
793.233 .0282344
793.940 .0282297
794.647 .0282264
795.353 .0282215
796.060 .0282164
796.766 .0282112
797.472 .0282057
798.177 .0282001
798.883 .0281941
799.588 .0281878
800.292 .0281813
800.997 .0281745
801.701 .0281674
802.405 .0281603
803.109 .0281530
803.812 .0281457
804.515 .0281383
805.218 .0281309
805.921 .0281234
806.623 .0281157
807.325 .0281079
808.027 .0280999
808.728 .0280918
809.429 .0280835
810.130 .0280749
810.831 .0280662
811.531 .0280573
812.231 .0280481
812.931 .0280386
813.630 .0280289
814.330 .0280189
815.029 .0280087
815.727 .0279985
816.426 .0279883
817.124 .0279782
817.821 .0279683
818.519 .0279584
819.216 .0279488
819.913 .0279393
820.609 .0279300
821.306 .0279208
822.002 .0279119
822.697 .0279033
823.393 .0278951
824.088 .0278873
824.783 .0278799
825.477 .0278728
826.171 .0278661
826.865 .0278596
827.559 .0278533
828.252 .0278470
828.945 .0278408
829.638 .0278347
830.330 .0278285
831.023 .0278224
831.714 .0278163
832.406 .0278101
833.097 .0278038
833.788 .0277974
834.479 .0277909
835.169 .0277843
835.859 .0277775
836.548 .0277706
837.238 .0277636
837.927 .0277564
838.615 .0277490
839.304 .0277413
839.992 .0277333
840.680 .0277248
841.367 .0277159
842.054 .0277066
842.741 .0276968
843.428 .0276866
844.114 .0276762
844.800 .0276654
845.485 .0276543
846.170 .0276429
846.855 .0276311
847.540 .0276188
848.224 .0276061
848.908 .0275927
849.592 .0275789
850.275 .0275644
850.958 .0275493
851.641 .0275336
852.323 .0275173
853.005 .0275004
853.687 .0274829
854.368 .0274648
855.049 .0274461
855.730 .0274269
856.410 .0274073
857.090 .0273874
857.769 .0273671
858.449 .0273466
859.128 .0273259
859.806 .0273051
860.485 .0272843
861.163 .0272634
861.840 .0272427
862.518 .0272222
863.195 .0272019
863.871 .0271820
864.548 .0271624
865.224 .0271431
865.899 .0271241
866.574 .0271055
867.249 .0270872
867.924 .0270691
868.598 .0270514
869.272 .0270338
869.946 .0270165
870.619 .0269993
871.292 .0269823
871.964 .0269654
872.636 .0269485
873.308 .0269317
873.979 .0269149
874.651 .0268982
875.321 .0268815
875.992 .0268648
876.662 .0268482
877.331 .0268316
878.001 .0268151
878.670 .0267986
879.338 .0267822
880.007 .0267659
880.675 .0267497
881.342 .0267338
882.009 .0267183
882.676 .0267033
883.343 .0266887
884.009 .0266747
884.675 .0266613
885.340 .0266485
886.005 .0266363
886.670 .0266247
887.334 .0266138
887.998 .0266035
888.662 .0265939
889.325 .0265850
889.988 .0265768
890.650 .0265693
891.312 .0265624
891.974 .0265560
892.636 .0265501
893.297 .0265445
893.957 .0265392
894.618 .0265340
895.278 .0265291
895.937 .0265241
896.596 .0265191
897.255 .0265140
897.914 .0265087
898.572 .0265029
899.230 .0264967
899.887 .0264900
900.544 .0264826
901.201 .0264746
901.857 .0264599
902.513 .0264503
903.168 .0264403
903.823 .0264297
904.478 .0264187
905.132 .0264071
905.786 .0263950
906.440 .0263824
907.093 .0263693
907.746 .0263558
908.399 .0263418
909.051 .0263276
909.703 .0263131
910.354 .0263056
911.005 .0262912
911.656 .0262769
912.306 .0262625
912.956 .0262482
913.605 .0262340
914.254 .0262197
914.903 .0262055
915.551 .0261912
916.199 .0261770
916.847 .0261628
917.494 .0261488
918.141 .0261349
918.788 .0261211
919.434 .0261075
920.079 .0260940
920.725 .0260807
921.370 .0260674
922.014 .0260542
922.658 .0260410
923.302 .0260280
923.946 .0260150
924.589 .0260022
925.231 .0259896
925.873 .0259772
926.515 .0259651
927.157 .0259533
927.798 .0259418
928.439 .0259304
929.079 .0259193
929.719 .0259083
930.359 .0258976
930.998 .0258870
931.637 .0258768
932.275 .0258669
932.913 .0258574
933.551 .0258484
934.188 .0258401
934.825 .0258323
935.462 .0258252
936.098 .0258188
936.733 .0258130
937.369 .0258077
938.004 .0258030
938.638 .0257988
939.273 .0257952
939.907 .0257921
940.540 .0257896
941.173 .0257876
941.806 .0257862
942.438 .0257852
943.070 .0257847
943.702 .0257844
944.333 .0257843
944.964 .0257843
945.594 .0257842
946.224 .0257839
946.854 .0257835
947.483 .0257828
948.112 .0257819
948.741 .0257807
949.369 .0257793
949.996 .0257776
950.624 .0257757
951.251 .0257734
951.878 .0257709
952.504 .0257681
953.130 .0257649
953.755 .0257615
954.380 .0257578
955.005 .0257539
955.629 .0257499
956.253 .0257459
956.877 .0257419
957.500 .0257379
958.123 .0257340
958.746 .0257301
959.368 .0257264
959.990 .0257228
960.611 .0257194
961.232 .0257162
961.853 .0257133
962.473 .0257106
963.093 .0257082
963.712 .0257062
964.331 .0257045
964.950 .0257031
965.569 .0257021
966.187 .0257014
966.804 .0257008
967.422 .0257005
968.039 .0257002
968.655 .0257000
969.272 .0256997
969.887 .0256993
970.503 .0256988
971.118 .0256983
971.733 .0256977
972.347 .0256969
972.961 .0256959
973.575 .0256947
974.188 .0256931
974.801 .0256912
975.414 .0256889
976.026 .0256861
976.638 .0256828
977.250 .0256790
977.861 .0256747
978.472 .0256701
979.083 .0256650
979.693 .0256597
980.303 .0256540
980.912 .0256445
981.521 .0256381
982.130 .0256315
982.738 .0256248
983.346 .0256179
983.954 .0256110
984.562 .0256042
985.169 .0255975
985.775 .0255910
986.382 .0255847
986.988 .0255787
987.594 .0255729
988.199 .0255674
988.804 .0255620
989.409 .0255600
990.013 .0255551
990.617 .0255504
991.221 .0255460
991.824 .0255419
992.427 .0255381
993.030 .0255345
993.632 .0255312
994.234 .0255281
994.836 .0255252
995.438 .0255224
996.039 .0255198
996.640 .0255174
997.240 .0255152
997.840 .0255133
998.440 .0255116
999.040 .0255103
999.639 .0255092
1000.238 .0255083
1000.836 .0255076
1001.435 .0255069
1002.033 .0255062
1002.630 .0255056
1003.228 .0255049
1003.825 .0255042
1004.422 .0255035
1005.018 .0255028
1005.614 .0255021
1006.210 .0255015
1006.806 .0255009
1007.401 .0255003
1007.996 .0254997
1008.591 .0254989
1009.186 .0254982
1009.780 .0254974
1010.374 .0254965
1010.967 .0254957
1011.561 .0254948
1012.154 .0254940
1012.746 .0254932
1013.339 .0254925
1013.931 .0254918
1014.523 .0254911
1015.115 .0254903
1015.706 .0254895
1016.298 .0254885
1016.888 .0254875
1017.479 .0254864
1018.069 .0254852
1018.660 .0254839
1019.250 .0254826
1019.839 .0254813
1020.429 .0254800
1021.018 .0254788
1021.607 .0254777
1022.195 .0254766
1022.784 .0254756
1023.372 .0254746
1023.960 .0254736
1024.547 .0254726
1025.135 .0254715
1025.722 .0254703
1026.309 .0254690
1026.896 .0254676
1027.483 .0254662
1028.069 .0254648
1028.655 .0254635
1029.241 .0254623
1029.827 .0254613
1030.412 .0254603
1030.997 .0254594
1031.582 .0254585
1032.167 .0254576
1032.752 .0254567
1033.336 .0254558
1033.921 .0254550
1034.505 .0254543
1035.089 .0254537
1035.672 .0254533
1036.256 .0254529
1036.839 .0254525
1037.422 .0254521
1038.005 .0254515
1038.588 .0254505
1039.171 .0254492
1039.753 .0254476
1040.335 .0254456
1040.918 .0254433
1041.500 .0254407
1042.081 .0254380
1042.663 .0254351
1043.244 .0254321
1043.826 .0254289
1044.407 .0254256
1044.988 .0254221
1045.569 .0254183
1046.150 .0254145
1046.730 .0254104
1047.311 .0254062
1047.891 .0254019
1048.471 .0253976
1049.052 .0253932
1049.632 .0253886
1050.211 .0253839
1050.791 .0253790
1051.371 .0253738
1051.950 .0253682
1052.530 .0253621
1053.109 .0253555
1053.688 .0253486
1054.268 .0253414
1054.847 .0253339
1055.426 .0253263
1056.005 .0253186
1056.583 .0253108
1057.162 .0253029
1057.741 .0252949
1058.319 .0252867
1058.898 .0252785
1059.476 .0252702
1060.055 .0252620
1060.633 .0252539
1061.211 .0252461
1061.790 .0252386
1062.368 .0252315
1062.946 .0252247
1063.524 .0252182
1064.102 .0252119
1064.680 .0252058
1065.258 .0251997
1065.836 .0251938
1066.414 .0251880
1066.992 .0251824
1067.570 .0251770
1068.148 .0251719
1068.726 .0251671
1069.304 .0251626
1069.882 .0251583
1070.460 .0251542
1071.038 .0251503
1071.616 .0251465
1072.194 .0251428
1072.772 .0251395
1073.350 .0251365
1073.928 .0251341
1074.506 .0251321
1075.084 .0251307
1075.662 .0251298
1076.240 .0251293
1076.819 .0251291
1077.397 .0251293
1077.976 .0251296
1078.554 .0251301
1079.133 .0251309
1079.711 .0251319
1080.290 .0251332
1080.869 .0251350
1081.448 .0251371
1082.027 .0251396
1082.606 .0251423
1083.185 .0251452
1083.764 .0251482
1084.343 .0251516
1084.923 .0251552
1085.502 .0251592
1086.082 .0251639
1086.662 .0251691
1087.242 .0251751
1087.822 .0251819
1088.402 .0251892
1088.983 .0251972
1089.563 .0252055
1090.144 .0252142
1090.725 .0252231
1091.306 .0252323
1091.887 .0252418
1092.469 .0252516
1093.050 .0252617
1093.632 .0252721
1094.214 .0252826
1094.796 .0252930
1095.379 .0253033
1095.961 .0253134
1096.544 .0253233
1097.127 .0253332
1097.710 .0253432
1098.294 .0253535
1098.877 .0253642
1099.461 .0253755
1100.046 .0253876
1100.630 .0254005
1101.215 .0254142
1101.800 .0254289
1102.385 .0254446
1102.970 .0254614
1103.556 .0254794
1104.142 .0254986
1104.728 .0255191
1105.315 .0255408
1105.902 .0255636
1106.489 .0255871
1107.077 .0256114
1107.664 .0256362
1108.253 .0256614
1108.841 .0256872
1109.430 .0257135
1110.019 .0257403
1110.609 .0257677
1111.198 .0257957
1111.789 .0258241
1112.379 .0258529
1112.970 .0258819
1113.561 .0259107
1114.153 .0259392
1114.745 .0259673
1115.338 .0259952
1115.931 .0260231
1116.524 .0260513
1117.117 .0260802
1117.712 .0261098
1118.306 .0261405
1118.901 .0261720
1119.496 .0262043
1120.092 .0262373
1120.689 .0262707
1121.285 .0263046
1121.882 .0263392
1122.480 .0263746
1123.078 .0264114
1123.677 .0264499
1124.276 .0264905
1124.875 .0265334
1125.476 .0265787
1126.076 .0266262
1126.677 .0266758
1127.279 .0267276
1127.881 .0267816
1128.484 .0268384
1129.087 .0268589
1129.691 .0269205
1130.295 .0269861
1130.900 .0270563
1131.505 .0271316
1132.111 .0272125
1132.718 .0272996
1133.325 .0273936
1133.933 .0274959
1134.541 .0276012
1135.150 .0277103
1135.760 .0278381
1136.370 .0279866
1136.981 .0278882
1137.592 .0280055
1138.204 .0281294
1138.817 .0282622
1139.431 .0284131
1140.045 .0285761
1140.660 .0287604
1141.275 .0289787
1141.891 .0292437
1142.508 .0293710
1143.126 .0295311
1143.744 .0301100
1144.363 .0307504
1144.983 .0315013
