Measurement Sequence started on: 15-12-46-377
Integration time: 28
Scans to Average: 2 
>>>>>Begin Spectral Data<<<<<
432.689 .0000100
433.621 .0000100
434.552 .0000100
435.482 .0000100
436.410 .0000100
437.337 .0000100
438.262 .0284801
439.187 .0603500
440.110 .0999732
441.031 .1447183
441.952 .1164738
442.871 .1216994
443.789 .1265695
444.705 .1311593
445.621 .1355206
446.535 .1396914
447.447 .1422021
448.359 .1428963
449.269 .1413831
450.178 .1374059
451.086 .1310433
451.993 .1227890
452.898 .1134629
453.803 .1039950
454.706 .0951783
455.608 .0875079
456.508 .0811517
457.408 .0768439
458.306 .0735285
459.204 .0708269
460.100 .0685506
460.995 .0665915
461.888 .0648776
462.781 .0633594
463.673 .0620015
464.563 .0607780
465.452 .0596692
466.340 .0586600
467.228 .0577403
468.114 .0569001
468.999 .0561318
469.882 .0554283
470.765 .0547829
471.647 .0541904
472.528 .0536464
473.407 .0531471
474.286 .0526904
475.163 .0522745
476.040 .0518972
476.915 .0515566
477.790 .0512510
478.663 .0509780
479.535 .0507358
480.407 .0505225
481.277 .0503358
482.147 .0501732
483.015 .0500333
483.883 .0499142
484.749 .0498150
485.615 .0497352
486.479 .0496741
487.343 .0496317
488.206 .0496080
489.067 .0496026
489.928 .0496160
490.788 .0496483
491.647 .0497008
492.505 .0497741
493.362 .0498694
494.218 .0499876
495.073 .0501299
495.928 .0504368
496.781 .0506457
497.634 .0508811
498.486 .0511445
499.337 .0514369
500.187 .0517599
501.036 .0521155
501.884 .0525063
502.731 .0529362
503.578 .0534084
504.424 .0537342
505.268 .0542840
506.113 .0548869
506.956 .0555462
507.798 .0562664
508.640 .0570535
509.480 .0579146
510.320 .0588600
511.160 .0599017
511.998 .0610556
512.836 .0623392
513.672 .0637703
514.508 .0653707
515.344 .0671629
516.178 .0691681
517.012 .0714082
517.845 .0739032
518.677 .0766732
519.508 .0797323
520.339 .0830875
521.169 .0867427
521.998 .0906763
522.826 .0948532
523.654 .0992195
524.481 .1037074
525.307 .1082383
526.133 .1127200
526.958 .1170570
527.782 .1211559
528.605 .1249315
529.428 .1283086
530.250 .1312192
531.072 .1336220
531.892 .1354826
532.712 .1367777
533.532 .1374976
534.350 .1376406
535.168 .1372138
535.986 .1362258
536.802 .1346866
537.618 .1326104
538.434 .1300101
539.249 .1269224
540.063 .1233949
540.876 .1194905
541.689 .1152858
542.501 .1108648
543.313 .1063219
544.124 .1017523
544.934 .0972442
545.744 .0928746
546.553 .0887056
547.361 .0847904
548.169 .0811546
548.976 .0778141
549.783 .0747719
550.589 .0720187
551.395 .0695360
552.200 .0672974
553.004 .0652743
553.808 .0634403
554.611 .0617708
555.414 .0602454
556.216 .0588442
557.018 .0575506
557.819 .0563514
558.619 .0552338
559.419 .0541876
560.218 .0532047
561.017 .0522766
561.815 .0513976
562.613 .0505627
563.410 .0497680
564.207 .0490095
565.003 .0482838
565.799 .0475871
566.594 .0469165
567.388 .0462697
568.182 .0456446
568.976 .0450387
569.769 .0444512
570.562 .0438816
571.354 .0433302
572.145 .0427973
572.936 .0422835
573.727 .0417892
574.517 .0413144
575.307 .0408592
576.096 .0404229
576.885 .0400050
577.673 .0396056
578.461 .0392247
579.248 .0388623
580.035 .0385186
580.821 .0381939
581.607 .0378885
582.392 .0376025
583.177 .0373359
583.962 .0370878
584.746 .0368574
585.529 .0366438
586.313 .0364459
587.095 .0362625
587.878 .0360927
588.660 .0359352
589.441 .0357893
590.222 .0356543
591.003 .0355291
591.783 .0354129
592.563 .0353052
593.342 .0352052
594.121 .0351119
594.899 .0350247
595.678 .0349428
596.455 .0348656
597.233 .0347925
598.009 .0347230
598.786 .0346565
599.562 .0345928
600.338 .0345316
601.113 .0344727
601.888 .0343904
602.663 .0343362
603.437 .0342836
604.211 .0342323
604.984 .0341823
605.757 .0341333
606.530 .0340852
607.302 .0340380
608.074 .0339917
608.845 .0339464
609.616 .0339022
610.387 .0338831
611.158 .0338409
611.928 .0337998
612.697 .0337598
613.467 .0337209
614.236 .0336830
615.004 .0336460
615.773 .0336098
616.541 .0335742
617.308 .0335394
618.076 .0335051
618.843 .0334714
619.609 .0334383
620.375 .0334058
621.141 .0333738
621.907 .0333424
622.672 .0333115
623.437 .0332812
624.202 .0332513
624.966 .0332218
625.730 .0331924
626.493 .0331632
627.257 .0331339
628.020 .0331046
628.782 .0330754
629.545 .0330460
630.307 .0330168
631.068 .0329877
631.830 .0329588
632.591 .0329302
633.352 .0329018
634.112 .0328738
634.872 .0328460
635.632 .0328183
636.392 .0327906
637.151 .0327629
637.910 .0327351
638.668 .0327072
639.427 .0326792
640.185 .0326512
640.943 .0326233
641.700 .0325955
642.457 .0325679
643.214 .0325406
643.971 .0325136
644.727 .0324868
645.483 .0324601
646.239 .0324336
646.994 .0324073
647.750 .0323811
648.505 .0323549
649.259 .0323288
650.014 .0323028
650.768 .0322766
651.521 .0322504
652.275 .0322241
653.028 .0321976
653.781 .0321709
654.534 .0321441
655.286 .0321172
656.039 .0320902
656.791 .0320632
657.542 .0320362
658.294 .0320091
659.045 .0319821
659.796 .0319549
660.546 .0319277
661.297 .0319004
662.047 .0318731
662.796 .0318458
663.546 .0318187
664.295 .0317917
665.044 .0317651
665.793 .0317388
666.542 .0317129
667.290 .0316874
668.038 .0316623
668.786 .0316376
669.533 .0316133
670.281 .0315894
671.028 .0315657
671.774 .0315424
672.521 .0315193
673.267 .0314964
674.013 .0314737
674.759 .0314511
675.505 .0314287
676.250 .0314064
676.995 .0313843
677.740 .0313622
678.484 .0313401
679.229 .0313180
679.973 .0312956
680.717 .0312731
681.460 .0312502
682.204 .0312271
682.947 .0312036
683.690 .0311797
684.433 .0311556
685.175 .0311312
685.917 .0311067
686.659 .0310821
687.401 .0310574
688.142 .0310328
688.884 .0310081
689.625 .0309835
690.365 .0309590
691.106 .0309346
691.846 .0309104
692.586 .0308865
693.326 .0308629
694.066 .0308396
694.805 .0308168
695.545 .0307946
696.284 .0307729
697.022 .0307518
697.761 .0307313
698.499 .0307114
699.237 .0306920
699.975 .0306732
700.713 .0306550
701.450 .0306373
702.187 .0306202
702.924 .0306037
703.661 .0305877
704.397 .0305722
705.133 .0305571
705.869 .0305423
706.605 .0305277
707.341 .0305133
708.076 .0304989
708.811 .0304846
709.546 .0304702
710.281 .0304557
711.015 .0304410
711.749 .0304262
712.483 .0304111
713.217 .0303957
713.950 .0303800
714.684 .0303640
715.417 .0303477
716.150 .0303311
716.882 .0303141
717.615 .0302968
718.347 .0302792
719.079 .0302612
719.811 .0302429
720.542 .0302242
721.273 .0302051
722.005 .0301858
722.735 .0301662
723.466 .0301466
724.196 .0301268
724.927 .0301072
725.656 .0300876
726.386 .0300681
727.116 .0300487
727.845 .0300295
728.574 .0300105
729.303 .0299918
730.031 .0299734
730.760 .0299554
731.488 .0299377
732.216 .0299204
732.944 .0299035
733.671 .0298869
734.398 .0298706
735.125 .0298546
735.852 .0298390
736.579 .0298236
737.305 .0298084
738.031 .0297936
738.757 .0297789
739.483 .0297644
740.208 .0297499
740.933 .0297353
741.658 .0297205
742.383 .0297055
743.108 .0296903
743.832 .0296748
744.556 .0296592
745.280 .0296433
746.004 .0296271
746.727 .0296109
747.450 .0295944
748.173 .0295777
748.896 .0295609
749.618 .0295439
750.340 .0295266
751.062 .0295092
751.784 .0294916
752.506 .0294739
753.227 .0294562
753.948 .0294384
754.669 .0294207
755.389 .0294030
756.110 .0293856
756.830 .0293684
757.550 .0293515
758.269 .0293351
758.989 .0293190
759.708 .0293033
760.427 .0292880
761.146 .0292730
761.864 .0292582
762.582 .0292437
763.300 .0292293
764.018 .0292151
764.736 .0292011
765.453 .0291875
766.170 .0291742
766.887 .0291613
767.603 .0291487
768.320 .0291366
769.036 .0291248
769.751 .0291131
770.467 .0291017
771.182 .0290905
771.897 .0290795
772.612 .0290687
773.327 .0290582
774.041 .0290480
774.755 .0290383
775.469 .0290289
776.183 .0290201
776.896 .0290117
777.609 .0290037
778.322 .0289962
779.035 .0289890
779.747 .0289821
780.459 .0289756
781.171 .0289694
781.882 .0289635
782.594 .0289578
783.305 .0289523
784.016 .0289471
784.726 .0289421
785.436 .0289373
786.147 .0289308
786.856 .0289262
787.566 .0289218
788.275 .0289173
788.984 .0289129
789.693 .0289085
790.401 .0289041
791.110 .0288995
791.818 .0288948
792.525 .0288898
793.233 .0288846
793.940 .0288792
794.647 .0288759
795.353 .0288702
796.060 .0288645
796.766 .0288586
797.472 .0288525
798.177 .0288463
798.883 .0288400
799.588 .0288335
800.292 .0288267
800.997 .0288198
801.701 .0288126
802.405 .0288053
803.109 .0287977
803.812 .0287900
804.515 .0287821
805.218 .0287740
805.921 .0287658
806.623 .0287573
807.325 .0287486
808.027 .0287396
808.728 .0287303
809.429 .0287208
810.130 .0287110
810.831 .0287009
811.531 .0286905
812.231 .0286798
812.931 .0286688
813.630 .0286575
814.330 .0286460
815.029 .0286344
815.727 .0286225
816.426 .0286106
817.124 .0285986
817.821 .0285865
818.519 .0285744
819.216 .0285623
819.913 .0285500
820.609 .0285376
821.306 .0285252
822.002 .0285126
822.697 .0284999
823.393 .0284872
824.088 .0284745
824.783 .0284618
825.477 .0284490
826.171 .0284362
826.865 .0284233
827.559 .0284103
828.252 .0283971
828.945 .0283838
829.638 .0283703
830.330 .0283566
831.023 .0283428
831.714 .0283289
832.406 .0283148
833.097 .0283006
833.788 .0282862
834.479 .0282717
835.169 .0282571
835.859 .0282423
836.548 .0282276
837.238 .0282128
837.927 .0281981
838.615 .0281834
839.304 .0281689
839.992 .0281544
840.680 .0281400
841.367 .0281257
842.054 .0281114
842.741 .0280972
843.428 .0280831
844.114 .0280689
844.800 .0280548
845.485 .0280406
846.170 .0280264
846.855 .0280119
847.540 .0279973
848.224 .0279823
848.908 .0279670
849.592 .0279513
850.275 .0279352
850.958 .0279187
851.641 .0279017
852.323 .0278844
853.005 .0278667
853.687 .0278486
854.368 .0278303
855.049 .0278118
855.730 .0277931
856.410 .0277744
857.090 .0277557
857.769 .0277370
858.449 .0277184
859.128 .0277000
859.806 .0276818
860.485 .0276638
861.163 .0276462
861.840 .0276290
862.518 .0276124
863.195 .0275963
863.871 .0275809
864.548 .0275662
865.224 .0275521
865.899 .0275387
866.574 .0275259
867.249 .0275136
867.924 .0275018
868.598 .0274905
869.272 .0274796
869.946 .0274692
870.619 .0274591
871.292 .0274494
871.964 .0274400
872.636 .0274309
873.308 .0274221
873.979 .0274134
874.651 .0274050
875.321 .0273969
875.992 .0273889
876.662 .0273811
877.331 .0273734
878.001 .0273660
878.670 .0273587
879.338 .0273516
880.007 .0273448
880.675 .0273383
881.342 .0273321
882.009 .0273265
882.676 .0273215
883.343 .0273170
884.009 .0273132
884.675 .0273101
885.340 .0273075
886.005 .0273055
886.670 .0273039
887.334 .0273029
887.998 .0273023
888.662 .0273022
889.325 .0273026
889.988 .0273034
890.650 .0273045
891.312 .0273061
891.974 .0273081
892.636 .0273103
893.297 .0273129
893.957 .0273158
894.618 .0273189
895.278 .0273222
895.937 .0273257
896.596 .0273291
897.255 .0273324
897.914 .0273355
898.572 .0273382
899.230 .0273405
899.887 .0273423
900.544 .0273438
901.201 .0273448
901.857 .0273447
902.513 .0273448
903.168 .0273444
903.823 .0273435
904.478 .0273421
905.132 .0273399
905.786 .0273371
906.440 .0273336
907.093 .0273295
907.746 .0273247
908.399 .0273195
909.051 .0273137
909.703 .0273074
910.354 .0273029
911.005 .0272961
911.656 .0272889
912.306 .0272813
912.956 .0272732
913.605 .0272646
914.254 .0272557
914.903 .0272464
915.551 .0272369
916.199 .0272271
916.847 .0272169
917.494 .0272064
918.141 .0271956
918.788 .0271844
919.434 .0271728
920.079 .0271609
920.725 .0271487
921.370 .0271362
922.014 .0271235
922.658 .0271105
923.302 .0270973
923.946 .0270839
924.589 .0270701
925.231 .0270560
925.873 .0270413
926.515 .0270263
927.157 .0270108
927.798 .0269949
928.439 .0269787
929.079 .0269623
929.719 .0269457
930.359 .0269290
930.998 .0269122
931.637 .0268953
932.275 .0268783
932.913 .0268612
933.551 .0268441
934.188 .0268271
934.825 .0268102
935.462 .0267935
936.098 .0267771
936.733 .0267610
937.369 .0267453
938.004 .0267297
938.638 .0267145
939.273 .0266995
939.907 .0266848
940.540 .0266704
941.173 .0266563
941.806 .0266425
942.438 .0266291
943.070 .0266162
943.702 .0266036
944.333 .0265913
944.964 .0265792
945.594 .0265673
946.224 .0265554
946.854 .0265435
947.483 .0265315
948.112 .0265194
948.741 .0265072
949.369 .0264949
949.996 .0264825
950.624 .0264698
951.251 .0264568
951.878 .0264435
952.504 .0264297
953.130 .0264153
953.755 .0264004
954.380 .0263850
955.005 .0263691
955.629 .0263528
956.253 .0263361
956.877 .0263191
957.500 .0263019
958.123 .0262844
958.746 .0262666
959.368 .0262487
959.990 .0262305
960.611 .0262122
961.232 .0261938
961.853 .0261752
962.473 .0261567
963.093 .0261381
963.712 .0261196
964.331 .0261012
964.950 .0260830
965.569 .0260648
966.187 .0260468
966.804 .0260289
967.422 .0260111
968.039 .0259934
968.655 .0259758
969.272 .0259583
969.887 .0259410
970.503 .0259237
971.118 .0259067
971.733 .0258898
972.347 .0258730
972.961 .0258563
973.575 .0258395
974.188 .0258228
974.801 .0258058
975.414 .0257886
976.026 .0257711
976.638 .0257533
977.250 .0257352
977.861 .0257167
978.472 .0256979
979.083 .0256788
979.693 .0256594
980.303 .0256397
980.912 .0256088
981.521 .0255885
982.130 .0255680
982.738 .0255474
983.346 .0255267
983.954 .0255061
984.562 .0254858
985.169 .0254657
985.775 .0254461
986.382 .0254270
986.988 .0254083
987.594 .0253902
988.199 .0253725
988.804 .0253553
989.409 .0253491
990.013 .0253330
990.617 .0253177
991.221 .0253031
991.824 .0252893
992.427 .0252765
993.030 .0252645
993.632 .0252533
994.234 .0252430
994.836 .0252333
995.438 .0252244
996.039 .0252161
996.640 .0252085
997.240 .0252017
997.840 .0251956
998.440 .0251903
999.040 .0251859
999.639 .0251821
1000.238 .0251790
1000.836 .0251764
1001.435 .0251742
1002.033 .0251723
1002.630 .0251706
1003.228 .0251691
1003.825 .0251679
1004.422 .0251668
1005.018 .0251660
1005.614 .0251655
1006.210 .0251651
1006.806 .0251648
1007.401 .0251647
1007.996 .0251645
1008.591 .0251643
1009.186 .0251641
1009.780 .0251640
1010.374 .0251640
1010.967 .0251643
1011.561 .0251650
1012.154 .0251662
1012.746 .0251681
1013.339 .0251706
1013.931 .0251737
1014.523 .0251774
1015.115 .0251817
1015.706 .0251865
1016.298 .0251918
1016.888 .0251977
1017.479 .0252042
1018.069 .0252115
1018.660 .0252195
1019.250 .0252283
1019.839 .0252380
1020.429 .0252484
1021.018 .0252597
1021.607 .0252715
1022.195 .0252840
1022.784 .0252969
1023.372 .0253104
1023.960 .0253245
1024.547 .0253391
1025.135 .0253544
1025.722 .0253702
1026.309 .0253868
1026.896 .0254039
1027.483 .0254215
1028.069 .0254396
1028.655 .0254580
1029.241 .0254765
1029.827 .0254950
1030.412 .0255133
1030.997 .0255314
1031.582 .0255492
1032.167 .0255667
1032.752 .0255839
1033.336 .0256007
1033.921 .0256173
1034.505 .0256335
1035.089 .0256493
1035.672 .0256648
1036.256 .0256798
1036.839 .0256943
1037.422 .0257082
1038.005 .0257215
1038.588 .0257340
1039.171 .0257460
1039.753 .0257574
1040.335 .0257683
1040.918 .0257788
1041.500 .0257890
1042.081 .0257990
1042.663 .0258087
1043.244 .0258182
1043.826 .0258274
1044.407 .0258364
1044.988 .0258452
1045.569 .0258538
1046.150 .0258621
1046.730 .0258704
1047.311 .0258786
1047.891 .0258870
1048.471 .0258955
1049.052 .0259043
1049.632 .0259133
1050.211 .0259227
1050.791 .0259323
1051.371 .0259422
1051.950 .0259522
1052.530 .0259625
1053.109 .0259729
1053.688 .0259836
1054.268 .0259946
1054.847 .0260059
1055.426 .0260176
1056.005 .0260298
1056.583 .0260425
1057.162 .0260554
1057.741 .0260685
1058.319 .0260817
1058.898 .0260949
1059.476 .0261079
1060.055 .0261206
1060.633 .0261332
1061.211 .0261455
1061.790 .0261575
1062.368 .0261694
1062.946 .0261810
1063.524 .0261924
1064.102 .0262036
1064.680 .0262145
1065.258 .0262250
1065.836 .0262352
1066.414 .0262451
1066.992 .0262547
1067.570 .0262641
1068.148 .0262733
1068.726 .0262823
1069.304 .0262913
1069.882 .0263003
1070.460 .0263090
1071.038 .0263176
1071.616 .0263261
1072.194 .0263342
1072.772 .0263421
1073.350 .0263498
1073.928 .0263573
1074.506 .0263646
1075.084 .0263717
1075.662 .0263787
1076.240 .0263854
1076.819 .0263920
1077.397 .0263983
1077.976 .0264045
1078.554 .0264106
1079.133 .0264166
1079.711 .0264227
1080.290 .0264291
1080.869 .0264359
1081.448 .0264431
1082.027 .0264509
1082.606 .0264592
1083.185 .0264678
1083.764 .0264767
1084.343 .0264857
1084.923 .0264947
1085.502 .0265036
1086.082 .0265125
1086.662 .0265214
1087.242 .0265304
1087.822 .0265395
1088.402 .0265488
1088.983 .0265583
1089.563 .0265679
1090.144 .0265776
1090.725 .0265874
1091.306 .0265973
1091.887 .0266073
1092.469 .0266173
1093.050 .0266276
1093.632 .0266382
1094.214 .0266491
1094.796 .0266603
1095.379 .0266720
1095.961 .0266841
1096.544 .0266967
1097.127 .0267098
1097.710 .0267234
1098.294 .0267374
1098.877 .0267519
1099.461 .0267668
1100.046 .0267819
1100.630 .0267971
1101.215 .0268124
1101.800 .0268278
1102.385 .0268433
1102.970 .0268590
1103.556 .0268751
1104.142 .0268917
1104.728 .0269088
1105.315 .0269264
1105.902 .0269446
1106.489 .0269630
1107.077 .0269818
1107.664 .0270006
1108.253 .0270197
1108.841 .0270391
1109.430 .0270592
1110.019 .0270800
1110.609 .0271020
1111.198 .0271250
1111.789 .0271490
1112.379 .0271739
1112.970 .0271991
1113.561 .0272244
1114.153 .0272495
1114.745 .0272742
1115.338 .0272989
1115.931 .0273238
1116.524 .0273494
1117.117 .0273760
1117.712 .0274040
1118.306 .0274337
1118.901 .0274649
1119.496 .0274976
1120.092 .0275315
1120.689 .0275667
1121.285 .0276031
1121.882 .0276409
1122.480 .0276807
1123.078 .0277228
1123.677 .0277679
1124.276 .0278163
1124.875 .0278682
1125.476 .0279233
1126.076 .0279815
1126.677 .0280425
1127.279 .0281058
1127.881 .0281711
1128.484 .0282384
1129.087 .0282645
1129.691 .0283352
1130.295 .0284087
1130.900 .0284852
1131.505 .0285650
1132.111 .0286481
1132.718 .0287342
1133.325 .0288233
1133.933 .0289158
1134.541 .0290099
1135.150 .0291081
1135.760 .0292033
1136.370 .0293128
1136.981 .0294181
1137.592 .0295217
1138.204 .0296303
1138.817 .0297365
1139.431 .0298486
1140.045 .0299643
1140.660 .0300760
1141.275 .0302005
1141.891 .0303424
1142.508 .0304415
1143.126 .0306162
1143.744 .0305958
1144.363 .0310573
1144.983 .0314701
