Measurement Sequence started on: 15-12-46-377
Integration time: 28
Scans to Average: 2 
>>>>>Begin Spectral Data<<<<<
432.689 .0000100
433.621 .0000100
434.552 .0000100
435.482 .0000100
436.410 .0000100
437.337 .0000100
438.262 .0260443
439.187 .0551028
440.110 .0912880
441.031 .1320798
441.952 .1054781
442.871 .1100940
443.789 .1143843
444.705 .1184187
445.621 .1222450
446.535 .1258985
447.447 .1280352
448.359 .1285185
449.269 .1269906
450.178 .1232228
451.086 .1172903
451.993 .1096498
452.898 .1010541
453.803 .0923556
454.706 .0842791
455.608 .0772761
456.508 .0714957
457.408 .0676068
458.306 .0646362
459.204 .0622375
460.100 .0602325
460.995 .0585213
461.888 .0570362
462.781 .0557319
463.673 .0545752
464.563 .0535420
465.452 .0526119
466.340 .0517701
467.228 .0510049
468.114 .0503078
468.999 .0496713
469.882 .0490898
470.765 .0485575
471.647 .0480702
472.528 .0476237
473.407 .0472152
474.286 .0468419
475.163 .0465025
476.040 .0461955
476.915 .0459196
477.790 .0456734
478.663 .0454558
479.535 .0452655
480.407 .0451017
481.277 .0449631
482.147 .0448480
483.015 .0447543
483.883 .0446804
484.749 .0446239
485.615 .0445832
486.479 .0445570
487.343 .0445448
488.206 .0445461
489.067 .0445611
489.928 .0445908
490.788 .0446361
491.647 .0446985
492.505 .0447790
493.362 .0448782
494.218 .0449966
495.073 .0451344
495.928 .0454086
496.781 .0455934
497.634 .0457971
498.486 .0460209
499.337 .0462674
500.187 .0465395
501.036 .0468411
501.884 .0471768
502.731 .0475508
503.578 .0479658
504.424 .0482596
505.268 .0487464
506.113 .0492801
506.956 .0498622
507.798 .0504955
508.640 .0511846
509.480 .0519368
510.320 .0527626
511.160 .0536741
511.998 .0546857
512.836 .0558161
513.672 .0570845
514.508 .0585117
515.344 .0601177
516.178 .0619217
517.012 .0639425
517.845 .0661981
518.677 .0687057
519.508 .0714800
520.339 .0745331
521.169 .0778737
521.998 .0814865
522.826 .0853451
523.654 .0894043
524.481 .0936053
525.307 .0978752
526.133 .1021294
526.958 .1062754
527.782 .1102220
528.605 .1138826
529.428 .1171827
530.250 .1200564
531.072 .1224592
531.892 .1243547
532.712 .1257212
533.532 .1265484
534.350 .1268349
535.168 .1265866
535.986 .1258115
536.802 .1245147
537.618 .1227015
538.434 .1203767
539.249 .1175678
540.063 .1143141
540.876 .1106710
541.689 .1067073
542.501 .1025042
543.313 .0981510
544.124 .0937411
544.934 .0893645
545.744 .0851036
546.553 .0810263
547.361 .0771859
548.169 .0736136
548.976 .0703293
549.783 .0673371
550.589 .0646296
551.395 .0621887
552.200 .0599903
553.004 .0580076
553.808 .0562182
554.611 .0546017
555.414 .0531423
556.216 .0518247
557.018 .0506335
557.819 .0495554
558.619 .0485771
559.419 .0476852
560.218 .0468688
561.017 .0461176
561.815 .0454212
562.613 .0447707
563.410 .0441579
564.207 .0435764
565.003 .0430209
565.799 .0424865
566.594 .0419700
567.388 .0414688
568.182 .0409815
568.976 .0405061
569.769 .0400412
570.562 .0395859
571.354 .0391396
572.145 .0387025
572.936 .0382752
573.727 .0378581
574.517 .0374522
575.307 .0370585
576.096 .0366778
576.885 .0363115
577.673 .0359602
578.461 .0356247
579.248 .0353060
580.035 .0350043
580.821 .0347196
581.607 .0344516
582.392 .0342002
583.177 .0339652
583.962 .0337463
584.746 .0335431
585.529 .0333549
586.313 .0331810
587.095 .0330211
587.878 .0328743
588.660 .0327398
589.441 .0326167
590.222 .0325041
591.003 .0324013
591.783 .0323074
592.563 .0322214
593.342 .0321424
594.121 .0320696
594.899 .0320020
595.678 .0319388
596.455 .0318795
597.233 .0318235
598.009 .0317705
598.786 .0317203
599.562 .0316726
600.338 .0316272
601.113 .0315840
601.888 .0315246
602.663 .0314858
603.437 .0314485
604.211 .0314126
604.984 .0313780
605.757 .0313446
606.530 .0313124
607.302 .0312815
608.074 .0312518
608.845 .0312234
609.616 .0311964
610.387 .0311865
611.158 .0311613
611.928 .0311375
612.697 .0311150
613.467 .0310937
614.236 .0310734
615.004 .0310540
615.773 .0310352
616.541 .0310168
617.308 .0309988
618.076 .0309811
618.843 .0309636
619.609 .0309462
620.375 .0309289
621.141 .0309117
621.907 .0308945
622.672 .0308772
623.437 .0308597
624.202 .0308419
624.966 .0308235
625.730 .0308046
626.493 .0307850
627.257 .0307647
628.020 .0307437
628.782 .0307221
629.545 .0306998
630.307 .0306769
631.068 .0306534
631.830 .0306295
632.591 .0306050
633.352 .0305802
634.112 .0305549
634.872 .0305291
635.632 .0305028
636.392 .0304760
637.151 .0304487
637.910 .0304208
638.668 .0303925
639.427 .0303638
640.185 .0303347
640.943 .0303055
641.700 .0302764
642.457 .0302474
643.214 .0302187
643.971 .0301904
644.727 .0301625
645.483 .0301350
646.239 .0301079
646.994 .0300811
647.750 .0300547
648.505 .0300287
649.259 .0300029
650.014 .0299773
650.768 .0299520
651.521 .0299270
652.275 .0299023
653.028 .0298780
653.781 .0298541
654.534 .0298306
655.286 .0298074
656.039 .0297845
656.791 .0297619
657.542 .0297396
658.294 .0297174
659.045 .0296954
659.796 .0296736
660.546 .0296520
661.297 .0296306
662.047 .0296096
662.796 .0295888
663.546 .0295685
664.295 .0295487
665.044 .0295292
665.793 .0295103
666.542 .0294919
667.290 .0294741
668.038 .0294569
668.786 .0294402
669.533 .0294241
670.281 .0294087
671.028 .0293938
671.774 .0293796
672.521 .0293659
673.267 .0293529
674.013 .0293405
674.759 .0293287
675.505 .0293175
676.250 .0293068
676.995 .0292967
677.740 .0292870
678.484 .0292777
679.229 .0292687
679.973 .0292599
680.717 .0292512
681.460 .0292427
682.204 .0292341
682.947 .0292253
683.690 .0292165
684.433 .0292075
685.175 .0291982
685.917 .0291887
686.659 .0291790
687.401 .0291690
688.142 .0291587
688.884 .0291479
689.625 .0291367
690.365 .0291248
691.106 .0291124
691.846 .0290991
692.586 .0290853
693.326 .0290707
694.066 .0290556
694.805 .0290400
695.545 .0290239
696.284 .0290075
697.022 .0289908
697.761 .0289739
698.499 .0289568
699.237 .0289396
699.975 .0289223
700.713 .0289050
701.450 .0288878
702.187 .0288706
702.924 .0288535
703.661 .0288364
704.397 .0288194
705.133 .0288024
705.869 .0287855
706.605 .0287686
707.341 .0287518
708.076 .0287351
708.811 .0287184
709.546 .0287018
710.281 .0286852
711.015 .0286684
711.749 .0286514
712.483 .0286341
713.217 .0286164
713.950 .0285983
714.684 .0285798
715.417 .0285608
716.150 .0285415
716.882 .0285219
717.615 .0285018
718.347 .0284814
719.079 .0284606
719.811 .0284395
720.542 .0284180
721.273 .0283963
722.005 .0283744
722.735 .0283524
723.466 .0283304
724.196 .0283085
724.927 .0282867
725.656 .0282650
726.386 .0282435
727.116 .0282223
727.845 .0282014
728.574 .0281809
729.303 .0281610
730.031 .0281417
730.760 .0281231
731.488 .0281052
732.216 .0280880
732.944 .0280716
733.671 .0280558
734.398 .0280406
735.125 .0280259
735.852 .0280118
736.579 .0279983
737.305 .0279853
738.031 .0279730
738.757 .0279613
739.483 .0279503
740.208 .0279398
740.933 .0279298
741.658 .0279201
742.383 .0279108
743.108 .0279018
743.832 .0278929
744.556 .0278841
745.280 .0278754
746.004 .0278667
746.727 .0278580
747.450 .0278492
748.173 .0278402
748.896 .0278311
749.618 .0278218
750.340 .0278123
751.062 .0278026
751.784 .0277929
752.506 .0277831
753.227 .0277733
753.948 .0277634
754.669 .0277534
755.389 .0277434
756.110 .0277333
756.830 .0277230
757.550 .0277127
758.269 .0277024
758.989 .0276921
759.708 .0276819
760.427 .0276718
761.146 .0276618
761.864 .0276520
762.582 .0276424
763.300 .0276329
764.018 .0276235
764.736 .0276142
765.453 .0276051
766.170 .0275961
766.887 .0275874
767.603 .0275788
768.320 .0275706
769.036 .0275626
769.751 .0275550
770.467 .0275478
771.182 .0275410
771.897 .0275346
772.612 .0275286
773.327 .0275230
774.041 .0275180
774.755 .0275134
775.469 .0275094
776.183 .0275060
776.896 .0275031
777.609 .0275006
778.322 .0274986
779.035 .0274968
779.747 .0274953
780.459 .0274940
781.171 .0274928
781.882 .0274916
782.594 .0274905
783.305 .0274893
784.016 .0274881
784.726 .0274867
785.436 .0274852
786.147 .0274812
786.856 .0274787
787.566 .0274757
788.275 .0274722
788.984 .0274680
789.693 .0274633
790.401 .0274580
791.110 .0274519
791.818 .0274452
792.525 .0274377
793.233 .0274295
793.940 .0274205
794.647 .0274145
795.353 .0274044
796.060 .0273935
796.766 .0273818
797.472 .0273694
798.177 .0273562
798.883 .0273423
799.588 .0273277
800.292 .0273125
800.997 .0272965
801.701 .0272799
802.405 .0272628
803.109 .0272451
803.812 .0272269
804.515 .0272083
805.218 .0271892
805.921 .0271698
806.623 .0271501
807.325 .0271301
808.027 .0271097
808.728 .0270891
809.429 .0270682
810.130 .0270471
810.831 .0270257
811.531 .0270042
812.231 .0269826
812.931 .0269609
813.630 .0269393
814.330 .0269178
815.029 .0268965
815.727 .0268755
816.426 .0268548
817.124 .0268345
817.821 .0268147
818.519 .0267953
819.216 .0267763
819.913 .0267578
820.609 .0267398
821.306 .0267223
822.002 .0267052
822.697 .0266887
823.393 .0266728
824.088 .0266574
824.783 .0266426
825.477 .0266283
826.171 .0266147
826.865 .0266015
827.559 .0265888
828.252 .0265767
828.945 .0265650
829.638 .0265539
830.330 .0265431
831.023 .0265329
831.714 .0265230
832.406 .0265135
833.097 .0265043
833.788 .0264954
834.479 .0264867
835.169 .0264783
835.859 .0264700
836.548 .0264619
837.238 .0264540
837.927 .0264461
838.615 .0264384
839.304 .0264307
839.992 .0264230
840.680 .0264153
841.367 .0264075
842.054 .0263996
842.741 .0263916
843.428 .0263836
844.114 .0263756
844.800 .0263675
845.485 .0263596
846.170 .0263516
846.855 .0263437
847.540 .0263358
848.224 .0263278
848.908 .0263197
849.592 .0263115
850.275 .0263032
850.958 .0262949
851.641 .0262864
852.323 .0262778
853.005 .0262692
853.687 .0262605
854.368 .0262517
855.049 .0262427
855.730 .0262337
856.410 .0262244
857.090 .0262151
857.769 .0262057
858.449 .0261962
859.128 .0261866
859.806 .0261770
860.485 .0261674
861.163 .0261577
861.840 .0261481
862.518 .0261384
863.195 .0261288
863.871 .0261192
864.548 .0261098
865.224 .0261004
865.899 .0260913
866.574 .0260824
867.249 .0260737
867.924 .0260654
868.598 .0260573
869.272 .0260497
869.946 .0260424
870.619 .0260357
871.292 .0260296
871.964 .0260241
872.636 .0260193
873.308 .0260152
873.979 .0260119
874.651 .0260094
875.321 .0260076
875.992 .0260067
876.662 .0260064
877.331 .0260068
878.001 .0260078
878.670 .0260095
879.338 .0260116
880.007 .0260143
880.675 .0260175
881.342 .0260211
882.009 .0260252
882.676 .0260297
883.343 .0260346
884.009 .0260398
884.675 .0260453
885.340 .0260510
886.005 .0260569
886.670 .0260628
887.334 .0260687
887.998 .0260745
888.662 .0260802
889.325 .0260858
889.988 .0260913
890.650 .0260964
891.312 .0261013
891.974 .0261058
892.636 .0261098
893.297 .0261133
893.957 .0261162
894.618 .0261185
895.278 .0261200
895.937 .0261208
896.596 .0261207
897.255 .0261199
897.914 .0261181
898.572 .0261155
899.230 .0261120
899.887 .0261076
900.544 .0261023
901.201 .0260961
901.857 .0260828
902.513 .0260744
903.168 .0260652
903.823 .0260551
904.478 .0260443
905.132 .0260326
905.786 .0260203
906.440 .0260072
907.093 .0259935
907.746 .0259792
908.399 .0259644
909.051 .0259491
909.703 .0259335
910.354 .0259253
911.005 .0259092
911.656 .0258929
912.306 .0258763
912.956 .0258595
913.605 .0258425
914.254 .0258254
914.903 .0258082
915.551 .0257908
916.199 .0257732
916.847 .0257553
917.494 .0257371
918.141 .0257185
918.788 .0256996
919.434 .0256803
920.079 .0256606
920.725 .0256406
921.370 .0256202
922.014 .0255994
922.658 .0255782
923.302 .0255567
923.946 .0255347
924.589 .0255123
925.231 .0254896
925.873 .0254664
926.515 .0254429
927.157 .0254192
927.798 .0253954
928.439 .0253715
929.079 .0253476
929.719 .0253239
930.359 .0253003
930.998 .0252769
931.637 .0252537
932.275 .0252308
932.913 .0252082
933.551 .0251861
934.188 .0251645
934.825 .0251436
935.462 .0251234
936.098 .0251041
936.733 .0250856
937.369 .0250679
938.004 .0250511
938.638 .0250350
939.273 .0250196
939.907 .0250049
940.540 .0249909
941.173 .0249774
941.806 .0249645
942.438 .0249521
943.070 .0249402
943.702 .0249287
944.333 .0249175
944.964 .0249064
945.594 .0248953
946.224 .0248842
946.854 .0248730
947.483 .0248616
948.112 .0248501
948.741 .0248383
949.369 .0248264
949.996 .0248142
950.624 .0248018
951.251 .0247891
951.878 .0247761
952.504 .0247628
953.130 .0247492
953.755 .0247354
954.380 .0247214
955.005 .0247072
955.629 .0246930
956.253 .0246786
956.877 .0246643
957.500 .0246498
958.123 .0246354
958.746 .0246209
959.368 .0246065
959.990 .0245922
960.611 .0245781
961.232 .0245643
961.853 .0245507
962.473 .0245374
963.093 .0245245
963.712 .0245119
964.331 .0244996
964.950 .0244877
965.569 .0244761
966.187 .0244650
966.804 .0244543
967.422 .0244441
968.039 .0244344
968.655 .0244250
969.272 .0244161
969.887 .0244074
970.503 .0243990
971.118 .0243907
971.733 .0243825
972.347 .0243743
972.961 .0243662
973.575 .0243582
974.188 .0243501
974.801 .0243421
975.414 .0243340
976.026 .0243257
976.638 .0243173
977.250 .0243086
977.861 .0242996
978.472 .0242903
979.083 .0242808
979.693 .0242712
980.303 .0242614
980.912 .0242457
981.521 .0242357
982.130 .0242256
982.738 .0242155
983.346 .0242054
983.954 .0241953
984.562 .0241853
985.169 .0241754
985.775 .0241659
986.382 .0241568
986.988 .0241481
987.594 .0241400
988.199 .0241325
988.804 .0241256
989.409 .0241245
990.013 .0241190
990.617 .0241142
991.221 .0241103
991.824 .0241073
992.427 .0241052
993.030 .0241041
993.632 .0241040
994.234 .0241047
994.836 .0241063
995.438 .0241088
996.039 .0241121
996.640 .0241162
997.240 .0241211
997.840 .0241267
998.440 .0241330
999.040 .0241400
999.639 .0241475
1000.238 .0241556
1000.836 .0241640
1001.435 .0241727
1002.033 .0241816
1002.630 .0241908
1003.228 .0242000
1003.825 .0242092
1004.422 .0242185
1005.018 .0242278
1005.614 .0242370
1006.210 .0242460
1006.806 .0242548
1007.401 .0242634
1007.996 .0242717
1008.591 .0242798
1009.186 .0242877
1009.780 .0242954
1010.374 .0243031
1010.967 .0243107
1011.561 .0243185
1012.154 .0243263
1012.746 .0243343
1013.339 .0243426
1013.931 .0243510
1014.523 .0243598
1015.115 .0243689
1015.706 .0243784
1016.298 .0243883
1016.888 .0243986
1017.479 .0244093
1018.069 .0244205
1018.660 .0244321
1019.250 .0244441
1019.839 .0244566
1020.429 .0244694
1021.018 .0244827
1021.607 .0244965
1022.195 .0245106
1022.784 .0245252
1023.372 .0245403
1023.960 .0245558
1024.547 .0245717
1025.135 .0245878
1025.722 .0246042
1026.309 .0246207
1026.896 .0246372
1027.483 .0246537
1028.069 .0246700
1028.655 .0246861
1029.241 .0247020
1029.827 .0247175
1030.412 .0247327
1030.997 .0247476
1031.582 .0247620
1032.167 .0247760
1032.752 .0247895
1033.336 .0248025
1033.921 .0248150
1034.505 .0248270
1035.089 .0248385
1035.672 .0248496
1036.256 .0248602
1036.839 .0248705
1037.422 .0248805
1038.005 .0248900
1038.588 .0248992
1039.171 .0249080
1039.753 .0249163
1040.335 .0249241
1040.918 .0249315
1041.500 .0249382
1042.081 .0249444
1042.663 .0249501
1043.244 .0249554
1043.826 .0249602
1044.407 .0249649
1044.988 .0249694
1045.569 .0249737
1046.150 .0249781
1046.730 .0249824
1047.311 .0249865
1047.891 .0249906
1048.471 .0249944
1049.052 .0249980
1049.632 .0250015
1050.211 .0250047
1050.791 .0250079
1051.371 .0250110
1051.950 .0250140
1052.530 .0250169
1053.109 .0250194
1053.688 .0250216
1054.268 .0250232
1054.847 .0250242
1055.426 .0250245
1056.005 .0250243
1056.583 .0250236
1057.162 .0250227
1057.741 .0250217
1058.319 .0250206
1058.898 .0250197
1059.476 .0250189
1060.055 .0250181
1060.633 .0250173
1061.211 .0250164
1061.790 .0250155
1062.368 .0250145
1062.946 .0250136
1063.524 .0250129
1064.102 .0250124
1064.680 .0250122
1065.258 .0250124
1065.836 .0250127
1066.414 .0250131
1066.992 .0250134
1067.570 .0250134
1068.148 .0250131
1068.726 .0250123
1069.304 .0250111
1069.882 .0250097
1070.460 .0250082
1071.038 .0250068
1071.616 .0250056
1072.194 .0250047
1072.772 .0250041
1073.350 .0250035
1073.928 .0250031
1074.506 .0250026
1075.084 .0250021
1075.662 .0250016
1076.240 .0250012
1076.819 .0250010
1077.397 .0250012
1077.976 .0250018
1078.554 .0250029
1079.133 .0250044
1079.711 .0250060
1080.290 .0250075
1080.869 .0250087
1081.448 .0250092
1082.027 .0250090
1082.606 .0250079
1083.185 .0250059
1083.764 .0250033
1084.343 .0250002
1084.923 .0249968
1085.502 .0249932
1086.082 .0249897
1086.662 .0249862
1087.242 .0249829
1087.822 .0249796
1088.402 .0249766
1088.983 .0249738
1089.563 .0249714
1090.144 .0249695
1090.725 .0249682
1091.306 .0249676
1091.887 .0249679
1092.469 .0249691
1093.050 .0249713
1093.632 .0249744
1094.214 .0249783
1094.796 .0249828
1095.379 .0249877
1095.961 .0249931
1096.544 .0249988
1097.127 .0250049
1097.710 .0250115
1098.294 .0250187
1098.877 .0250267
1099.461 .0250355
1100.046 .0250453
1100.630 .0250563
1101.215 .0250683
1101.800 .0250815
1102.385 .0250958
1102.970 .0251113
1103.556 .0251279
1104.142 .0251458
1104.728 .0251648
1105.315 .0251849
1105.902 .0252062
1106.489 .0252285
1107.077 .0252518
1107.664 .0252761
1108.253 .0253013
1108.841 .0253273
1109.430 .0253541
1110.019 .0253816
1110.609 .0254095
1111.198 .0254380
1111.789 .0254669
1112.379 .0254962
1112.970 .0255260
1113.561 .0255564
1114.153 .0255875
1114.745 .0256198
1115.338 .0256535
1115.931 .0256888
1116.524 .0257258
1117.117 .0257649
1117.712 .0258057
1118.306 .0258483
1118.901 .0258923
1119.496 .0259373
1120.092 .0259831
1120.689 .0260295
1121.285 .0260763
1121.882 .0261233
1122.480 .0261708
1123.078 .0262187
1123.677 .0262671
1124.276 .0263159
1124.875 .0263649
1125.476 .0264138
1126.076 .0264626
1126.677 .0265111
1127.279 .0265591
1127.881 .0266071
1128.484 .0266557
1129.087 .0266801
1129.691 .0267299
1130.295 .0267818
1130.900 .0268364
1131.505 .0268945
1132.111 .0269564
1132.718 .0270230
1133.325 .0270950
1133.933 .0271732
1134.541 .0272553
1135.150 .0273409
1135.760 .0274399
1136.370 .0275585
1136.981 .0273354
1137.592 .0274123
1138.204 .0275096
1138.817 .0276238
1139.431 .0277617
1140.045 .0279168
1140.660 .0280963
1141.275 .0283060
1141.891 .0285358
1142.508 .0287096
1143.126 .0288702
1143.744 .0293078
1144.363 .0299129
1144.983 .0299823
