Measurement Sequence started on: 15-12-46-377
Integration time: 28
Scans to Average: 2 
>>>>>Begin Spectral Data<<<<<
432.689 .0000100
433.621 .0000100
434.552 .0000100
435.482 .0000100
436.410 .0000100
437.337 .0000100
438.262 .0279615
439.187 .0592397
440.110 .0982000
441.031 .1421453
441.952 .1138323
442.871 .1188274
443.789 .1234689
444.705 .1278356
445.621 .1319779
446.535 .1359352
447.447 .1382644
448.359 .1388136
449.269 .1371964
450.178 .1331656
451.086 .1267990
451.993 .1185873
452.898 .1093393
453.803 .0999742
454.706 .0912739
455.608 .0837276
456.508 .0774989
457.408 .0733070
458.306 .0701108
459.204 .0675352
460.100 .0653862
460.995 .0635566
461.888 .0619695
462.781 .0605767
463.673 .0593409
464.563 .0582363
465.452 .0572414
466.340 .0563401
467.228 .0555187
468.114 .0547668
468.999 .0540753
469.882 .0534365
470.765 .0528437
471.647 .0522933
472.528 .0517819
473.407 .0513073
474.286 .0508681
475.163 .0504635
476.040 .0500920
476.915 .0497529
477.790 .0494441
478.663 .0491654
479.535 .0489166
480.407 .0486964
481.277 .0485047
482.147 .0483403
483.015 .0482024
483.883 .0480897
484.749 .0480008
485.615 .0479345
486.479 .0478896
487.343 .0478651
488.206 .0478607
489.067 .0478762
489.928 .0479124
490.788 .0479696
491.647 .0480489
492.505 .0481502
493.362 .0482732
494.218 .0484172
495.073 .0485817
495.928 .0488976
496.781 .0491114
497.634 .0493457
498.486 .0496020
499.337 .0498832
500.187 .0501918
501.036 .0505314
501.884 .0509054
502.731 .0513170
503.578 .0517691
504.424 .0520813
505.268 .0526057
506.113 .0531799
506.956 .0538078
507.798 .0544968
508.640 .0552550
509.480 .0560936
510.320 .0570260
511.160 .0580664
511.998 .0592302
512.836 .0605354
513.672 .0619984
514.508 .0636385
515.344 .0654759
516.178 .0675323
517.012 .0698313
517.845 .0723968
518.677 .0752512
519.508 .0784128
520.339 .0818924
521.169 .0856918
521.998 .0897860
522.826 .0941353
523.654 .0986775
524.481 .1033377
525.307 .1080305
526.133 .1126602
526.958 .1171289
527.782 .1213436
528.605 .1252189
529.428 .1286792
530.250 .1316576
531.072 .1341104
531.892 .1360005
532.712 .1373027
533.532 .1380008
534.350 .1380876
535.168 .1375655
535.986 .1364417
536.802 .1347236
537.618 .1324255
538.434 .1295680
539.249 .1261958
540.063 .1223649
540.876 .1181499
541.689 .1136360
542.501 .1089142
543.313 .1040820
544.124 .0992356
544.934 .0944625
545.744 .0898412
546.553 .0854384
547.361 .0813082
548.169 .0774811
548.976 .0739780
549.783 .0708045
550.589 .0679548
551.395 .0654101
552.200 .0631418
553.004 .0611178
553.808 .0593086
554.611 .0576857
555.414 .0562235
556.216 .0548997
557.018 .0536945
557.819 .0525916
558.619 .0515762
559.419 .0506361
560.218 .0497618
561.017 .0489448
561.815 .0481779
562.613 .0474555
563.410 .0467711
564.207 .0461196
565.003 .0454972
565.799 .0449000
566.594 .0443250
567.388 .0437703
568.182 .0432348
568.976 .0427175
569.769 .0422179
570.562 .0417362
571.354 .0412725
572.145 .0408275
572.936 .0404006
573.727 .0399913
574.517 .0395989
575.307 .0392227
576.096 .0388612
576.885 .0385133
577.673 .0381780
578.461 .0378546
579.248 .0375422
580.035 .0372406
580.821 .0369501
581.607 .0366706
582.392 .0364030
583.177 .0361480
583.962 .0359061
584.746 .0356777
585.529 .0354632
586.313 .0352624
587.095 .0350751
587.878 .0349010
588.660 .0347394
589.441 .0345899
590.222 .0344522
591.003 .0343256
591.783 .0342096
592.563 .0341037
593.342 .0340073
594.121 .0339193
594.899 .0338389
595.678 .0337649
596.455 .0336961
597.233 .0336315
598.009 .0335702
598.786 .0335113
599.562 .0334543
600.338 .0333988
601.113 .0333447
601.888 .0332674
602.663 .0332168
603.437 .0331677
604.211 .0331201
604.984 .0330739
605.757 .0330289
606.530 .0329851
607.302 .0329424
608.074 .0329008
608.845 .0328603
609.616 .0328211
610.387 .0328057
611.158 .0327692
611.928 .0327344
612.697 .0327013
613.467 .0326700
614.236 .0326404
615.004 .0326125
615.773 .0325861
616.541 .0325610
617.308 .0325372
618.076 .0325142
618.843 .0324921
619.609 .0324705
620.375 .0324493
621.141 .0324283
621.907 .0324076
622.672 .0323869
623.437 .0323662
624.202 .0323455
624.966 .0323245
625.730 .0323030
626.493 .0322811
627.257 .0322584
628.020 .0322348
628.782 .0322101
629.545 .0321843
630.307 .0321572
631.068 .0321290
631.830 .0320998
632.591 .0320697
633.352 .0320389
634.112 .0320074
634.872 .0319756
635.632 .0319434
636.392 .0319110
637.151 .0318784
637.910 .0318456
638.668 .0318128
639.427 .0317801
640.185 .0317474
640.943 .0317149
641.700 .0316828
642.457 .0316511
643.214 .0316199
643.971 .0315893
644.727 .0315592
645.483 .0315297
646.239 .0315008
646.994 .0314724
647.750 .0314445
648.505 .0314171
649.259 .0313901
650.014 .0313635
650.768 .0313371
651.521 .0313109
652.275 .0312848
653.028 .0312588
653.781 .0312329
654.534 .0312069
655.286 .0311809
656.039 .0311549
656.791 .0311288
657.542 .0311026
658.294 .0310763
659.045 .0310499
659.796 .0310232
660.546 .0309963
661.297 .0309691
662.047 .0309418
662.796 .0309144
663.546 .0308870
664.295 .0308596
665.044 .0308325
665.793 .0308056
666.542 .0307791
667.290 .0307532
668.038 .0307278
668.786 .0307030
669.533 .0306790
670.281 .0306556
671.028 .0306328
671.774 .0306108
672.521 .0305893
673.267 .0305683
674.013 .0305479
674.759 .0305279
675.505 .0305085
676.250 .0304895
676.995 .0304710
677.740 .0304529
678.484 .0304353
679.229 .0304180
679.973 .0304011
680.717 .0303845
681.460 .0303681
682.204 .0303519
682.947 .0303358
683.690 .0303198
684.433 .0303039
685.175 .0302881
685.917 .0302723
686.659 .0302564
687.401 .0302403
688.142 .0302241
688.884 .0302077
689.625 .0301909
690.365 .0301738
691.106 .0301565
691.846 .0301388
692.586 .0301208
693.326 .0301025
694.066 .0300839
694.805 .0300651
695.545 .0300459
696.284 .0300264
697.022 .0300066
697.761 .0299865
698.499 .0299661
699.237 .0299455
699.975 .0299247
700.713 .0299037
701.450 .0298827
702.187 .0298616
702.924 .0298405
703.661 .0298194
704.397 .0297982
705.133 .0297770
705.869 .0297559
706.605 .0297347
707.341 .0297137
708.076 .0296926
708.811 .0296717
709.546 .0296507
710.281 .0296299
711.015 .0296090
711.749 .0295882
712.483 .0295674
713.217 .0295467
713.950 .0295259
714.684 .0295053
715.417 .0294847
716.150 .0294642
716.882 .0294437
717.615 .0294232
718.347 .0294027
719.079 .0293822
719.811 .0293617
720.542 .0293413
721.273 .0293209
722.005 .0293007
722.735 .0292808
723.466 .0292611
724.196 .0292418
724.927 .0292229
725.656 .0292043
726.386 .0291860
727.116 .0291681
727.845 .0291504
728.574 .0291331
729.303 .0291160
730.031 .0290993
730.760 .0290828
731.488 .0290666
732.216 .0290506
732.944 .0290348
733.671 .0290192
734.398 .0290037
735.125 .0289883
735.852 .0289730
736.579 .0289578
737.305 .0289428
738.031 .0289280
738.757 .0289133
739.483 .0288988
740.208 .0288845
740.933 .0288702
741.658 .0288561
742.383 .0288420
743.108 .0288280
743.832 .0288140
744.556 .0288003
745.280 .0287867
746.004 .0287732
746.727 .0287600
747.450 .0287470
748.173 .0287340
748.896 .0287212
749.618 .0287084
750.340 .0286954
751.062 .0286824
751.784 .0286692
752.506 .0286559
753.227 .0286424
753.948 .0286288
754.669 .0286150
755.389 .0286011
756.110 .0285872
756.830 .0285731
757.550 .0285591
758.269 .0285450
758.989 .0285310
759.708 .0285169
760.427 .0285029
761.146 .0284889
761.864 .0284751
762.582 .0284613
763.300 .0284476
764.018 .0284341
764.736 .0284209
765.453 .0284079
766.170 .0283953
766.887 .0283830
767.603 .0283713
768.320 .0283600
769.036 .0283491
769.751 .0283388
770.467 .0283288
771.182 .0283192
771.897 .0283099
772.612 .0283010
773.327 .0282924
774.041 .0282842
774.755 .0282764
775.469 .0282691
776.183 .0282623
776.896 .0282559
777.609 .0282501
778.322 .0282447
779.035 .0282397
779.747 .0282350
780.459 .0282307
781.171 .0282268
781.882 .0282232
782.594 .0282200
783.305 .0282172
784.016 .0282148
784.726 .0282127
785.436 .0282109
786.147 .0282089
786.856 .0282072
787.566 .0282055
788.275 .0282037
788.984 .0282018
789.693 .0281997
790.401 .0281974
791.110 .0281947
791.818 .0281916
792.525 .0281879
793.233 .0281836
793.940 .0281786
794.647 .0281741
795.353 .0281681
796.060 .0281615
796.766 .0281543
797.472 .0281465
798.177 .0281382
798.883 .0281294
799.588 .0281201
800.292 .0281102
800.997 .0280999
801.701 .0280891
802.405 .0280780
803.109 .0280665
803.812 .0280547
804.515 .0280426
805.218 .0280302
805.921 .0280175
806.623 .0280043
807.325 .0279907
808.027 .0279768
808.728 .0279625
809.429 .0279479
810.130 .0279332
810.831 .0279183
811.531 .0279033
812.231 .0278881
812.931 .0278728
813.630 .0278573
814.330 .0278415
815.029 .0278257
815.727 .0278097
816.426 .0277938
817.124 .0277779
817.821 .0277622
818.519 .0277466
819.216 .0277312
819.913 .0277161
820.609 .0277011
821.306 .0276862
822.002 .0276717
822.697 .0276574
823.393 .0276436
824.088 .0276302
824.783 .0276174
825.477 .0276050
826.171 .0275931
826.865 .0275816
827.559 .0275703
828.252 .0275594
828.945 .0275487
829.638 .0275383
830.330 .0275282
831.023 .0275184
831.714 .0275089
832.406 .0274996
833.097 .0274904
833.788 .0274811
834.479 .0274716
835.169 .0274619
835.859 .0274518
836.548 .0274416
837.238 .0274310
837.927 .0274203
838.615 .0274094
839.304 .0273983
839.992 .0273870
840.680 .0273754
841.367 .0273634
842.054 .0273511
842.741 .0273384
843.428 .0273254
844.114 .0273120
844.800 .0272985
845.485 .0272848
846.170 .0272710
846.855 .0272569
847.540 .0272427
848.224 .0272282
848.908 .0272133
849.592 .0271981
850.275 .0271825
850.958 .0271665
851.641 .0271501
852.323 .0271334
853.005 .0271164
853.687 .0270991
854.368 .0270814
855.049 .0270633
855.730 .0270449
856.410 .0270262
857.090 .0270072
857.769 .0269880
858.449 .0269686
859.128 .0269491
859.806 .0269296
860.485 .0269101
861.163 .0268906
861.840 .0268712
862.518 .0268517
863.195 .0268324
863.871 .0268131
864.548 .0267941
865.224 .0267754
865.899 .0267570
866.574 .0267391
867.249 .0267218
867.924 .0267051
868.598 .0266891
869.272 .0266738
869.946 .0266592
870.619 .0266453
871.292 .0266322
871.964 .0266199
872.636 .0266084
873.308 .0265978
873.979 .0265881
874.651 .0265793
875.321 .0265713
875.992 .0265642
876.662 .0265580
877.331 .0265525
878.001 .0265477
878.670 .0265436
879.338 .0265402
880.007 .0265374
880.675 .0265352
881.342 .0265336
882.009 .0265325
882.676 .0265319
883.343 .0265318
884.009 .0265322
884.675 .0265332
885.340 .0265346
886.005 .0265366
886.670 .0265390
887.334 .0265420
887.998 .0265455
888.662 .0265493
889.325 .0265535
889.988 .0265580
890.650 .0265627
891.312 .0265676
891.974 .0265727
892.636 .0265780
893.297 .0265834
893.957 .0265888
894.618 .0265944
895.278 .0265999
895.937 .0266053
896.596 .0266105
897.255 .0266155
897.914 .0266201
898.572 .0266244
899.230 .0266281
899.887 .0266312
900.544 .0266336
901.201 .0266352
901.857 .0266336
902.513 .0266328
903.168 .0266312
903.823 .0266285
904.478 .0266250
905.132 .0266205
905.786 .0266152
906.440 .0266089
907.093 .0266019
907.746 .0265941
908.399 .0265856
909.051 .0265765
909.703 .0265669
910.354 .0265610
911.005 .0265511
911.656 .0265408
912.306 .0265304
912.956 .0265197
913.605 .0265090
914.254 .0264982
914.903 .0264873
915.551 .0264764
916.199 .0264654
916.847 .0264544
917.494 .0264434
918.141 .0264323
918.788 .0264213
919.434 .0264102
920.079 .0263991
920.725 .0263879
921.370 .0263767
922.014 .0263654
922.658 .0263540
923.302 .0263424
923.946 .0263306
924.589 .0263185
925.231 .0263061
925.873 .0262935
926.515 .0262805
927.157 .0262673
927.798 .0262537
928.439 .0262400
929.079 .0262260
929.719 .0262117
930.359 .0261973
930.998 .0261827
931.637 .0261680
932.275 .0261532
932.913 .0261384
933.551 .0261238
934.188 .0261093
934.825 .0260951
935.462 .0260813
936.098 .0260680
936.733 .0260552
937.369 .0260428
938.004 .0260308
938.638 .0260193
939.273 .0260083
939.907 .0259976
940.540 .0259875
941.173 .0259779
941.806 .0259688
942.438 .0259603
943.070 .0259522
943.702 .0259444
944.333 .0259370
944.964 .0259297
945.594 .0259225
946.224 .0259153
946.854 .0259080
947.483 .0259007
948.112 .0258933
948.741 .0258858
949.369 .0258782
949.996 .0258705
950.624 .0258626
951.251 .0258546
951.878 .0258463
952.504 .0258378
953.130 .0258289
953.755 .0258198
954.380 .0258103
955.005 .0258006
955.629 .0257906
956.253 .0257803
956.877 .0257696
957.500 .0257586
958.123 .0257472
958.746 .0257353
959.368 .0257230
959.990 .0257105
960.611 .0256976
961.232 .0256846
961.853 .0256714
962.473 .0256582
963.093 .0256449
963.712 .0256315
964.331 .0256179
964.950 .0256042
965.569 .0255903
966.187 .0255763
966.804 .0255621
967.422 .0255478
968.039 .0255334
968.655 .0255189
969.272 .0255042
969.887 .0254894
970.503 .0254742
971.118 .0254587
971.733 .0254426
972.347 .0254260
972.961 .0254089
973.575 .0253913
974.188 .0253734
974.801 .0253551
975.414 .0253366
976.026 .0253179
976.638 .0252991
977.250 .0252802
977.861 .0252610
978.472 .0252416
979.083 .0252219
979.693 .0252018
980.303 .0251815
980.912 .0251502
981.521 .0251297
982.130 .0251093
982.738 .0250890
983.346 .0250688
983.954 .0250488
984.562 .0250290
985.169 .0250093
985.775 .0249897
986.382 .0249704
986.988 .0249513
987.594 .0249326
988.199 .0249144
988.804 .0248968
989.409 .0248898
990.013 .0248733
990.617 .0248575
991.221 .0248424
991.824 .0248280
992.427 .0248141
993.030 .0248008
993.632 .0247878
994.234 .0247752
994.836 .0247629
995.438 .0247509
996.039 .0247392
996.640 .0247280
997.240 .0247171
997.840 .0247068
998.440 .0246968
999.040 .0246872
999.639 .0246780
1000.238 .0246691
1000.836 .0246604
1001.435 .0246520
1002.033 .0246438
1002.630 .0246358
1003.228 .0246281
1003.825 .0246206
1004.422 .0246134
1005.018 .0246064
1005.614 .0245996
1006.210 .0245930
1006.806 .0245864
1007.401 .0245799
1007.996 .0245736
1008.591 .0245673
1009.186 .0245612
1009.780 .0245553
1010.374 .0245498
1010.967 .0245445
1011.561 .0245398
1012.154 .0245354
1012.746 .0245315
1013.339 .0245281
1013.931 .0245252
1014.523 .0245228
1015.115 .0245208
1015.706 .0245195
1016.298 .0245186
1016.888 .0245183
1017.479 .0245186
1018.069 .0245195
1018.660 .0245209
1019.250 .0245228
1019.839 .0245252
1020.429 .0245281
1021.018 .0245313
1021.607 .0245350
1022.195 .0245392
1022.784 .0245438
1023.372 .0245491
1023.960 .0245549
1024.547 .0245613
1025.135 .0245685
1025.722 .0245762
1026.309 .0245846
1026.896 .0245934
1027.483 .0246027
1028.069 .0246125
1028.655 .0246225
1029.241 .0246330
1029.827 .0246437
1030.412 .0246549
1030.997 .0246664
1031.582 .0246782
1032.167 .0246904
1032.752 .0247026
1033.336 .0247148
1033.921 .0247268
1034.505 .0247385
1035.089 .0247497
1035.672 .0247603
1036.256 .0247704
1036.839 .0247800
1037.422 .0247891
1038.005 .0247979
1038.588 .0248063
1039.171 .0248144
1039.753 .0248221
1040.335 .0248293
1040.918 .0248359
1041.500 .0248419
1042.081 .0248474
1042.663 .0248525
1043.244 .0248572
1043.826 .0248617
1044.407 .0248663
1044.988 .0248709
1045.569 .0248758
1046.150 .0248810
1046.730 .0248863
1047.311 .0248918
1047.891 .0248972
1048.471 .0249027
1049.052 .0249083
1049.632 .0249141
1050.211 .0249201
1050.791 .0249266
1051.371 .0249336
1051.950 .0249413
1052.530 .0249496
1053.109 .0249584
1053.688 .0249677
1054.268 .0249774
1054.847 .0249872
1055.426 .0249972
1056.005 .0250073
1056.583 .0250175
1057.162 .0250278
1057.741 .0250384
1058.319 .0250492
1058.898 .0250601
1059.476 .0250711
1060.055 .0250822
1060.633 .0250931
1061.211 .0251038
1061.790 .0251140
1062.368 .0251239
1062.946 .0251332
1063.524 .0251421
1064.102 .0251506
1064.680 .0251588
1065.258 .0251669
1065.836 .0251748
1066.414 .0251826
1066.992 .0251905
1067.570 .0251984
1068.148 .0252064
1068.726 .0252143
1069.304 .0252223
1069.882 .0252302
1070.460 .0252382
1071.038 .0252462
1071.616 .0252544
1072.194 .0252629
1072.772 .0252716
1073.350 .0252808
1073.928 .0252904
1074.506 .0253005
1075.084 .0253110
1075.662 .0253219
1076.240 .0253332
1076.819 .0253448
1077.397 .0253567
1077.976 .0253690
1078.554 .0253818
1079.133 .0253952
1079.711 .0254092
1080.290 .0254241
1080.869 .0254398
1081.448 .0254562
1082.027 .0254733
1082.606 .0254911
1083.185 .0255092
1083.764 .0255277
1084.343 .0255463
1084.923 .0255651
1085.502 .0255839
1086.082 .0256029
1086.662 .0256220
1087.242 .0256414
1087.822 .0256612
1088.402 .0256813
1088.983 .0257017
1089.563 .0257223
1090.144 .0257432
1090.725 .0257643
1091.306 .0257856
1091.887 .0258070
1092.469 .0258286
1093.050 .0258503
1093.632 .0258723
1094.214 .0258943
1094.796 .0259165
1095.379 .0259386
1095.961 .0259606
1096.544 .0259824
1097.127 .0260037
1097.710 .0260245
1098.294 .0260448
1098.877 .0260645
1099.461 .0260836
1100.046 .0261021
1100.630 .0261203
1101.215 .0261380
1101.800 .0261554
1102.385 .0261726
1102.970 .0261897
1103.556 .0262067
1104.142 .0262237
1104.728 .0262410
1105.315 .0262587
1105.902 .0262771
1106.489 .0262961
1107.077 .0263161
1107.664 .0263371
1108.253 .0263593
1108.841 .0263825
1109.430 .0264070
1110.019 .0264325
1110.609 .0264592
1111.198 .0264870
1111.789 .0265161
1112.379 .0265468
1112.970 .0265792
1113.561 .0266136
1114.153 .0266501
1114.745 .0266889
1115.338 .0267300
1115.931 .0267733
1116.524 .0268187
1117.117 .0268660
1117.712 .0269152
1118.306 .0269661
1118.901 .0270187
1119.496 .0270730
1120.092 .0271289
1120.689 .0271864
1121.285 .0272453
1121.882 .0273054
1122.480 .0273665
1123.078 .0274283
1123.677 .0274909
1124.276 .0275541
1124.875 .0276180
1125.476 .0276826
1126.076 .0277481
1126.677 .0278148
1127.279 .0278831
1127.881 .0279533
1128.484 .0280258
1129.087 .0280606
1129.691 .0281359
1130.295 .0282137
1130.900 .0282941
1131.505 .0283775
1132.111 .0284643
1132.718 .0285548
1133.325 .0286500
1133.933 .0287500
1134.541 .0288524
1135.150 .0289660
1135.760 .0290810
1136.370 .0292123
1136.981 .0290924
1137.592 .0292227
1138.204 .0293623
1138.817 .0295125
1139.431 .0296731
1140.045 .0298494
1140.660 .0300337
1141.275 .0302408
1141.891 .0304511
1142.508 .0305865
1143.126 .0309657
1143.744 .0310692
1144.363 .0315847
1144.983 .0315416
