Measurement Sequence started on: 15-12-46-377
Integration time: 28
Scans to Average: 2 
>>>>>Begin Spectral Data<<<<<
432.689 .0000100
433.621 .0000100
434.552 .0000100
435.482 .0000100
436.410 .0000100
437.337 .0000100
438.262 .0246296
439.187 .0522222
440.110 .0865960
441.031 .1253744
441.952 .1011993
442.871 .1058014
443.789 .1101081
444.705 .1141843
445.621 .1180736
446.535 .1218090
447.447 .1241158
448.359 .1248541
449.269 .1236810
450.178 .1203736
451.086 .1149950
451.993 .1079702
452.898 .1000065
453.803 .0919087
454.706 .0843629
455.608 .0777960
456.508 .0723534
457.408 .0686699
458.306 .0658313
459.204 .0635090
460.100 .0615356
460.995 .0598195
461.888 .0582984
462.781 .0569319
463.673 .0556901
464.563 .0545543
465.452 .0535111
466.340 .0525497
467.228 .0516636
468.114 .0508479
468.999 .0500985
469.882 .0494116
470.765 .0487839
471.647 .0482126
472.528 .0476944
473.407 .0472267
474.286 .0468060
475.163 .0464297
476.040 .0460948
476.915 .0457986
477.790 .0455385
478.663 .0453125
479.535 .0451184
480.407 .0449546
481.277 .0448192
482.147 .0447102
483.015 .0446249
483.883 .0445612
484.749 .0445168
485.615 .0444895
486.479 .0444778
487.343 .0444810
488.206 .0444987
489.067 .0445316
489.928 .0445813
490.788 .0446489
491.647 .0447361
492.505 .0448439
493.362 .0449735
494.218 .0451249
495.073 .0452983
495.928 .0456382
496.781 .0458655
497.634 .0461139
498.486 .0463835
499.337 .0466754
500.187 .0469907
501.036 .0473316
501.884 .0477002
502.731 .0480988
503.578 .0485298
504.424 .0488092
505.268 .0493004
506.113 .0498345
506.956 .0504153
507.798 .0510493
508.640 .0517433
509.480 .0525058
510.320 .0533482
511.160 .0542829
511.998 .0553237
512.836 .0564879
513.672 .0577923
514.508 .0592574
515.344 .0609054
516.178 .0627591
517.012 .0648418
517.845 .0671769
518.677 .0697830
519.508 .0726711
520.339 .0758466
521.169 .0793071
521.998 .0830225
522.826 .0869549
523.654 .0910511
524.481 .0952482
525.307 .0994743
526.133 .1036523
526.958 .1076994
527.782 .1115358
528.605 .1150840
529.428 .1182724
530.250 .1210327
531.072 .1233197
531.892 .1250894
532.712 .1263132
533.532 .1269759
534.350 .1270731
535.168 .1266084
535.986 .1255944
536.802 .1240473
537.618 .1219864
538.434 .1194332
539.249 .1164331
540.063 .1130337
540.876 .1092969
541.689 .1052903
542.501 .1010879
543.313 .0967681
544.124 .0924128
544.934 .0880987
545.744 .0838988
546.553 .0798789
547.361 .0760971
548.169 .0725874
548.976 .0693773
549.783 .0664759
550.589 .0638764
551.395 .0615591
552.200 .0594957
553.004 .0576526
553.808 .0560004
554.611 .0545114
555.414 .0531648
556.216 .0519417
557.018 .0508283
557.819 .0498117
558.619 .0488811
559.419 .0480270
560.218 .0472394
561.017 .0465092
561.815 .0458270
562.613 .0451845
563.410 .0445732
564.207 .0439861
565.003 .0434177
565.799 .0428637
566.594 .0423217
567.388 .0417904
568.182 .0412698
568.976 .0407604
569.769 .0402628
570.562 .0397776
571.354 .0393054
572.145 .0388467
572.936 .0384012
573.727 .0379686
574.517 .0375491
575.307 .0371435
576.096 .0367522
576.885 .0363764
577.673 .0360172
578.461 .0356755
579.248 .0353523
580.035 .0350477
580.821 .0347616
581.607 .0344940
582.392 .0342444
583.177 .0340122
583.962 .0337970
584.746 .0335979
585.529 .0334145
586.313 .0332461
587.095 .0330918
587.878 .0329509
588.660 .0328221
589.441 .0327045
590.222 .0325971
591.003 .0324989
591.783 .0324089
592.563 .0323262
593.342 .0322496
594.121 .0321782
594.899 .0321111
595.678 .0320474
596.455 .0319864
597.233 .0319275
598.009 .0318705
598.786 .0318151
599.562 .0317612
600.338 .0317088
601.113 .0316578
601.888 .0315854
602.663 .0315375
603.437 .0314907
604.211 .0314450
604.984 .0314003
605.757 .0313569
606.530 .0313147
607.302 .0312739
608.074 .0312344
608.845 .0311965
609.616 .0311600
610.387 .0311454
611.158 .0311111
611.928 .0310783
612.697 .0310469
613.467 .0310168
614.236 .0309881
615.004 .0309606
615.773 .0309342
616.541 .0309088
617.308 .0308842
618.076 .0308604
618.843 .0308374
619.609 .0308150
620.375 .0307933
621.141 .0307721
621.907 .0307515
622.672 .0307314
623.437 .0307117
624.202 .0306923
624.966 .0306733
625.730 .0306546
626.493 .0306360
627.257 .0306176
628.020 .0305994
628.782 .0305813
629.545 .0305633
630.307 .0305453
631.068 .0305272
631.830 .0305090
632.591 .0304904
633.352 .0304715
634.112 .0304522
634.872 .0304325
635.632 .0304125
636.392 .0303921
637.151 .0303715
637.910 .0303506
638.668 .0303296
639.427 .0303084
640.185 .0302871
640.943 .0302655
641.700 .0302437
642.457 .0302218
643.214 .0301997
643.971 .0301775
644.727 .0301553
645.483 .0301330
646.239 .0301109
646.994 .0300888
647.750 .0300669
648.505 .0300451
649.259 .0300235
650.014 .0300019
650.768 .0299804
651.521 .0299589
652.275 .0299374
653.028 .0299158
653.781 .0298942
654.534 .0298723
655.286 .0298502
656.039 .0298278
656.791 .0298050
657.542 .0297819
658.294 .0297583
659.045 .0297344
659.796 .0297100
660.546 .0296854
661.297 .0296603
662.047 .0296350
662.796 .0296093
663.546 .0295834
664.295 .0295571
665.044 .0295308
665.793 .0295043
666.542 .0294780
667.290 .0294519
668.038 .0294262
668.786 .0294010
669.533 .0293764
670.281 .0293525
671.028 .0293292
671.774 .0293066
672.521 .0292847
673.267 .0292633
674.013 .0292427
674.759 .0292226
675.505 .0292033
676.250 .0291847
676.995 .0291667
677.740 .0291494
678.484 .0291326
679.229 .0291163
679.973 .0291004
680.717 .0290848
681.460 .0290696
682.204 .0290546
682.947 .0290399
683.690 .0290254
684.433 .0290111
685.175 .0289970
685.917 .0289831
686.659 .0289695
687.401 .0289561
688.142 .0289430
688.884 .0289302
689.625 .0289178
690.365 .0289057
691.106 .0288939
691.846 .0288824
692.586 .0288710
693.326 .0288599
694.066 .0288488
694.805 .0288379
695.545 .0288272
696.284 .0288166
697.022 .0288062
697.761 .0287960
698.499 .0287860
699.237 .0287760
699.975 .0287661
700.713 .0287562
701.450 .0287462
702.187 .0287361
702.924 .0287257
703.661 .0287152
704.397 .0287045
705.133 .0286935
705.869 .0286823
706.605 .0286706
707.341 .0286587
708.076 .0286463
708.811 .0286334
709.546 .0286202
710.281 .0286064
711.015 .0285923
711.749 .0285776
712.483 .0285625
713.217 .0285469
713.950 .0285307
714.684 .0285140
715.417 .0284967
716.150 .0284789
716.882 .0284605
717.615 .0284416
718.347 .0284222
719.079 .0284022
719.811 .0283818
720.542 .0283610
721.273 .0283397
722.005 .0283180
722.735 .0282960
723.466 .0282736
724.196 .0282511
724.927 .0282283
725.656 .0282054
726.386 .0281823
727.116 .0281590
727.845 .0281357
728.574 .0281122
729.303 .0280887
730.031 .0280652
730.760 .0280418
731.488 .0280185
732.216 .0279955
732.944 .0279727
733.671 .0279501
734.398 .0279278
735.125 .0279058
735.852 .0278839
736.579 .0278623
737.305 .0278408
738.031 .0278196
738.757 .0277986
739.483 .0277778
740.208 .0277574
740.933 .0277374
741.658 .0277177
742.383 .0276984
743.108 .0276794
743.832 .0276609
744.556 .0276429
745.280 .0276253
746.004 .0276081
746.727 .0275914
747.450 .0275751
748.173 .0275593
748.896 .0275439
749.618 .0275289
750.340 .0275144
751.062 .0275004
751.784 .0274869
752.506 .0274740
753.227 .0274616
753.948 .0274499
754.669 .0274388
755.389 .0274283
756.110 .0274184
756.830 .0274092
757.550 .0274005
758.269 .0273925
758.989 .0273852
759.708 .0273785
760.427 .0273724
761.146 .0273670
761.864 .0273622
762.582 .0273580
763.300 .0273543
764.018 .0273512
764.736 .0273486
765.453 .0273466
766.170 .0273452
766.887 .0273442
767.603 .0273438
768.320 .0273440
769.036 .0273447
769.751 .0273458
770.467 .0273474
771.182 .0273493
771.897 .0273516
772.612 .0273542
773.327 .0273571
774.041 .0273602
774.755 .0273636
775.469 .0273671
776.183 .0273707
776.896 .0273745
777.609 .0273784
778.322 .0273824
779.035 .0273865
779.747 .0273905
780.459 .0273945
781.171 .0273983
781.882 .0274019
782.594 .0274052
783.305 .0274082
784.016 .0274107
784.726 .0274127
785.436 .0274141
786.147 .0274138
786.856 .0274135
787.566 .0274124
788.275 .0274105
788.984 .0274076
789.693 .0274039
790.401 .0273991
791.110 .0273933
791.818 .0273864
792.525 .0273786
793.233 .0273697
793.940 .0273597
794.647 .0273518
795.353 .0273403
796.060 .0273279
796.766 .0273145
797.472 .0273002
798.177 .0272852
798.883 .0272694
799.588 .0272529
800.292 .0272357
800.997 .0272179
801.701 .0271995
802.405 .0271805
803.109 .0271608
803.812 .0271405
804.515 .0271197
805.218 .0270983
805.921 .0270764
806.623 .0270541
807.325 .0270313
808.027 .0270081
808.728 .0269845
809.429 .0269604
810.130 .0269360
810.831 .0269113
811.531 .0268862
812.231 .0268609
812.931 .0268354
813.630 .0268098
814.330 .0267840
815.029 .0267582
815.727 .0267323
816.426 .0267064
817.124 .0266806
817.821 .0266548
818.519 .0266291
819.216 .0266036
819.913 .0265783
820.609 .0265534
821.306 .0265289
822.002 .0265048
822.697 .0264811
823.393 .0264579
824.088 .0264352
824.783 .0264130
825.477 .0263913
826.171 .0263701
826.865 .0263494
827.559 .0263293
828.252 .0263096
828.945 .0262904
829.638 .0262718
830.330 .0262537
831.023 .0262362
831.714 .0262193
832.406 .0262029
833.097 .0261871
833.788 .0261718
834.479 .0261570
835.169 .0261427
835.859 .0261288
836.548 .0261155
837.238 .0261026
837.927 .0260903
838.615 .0260785
839.304 .0260673
839.992 .0260567
840.680 .0260465
841.367 .0260369
842.054 .0260278
842.741 .0260192
843.428 .0260111
844.114 .0260036
844.800 .0259967
845.485 .0259903
846.170 .0259845
846.855 .0259792
847.540 .0259744
848.224 .0259701
848.908 .0259661
849.592 .0259626
850.275 .0259594
850.958 .0259565
851.641 .0259540
852.323 .0259519
853.005 .0259501
853.687 .0259487
854.368 .0259477
855.049 .0259470
855.730 .0259467
856.410 .0259469
857.090 .0259474
857.769 .0259485
858.449 .0259501
859.128 .0259523
859.806 .0259550
860.485 .0259584
861.163 .0259623
861.840 .0259669
862.518 .0259721
863.195 .0259779
863.871 .0259843
864.548 .0259914
865.224 .0259991
865.899 .0260074
866.574 .0260162
867.249 .0260256
867.924 .0260355
868.598 .0260458
869.272 .0260564
869.946 .0260673
870.619 .0260783
871.292 .0260895
871.964 .0261008
872.636 .0261121
873.308 .0261233
873.979 .0261345
874.651 .0261456
875.321 .0261564
875.992 .0261671
876.662 .0261774
877.331 .0261873
878.001 .0261966
878.670 .0262054
879.338 .0262136
880.007 .0262210
880.675 .0262278
881.342 .0262339
882.009 .0262392
882.676 .0262437
883.343 .0262476
884.009 .0262507
884.675 .0262532
885.340 .0262550
886.005 .0262561
886.670 .0262567
887.334 .0262567
887.998 .0262562
888.662 .0262553
889.325 .0262540
889.988 .0262522
890.650 .0262500
891.312 .0262473
891.974 .0262443
892.636 .0262407
893.297 .0262368
893.957 .0262324
894.618 .0262276
895.278 .0262224
895.937 .0262168
896.596 .0262107
897.255 .0262040
897.914 .0261966
898.572 .0261884
899.230 .0261793
899.887 .0261693
900.544 .0261583
901.201 .0261463
901.857 .0261238
902.513 .0261092
903.168 .0260936
903.823 .0260769
904.478 .0260592
905.132 .0260403
905.786 .0260203
906.440 .0259990
907.093 .0259764
907.746 .0259528
908.399 .0259282
909.051 .0259026
909.703 .0258763
910.354 .0258611
911.005 .0258341
911.656 .0258064
912.306 .0257781
912.956 .0257491
913.605 .0257196
914.254 .0256896
914.903 .0256591
915.551 .0256282
916.199 .0255971
916.847 .0255657
917.494 .0255343
918.141 .0255027
918.788 .0254709
919.434 .0254390
920.079 .0254069
920.725 .0253745
921.370 .0253419
922.014 .0253089
922.658 .0252757
923.302 .0252423
923.946 .0252088
924.589 .0251751
925.231 .0251413
925.873 .0251074
926.515 .0250734
927.157 .0250392
927.798 .0250048
928.439 .0249703
929.079 .0249356
929.719 .0249008
930.359 .0248660
930.998 .0248312
931.637 .0247965
932.275 .0247621
932.913 .0247280
933.551 .0246943
934.188 .0246610
934.825 .0246284
935.462 .0245963
936.098 .0245648
936.733 .0245341
937.369 .0245041
938.004 .0244750
938.638 .0244468
939.273 .0244197
939.907 .0243936
940.540 .0243686
941.173 .0243448
941.806 .0243221
942.438 .0243006
943.070 .0242802
943.702 .0242609
944.333 .0242426
944.964 .0242253
945.594 .0242090
946.224 .0241936
946.854 .0241792
947.483 .0241656
948.112 .0241529
948.741 .0241411
949.369 .0241300
949.996 .0241196
950.624 .0241098
951.251 .0241005
951.878 .0240916
952.504 .0240832
953.130 .0240752
953.755 .0240676
954.380 .0240604
955.005 .0240536
955.629 .0240472
956.253 .0240412
956.877 .0240356
957.500 .0240303
958.123 .0240253
958.746 .0240208
959.368 .0240166
959.990 .0240129
960.611 .0240097
961.232 .0240070
961.853 .0240050
962.473 .0240036
963.093 .0240030
963.712 .0240031
964.331 .0240039
964.950 .0240054
965.569 .0240076
966.187 .0240106
966.804 .0240144
967.422 .0240189
968.039 .0240241
968.655 .0240300
969.272 .0240365
969.887 .0240437
970.503 .0240515
971.118 .0240599
971.733 .0240689
972.347 .0240783
972.961 .0240882
973.575 .0240986
974.188 .0241093
974.801 .0241204
975.414 .0241317
976.026 .0241433
976.638 .0241550
977.250 .0241668
977.861 .0241786
978.472 .0241905
979.083 .0242023
979.693 .0242140
980.303 .0242257
980.912 .0242423
981.521 .0242535
982.130 .0242645
982.738 .0242752
983.346 .0242859
983.954 .0242964
984.562 .0243068
985.169 .0243172
985.775 .0243277
986.382 .0243382
986.988 .0243489
987.594 .0243597
988.199 .0243708
988.804 .0243821
989.409 .0243887
990.013 .0244007
990.617 .0244131
991.221 .0244261
991.824 .0244395
992.427 .0244535
993.030 .0244680
993.632 .0244828
994.234 .0244981
994.836 .0245136
995.438 .0245294
996.039 .0245455
996.640 .0245619
997.240 .0245785
997.840 .0245954
998.440 .0246126
999.040 .0246300
999.639 .0246475
1000.238 .0246651
1000.836 .0246826
1001.435 .0246999
1002.033 .0247170
1002.630 .0247338
1003.228 .0247503
1003.825 .0247665
1004.422 .0247824
1005.018 .0247979
1005.614 .0248130
1006.210 .0248275
1006.806 .0248415
1007.401 .0248547
1007.996 .0248672
1008.591 .0248788
1009.186 .0248897
1009.780 .0248999
1010.374 .0249095
1010.967 .0249186
1011.561 .0249273
1012.154 .0249358
1012.746 .0249439
1013.339 .0249518
1013.931 .0249595
1014.523 .0249670
1015.115 .0249742
1015.706 .0249813
1016.298 .0249882
1016.888 .0249951
1017.479 .0250019
1018.069 .0250087
1018.660 .0250155
1019.250 .0250225
1019.839 .0250295
1020.429 .0250365
1021.018 .0250436
1021.607 .0250506
1022.195 .0250576
1022.784 .0250646
1023.372 .0250714
1023.960 .0250781
1024.547 .0250846
1025.135 .0250910
1025.722 .0250971
1026.309 .0251029
1026.896 .0251084
1027.483 .0251135
1028.069 .0251181
1028.655 .0251222
1029.241 .0251257
1029.827 .0251284
1030.412 .0251303
1030.997 .0251314
1031.582 .0251316
1032.167 .0251308
1032.752 .0251291
1033.336 .0251265
1033.921 .0251229
1034.505 .0251184
1035.089 .0251131
1035.672 .0251069
1036.256 .0250997
1036.839 .0250916
1037.422 .0250826
1038.005 .0250726
1038.588 .0250617
1039.171 .0250498
1039.753 .0250372
1040.335 .0250239
1040.918 .0250099
1041.500 .0249955
1042.081 .0249808
1042.663 .0249656
1043.244 .0249501
1043.826 .0249343
1044.407 .0249182
1044.988 .0249017
1045.569 .0248848
1046.150 .0248678
1046.730 .0248505
1047.311 .0248332
1047.891 .0248158
1048.471 .0247985
1049.052 .0247812
1049.632 .0247639
1050.211 .0247464
1050.791 .0247287
1051.371 .0247108
1051.950 .0246924
1052.530 .0246737
1053.109 .0246546
1053.688 .0246351
1054.268 .0246154
1054.847 .0245956
1055.426 .0245758
1056.005 .0245560
1056.583 .0245362
1057.162 .0245165
1057.741 .0244967
1058.319 .0244769
1058.898 .0244568
1059.476 .0244367
1060.055 .0244163
1060.633 .0243959
1061.211 .0243755
1061.790 .0243553
1062.368 .0243354
1062.946 .0243158
1063.524 .0242965
1064.102 .0242775
1064.680 .0242586
1065.258 .0242396
1065.836 .0242205
1066.414 .0242013
1066.992 .0241819
1067.570 .0241625
1068.148 .0241432
1068.726 .0241242
1069.304 .0241057
1069.882 .0240877
1070.460 .0240703
1071.038 .0240533
1071.616 .0240367
1072.194 .0240202
1072.772 .0240038
1073.350 .0239873
1073.928 .0239707
1074.506 .0239540
1075.084 .0239375
1075.662 .0239213
1076.240 .0239054
1076.819 .0238900
1077.397 .0238751
1077.976 .0238606
1078.554 .0238466
1079.133 .0238328
1079.711 .0238192
1080.290 .0238058
1080.869 .0237927
1081.448 .0237800
1082.027 .0237678
1082.606 .0237562
1083.185 .0237456
1083.764 .0237358
1084.343 .0237270
1084.923 .0237192
1085.502 .0237123
1086.082 .0237062
1086.662 .0237009
1087.242 .0236963
1087.822 .0236924
1088.402 .0236890
1088.983 .0236863
1089.563 .0236842
1090.144 .0236828
1090.725 .0236821
1091.306 .0236822
1091.887 .0236831
1092.469 .0236849
1093.050 .0236874
1093.632 .0236909
1094.214 .0236953
1094.796 .0237005
1095.379 .0237066
1095.961 .0237135
1096.544 .0237214
1097.127 .0237302
1097.710 .0237400
1098.294 .0237511
1098.877 .0237635
1099.461 .0237772
1100.046 .0237925
1100.630 .0238092
1101.215 .0238274
1101.800 .0238470
1102.385 .0238678
1102.970 .0238896
1103.556 .0239124
1104.142 .0239360
1104.728 .0239607
1105.315 .0239864
1105.902 .0240133
1106.489 .0240414
1107.077 .0240707
1107.664 .0241012
1108.253 .0241327
1108.841 .0241653
1109.430 .0241988
1110.019 .0242333
1110.609 .0242686
1111.198 .0243049
1111.789 .0243422
1112.379 .0243807
1112.970 .0244204
1113.561 .0244611
1114.153 .0245028
1114.745 .0245454
1115.338 .0245887
1115.931 .0246326
1116.524 .0246770
1117.117 .0247219
1117.712 .0247669
1118.306 .0248123
1118.901 .0248579
1119.496 .0249038
1120.092 .0249500
1120.689 .0249965
1121.285 .0250432
1121.882 .0250902
1122.480 .0251378
1123.078 .0251862
1123.677 .0252359
1124.276 .0252874
1124.875 .0253410
1125.476 .0253971
1126.076 .0254559
1126.677 .0255175
1127.279 .0255817
1127.881 .0256486
1128.484 .0257179
1129.087 .0257473
1129.691 .0258196
1130.295 .0258944
1130.900 .0259721
1131.505 .0260529
1132.111 .0261371
1132.718 .0262248
1133.325 .0263163
1133.933 .0264126
1134.541 .0265117
1135.150 .0266116
1135.760 .0267139
1136.370 .0268313
1136.981 .0268529
1137.592 .0269766
1138.204 .0271077
1138.817 .0272475
1139.431 .0273935
1140.045 .0275434
1140.660 .0276949
1141.275 .0278578
1141.891 .0280440
1142.508 .0281811
1143.126 .0282559
1143.744 .0283803
1144.363 .0288545
1144.983 .0295500
