Measurement Sequence started on: 15-12-46-377
Integration time: 28
Scans to Average: 2 
>>>>>Begin Spectral Data<<<<<
432.689 .0000100
433.621 .0000100
434.552 .0000100
435.482 .0000100
436.410 .0000100
437.337 .0000100
438.262 .0268865
439.187 .0568934
440.110 .0942653
441.031 .1364604
441.952 .1102230
442.871 .1152128
443.789 .1198622
444.705 .1242423
445.621 .1284028
446.535 .1323829
447.447 .1347947
448.359 .1354944
449.269 .1341096
450.178 .1303987
451.086 .1244306
451.993 .1166670
452.898 .1078763
453.803 .0989338
454.706 .0905864
455.608 .0833017
456.508 .0772403
457.408 .0731018
458.306 .0698921
459.204 .0672612
460.100 .0650325
460.995 .0631070
461.888 .0614161
462.781 .0599127
463.673 .0585603
464.563 .0573346
465.452 .0562179
466.340 .0551979
467.228 .0542649
468.114 .0534130
468.999 .0526365
469.882 .0519297
470.765 .0512870
471.647 .0507030
472.528 .0501727
473.407 .0496921
474.286 .0492571
475.163 .0488650
476.040 .0485130
476.915 .0481999
477.790 .0479235
478.663 .0476823
479.535 .0474742
480.407 .0472972
481.277 .0471488
482.147 .0470266
483.015 .0469279
483.883 .0468512
484.749 .0467949
485.615 .0467580
486.479 .0467394
487.343 .0467380
488.206 .0467530
489.067 .0467832
489.928 .0468277
490.788 .0468857
491.647 .0469566
492.505 .0470402
493.362 .0471364
494.218 .0472461
495.073 .0473704
495.928 .0476130
496.781 .0477821
497.634 .0479705
498.486 .0481792
499.337 .0484096
500.187 .0486633
501.036 .0489422
501.884 .0492492
502.731 .0495880
503.578 .0499629
504.424 .0502340
505.268 .0506812
506.113 .0511787
506.956 .0517317
507.798 .0523465
508.640 .0530309
509.480 .0537931
510.320 .0546431
511.160 .0555905
511.998 .0566468
512.836 .0578260
513.672 .0591418
514.508 .0606097
515.344 .0622462
516.178 .0640679
517.012 .0660952
517.845 .0683485
518.677 .0708477
519.508 .0736095
520.339 .0766464
521.169 .0799670
521.998 .0835531
522.826 .0873759
523.654 .0913899
524.481 .0955313
525.307 .0997296
526.133 .1038992
526.958 .1079503
527.782 .1117983
528.605 .1153654
529.428 .1185823
530.250 .1213873
531.072 .1237405
531.892 .1256065
532.712 .1269612
533.532 .1277943
534.350 .1280951
535.168 .1278613
535.986 .1270975
536.802 .1258073
537.618 .1239984
538.434 .1216806
539.249 .1188898
540.063 .1156726
540.876 .1120875
541.689 .1082066
542.501 .1041072
543.313 .0998769
544.124 .0956061
544.934 .0913744
545.744 .0872545
546.553 .0833083
547.361 .0795876
548.169 .0761216
548.976 .0729335
549.783 .0700329
550.589 .0674150
551.395 .0650689
552.200 .0629755
553.004 .0611069
553.808 .0594388
554.611 .0579457
555.414 .0566045
556.216 .0553922
557.018 .0542864
557.819 .0532689
558.619 .0523261
559.419 .0514460
560.218 .0506191
561.017 .0498362
561.815 .0490916
562.613 .0483792
563.410 .0476938
564.207 .0470301
565.003 .0463840
565.799 .0457516
566.594 .0451303
567.388 .0445190
568.182 .0439180
568.976 .0433273
569.769 .0427485
570.562 .0421838
571.354 .0416352
572.145 .0411037
572.936 .0405901
573.727 .0400947
574.517 .0396179
575.307 .0391597
576.096 .0387194
576.885 .0382973
577.673 .0378941
578.461 .0375104
579.248 .0371466
580.035 .0368030
580.821 .0364800
581.607 .0361773
582.392 .0358946
583.177 .0356314
583.962 .0353865
584.746 .0351591
585.529 .0349483
586.313 .0347529
587.095 .0345719
587.878 .0344043
588.660 .0342494
589.441 .0341065
590.222 .0339750
591.003 .0338539
591.783 .0337426
592.563 .0336403
593.342 .0335463
594.121 .0334594
594.899 .0333787
595.678 .0333033
596.455 .0332327
597.233 .0331660
598.009 .0331029
598.786 .0330428
599.562 .0329855
600.338 .0329306
601.113 .0328779
601.888 .0328058
602.663 .0327576
603.437 .0327109
604.211 .0326655
604.984 .0326213
605.757 .0325782
606.530 .0325360
607.302 .0324948
608.074 .0324545
608.845 .0324151
609.616 .0323766
610.387 .0323589
611.158 .0323218
611.928 .0322856
612.697 .0322503
613.467 .0322158
614.236 .0321823
615.004 .0321496
615.773 .0321176
616.541 .0320864
617.308 .0320560
618.076 .0320262
618.843 .0319971
619.609 .0319686
620.375 .0319406
621.141 .0319132
621.907 .0318863
622.672 .0318598
623.437 .0318337
624.202 .0318080
624.966 .0317825
625.730 .0317571
626.493 .0317318
627.257 .0317063
628.020 .0316808
628.782 .0316551
629.545 .0316294
630.307 .0316036
631.068 .0315778
631.830 .0315521
632.591 .0315265
633.352 .0315010
634.112 .0314756
634.872 .0314501
635.632 .0314247
636.392 .0313992
637.151 .0313738
637.910 .0313486
638.668 .0313237
639.427 .0312992
640.185 .0312752
640.943 .0312517
641.700 .0312288
642.457 .0312064
643.214 .0311846
643.971 .0311633
644.727 .0311425
645.483 .0311221
646.239 .0311021
646.994 .0310824
647.750 .0310629
648.505 .0310435
649.259 .0310241
650.014 .0310045
650.768 .0309849
651.521 .0309650
652.275 .0309449
653.028 .0309247
653.781 .0309044
654.534 .0308838
655.286 .0308630
656.039 .0308419
656.791 .0308203
657.542 .0307982
658.294 .0307756
659.045 .0307524
659.796 .0307288
660.546 .0307049
661.297 .0306806
662.047 .0306563
662.796 .0306318
663.546 .0306073
664.295 .0305828
665.044 .0305583
665.793 .0305338
666.542 .0305092
667.290 .0304848
668.038 .0304603
668.786 .0304360
669.533 .0304118
670.281 .0303878
671.028 .0303639
671.774 .0303403
672.521 .0303170
673.267 .0302941
674.013 .0302716
674.759 .0302495
675.505 .0302279
676.250 .0302068
676.995 .0301861
677.740 .0301658
678.484 .0301458
679.229 .0301261
679.973 .0301066
680.717 .0300874
681.460 .0300685
682.204 .0300497
682.947 .0300311
683.690 .0300127
684.433 .0299943
685.175 .0299758
685.917 .0299573
686.659 .0299387
687.401 .0299200
688.142 .0299010
688.884 .0298817
689.625 .0298621
690.365 .0298421
691.106 .0298216
691.846 .0298006
692.586 .0297790
693.326 .0297569
694.066 .0297344
694.805 .0297116
695.545 .0296884
696.284 .0296650
697.022 .0296416
697.761 .0296180
698.499 .0295945
699.237 .0295708
699.975 .0295472
700.713 .0295237
701.450 .0295003
702.187 .0294772
702.924 .0294544
703.661 .0294321
704.397 .0294101
705.133 .0293887
705.869 .0293677
706.605 .0293472
707.341 .0293272
708.076 .0293077
708.811 .0292886
709.546 .0292699
710.281 .0292516
711.015 .0292336
711.749 .0292160
712.483 .0291986
713.217 .0291815
713.950 .0291644
714.684 .0291475
715.417 .0291307
716.150 .0291139
716.882 .0290973
717.615 .0290807
718.347 .0290642
719.079 .0290478
719.811 .0290315
720.542 .0290153
721.273 .0289992
722.005 .0289833
722.735 .0289675
723.466 .0289520
724.196 .0289367
724.927 .0289217
725.656 .0289071
726.386 .0288928
727.116 .0288788
727.845 .0288653
728.574 .0288521
729.303 .0288393
730.031 .0288270
730.760 .0288151
731.488 .0288035
732.216 .0287923
732.944 .0287815
733.671 .0287710
734.398 .0287609
735.125 .0287510
735.852 .0287416
736.579 .0287324
737.305 .0287234
738.031 .0287147
738.757 .0287061
739.483 .0286978
740.208 .0286896
740.933 .0286816
741.658 .0286737
742.383 .0286660
743.108 .0286585
743.832 .0286512
744.556 .0286439
745.280 .0286367
746.004 .0286293
746.727 .0286218
747.450 .0286141
748.173 .0286060
748.896 .0285976
749.618 .0285889
750.340 .0285798
751.062 .0285702
751.784 .0285602
752.506 .0285497
753.227 .0285386
753.948 .0285269
754.669 .0285145
755.389 .0285016
756.110 .0284881
756.830 .0284741
757.550 .0284596
758.269 .0284446
758.989 .0284293
759.708 .0284136
760.427 .0283975
761.146 .0283810
761.864 .0283643
762.582 .0283473
763.300 .0283300
764.018 .0283126
764.736 .0282951
765.453 .0282775
766.170 .0282598
766.887 .0282421
767.603 .0282244
768.320 .0282068
769.036 .0281893
769.751 .0281721
770.467 .0281550
771.182 .0281382
771.897 .0281217
772.612 .0281055
773.327 .0280895
774.041 .0280739
774.755 .0280585
775.469 .0280434
776.183 .0280286
776.896 .0280142
777.609 .0280002
778.322 .0279865
779.035 .0279733
779.747 .0279604
780.459 .0279479
781.171 .0279356
781.882 .0279237
782.594 .0279119
783.305 .0279003
784.016 .0278889
784.726 .0278775
785.436 .0278663
786.147 .0278493
786.856 .0278379
787.566 .0278265
788.275 .0278150
788.984 .0278034
789.693 .0277917
790.401 .0277797
791.110 .0277676
791.818 .0277551
792.525 .0277424
793.233 .0277293
793.940 .0277159
794.647 .0277082
795.353 .0276943
796.060 .0276801
796.766 .0276656
797.472 .0276508
798.177 .0276358
798.883 .0276205
799.588 .0276050
800.292 .0275894
800.997 .0275736
801.701 .0275577
802.405 .0275417
803.109 .0275256
803.812 .0275095
804.515 .0274933
805.218 .0274770
805.921 .0274608
806.623 .0274445
807.325 .0274282
808.027 .0274121
808.728 .0273960
809.429 .0273802
810.130 .0273644
810.831 .0273489
811.531 .0273335
812.231 .0273184
812.931 .0273035
813.630 .0272887
814.330 .0272743
815.029 .0272601
815.727 .0272463
816.426 .0272329
817.124 .0272200
817.821 .0272075
818.519 .0271956
819.216 .0271841
819.913 .0271731
820.609 .0271626
821.306 .0271526
822.002 .0271432
822.697 .0271343
823.393 .0271260
824.088 .0271184
824.783 .0271114
825.477 .0271051
826.171 .0270995
826.865 .0270945
827.559 .0270902
828.252 .0270864
828.945 .0270832
829.638 .0270807
830.330 .0270787
831.023 .0270774
831.714 .0270767
832.406 .0270765
833.097 .0270769
833.788 .0270776
834.479 .0270788
835.169 .0270804
835.859 .0270823
836.548 .0270845
837.238 .0270870
837.927 .0270897
838.615 .0270925
839.304 .0270953
839.992 .0270979
840.680 .0271004
841.367 .0271026
842.054 .0271044
842.741 .0271058
843.428 .0271068
844.114 .0271075
844.800 .0271079
845.485 .0271079
846.170 .0271075
846.855 .0271068
847.540 .0271055
848.224 .0271037
848.908 .0271014
849.592 .0270984
850.275 .0270948
850.958 .0270907
851.641 .0270859
852.323 .0270807
853.005 .0270749
853.687 .0270686
854.368 .0270618
855.049 .0270544
855.730 .0270464
856.410 .0270380
857.090 .0270291
857.769 .0270199
858.449 .0270103
859.128 .0270005
859.806 .0269905
860.485 .0269804
861.163 .0269700
861.840 .0269595
862.518 .0269489
863.195 .0269381
863.871 .0269274
864.548 .0269166
865.224 .0269059
865.899 .0268953
866.574 .0268849
867.249 .0268746
867.924 .0268644
868.598 .0268544
869.272 .0268444
869.946 .0268346
870.619 .0268249
871.292 .0268154
871.964 .0268061
872.636 .0267970
873.308 .0267883
873.979 .0267799
874.651 .0267717
875.321 .0267638
875.992 .0267560
876.662 .0267484
877.331 .0267407
878.001 .0267332
878.670 .0267256
879.338 .0267181
880.007 .0267106
880.675 .0267032
881.342 .0266958
882.009 .0266884
882.676 .0266810
883.343 .0266737
884.009 .0266663
884.675 .0266589
885.340 .0266515
886.005 .0266441
886.670 .0266367
887.334 .0266293
887.998 .0266219
888.662 .0266144
889.325 .0266069
889.988 .0265994
890.650 .0265918
891.312 .0265842
891.974 .0265764
892.636 .0265684
893.297 .0265603
893.957 .0265520
894.618 .0265433
895.278 .0265343
895.937 .0265249
896.596 .0265150
897.255 .0265046
897.914 .0264936
898.572 .0264820
899.230 .0264698
899.887 .0264568
900.544 .0264430
901.201 .0264283
901.857 .0264022
902.513 .0263850
903.168 .0263667
903.823 .0263475
904.478 .0263274
905.132 .0263064
905.786 .0262846
906.440 .0262620
907.093 .0262388
907.746 .0262150
908.399 .0261907
909.051 .0261660
909.703 .0261410
910.354 .0261277
911.005 .0261027
911.656 .0260776
912.306 .0260525
912.956 .0260275
913.605 .0260025
914.254 .0259776
914.903 .0259527
915.551 .0259280
916.199 .0259032
916.847 .0258785
917.494 .0258540
918.141 .0258295
918.788 .0258053
919.434 .0257813
920.079 .0257575
920.725 .0257340
921.370 .0257108
922.014 .0256877
922.658 .0256649
923.302 .0256421
923.946 .0256195
924.589 .0255970
925.231 .0255746
925.873 .0255522
926.515 .0255299
927.157 .0255077
927.798 .0254856
928.439 .0254635
929.079 .0254415
929.719 .0254196
930.359 .0253977
930.998 .0253758
931.637 .0253541
932.275 .0253326
932.913 .0253114
933.551 .0252905
934.188 .0252700
934.825 .0252501
935.462 .0252308
936.098 .0252122
936.733 .0251942
937.369 .0251770
938.004 .0251606
938.638 .0251449
939.273 .0251299
939.907 .0251158
940.540 .0251025
941.173 .0250899
941.806 .0250782
942.438 .0250673
943.070 .0250571
943.702 .0250476
944.333 .0250387
944.964 .0250304
945.594 .0250226
946.224 .0250153
946.854 .0250083
947.483 .0250016
948.112 .0249952
948.741 .0249891
949.369 .0249832
949.996 .0249775
950.624 .0249720
951.251 .0249666
951.878 .0249614
952.504 .0249562
953.130 .0249512
953.755 .0249462
954.380 .0249413
955.005 .0249365
955.629 .0249318
956.253 .0249273
956.877 .0249229
957.500 .0249188
958.123 .0249148
958.746 .0249111
959.368 .0249077
959.990 .0249045
960.611 .0249017
961.232 .0248993
961.853 .0248972
962.473 .0248955
963.093 .0248942
963.712 .0248933
964.331 .0248928
964.950 .0248928
965.569 .0248931
966.187 .0248939
966.804 .0248950
967.422 .0248966
968.039 .0248985
968.655 .0249006
969.272 .0249031
969.887 .0249058
970.503 .0249086
971.118 .0249115
971.733 .0249145
972.347 .0249176
972.961 .0249207
973.575 .0249237
974.188 .0249267
974.801 .0249296
975.414 .0249324
976.026 .0249351
976.638 .0249375
977.250 .0249396
977.861 .0249416
978.472 .0249432
979.083 .0249446
979.693 .0249458
980.303 .0249467
980.912 .0249476
981.521 .0249483
982.130 .0249489
982.738 .0249494
983.346 .0249497
983.954 .0249500
984.562 .0249503
985.169 .0249505
985.775 .0249507
986.382 .0249511
986.988 .0249516
987.594 .0249524
988.199 .0249533
988.804 .0249544
989.409 .0249555
990.013 .0249569
990.617 .0249586
991.221 .0249604
991.824 .0249623
992.427 .0249644
993.030 .0249666
993.632 .0249692
994.234 .0249719
994.836 .0249751
995.438 .0249785
996.039 .0249824
996.640 .0249867
997.240 .0249914
997.840 .0249966
998.440 .0250023
999.040 .0250084
999.639 .0250148
1000.238 .0250216
1000.836 .0250287
1001.435 .0250360
1002.033 .0250436
1002.630 .0250513
1003.228 .0250591
1003.825 .0250670
1004.422 .0250750
1005.018 .0250830
1005.614 .0250910
1006.210 .0250990
1006.806 .0251070
1007.401 .0251149
1007.996 .0251228
1008.591 .0251307
1009.186 .0251386
1009.780 .0251466
1010.374 .0251548
1010.967 .0251630
1011.561 .0251714
1012.154 .0251800
1012.746 .0251886
1013.339 .0251973
1013.931 .0252060
1014.523 .0252146
1015.115 .0252231
1015.706 .0252314
1016.298 .0252396
1016.888 .0252477
1017.479 .0252556
1018.069 .0252635
1018.660 .0252712
1019.250 .0252789
1019.839 .0252866
1020.429 .0252942
1021.018 .0253019
1021.607 .0253095
1022.195 .0253172
1022.784 .0253249
1023.372 .0253326
1023.960 .0253405
1024.547 .0253484
1025.135 .0253564
1025.722 .0253643
1026.309 .0253722
1026.896 .0253800
1027.483 .0253876
1028.069 .0253949
1028.655 .0254017
1029.241 .0254081
1029.827 .0254139
1030.412 .0254192
1030.997 .0254238
1031.582 .0254277
1032.167 .0254309
1032.752 .0254335
1033.336 .0254353
1033.921 .0254366
1034.505 .0254372
1035.089 .0254372
1035.672 .0254367
1036.256 .0254357
1036.839 .0254342
1037.422 .0254322
1038.005 .0254299
1038.588 .0254272
1039.171 .0254241
1039.753 .0254207
1040.335 .0254169
1040.918 .0254128
1041.500 .0254084
1042.081 .0254037
1042.663 .0253988
1043.244 .0253935
1043.826 .0253879
1044.407 .0253821
1044.988 .0253759
1045.569 .0253695
1046.150 .0253628
1046.730 .0253558
1047.311 .0253486
1047.891 .0253411
1048.471 .0253333
1049.052 .0253253
1049.632 .0253170
1050.211 .0253085
1050.791 .0252999
1051.371 .0252910
1051.950 .0252818
1052.530 .0252723
1053.109 .0252624
1053.688 .0252520
1054.268 .0252410
1054.847 .0252293
1055.426 .0252169
1056.005 .0252040
1056.583 .0251905
1057.162 .0251767
1057.741 .0251626
1058.319 .0251484
1058.898 .0251340
1059.476 .0251196
1060.055 .0251051
1060.633 .0250905
1061.211 .0250760
1061.790 .0250616
1062.368 .0250473
1062.946 .0250333
1063.524 .0250196
1064.102 .0250062
1064.680 .0249932
1065.258 .0249806
1065.836 .0249682
1066.414 .0249560
1066.992 .0249438
1067.570 .0249317
1068.148 .0249197
1068.726 .0249079
1069.304 .0248964
1069.882 .0248853
1070.460 .0248748
1071.038 .0248648
1071.616 .0248555
1072.194 .0248468
1072.772 .0248388
1073.350 .0248312
1073.928 .0248241
1074.506 .0248176
1075.084 .0248116
1075.662 .0248062
1076.240 .0248014
1076.819 .0247973
1077.397 .0247938
1077.976 .0247908
1078.554 .0247883
1079.133 .0247861
1079.711 .0247842
1080.290 .0247826
1080.869 .0247812
1081.448 .0247802
1082.027 .0247797
1082.606 .0247798
1083.185 .0247806
1083.764 .0247822
1084.343 .0247845
1084.923 .0247874
1085.502 .0247908
1086.082 .0247946
1086.662 .0247988
1087.242 .0248032
1087.822 .0248079
1088.402 .0248129
1088.983 .0248182
1089.563 .0248239
1090.144 .0248298
1090.725 .0248359
1091.306 .0248422
1091.887 .0248485
1092.469 .0248547
1093.050 .0248607
1093.632 .0248666
1094.214 .0248724
1094.796 .0248781
1095.379 .0248839
1095.961 .0248896
1096.544 .0248953
1097.127 .0249008
1097.710 .0249062
1098.294 .0249114
1098.877 .0249163
1099.461 .0249211
1100.046 .0249257
1100.630 .0249304
1101.215 .0249353
1101.800 .0249404
1102.385 .0249461
1102.970 .0249523
1103.556 .0249589
1104.142 .0249660
1104.728 .0249734
1105.315 .0249812
1105.902 .0249895
1106.489 .0249983
1107.077 .0250080
1107.664 .0250188
1108.253 .0250308
1108.841 .0250441
1109.430 .0250590
1110.019 .0250755
1110.609 .0250935
1111.198 .0251132
1111.789 .0251343
1112.379 .0251572
1112.970 .0251821
1113.561 .0252094
1114.153 .0252395
1114.745 .0252727
1115.338 .0253093
1115.931 .0253494
1116.524 .0253927
1117.117 .0254389
1117.712 .0254878
1118.306 .0255389
1118.901 .0255917
1119.496 .0256460
1120.092 .0257017
1120.689 .0257589
1121.285 .0258175
1121.882 .0258778
1122.480 .0259399
1123.078 .0260038
1123.677 .0260695
1124.276 .0261370
1124.875 .0262063
1125.476 .0262771
1126.076 .0263497
1126.677 .0264238
1127.279 .0264997
1127.881 .0265772
1128.484 .0266566
1129.087 .0266952
1129.691 .0267773
1130.295 .0268614
1130.900 .0269473
1131.505 .0270348
1132.111 .0271235
1132.718 .0272130
1133.325 .0273032
1133.933 .0273945
1134.541 .0274921
1135.150 .0275802
1135.760 .0276629
1136.370 .0277604
1136.981 .0278250
1137.592 .0279359
1138.204 .0280550
1138.817 .0281766
1139.431 .0283056
1140.045 .0284334
1140.660 .0285528
1141.275 .0286719
1141.891 .0288004
1142.508 .0290671
1143.126 .0288860
1143.744 .0288057
1144.363 .0292878
1144.983 .0298079
