Measurement Sequence started on: 15-12-46-377
Integration time: 28
Scans to Average: 2 
>>>>>Begin Spectral Data<<<<<
432.689 .0000100
433.621 .0000100
434.552 .0000100
435.482 .0000100
436.410 .0000100
437.337 .0000100
438.262 .0265393
439.187 .0562452
440.110 .0932233
441.031 .1349005
441.952 .1076897
442.871 .1123720
443.789 .1167179
444.705 .1208005
445.621 .1246683
446.535 .1283578
447.447 .1304991
448.359 .1309460
449.269 .1293318
450.178 .1254224
451.086 .1192918
451.993 .1114060
452.898 .1025343
453.803 .0935489
454.706 .0851938
455.608 .0779326
456.508 .0719209
457.408 .0678417
458.306 .0647060
459.204 .0621561
460.100 .0600081
460.995 .0581593
461.888 .0565389
462.781 .0551015
463.673 .0538135
464.563 .0526517
465.452 .0515986
466.340 .0506419
467.228 .0497714
468.114 .0489799
468.999 .0482604
469.882 .0476055
470.765 .0470087
471.647 .0464645
472.528 .0459681
473.407 .0455156
474.286 .0451046
475.163 .0447331
476.040 .0443998
476.915 .0441034
477.790 .0438417
478.663 .0436129
479.535 .0434145
480.407 .0432438
481.277 .0430976
482.147 .0429728
483.015 .0428663
483.883 .0427758
484.749 .0427002
485.615 .0426392
486.479 .0425931
487.343 .0425628
488.206 .0425489
489.067 .0425514
489.928 .0425710
490.788 .0426076
491.647 .0426611
492.505 .0427315
493.362 .0428187
494.218 .0429233
495.073 .0430465
495.928 .0433049
496.781 .0434812
497.634 .0436812
498.486 .0439058
499.337 .0441566
500.187 .0444341
501.036 .0447388
501.884 .0450727
502.731 .0454379
503.578 .0458368
504.424 .0461090
505.268 .0465721
506.113 .0470809
506.956 .0476400
507.798 .0482550
508.640 .0489325
509.480 .0496810
510.320 .0505088
511.160 .0514262
511.998 .0524446
512.836 .0535777
513.672 .0548395
514.508 .0562455
515.344 .0578130
516.178 .0595613
517.012 .0615105
517.845 .0636817
518.677 .0660949
519.508 .0687690
520.339 .0717107
521.169 .0749237
521.998 .0783869
522.826 .0820676
523.654 .0859102
524.481 .0898491
525.307 .0938072
526.133 .0977017
526.958 .1014464
527.782 .1049649
528.605 .1081883
529.428 .1110624
530.250 .1135361
531.072 .1155809
531.892 .1171722
532.712 .1182951
533.532 .1189355
534.350 .1190875
535.168 .1187476
535.986 .1179166
536.802 .1165918
537.618 .1147831
538.434 .1125021
539.249 .1097851
540.063 .1066757
540.876 .1032384
541.689 .0995465
542.501 .0956821
543.313 .0917285
544.124 .0877702
544.934 .0838802
545.744 .0801206
546.553 .0765376
547.361 .0731725
548.169 .0700428
548.976 .0671610
549.783 .0645269
550.589 .0621372
551.395 .0599787
552.200 .0580346
553.004 .0562829
553.808 .0547044
554.611 .0532794
555.414 .0519874
556.216 .0508088
557.018 .0497282
557.819 .0487314
558.619 .0478051
559.419 .0469397
560.218 .0461285
561.017 .0453652
561.815 .0446455
562.613 .0439665
563.410 .0433244
564.207 .0427152
565.003 .0421348
565.799 .0415783
566.594 .0410423
567.388 .0405240
568.182 .0400205
568.976 .0395301
569.769 .0390526
570.562 .0385882
571.354 .0381376
572.145 .0377025
572.936 .0372835
573.727 .0368807
574.517 .0364942
575.307 .0361238
576.096 .0357685
576.885 .0354278
577.673 .0351013
578.461 .0347885
579.248 .0344889
580.035 .0342020
580.821 .0339274
581.607 .0336653
582.392 .0334160
583.177 .0331796
583.962 .0329560
584.746 .0327454
585.529 .0325478
586.313 .0323632
587.095 .0321914
587.878 .0320318
588.660 .0318838
589.441 .0317468
590.222 .0316199
591.003 .0315028
591.783 .0313948
592.563 .0312956
593.342 .0312046
594.121 .0311212
594.899 .0310447
595.678 .0309743
596.455 .0309094
597.233 .0308492
598.009 .0307929
598.786 .0307399
599.562 .0306896
600.338 .0306417
601.113 .0305961
601.888 .0305349
602.663 .0304947
603.437 .0304568
604.211 .0304209
604.984 .0303872
605.757 .0303556
606.530 .0303260
607.302 .0302984
608.074 .0302728
608.845 .0302491
609.616 .0302273
610.387 .0302209
611.158 .0302020
611.928 .0301849
612.697 .0301697
613.467 .0301561
614.236 .0301441
615.004 .0301337
615.773 .0301247
616.541 .0301171
617.308 .0301107
618.076 .0301051
618.843 .0301002
619.609 .0300957
620.375 .0300912
621.141 .0300865
621.907 .0300813
622.672 .0300755
623.437 .0300688
624.202 .0300610
624.966 .0300520
625.730 .0300415
626.493 .0300295
627.257 .0300157
628.020 .0300000
628.782 .0299824
629.545 .0299628
630.307 .0299413
631.068 .0299179
631.830 .0298928
632.591 .0298661
633.352 .0298378
634.112 .0298082
634.872 .0297775
635.632 .0297459
636.392 .0297135
637.151 .0296806
637.910 .0296473
638.668 .0296138
639.427 .0295805
640.185 .0295473
640.943 .0295146
641.700 .0294825
642.457 .0294511
643.214 .0294204
643.971 .0293906
644.727 .0293616
645.483 .0293335
646.239 .0293061
646.994 .0292795
647.750 .0292536
648.505 .0292284
649.259 .0292039
650.014 .0291800
650.768 .0291569
651.521 .0291343
652.275 .0291124
653.028 .0290911
653.781 .0290701
654.534 .0290496
655.286 .0290293
656.039 .0290093
656.791 .0289895
657.542 .0289700
658.294 .0289508
659.045 .0289320
659.796 .0289136
660.546 .0288957
661.297 .0288785
662.047 .0288618
662.796 .0288459
663.546 .0288307
664.295 .0288161
665.044 .0288023
665.793 .0287891
666.542 .0287766
667.290 .0287648
668.038 .0287535
668.786 .0287428
669.533 .0287327
670.281 .0287232
671.028 .0287143
671.774 .0287059
672.521 .0286981
673.267 .0286908
674.013 .0286838
674.759 .0286771
675.505 .0286706
676.250 .0286641
676.995 .0286577
677.740 .0286512
678.484 .0286446
679.229 .0286377
679.973 .0286307
680.717 .0286234
681.460 .0286158
682.204 .0286079
682.947 .0285995
683.690 .0285907
684.433 .0285813
685.175 .0285713
685.917 .0285607
686.659 .0285493
687.401 .0285373
688.142 .0285245
688.884 .0285110
689.625 .0284968
690.365 .0284819
691.106 .0284663
691.846 .0284499
692.586 .0284329
693.326 .0284152
694.066 .0283968
694.805 .0283777
695.545 .0283581
696.284 .0283379
697.022 .0283171
697.761 .0282958
698.499 .0282739
699.237 .0282516
699.975 .0282290
700.713 .0282059
701.450 .0281826
702.187 .0281591
702.924 .0281354
703.661 .0281115
704.397 .0280875
705.133 .0280633
705.869 .0280390
706.605 .0280145
707.341 .0279899
708.076 .0279651
708.811 .0279402
709.546 .0279153
710.281 .0278902
711.015 .0278652
711.749 .0278402
712.483 .0278151
713.217 .0277900
713.950 .0277649
714.684 .0277400
715.417 .0277151
716.150 .0276904
716.882 .0276660
717.615 .0276420
718.347 .0276183
719.079 .0275950
719.811 .0275723
720.542 .0275501
721.273 .0275284
722.005 .0275073
722.735 .0274868
723.466 .0274671
724.196 .0274482
724.927 .0274301
725.656 .0274130
726.386 .0273968
727.116 .0273817
727.845 .0273676
728.574 .0273546
729.303 .0273427
730.031 .0273319
730.760 .0273221
731.488 .0273135
732.216 .0273059
732.944 .0272994
733.671 .0272938
734.398 .0272892
735.125 .0272854
735.852 .0272825
736.579 .0272803
737.305 .0272787
738.031 .0272777
738.757 .0272772
739.483 .0272771
740.208 .0272773
740.933 .0272777
741.658 .0272782
742.383 .0272787
743.108 .0272792
743.832 .0272796
744.556 .0272798
745.280 .0272797
746.004 .0272795
746.727 .0272790
747.450 .0272782
748.173 .0272772
748.896 .0272757
749.618 .0272739
750.340 .0272717
751.062 .0272689
751.784 .0272656
752.506 .0272618
753.227 .0272572
753.948 .0272520
754.669 .0272460
755.389 .0272393
756.110 .0272317
756.830 .0272235
757.550 .0272144
758.269 .0272045
758.989 .0271938
759.708 .0271823
760.427 .0271698
761.146 .0271565
761.864 .0271422
762.582 .0271269
763.300 .0271107
764.018 .0270935
764.736 .0270752
765.453 .0270561
766.170 .0270359
766.887 .0270150
767.603 .0269932
768.320 .0269706
769.036 .0269474
769.751 .0269236
770.467 .0268993
771.182 .0268746
771.897 .0268494
772.612 .0268239
773.327 .0267981
774.041 .0267722
774.755 .0267462
775.469 .0267202
776.183 .0266943
776.896 .0266686
777.609 .0266434
778.322 .0266185
779.035 .0265940
779.747 .0265701
780.459 .0265467
781.171 .0265238
781.882 .0265014
782.594 .0264795
783.305 .0264581
784.016 .0264373
784.726 .0264169
785.436 .0263970
786.147 .0263693
786.856 .0263503
787.566 .0263317
788.275 .0263134
788.984 .0262952
789.693 .0262773
790.401 .0262595
791.110 .0262418
791.818 .0262242
792.525 .0262066
793.233 .0261890
793.940 .0261714
794.647 .0261621
795.353 .0261445
796.060 .0261269
796.766 .0261094
797.472 .0260919
798.177 .0260745
798.883 .0260572
799.588 .0260401
800.292 .0260232
800.997 .0260064
801.701 .0259900
802.405 .0259739
803.109 .0259582
803.812 .0259429
804.515 .0259282
805.218 .0259141
805.921 .0259006
806.623 .0258879
807.325 .0258758
808.027 .0258645
808.728 .0258540
809.429 .0258442
810.130 .0258353
810.831 .0258271
811.531 .0258198
812.231 .0258133
812.931 .0258076
813.630 .0258027
814.330 .0257987
815.029 .0257956
815.727 .0257933
816.426 .0257918
817.124 .0257912
817.821 .0257912
818.519 .0257921
819.216 .0257936
819.913 .0257957
820.609 .0257985
821.306 .0258019
822.002 .0258060
822.697 .0258107
823.393 .0258161
824.088 .0258221
824.783 .0258287
825.477 .0258358
826.171 .0258434
826.865 .0258513
827.559 .0258595
828.252 .0258679
828.945 .0258765
829.638 .0258851
830.330 .0258938
831.023 .0259024
831.714 .0259110
832.406 .0259195
833.097 .0259279
833.788 .0259360
834.479 .0259438
835.169 .0259512
835.859 .0259582
836.548 .0259645
837.238 .0259703
837.927 .0259755
838.615 .0259799
839.304 .0259835
839.992 .0259862
840.680 .0259880
841.367 .0259887
842.054 .0259884
842.741 .0259870
843.428 .0259845
844.114 .0259809
844.800 .0259762
845.485 .0259703
846.170 .0259633
846.855 .0259550
847.540 .0259455
848.224 .0259346
848.908 .0259224
849.592 .0259088
850.275 .0258938
850.958 .0258775
851.641 .0258599
852.323 .0258412
853.005 .0258214
853.687 .0258005
854.368 .0257787
855.049 .0257559
855.730 .0257322
856.410 .0257076
857.090 .0256822
857.769 .0256559
858.449 .0256289
859.128 .0256012
859.806 .0255729
860.485 .0255441
861.163 .0255148
861.840 .0254852
862.518 .0254553
863.195 .0254252
863.871 .0253950
864.548 .0253646
865.224 .0253341
865.899 .0253035
866.574 .0252730
867.249 .0252425
867.924 .0252121
868.598 .0251818
869.272 .0251516
869.946 .0251216
870.619 .0250918
871.292 .0250622
871.964 .0250328
872.636 .0250038
873.308 .0249752
873.979 .0249469
874.651 .0249191
875.321 .0248917
875.992 .0248649
876.662 .0248386
877.331 .0248129
878.001 .0247876
878.670 .0247630
879.338 .0247389
880.007 .0247154
880.675 .0246925
881.342 .0246704
882.009 .0246490
882.676 .0246284
883.343 .0246086
884.009 .0245898
884.675 .0245718
885.340 .0245546
886.005 .0245383
886.670 .0245228
887.334 .0245080
887.998 .0244939
888.662 .0244806
889.325 .0244680
889.988 .0244563
890.650 .0244453
891.312 .0244351
891.974 .0244257
892.636 .0244170
893.297 .0244089
893.957 .0244016
894.618 .0243949
895.278 .0243887
895.937 .0243832
896.596 .0243781
897.255 .0243736
897.914 .0243694
898.572 .0243657
899.230 .0243622
899.887 .0243589
900.544 .0243557
901.201 .0243527
901.857 .0243483
902.513 .0243452
903.168 .0243422
903.823 .0243392
904.478 .0243361
905.132 .0243329
905.786 .0243296
906.440 .0243262
907.093 .0243227
907.746 .0243191
908.399 .0243155
909.051 .0243119
909.703 .0243082
910.354 .0243063
911.005 .0243029
911.656 .0242996
912.306 .0242965
912.956 .0242935
913.605 .0242908
914.254 .0242884
914.903 .0242862
915.551 .0242844
916.199 .0242829
916.847 .0242818
917.494 .0242811
918.141 .0242807
918.788 .0242806
919.434 .0242808
920.079 .0242814
920.725 .0242824
921.370 .0242836
922.014 .0242852
922.658 .0242871
923.302 .0242893
923.946 .0242918
924.589 .0242945
925.231 .0242974
925.873 .0243005
926.515 .0243036
927.157 .0243068
927.798 .0243101
928.439 .0243134
929.079 .0243169
929.719 .0243204
930.359 .0243239
930.998 .0243276
931.637 .0243312
932.275 .0243348
932.913 .0243383
933.551 .0243418
934.188 .0243452
934.825 .0243485
935.462 .0243518
936.098 .0243550
936.733 .0243582
937.369 .0243614
938.004 .0243646
938.638 .0243676
939.273 .0243706
939.907 .0243735
940.540 .0243763
941.173 .0243791
941.806 .0243817
942.438 .0243843
943.070 .0243868
943.702 .0243892
944.333 .0243915
944.964 .0243936
945.594 .0243955
946.224 .0243971
946.854 .0243985
947.483 .0243994
948.112 .0243999
948.741 .0244000
949.369 .0243995
949.996 .0243986
950.624 .0243971
951.251 .0243951
951.878 .0243925
952.504 .0243894
953.130 .0243857
953.755 .0243815
954.380 .0243767
955.005 .0243713
955.629 .0243654
956.253 .0243589
956.877 .0243517
957.500 .0243440
958.123 .0243355
958.746 .0243265
959.368 .0243168
959.990 .0243066
960.611 .0242958
961.232 .0242845
961.853 .0242727
962.473 .0242603
963.093 .0242474
963.712 .0242340
964.331 .0242200
964.950 .0242054
965.569 .0241904
966.187 .0241748
966.804 .0241587
967.422 .0241422
968.039 .0241251
968.655 .0241076
969.272 .0240897
969.887 .0240712
970.503 .0240522
971.118 .0240328
971.733 .0240129
972.347 .0239924
972.961 .0239713
973.575 .0239497
974.188 .0239276
974.801 .0239048
975.414 .0238815
976.026 .0238576
976.638 .0238331
977.250 .0238080
977.861 .0237824
978.472 .0237563
979.083 .0237296
979.693 .0237025
980.303 .0236747
980.912 .0236311
981.521 .0236023
982.130 .0235730
982.738 .0235433
983.346 .0235134
983.954 .0234832
984.562 .0234529
985.169 .0234226
985.775 .0233922
986.382 .0233618
986.988 .0233315
987.594 .0233014
988.199 .0232715
988.804 .0232418
989.409 .0232283
990.013 .0231994
990.617 .0231711
991.221 .0231433
991.824 .0231161
992.427 .0230897
993.030 .0230638
993.632 .0230386
994.234 .0230140
994.836 .0229900
995.438 .0229664
996.039 .0229434
996.640 .0229209
997.240 .0228990
997.840 .0228776
998.440 .0228570
999.040 .0228370
999.639 .0228178
1000.238 .0227993
1000.836 .0227815
1001.435 .0227643
1002.033 .0227477
1002.630 .0227318
1003.228 .0227164
1003.825 .0227018
1004.422 .0226878
1005.018 .0226746
1005.614 .0226621
1006.210 .0226505
1006.806 .0226396
1007.401 .0226295
1007.996 .0226201
1008.591 .0226114
1009.186 .0226034
1009.780 .0225961
1010.374 .0225895
1010.967 .0225835
1011.561 .0225783
1012.154 .0225738
1012.746 .0225702
1013.339 .0225675
1013.931 .0225656
1014.523 .0225645
1015.115 .0225643
1015.706 .0225648
1016.298 .0225661
1016.888 .0225682
1017.479 .0225710
1018.069 .0225746
1018.660 .0225789
1019.250 .0225841
1019.839 .0225900
1020.429 .0225967
1021.018 .0226042
1021.607 .0226122
1022.195 .0226209
1022.784 .0226301
1023.372 .0226398
1023.960 .0226499
1024.547 .0226604
1025.135 .0226713
1025.722 .0226826
1026.309 .0226943
1026.896 .0227064
1027.483 .0227189
1028.069 .0227317
1028.655 .0227448
1029.241 .0227582
1029.827 .0227719
1030.412 .0227858
1030.997 .0228002
1031.582 .0228148
1032.167 .0228299
1032.752 .0228453
1033.336 .0228610
1033.921 .0228771
1034.505 .0228935
1035.089 .0229102
1035.672 .0229271
1036.256 .0229441
1036.839 .0229612
1037.422 .0229784
1038.005 .0229956
1038.588 .0230129
1039.171 .0230300
1039.753 .0230471
1040.335 .0230640
1040.918 .0230808
1041.500 .0230974
1042.081 .0231138
1042.663 .0231301
1043.244 .0231464
1043.826 .0231628
1044.407 .0231795
1044.988 .0231964
1045.569 .0232138
1046.150 .0232316
1046.730 .0232498
1047.311 .0232684
1047.891 .0232875
1048.471 .0233070
1049.052 .0233270
1049.632 .0233474
1050.211 .0233682
1050.791 .0233894
1051.371 .0234110
1051.950 .0234328
1052.530 .0234548
1053.109 .0234769
1053.688 .0234990
1054.268 .0235209
1054.847 .0235428
1055.426 .0235645
1056.005 .0235861
1056.583 .0236078
1057.162 .0236295
1057.741 .0236513
1058.319 .0236732
1058.898 .0236952
1059.476 .0237174
1060.055 .0237396
1060.633 .0237619
1061.211 .0237840
1061.790 .0238060
1062.368 .0238277
1062.946 .0238491
1063.524 .0238701
1064.102 .0238908
1064.680 .0239110
1065.258 .0239306
1065.836 .0239497
1066.414 .0239682
1066.992 .0239860
1067.570 .0240031
1068.148 .0240194
1068.726 .0240351
1069.304 .0240502
1069.882 .0240648
1070.460 .0240791
1071.038 .0240932
1071.616 .0241071
1072.194 .0241210
1072.772 .0241350
1073.350 .0241491
1073.928 .0241632
1074.506 .0241774
1075.084 .0241916
1075.662 .0242057
1076.240 .0242197
1076.819 .0242336
1077.397 .0242475
1077.976 .0242613
1078.554 .0242751
1079.133 .0242889
1079.711 .0243028
1080.290 .0243167
1080.869 .0243307
1081.448 .0243448
1082.027 .0243589
1082.606 .0243730
1083.185 .0243869
1083.764 .0244008
1084.343 .0244147
1084.923 .0244285
1085.502 .0244425
1086.082 .0244566
1086.662 .0244709
1087.242 .0244853
1087.822 .0244997
1088.402 .0245142
1088.983 .0245286
1089.563 .0245426
1090.144 .0245564
1090.725 .0245698
1091.306 .0245830
1091.887 .0245958
1092.469 .0246086
1093.050 .0246213
1093.632 .0246341
1094.214 .0246471
1094.796 .0246605
1095.379 .0246743
1095.961 .0246887
1096.544 .0247037
1097.127 .0247193
1097.710 .0247357
1098.294 .0247527
1098.877 .0247703
1099.461 .0247886
1100.046 .0248073
1100.630 .0248265
1101.215 .0248459
1101.800 .0248653
1102.385 .0248846
1102.970 .0249036
1103.556 .0249220
1104.142 .0249400
1104.728 .0249572
1105.315 .0249736
1105.902 .0249892
1106.489 .0250041
1107.077 .0250183
1107.664 .0250320
1108.253 .0250452
1108.841 .0250580
1109.430 .0250704
1110.019 .0250824
1110.609 .0250940
1111.198 .0251055
1111.789 .0251168
1112.379 .0251280
1112.970 .0251391
1113.561 .0251502
1114.153 .0251609
1114.745 .0251714
1115.338 .0251815
1115.931 .0251913
1116.524 .0252011
1117.117 .0252111
1117.712 .0252215
1118.306 .0252327
1118.901 .0252452
1119.496 .0252590
1120.092 .0252744
1120.689 .0252914
1121.285 .0253101
1121.882 .0253306
1122.480 .0253528
1123.078 .0253769
1123.677 .0254033
1124.276 .0254318
1124.875 .0254629
1125.476 .0254963
1126.076 .0255320
1126.677 .0255698
1127.279 .0256095
1127.881 .0256508
1128.484 .0256938
1129.087 .0257127
1129.691 .0257577
1130.295 .0258043
1130.900 .0258529
1131.505 .0259043
1132.111 .0259589
1132.718 .0260171
1133.325 .0260800
1133.933 .0261482
1134.541 .0262183
1135.150 .0262912
1135.760 .0263671
1136.370 .0264694
1136.981 .0263824
1137.592 .0264516
1138.204 .0265317
1138.817 .0266257
1139.431 .0267361
1140.045 .0268563
1140.660 .0269859
1141.275 .0271443
1141.891 .0273206
1142.508 .0274027
1143.126 .0275204
1143.744 .0276439
1144.363 .0284276
1144.983 .0286463
