Measurement Sequence started on: 15-12-46-377
Integration time: 28
Scans to Average: 2 
>>>>>Begin Spectral Data<<<<<
432.689 .0000100
433.621 .0000100
434.552 .0000100
435.482 .0000100
436.410 .0000100
437.337 .0000100
438.262 .0278695
439.187 .0589453
440.110 .0975957
441.031 .1411693
441.952 .1132117
442.871 .1182496
443.789 .1229430
444.705 .1273660
445.621 .1315706
446.535 .1355952
447.447 .1380010
448.359 .1386387
449.269 .1371248
450.178 .1332105
451.086 .1269707
451.993 .1188868
452.898 .1097584
453.803 .1004924
454.706 .0918628
455.608 .0843506
456.508 .0781183
457.408 .0738845
458.306 .0706127
459.204 .0679356
460.100 .0656673
460.995 .0637034
461.888 .0619727
462.781 .0604268
463.673 .0590309
464.563 .0577614
465.452 .0566022
466.340 .0555421
467.228 .0545732
468.114 .0536898
468.999 .0528865
469.882 .0521576
470.765 .0514970
471.647 .0508978
472.528 .0503538
473.407 .0498596
474.286 .0494107
475.163 .0490039
476.040 .0486363
476.915 .0483059
477.790 .0480097
478.663 .0477449
479.535 .0475087
480.407 .0472977
481.277 .0471083
482.147 .0469368
483.015 .0467803
483.883 .0466373
484.749 .0465066
485.615 .0463882
486.479 .0462830
487.343 .0461924
488.206 .0461180
489.067 .0460609
489.928 .0460227
490.788 .0460050
491.647 .0460089
492.505 .0460361
493.362 .0460877
494.218 .0461655
495.073 .0462713
495.928 .0465429
496.781 .0467302
497.634 .0469523
498.486 .0472114
499.337 .0475098
500.187 .0478495
501.036 .0482326
501.884 .0486614
502.731 .0491377
503.578 .0496631
504.424 .0500312
505.268 .0506366
506.113 .0512962
506.956 .0520127
507.798 .0527902
508.640 .0536334
509.480 .0545489
510.320 .0555449
511.160 .0566309
511.998 .0578182
512.836 .0591217
513.672 .0605565
514.508 .0621427
515.344 .0639009
516.178 .0658545
517.012 .0680293
517.845 .0704524
518.677 .0731452
519.508 .0761277
520.339 .0794125
521.169 .0830048
521.998 .0868835
522.826 .0910173
523.654 .0953557
524.481 .0998336
525.307 .1043712
526.133 .1088804
526.958 .1132666
527.782 .1174408
528.605 .1213162
529.428 .1248191
530.250 .1278806
531.072 .1304554
531.892 .1325005
532.712 .1339880
533.532 .1348989
534.350 .1352227
535.168 .1349531
535.986 .1340950
536.802 .1326527
537.618 .1306375
538.434 .1280651
539.249 .1249789
540.063 .1214282
540.876 .1174780
541.689 .1132037
542.501 .1086931
543.313 .1040377
544.124 .0993337
544.934 .0946674
545.744 .0901220
546.553 .0857652
547.361 .0816553
548.169 .0778264
548.976 .0743051
549.783 .0711021
550.589 .0682150
551.395 .0656283
552.200 .0633211
553.004 .0612646
553.808 .0594315
554.611 .0577945
555.414 .0563292
556.216 .0550094
557.018 .0538128
557.819 .0527205
558.619 .0517167
559.419 .0507875
560.218 .0499233
561.017 .0491148
561.815 .0483548
562.613 .0476366
563.410 .0469537
564.207 .0463005
565.003 .0456717
565.799 .0450621
566.594 .0444671
567.388 .0438837
568.182 .0433101
568.976 .0427450
569.769 .0421891
570.562 .0416438
571.354 .0411104
572.145 .0405903
572.936 .0400852
573.727 .0395960
574.517 .0391240
575.307 .0386708
576.096 .0382368
576.885 .0378220
577.673 .0374270
578.461 .0370520
579.248 .0366970
580.035 .0363620
580.821 .0360469
581.607 .0357515
582.392 .0354757
583.177 .0352186
583.962 .0349794
584.746 .0347573
585.529 .0345515
586.313 .0343604
587.095 .0341828
587.878 .0340176
588.660 .0338639
589.441 .0337213
590.222 .0335892
591.003 .0334669
591.783 .0333540
592.563 .0332497
593.342 .0331534
594.121 .0330642
594.899 .0329811
595.678 .0329035
596.455 .0328307
597.233 .0327621
598.009 .0326971
598.786 .0326356
599.562 .0325772
600.338 .0325219
601.113 .0324694
601.888 .0323993
602.663 .0323531
603.437 .0323092
604.211 .0322674
604.984 .0322277
605.757 .0321899
606.530 .0321540
607.302 .0321199
608.074 .0320877
608.845 .0320572
609.616 .0320284
610.387 .0320183
611.158 .0319920
611.928 .0319673
612.697 .0319442
613.467 .0319227
614.236 .0319025
615.004 .0318834
615.773 .0318653
616.541 .0318479
617.308 .0318309
618.076 .0318142
618.843 .0317976
619.609 .0317809
620.375 .0317641
621.141 .0317470
621.907 .0317295
622.672 .0317116
623.437 .0316930
624.202 .0316737
624.966 .0316536
625.730 .0316326
626.493 .0316106
627.257 .0315878
628.020 .0315641
628.782 .0315397
629.545 .0315147
630.307 .0314891
631.068 .0314630
631.830 .0314367
632.591 .0314102
633.352 .0313837
634.112 .0313571
634.872 .0313307
635.632 .0313043
636.392 .0312779
637.151 .0312516
637.910 .0312253
638.668 .0311991
639.427 .0311730
640.185 .0311471
640.943 .0311215
641.700 .0310964
642.457 .0310718
643.214 .0310478
643.971 .0310244
644.727 .0310014
645.483 .0309788
646.239 .0309564
646.994 .0309340
647.750 .0309117
648.505 .0308892
649.259 .0308666
650.014 .0308437
650.768 .0308205
651.521 .0307971
652.275 .0307733
653.028 .0307492
653.781 .0307248
654.534 .0307000
655.286 .0306747
656.039 .0306490
656.791 .0306227
657.542 .0305961
658.294 .0305690
659.045 .0305415
659.796 .0305138
660.546 .0304857
661.297 .0304575
662.047 .0304293
662.796 .0304010
663.546 .0303728
664.295 .0303446
665.044 .0303164
665.793 .0302884
666.542 .0302605
667.290 .0302329
668.038 .0302055
668.786 .0301784
669.533 .0301517
670.281 .0301254
671.028 .0300996
671.774 .0300743
672.521 .0300496
673.267 .0300255
674.013 .0300021
674.759 .0299793
675.505 .0299571
676.250 .0299355
676.995 .0299144
677.740 .0298938
678.484 .0298735
679.229 .0298535
679.973 .0298338
680.717 .0298145
681.460 .0297954
682.204 .0297765
682.947 .0297578
683.690 .0297393
684.433 .0297208
685.175 .0297023
685.917 .0296836
686.659 .0296649
687.401 .0296461
688.142 .0296273
688.884 .0296084
689.625 .0295896
690.365 .0295708
691.106 .0295521
691.846 .0295333
692.586 .0295146
693.326 .0294957
694.066 .0294768
694.805 .0294580
695.545 .0294393
696.284 .0294208
697.022 .0294026
697.761 .0293849
698.499 .0293677
699.237 .0293510
699.975 .0293349
700.713 .0293193
701.450 .0293042
702.187 .0292895
702.924 .0292753
703.661 .0292616
704.397 .0292482
705.133 .0292352
705.869 .0292226
706.605 .0292103
707.341 .0291982
708.076 .0291864
708.811 .0291747
709.546 .0291631
710.281 .0291516
711.015 .0291400
711.749 .0291285
712.483 .0291167
713.217 .0291048
713.950 .0290926
714.684 .0290801
715.417 .0290674
716.150 .0290544
716.882 .0290410
717.615 .0290275
718.347 .0290136
719.079 .0289996
719.811 .0289854
720.542 .0289710
721.273 .0289565
722.005 .0289418
722.735 .0289270
723.466 .0289120
724.196 .0288968
724.927 .0288816
725.656 .0288664
726.386 .0288511
727.116 .0288359
727.845 .0288208
728.574 .0288057
729.303 .0287908
730.031 .0287760
730.760 .0287612
731.488 .0287465
732.216 .0287318
732.944 .0287170
733.671 .0287022
734.398 .0286874
735.125 .0286725
735.852 .0286576
736.579 .0286426
737.305 .0286277
738.031 .0286129
738.757 .0285980
739.483 .0285833
740.208 .0285687
740.933 .0285541
741.658 .0285396
742.383 .0285252
743.108 .0285108
743.832 .0284965
744.556 .0284822
745.280 .0284678
746.004 .0284533
746.727 .0284386
747.450 .0284238
748.173 .0284087
748.896 .0283934
749.618 .0283778
750.340 .0283619
751.062 .0283457
751.784 .0283292
752.506 .0283123
753.227 .0282950
753.948 .0282772
754.669 .0282591
755.389 .0282405
756.110 .0282215
756.830 .0282021
757.550 .0281822
758.269 .0281620
758.989 .0281415
759.708 .0281206
760.427 .0280995
761.146 .0280780
761.864 .0280564
762.582 .0280345
763.300 .0280125
764.018 .0279905
764.736 .0279685
765.453 .0279466
766.170 .0279250
766.887 .0279036
767.603 .0278825
768.320 .0278618
769.036 .0278415
769.751 .0278218
770.467 .0278026
771.182 .0277840
771.897 .0277659
772.612 .0277485
773.327 .0277318
774.041 .0277156
774.755 .0277001
775.469 .0276851
776.183 .0276707
776.896 .0276568
777.609 .0276435
778.322 .0276308
779.035 .0276186
779.747 .0276070
780.459 .0275958
781.171 .0275852
781.882 .0275751
782.594 .0275653
783.305 .0275559
784.016 .0275468
784.726 .0275379
785.436 .0275292
786.147 .0275170
786.856 .0275087
787.566 .0275006
788.275 .0274927
788.984 .0274848
789.693 .0274769
790.401 .0274691
791.110 .0274613
791.818 .0274534
792.525 .0274455
793.233 .0274376
793.940 .0274296
794.647 .0274254
795.353 .0274175
796.060 .0274097
796.766 .0274020
797.472 .0273945
798.177 .0273871
798.883 .0273799
799.588 .0273727
800.292 .0273656
800.997 .0273586
801.701 .0273516
802.405 .0273447
803.109 .0273377
803.812 .0273308
804.515 .0273239
805.218 .0273170
805.921 .0273101
806.623 .0273030
807.325 .0272960
808.027 .0272889
808.728 .0272818
809.429 .0272747
810.130 .0272678
810.831 .0272610
811.531 .0272543
812.231 .0272478
812.931 .0272413
813.630 .0272349
814.330 .0272287
815.029 .0272225
815.727 .0272165
816.426 .0272107
817.124 .0272052
817.821 .0272000
818.519 .0271952
819.216 .0271908
819.913 .0271869
820.609 .0271834
821.306 .0271803
822.002 .0271777
822.697 .0271756
823.393 .0271739
824.088 .0271728
824.783 .0271722
825.477 .0271721
826.171 .0271724
826.865 .0271731
827.559 .0271742
828.252 .0271756
828.945 .0271772
829.638 .0271792
830.330 .0271813
831.023 .0271837
831.714 .0271863
832.406 .0271889
833.097 .0271914
833.788 .0271938
834.479 .0271960
835.169 .0271978
835.859 .0271993
836.548 .0272004
837.238 .0272011
837.927 .0272015
838.615 .0272015
839.304 .0272011
839.992 .0272003
840.680 .0271988
841.367 .0271968
842.054 .0271940
842.741 .0271905
843.428 .0271862
844.114 .0271812
844.800 .0271754
845.485 .0271688
846.170 .0271613
846.855 .0271531
847.540 .0271439
848.224 .0271338
848.908 .0271226
849.592 .0271105
850.275 .0270972
850.958 .0270830
851.641 .0270677
852.323 .0270514
853.005 .0270343
853.687 .0270163
854.368 .0269974
855.049 .0269779
855.730 .0269576
856.410 .0269366
857.090 .0269149
857.769 .0268928
858.449 .0268701
859.128 .0268470
859.806 .0268237
860.485 .0268002
861.163 .0267767
861.840 .0267532
862.518 .0267298
863.195 .0267066
863.871 .0266835
864.548 .0266606
865.224 .0266379
865.899 .0266155
866.574 .0265934
867.249 .0265716
867.924 .0265503
868.598 .0265295
869.272 .0265091
869.946 .0264891
870.619 .0264696
871.292 .0264504
871.964 .0264316
872.636 .0264130
873.308 .0263948
873.979 .0263769
874.651 .0263593
875.321 .0263421
875.992 .0263253
876.662 .0263087
877.331 .0262923
878.001 .0262760
878.670 .0262597
879.338 .0262434
880.007 .0262270
880.675 .0262106
881.342 .0261943
882.009 .0261781
882.676 .0261621
883.343 .0261463
884.009 .0261308
884.675 .0261155
885.340 .0261005
886.005 .0260858
886.670 .0260713
887.334 .0260571
887.998 .0260431
888.662 .0260295
889.325 .0260163
889.988 .0260034
890.650 .0259908
891.312 .0259786
891.974 .0259668
892.636 .0259553
893.297 .0259442
893.957 .0259334
894.618 .0259230
895.278 .0259130
895.937 .0259032
896.596 .0258938
897.255 .0258844
897.914 .0258752
898.572 .0258659
899.230 .0258565
899.887 .0258470
900.544 .0258372
901.201 .0258272
901.857 .0258105
902.513 .0257996
903.168 .0257883
903.823 .0257766
904.478 .0257643
905.132 .0257514
905.786 .0257379
906.440 .0257237
907.093 .0257089
907.746 .0256935
908.399 .0256776
909.051 .0256613
909.703 .0256445
910.354 .0256352
911.005 .0256183
911.656 .0256013
912.306 .0255843
912.956 .0255672
913.605 .0255502
914.254 .0255333
914.903 .0255166
915.551 .0255002
916.199 .0254839
916.847 .0254680
917.494 .0254523
918.141 .0254368
918.788 .0254216
919.434 .0254065
920.079 .0253916
920.725 .0253769
921.370 .0253623
922.014 .0253479
922.658 .0253336
923.302 .0253196
923.946 .0253059
924.589 .0252924
925.231 .0252792
925.873 .0252662
926.515 .0252534
927.157 .0252408
927.798 .0252284
928.439 .0252162
929.079 .0252043
929.719 .0251926
930.359 .0251813
930.998 .0251705
931.637 .0251601
932.275 .0251503
932.913 .0251410
933.551 .0251324
934.188 .0251244
934.825 .0251170
935.462 .0251104
936.098 .0251045
936.733 .0250994
937.369 .0250952
938.004 .0250918
938.638 .0250893
939.273 .0250877
939.907 .0250869
940.540 .0250870
941.173 .0250880
941.806 .0250897
942.438 .0250921
943.070 .0250952
943.702 .0250989
944.333 .0251031
944.964 .0251077
945.594 .0251127
946.224 .0251178
946.854 .0251230
947.483 .0251282
948.112 .0251334
948.741 .0251386
949.369 .0251436
949.996 .0251484
950.624 .0251530
951.251 .0251573
951.878 .0251612
952.504 .0251647
953.130 .0251678
953.755 .0251704
954.380 .0251727
955.005 .0251748
955.629 .0251766
956.253 .0251784
956.877 .0251800
957.500 .0251816
958.123 .0251832
958.746 .0251847
959.368 .0251863
959.990 .0251880
960.611 .0251898
961.232 .0251918
961.853 .0251939
962.473 .0251964
963.093 .0251991
963.712 .0252020
964.331 .0252050
964.950 .0252081
965.569 .0252111
966.187 .0252141
966.804 .0252169
967.422 .0252196
968.039 .0252222
968.655 .0252246
969.272 .0252269
969.887 .0252290
970.503 .0252309
971.118 .0252326
971.733 .0252340
972.347 .0252352
972.961 .0252359
973.575 .0252363
974.188 .0252363
974.801 .0252359
975.414 .0252352
976.026 .0252342
976.638 .0252328
977.250 .0252310
977.861 .0252289
978.472 .0252264
979.083 .0252235
979.693 .0252202
980.303 .0252165
980.912 .0252102
981.521 .0252056
982.130 .0252007
982.738 .0251956
983.346 .0251901
983.954 .0251844
984.562 .0251786
985.169 .0251726
985.775 .0251665
986.382 .0251603
986.988 .0251540
987.594 .0251478
988.199 .0251414
988.804 .0251349
989.409 .0251310
990.013 .0251244
990.617 .0251177
991.221 .0251110
991.824 .0251041
992.427 .0250972
993.030 .0250901
993.632 .0250830
994.234 .0250757
994.836 .0250684
995.438 .0250612
996.039 .0250539
996.640 .0250467
997.240 .0250396
997.840 .0250327
998.440 .0250260
999.040 .0250196
999.639 .0250134
1000.238 .0250074
1000.836 .0250017
1001.435 .0249962
1002.033 .0249909
1002.630 .0249859
1003.228 .0249810
1003.825 .0249762
1004.422 .0249715
1005.018 .0249669
1005.614 .0249622
1006.210 .0249575
1006.806 .0249526
1007.401 .0249476
1007.996 .0249424
1008.591 .0249371
1009.186 .0249316
1009.780 .0249260
1010.374 .0249201
1010.967 .0249140
1011.561 .0249076
1012.154 .0249010
1012.746 .0248942
1013.339 .0248871
1013.931 .0248799
1014.523 .0248725
1015.115 .0248651
1015.706 .0248576
1016.298 .0248500
1016.888 .0248426
1017.479 .0248352
1018.069 .0248279
1018.660 .0248208
1019.250 .0248138
1019.839 .0248071
1020.429 .0248007
1021.018 .0247946
1021.607 .0247888
1022.195 .0247835
1022.784 .0247786
1023.372 .0247740
1023.960 .0247699
1024.547 .0247662
1025.135 .0247628
1025.722 .0247598
1026.309 .0247569
1026.896 .0247541
1027.483 .0247514
1028.069 .0247486
1028.655 .0247458
1029.241 .0247426
1029.827 .0247392
1030.412 .0247355
1030.997 .0247315
1031.582 .0247271
1032.167 .0247224
1032.752 .0247175
1033.336 .0247122
1033.921 .0247067
1034.505 .0247008
1035.089 .0246946
1035.672 .0246878
1036.256 .0246805
1036.839 .0246726
1037.422 .0246641
1038.005 .0246549
1038.588 .0246451
1039.171 .0246346
1039.753 .0246237
1040.335 .0246124
1040.918 .0246007
1041.500 .0245887
1042.081 .0245764
1042.663 .0245637
1043.244 .0245508
1043.826 .0245378
1044.407 .0245246
1044.988 .0245114
1045.569 .0244984
1046.150 .0244858
1046.730 .0244735
1047.311 .0244618
1047.891 .0244507
1048.471 .0244401
1049.052 .0244301
1049.632 .0244206
1050.211 .0244115
1050.791 .0244029
1051.371 .0243946
1051.950 .0243866
1052.530 .0243790
1053.109 .0243716
1053.688 .0243647
1054.268 .0243580
1054.847 .0243517
1055.426 .0243458
1056.005 .0243402
1056.583 .0243349
1057.162 .0243298
1057.741 .0243249
1058.319 .0243202
1058.898 .0243156
1059.476 .0243112
1060.055 .0243070
1060.633 .0243029
1061.211 .0242992
1061.790 .0242956
1062.368 .0242923
1062.946 .0242891
1063.524 .0242860
1064.102 .0242828
1064.680 .0242795
1065.258 .0242759
1065.836 .0242719
1066.414 .0242676
1066.992 .0242630
1067.570 .0242580
1068.148 .0242527
1068.726 .0242472
1069.304 .0242414
1069.882 .0242355
1070.460 .0242295
1071.038 .0242234
1071.616 .0242171
1072.194 .0242108
1072.772 .0242043
1073.350 .0241979
1073.928 .0241915
1074.506 .0241852
1075.084 .0241792
1075.662 .0241736
1076.240 .0241684
1076.819 .0241639
1077.397 .0241599
1077.976 .0241566
1078.554 .0241540
1079.133 .0241518
1079.711 .0241502
1080.290 .0241491
1080.869 .0241486
1081.448 .0241488
1082.027 .0241498
1082.606 .0241518
1083.185 .0241548
1083.764 .0241589
1084.343 .0241641
1084.923 .0241703
1085.502 .0241774
1086.082 .0241855
1086.662 .0241944
1087.242 .0242041
1087.822 .0242146
1088.402 .0242262
1088.983 .0242388
1089.563 .0242526
1090.144 .0242675
1090.725 .0242836
1091.306 .0243008
1091.887 .0243190
1092.469 .0243379
1093.050 .0243576
1093.632 .0243780
1094.214 .0243991
1094.796 .0244209
1095.379 .0244435
1095.961 .0244669
1096.544 .0244913
1097.127 .0245165
1097.710 .0245424
1098.294 .0245690
1098.877 .0245960
1099.461 .0246233
1100.046 .0246509
1100.630 .0246786
1101.215 .0247066
1101.800 .0247348
1102.385 .0247634
1102.970 .0247923
1103.556 .0248214
1104.142 .0248507
1104.728 .0248800
1105.315 .0249091
1105.902 .0249381
1106.489 .0249669
1107.077 .0249959
1107.664 .0250250
1108.253 .0250544
1108.841 .0250843
1109.430 .0251148
1110.019 .0251459
1110.609 .0251776
1111.198 .0252097
1111.789 .0252422
1112.379 .0252751
1112.970 .0253082
1113.561 .0253417
1114.153 .0253756
1114.745 .0254100
1115.338 .0254449
1115.931 .0254805
1116.524 .0255167
1117.117 .0255536
1117.712 .0255917
1118.306 .0256310
1118.901 .0256719
1119.496 .0257145
1120.092 .0257588
1120.689 .0258049
1121.285 .0258526
1121.882 .0259018
1122.480 .0259524
1123.078 .0260043
1123.677 .0260575
1124.276 .0261122
1124.875 .0261688
1125.476 .0262276
1126.076 .0262891
1126.677 .0263533
1127.279 .0264203
1127.881 .0264898
1128.484 .0265615
1129.087 .0265916
1129.691 .0266662
1130.295 .0267428
1130.900 .0268218
1131.505 .0269034
1132.111 .0269882
1132.718 .0270765
1133.325 .0271682
1133.933 .0272639
1134.541 .0273682
1135.150 .0274718
1135.760 .0275758
1136.370 .0276691
1136.981 .0277539
1137.592 .0278520
1138.204 .0279530
1138.817 .0280643
1139.431 .0281875
1140.045 .0283230
1140.660 .0284708
1141.275 .0286144
1141.891 .0287772
1142.508 .0290699
1143.126 .0291139
1143.744 .0291910
1144.363 .0289704
1144.983 .0297835
