Measurement Sequence started on: 15-12-46-377
Integration time: 28
Scans to Average: 2 
>>>>>Begin Spectral Data<<<<<
432.689 .0000100
433.621 .0000100
434.552 .0000100
435.482 .0000100
436.410 .0000100
437.337 .0000100
438.262 .0275113
439.187 .0582567
440.110 .0964784
441.031 .1396002
441.952 .1117403
442.871 .1166876
443.789 .1212977
444.705 .1256419
445.621 .1297682
446.535 .1337125
447.447 .1360537
448.359 .1366414
449.269 .1350997
450.178 .1311855
451.086 .1249776
451.993 .1169574
452.898 .1079190
453.803 .0987619
454.706 .0902507
455.608 .0828586
456.508 .0767417
457.408 .0726045
458.306 .0694197
459.204 .0668178
460.100 .0646144
460.995 .0627057
461.888 .0610237
462.781 .0595239
463.673 .0581744
464.563 .0569516
465.452 .0558385
466.340 .0548203
467.228 .0538848
468.114 .0530234
468.999 .0522285
469.882 .0514937
470.765 .0508147
471.647 .0501887
472.528 .0496142
473.407 .0490894
474.286 .0486140
475.163 .0481869
476.040 .0478064
476.915 .0474706
477.790 .0471771
478.663 .0469230
479.535 .0467059
480.407 .0465227
481.277 .0463711
482.147 .0462491
483.015 .0461541
483.883 .0460843
484.749 .0460379
485.615 .0460131
486.479 .0460085
487.343 .0460225
488.206 .0460548
489.067 .0461046
489.928 .0461725
490.788 .0462585
491.647 .0463635
492.505 .0464877
493.362 .0466316
494.218 .0467948
495.073 .0469774
495.928 .0473204
496.781 .0475496
497.634 .0477974
498.486 .0480641
499.337 .0483507
500.187 .0486595
501.036 .0489928
501.884 .0493533
502.731 .0497445
503.578 .0501701
504.424 .0504518
505.268 .0509418
506.113 .0514757
506.956 .0520567
507.798 .0526895
508.640 .0533804
509.480 .0541385
510.320 .0549743
511.160 .0559008
511.998 .0569327
512.836 .0580881
513.672 .0593867
514.508 .0608500
515.344 .0625003
516.178 .0643604
517.012 .0664538
517.845 .0688026
518.677 .0714236
519.508 .0743336
520.339 .0775437
521.169 .0810591
521.998 .0848599
522.826 .0889160
523.654 .0931793
524.481 .0975903
525.307 .1020745
526.133 .1065478
526.958 .1109178
527.782 .1150959
528.605 .1189955
529.428 .1225393
530.250 .1256588
531.072 .1283072
531.892 .1304420
532.712 .1320360
533.532 .1330697
534.350 .1335348
535.168 .1334304
535.986 .1327649
536.802 .1315428
537.618 .1297702
538.434 .1274559
539.249 .1246344
540.063 .1213478
540.876 .1176545
541.689 .1136237
542.501 .1093373
543.313 .1048840
544.124 .1003563
544.934 .0958400
545.744 .0914164
546.553 .0871549
547.361 .0831116
548.169 .0793181
548.976 .0758003
549.783 .0725679
550.589 .0696207
551.395 .0669467
552.200 .0645265
553.004 .0623343
553.808 .0603478
554.611 .0585470
555.414 .0569135
556.216 .0554288
557.018 .0540760
557.819 .0528404
558.619 .0517080
559.419 .0506658
560.218 .0497025
561.017 .0488088
561.815 .0479767
562.613 .0471986
563.410 .0464670
564.207 .0457767
565.003 .0451232
565.799 .0445011
566.594 .0439054
567.388 .0433323
568.182 .0427779
568.976 .0422389
569.769 .0417135
570.562 .0412010
571.354 .0407013
572.145 .0402154
572.936 .0397442
573.727 .0392886
574.517 .0388495
575.307 .0384274
576.096 .0380225
576.885 .0376347
577.673 .0372638
578.461 .0369098
579.248 .0365728
580.035 .0362535
580.821 .0359519
581.607 .0356685
582.392 .0354035
583.177 .0351568
583.962 .0349279
584.746 .0347163
585.529 .0345213
586.313 .0343420
587.095 .0341773
587.878 .0340261
588.660 .0338874
589.441 .0337605
590.222 .0336443
591.003 .0335381
591.783 .0334409
592.563 .0333518
593.342 .0332700
594.121 .0331947
594.899 .0331248
595.678 .0330597
596.455 .0329985
597.233 .0329404
598.009 .0328847
598.786 .0328309
599.562 .0327786
600.338 .0327276
601.113 .0326778
601.888 .0326065
602.663 .0325594
603.437 .0325134
604.211 .0324686
604.984 .0324251
605.757 .0323827
606.530 .0323416
607.302 .0323018
608.074 .0322634
608.845 .0322264
609.616 .0321909
610.387 .0321772
611.158 .0321442
611.928 .0321129
612.697 .0320832
613.467 .0320551
614.236 .0320285
615.004 .0320033
615.773 .0319794
616.541 .0319564
617.308 .0319344
618.076 .0319130
618.843 .0318921
619.609 .0318716
620.375 .0318513
621.141 .0318309
621.907 .0318104
622.672 .0317897
623.437 .0317686
624.202 .0317468
624.966 .0317244
625.730 .0317011
626.493 .0316769
627.257 .0316517
628.020 .0316253
628.782 .0315979
629.545 .0315694
630.307 .0315400
631.068 .0315097
631.830 .0314788
632.591 .0314474
633.352 .0314157
634.112 .0313838
634.872 .0313519
635.632 .0313201
636.392 .0312884
637.151 .0312568
637.910 .0312255
638.668 .0311944
639.427 .0311636
640.185 .0311332
640.943 .0311034
641.700 .0310741
642.457 .0310455
643.214 .0310177
643.971 .0309908
644.727 .0309647
645.483 .0309394
646.239 .0309147
646.994 .0308906
647.750 .0308670
648.505 .0308436
649.259 .0308204
650.014 .0307973
650.768 .0307742
651.521 .0307512
652.275 .0307283
653.028 .0307055
653.781 .0306828
654.534 .0306602
655.286 .0306378
656.039 .0306155
656.791 .0305932
657.542 .0305708
658.294 .0305484
659.045 .0305257
659.796 .0305028
660.546 .0304797
661.297 .0304563
662.047 .0304327
662.796 .0304091
663.546 .0303854
664.295 .0303617
665.044 .0303381
665.793 .0303146
666.542 .0302913
667.290 .0302683
668.038 .0302453
668.786 .0302225
669.533 .0301998
670.281 .0301772
671.028 .0301546
671.774 .0301322
672.521 .0301101
673.267 .0300882
674.013 .0300668
674.759 .0300458
675.505 .0300254
676.250 .0300054
676.995 .0299860
677.740 .0299671
678.484 .0299485
679.229 .0299304
679.973 .0299126
680.717 .0298951
681.460 .0298780
682.204 .0298612
682.947 .0298448
683.690 .0298287
684.433 .0298129
685.175 .0297973
685.917 .0297820
686.659 .0297668
687.401 .0297518
688.142 .0297368
688.884 .0297217
689.625 .0297066
690.365 .0296913
691.106 .0296758
691.846 .0296601
692.586 .0296442
693.326 .0296280
694.066 .0296118
694.805 .0295954
695.545 .0295789
696.284 .0295624
697.022 .0295457
697.761 .0295290
698.499 .0295121
699.237 .0294952
699.975 .0294782
700.713 .0294612
701.450 .0294442
702.187 .0294274
702.924 .0294109
703.661 .0293947
704.397 .0293788
705.133 .0293633
705.869 .0293481
706.605 .0293333
707.341 .0293186
708.076 .0293040
708.811 .0292895
709.546 .0292749
710.281 .0292603
711.015 .0292456
711.749 .0292309
712.483 .0292161
713.217 .0292014
713.950 .0291867
714.684 .0291720
715.417 .0291575
716.150 .0291428
716.882 .0291281
717.615 .0291131
718.347 .0290978
719.079 .0290821
719.811 .0290660
720.542 .0290495
721.273 .0290326
722.005 .0290156
722.735 .0289984
723.466 .0289812
724.196 .0289641
724.927 .0289470
725.656 .0289301
726.386 .0289133
727.116 .0288966
727.845 .0288798
728.574 .0288632
729.303 .0288466
730.031 .0288302
730.760 .0288139
731.488 .0287979
732.216 .0287822
732.944 .0287669
733.671 .0287520
734.398 .0287375
735.125 .0287233
735.852 .0287094
736.579 .0286958
737.305 .0286823
738.031 .0286689
738.757 .0286556
739.483 .0286422
740.208 .0286287
740.933 .0286152
741.658 .0286015
742.383 .0285878
743.108 .0285740
743.832 .0285601
744.556 .0285460
745.280 .0285317
746.004 .0285171
746.727 .0285021
747.450 .0284865
748.173 .0284705
748.896 .0284539
749.618 .0284368
750.340 .0284192
751.062 .0284012
751.784 .0283828
752.506 .0283641
753.227 .0283451
753.948 .0283258
754.669 .0283063
755.389 .0282864
756.110 .0282663
756.830 .0282460
757.550 .0282255
758.269 .0282049
758.989 .0281843
759.708 .0281637
760.427 .0281431
761.146 .0281226
761.864 .0281021
762.582 .0280816
763.300 .0280610
764.018 .0280405
764.736 .0280199
765.453 .0279993
766.170 .0279788
766.887 .0279582
767.603 .0279378
768.320 .0279174
769.036 .0278971
769.751 .0278770
770.467 .0278572
771.182 .0278375
771.897 .0278183
772.612 .0277994
773.327 .0277810
774.041 .0277631
774.755 .0277456
775.469 .0277287
776.183 .0277124
776.896 .0276966
777.609 .0276815
778.322 .0276671
779.035 .0276533
779.747 .0276404
780.459 .0276282
781.171 .0276167
781.882 .0276061
782.594 .0275962
783.305 .0275869
784.016 .0275783
784.726 .0275703
785.436 .0275629
786.147 .0275536
786.856 .0275471
787.566 .0275410
788.275 .0275351
788.984 .0275295
789.693 .0275241
790.401 .0275187
791.110 .0275133
791.818 .0275078
792.525 .0275022
793.233 .0274964
793.940 .0274903
794.647 .0274863
795.353 .0274797
796.060 .0274729
796.766 .0274658
797.472 .0274583
798.177 .0274506
798.883 .0274424
799.588 .0274338
800.292 .0274249
800.997 .0274155
801.701 .0274059
802.405 .0273959
803.109 .0273857
803.812 .0273753
804.515 .0273648
805.218 .0273541
805.921 .0273432
806.623 .0273321
807.325 .0273210
808.027 .0273097
808.728 .0272985
809.429 .0272873
810.130 .0272762
810.831 .0272654
811.531 .0272549
812.231 .0272447
812.931 .0272349
813.630 .0272253
814.330 .0272161
815.029 .0272074
815.727 .0271990
816.426 .0271912
817.124 .0271840
817.821 .0271774
818.519 .0271714
819.216 .0271661
819.913 .0271613
820.609 .0271572
821.306 .0271535
822.002 .0271504
822.697 .0271478
823.393 .0271457
824.088 .0271442
824.783 .0271433
825.477 .0271428
826.171 .0271428
826.865 .0271432
827.559 .0271439
828.252 .0271448
828.945 .0271459
829.638 .0271472
830.330 .0271486
831.023 .0271501
831.714 .0271517
832.406 .0271535
833.097 .0271553
833.788 .0271570
834.479 .0271586
835.169 .0271601
835.859 .0271615
836.548 .0271626
837.238 .0271635
837.927 .0271642
838.615 .0271648
839.304 .0271652
839.992 .0271654
840.680 .0271653
841.367 .0271649
842.054 .0271642
842.741 .0271631
843.428 .0271615
844.114 .0271595
844.800 .0271569
845.485 .0271539
846.170 .0271504
846.855 .0271463
847.540 .0271416
848.224 .0271363
848.908 .0271301
849.592 .0271233
850.275 .0271156
850.958 .0271071
851.641 .0270978
852.323 .0270878
853.005 .0270770
853.687 .0270654
854.368 .0270532
855.049 .0270401
855.730 .0270264
856.410 .0270120
857.090 .0269969
857.769 .0269813
858.449 .0269652
859.128 .0269486
859.806 .0269318
860.485 .0269146
861.163 .0268973
861.840 .0268798
862.518 .0268623
863.195 .0268447
863.871 .0268271
864.548 .0268095
865.224 .0267921
865.899 .0267748
866.574 .0267577
867.249 .0267408
867.924 .0267241
868.598 .0267076
869.272 .0266913
869.946 .0266751
870.619 .0266591
871.292 .0266433
871.964 .0266277
872.636 .0266123
873.308 .0265972
873.979 .0265822
874.651 .0265675
875.321 .0265530
875.992 .0265387
876.662 .0265245
877.331 .0265104
878.001 .0264964
878.670 .0264826
879.338 .0264689
880.007 .0264555
880.675 .0264422
881.342 .0264293
882.009 .0264167
882.676 .0264045
883.343 .0263925
884.009 .0263809
884.675 .0263697
885.340 .0263587
886.005 .0263481
886.670 .0263379
887.334 .0263279
887.998 .0263183
888.662 .0263090
889.325 .0262999
889.988 .0262910
890.650 .0262823
891.312 .0262737
891.974 .0262651
892.636 .0262565
893.297 .0262478
893.957 .0262389
894.618 .0262299
895.278 .0262205
895.937 .0262107
896.596 .0262004
897.255 .0261895
897.914 .0261778
898.572 .0261654
899.230 .0261522
899.887 .0261381
900.544 .0261231
901.201 .0261074
901.857 .0260801
902.513 .0260624
903.168 .0260440
903.823 .0260248
904.478 .0260047
905.132 .0259839
905.786 .0259621
906.440 .0259396
907.093 .0259163
907.746 .0258924
908.399 .0258679
909.051 .0258429
909.703 .0258175
910.354 .0258042
911.005 .0257786
911.656 .0257529
912.306 .0257270
912.956 .0257010
913.605 .0256750
914.254 .0256490
914.903 .0256232
915.551 .0255975
916.199 .0255721
916.847 .0255471
917.494 .0255223
918.141 .0254979
918.788 .0254737
919.434 .0254498
920.079 .0254261
920.725 .0254025
921.370 .0253792
922.014 .0253560
922.658 .0253330
923.302 .0253103
923.946 .0252878
924.589 .0252656
925.231 .0252435
925.873 .0252216
926.515 .0251999
927.157 .0251783
927.798 .0251568
928.439 .0251354
929.079 .0251143
929.719 .0250934
930.359 .0250728
930.998 .0250526
931.637 .0250328
932.275 .0250134
932.913 .0249944
933.551 .0249759
934.188 .0249577
934.825 .0249400
935.462 .0249229
936.098 .0249064
936.733 .0248905
937.369 .0248754
938.004 .0248611
938.638 .0248476
939.273 .0248349
939.907 .0248231
940.540 .0248121
941.173 .0248020
941.806 .0247927
942.438 .0247841
943.070 .0247763
943.702 .0247693
944.333 .0247630
944.964 .0247574
945.594 .0247523
946.224 .0247478
946.854 .0247438
947.483 .0247402
948.112 .0247369
948.741 .0247339
949.369 .0247311
949.996 .0247286
950.624 .0247262
951.251 .0247239
951.878 .0247218
952.504 .0247197
953.130 .0247176
953.755 .0247156
954.380 .0247137
955.005 .0247118
955.629 .0247101
956.253 .0247084
956.877 .0247068
957.500 .0247053
958.123 .0247039
958.746 .0247027
959.368 .0247016
959.990 .0247008
960.611 .0247002
961.232 .0246999
961.853 .0247000
962.473 .0247004
963.093 .0247012
963.712 .0247022
964.331 .0247035
964.950 .0247050
965.569 .0247067
966.187 .0247086
966.804 .0247107
967.422 .0247128
968.039 .0247151
968.655 .0247174
969.272 .0247198
969.887 .0247220
970.503 .0247241
971.118 .0247260
971.733 .0247276
972.347 .0247290
972.961 .0247300
973.575 .0247308
974.188 .0247314
974.801 .0247319
975.414 .0247322
976.026 .0247323
976.638 .0247322
977.250 .0247320
977.861 .0247316
978.472 .0247309
979.083 .0247300
979.693 .0247290
980.303 .0247278
980.912 .0247260
981.521 .0247248
982.130 .0247236
982.738 .0247225
983.346 .0247215
983.954 .0247207
984.562 .0247202
985.169 .0247200
985.775 .0247202
986.382 .0247209
986.988 .0247222
987.594 .0247240
988.199 .0247264
988.804 .0247293
989.409 .0247323
990.013 .0247360
990.617 .0247403
991.221 .0247450
991.824 .0247501
992.427 .0247557
993.030 .0247617
993.632 .0247680
994.234 .0247745
994.836 .0247811
995.438 .0247879
996.039 .0247946
996.640 .0248014
997.240 .0248082
997.840 .0248152
998.440 .0248223
999.040 .0248296
999.639 .0248372
1000.238 .0248451
1000.836 .0248534
1001.435 .0248619
1002.033 .0248708
1002.630 .0248799
1003.228 .0248893
1003.825 .0248988
1004.422 .0249085
1005.018 .0249183
1005.614 .0249283
1006.210 .0249383
1006.806 .0249484
1007.401 .0249585
1007.996 .0249686
1008.591 .0249787
1009.186 .0249887
1009.780 .0249986
1010.374 .0250085
1010.967 .0250183
1011.561 .0250282
1012.154 .0250382
1012.746 .0250482
1013.339 .0250585
1013.931 .0250689
1014.523 .0250795
1015.115 .0250904
1015.706 .0251015
1016.298 .0251127
1016.888 .0251241
1017.479 .0251354
1018.069 .0251468
1018.660 .0251580
1019.250 .0251690
1019.839 .0251798
1020.429 .0251903
1021.018 .0252005
1021.607 .0252104
1022.195 .0252200
1022.784 .0252293
1023.372 .0252383
1023.960 .0252471
1024.547 .0252555
1025.135 .0252638
1025.722 .0252719
1026.309 .0252798
1026.896 .0252876
1027.483 .0252952
1028.069 .0253027
1028.655 .0253101
1029.241 .0253175
1029.827 .0253249
1030.412 .0253323
1030.997 .0253395
1031.582 .0253465
1032.167 .0253532
1032.752 .0253595
1033.336 .0253654
1033.921 .0253707
1034.505 .0253756
1035.089 .0253800
1035.672 .0253840
1036.256 .0253875
1036.839 .0253907
1037.422 .0253936
1038.005 .0253961
1038.588 .0253983
1039.171 .0254002
1039.753 .0254018
1040.335 .0254031
1040.918 .0254042
1041.500 .0254051
1042.081 .0254059
1042.663 .0254065
1043.244 .0254069
1043.826 .0254072
1044.407 .0254074
1044.988 .0254072
1045.569 .0254068
1046.150 .0254060
1046.730 .0254048
1047.311 .0254032
1047.891 .0254012
1048.471 .0253988
1049.052 .0253961
1049.632 .0253930
1050.211 .0253896
1050.791 .0253858
1051.371 .0253816
1051.950 .0253771
1052.530 .0253722
1053.109 .0253668
1053.688 .0253610
1054.268 .0253547
1054.847 .0253479
1055.426 .0253406
1056.005 .0253329
1056.583 .0253246
1057.162 .0253159
1057.741 .0253066
1058.319 .0252970
1058.898 .0252869
1059.476 .0252763
1060.055 .0252653
1060.633 .0252538
1061.211 .0252420
1061.790 .0252299
1062.368 .0252176
1062.946 .0252054
1063.524 .0251932
1064.102 .0251813
1064.680 .0251699
1065.258 .0251590
1065.836 .0251488
1066.414 .0251393
1066.992 .0251304
1067.570 .0251222
1068.148 .0251144
1068.726 .0251071
1069.304 .0251001
1069.882 .0250935
1070.460 .0250871
1071.038 .0250810
1071.616 .0250752
1072.194 .0250697
1072.772 .0250645
1073.350 .0250594
1073.928 .0250545
1074.506 .0250496
1075.084 .0250445
1075.662 .0250391
1076.240 .0250336
1076.819 .0250280
1077.397 .0250224
1077.976 .0250170
1078.554 .0250118
1079.133 .0250068
1079.711 .0250022
1080.290 .0249977
1080.869 .0249933
1081.448 .0249888
1082.027 .0249840
1082.606 .0249790
1083.185 .0249737
1083.764 .0249683
1084.343 .0249630
1084.923 .0249580
1085.502 .0249532
1086.082 .0249488
1086.662 .0249449
1087.242 .0249413
1087.822 .0249381
1088.402 .0249354
1088.983 .0249330
1089.563 .0249312
1090.144 .0249300
1090.725 .0249298
1091.306 .0249306
1091.887 .0249327
1092.469 .0249361
1093.050 .0249406
1093.632 .0249462
1094.214 .0249527
1094.796 .0249598
1095.379 .0249673
1095.961 .0249752
1096.544 .0249833
1097.127 .0249917
1097.710 .0250004
1098.294 .0250095
1098.877 .0250191
1099.461 .0250292
1100.046 .0250399
1100.630 .0250510
1101.215 .0250623
1101.800 .0250739
1102.385 .0250854
1102.970 .0250970
1103.556 .0251085
1104.142 .0251201
1104.728 .0251319
1105.315 .0251441
1105.902 .0251568
1106.489 .0251701
1107.077 .0251841
1107.664 .0251988
1108.253 .0252140
1108.841 .0252296
1109.430 .0252455
1110.019 .0252617
1110.609 .0252781
1111.198 .0252949
1111.789 .0253122
1112.379 .0253301
1112.970 .0253488
1113.561 .0253683
1114.153 .0253886
1114.745 .0254097
1115.338 .0254316
1115.931 .0254541
1116.524 .0254770
1117.117 .0255003
1117.712 .0255242
1118.306 .0255487
1118.901 .0255740
1119.496 .0256004
1120.092 .0256281
1120.689 .0256572
1121.285 .0256876
1121.882 .0257193
1122.480 .0257521
1123.078 .0257861
1123.677 .0258210
1124.276 .0258567
1124.875 .0258934
1125.476 .0259311
1126.076 .0259703
1126.677 .0260113
1127.279 .0260547
1127.881 .0261006
1128.484 .0261494
1129.087 .0261691
1129.691 .0262219
1130.295 .0262779
1130.900 .0263376
1131.505 .0264013
1132.111 .0264695
1132.718 .0265429
1133.325 .0266221
1133.933 .0267075
1134.541 .0267999
1135.150 .0269027
1135.760 .0270125
1136.370 .0271270
1136.981 .0269878
1137.592 .0271035
1138.204 .0272283
1138.817 .0273622
1139.431 .0275080
1140.045 .0276703
1140.660 .0278511
1141.275 .0280469
1141.891 .0282521
1142.508 .0284794
1143.126 .0288030
1143.744 .0290336
1144.363 .0292036
1144.983 .0292243
