Measurement Sequence started on: 15-12-46-377
Integration time: 28
Scans to Average: 2 
>>>>>Begin Spectral Data<<<<<
432.689 .0000100
433.621 .0000100
434.552 .0000100
435.482 .0000100
436.410 .0000100
437.337 .0000100
438.262 .0269220
439.187 .0569769
440.110 .0945245
441.031 .1368474
441.952 .1108433
442.871 .1159529
443.789 .1207367
444.705 .1252603
445.621 .1295689
446.535 .1336956
447.447 .1362475
448.359 .1370788
449.269 .1358115
450.178 .1322064
451.086 .1263352
451.993 .1186621
452.898 .1099597
453.803 .1011047
454.706 .0928447
455.608 .0856453
456.508 .0796637
457.408 .0755952
458.306 .0724396
459.204 .0698488
460.100 .0676419
460.995 .0657231
461.888 .0640303
462.781 .0625211
463.673 .0611655
464.563 .0599427
465.452 .0588357
466.340 .0578304
467.228 .0569162
468.114 .0560835
468.999 .0553237
469.882 .0546295
470.765 .0539952
471.647 .0534158
472.528 .0528879
473.407 .0524084
474.286 .0519747
475.163 .0515854
476.040 .0512381
476.915 .0509298
477.790 .0506580
478.663 .0504192
479.535 .0502108
480.407 .0500300
481.277 .0498741
482.147 .0497405
483.015 .0496280
483.883 .0495355
484.749 .0494615
485.615 .0494051
486.479 .0493656
487.343 .0493418
488.206 .0493329
489.067 .0493376
489.928 .0493550
490.788 .0493853
491.647 .0494290
492.505 .0494871
493.362 .0495623
494.218 .0496566
495.073 .0497733
495.928 .0500405
496.781 .0502263
497.634 .0504401
498.486 .0506822
499.337 .0509537
500.187 .0512556
501.036 .0515897
501.884 .0519587
502.731 .0523671
503.578 .0528186
504.424 .0531387
505.268 .0536684
506.113 .0542528
506.956 .0548953
507.798 .0556001
508.640 .0563719
509.480 .0572178
510.320 .0581470
511.160 .0591704
511.998 .0603008
512.836 .0615566
513.672 .0629558
514.508 .0645210
515.344 .0662747
516.178 .0682397
517.012 .0704391
517.845 .0728963
518.677 .0756305
519.508 .0786572
520.339 .0819854
521.169 .0856208
521.998 .0895442
522.826 .0937271
523.654 .0981206
524.481 .1026642
525.307 .1072846
526.133 .1118944
526.958 .1163947
527.782 .1206899
528.605 .1246862
529.428 .1283008
530.250 .1314564
531.072 .1341027
531.892 .1361977
532.712 .1377171
533.532 .1386484
534.350 .1389877
535.168 .1387379
535.986 .1379085
536.802 .1365052
537.618 .1345371
538.434 .1320127
539.249 .1289657
540.063 .1254377
540.876 .1214891
541.689 .1171912
542.501 .1126260
543.313 .1078882
544.124 .1030791
544.934 .0982923
545.744 .0936175
546.553 .0891313
547.361 .0848979
548.169 .0809543
548.976 .0773252
549.783 .0740160
550.589 .0710196
551.395 .0683186
552.200 .0658877
553.004 .0636973
553.808 .0617239
554.611 .0599455
555.414 .0583438
556.216 .0569001
557.018 .0555964
557.819 .0544159
558.619 .0533433
559.419 .0523638
560.218 .0514642
561.017 .0506325
561.815 .0498591
562.613 .0491356
563.410 .0484535
564.207 .0478060
565.003 .0471874
565.799 .0465926
566.594 .0460173
567.388 .0454585
568.182 .0449136
568.976 .0443808
569.769 .0438593
570.562 .0433490
571.354 .0428498
572.145 .0423622
572.936 .0418867
573.727 .0414241
574.517 .0409754
575.307 .0405417
576.096 .0401239
576.885 .0397232
577.673 .0393404
578.461 .0389759
579.248 .0386298
580.035 .0383019
580.821 .0379918
581.607 .0376993
582.392 .0374236
583.177 .0371646
583.962 .0369217
584.746 .0366946
585.529 .0364830
586.313 .0362862
587.095 .0361032
587.878 .0359335
588.660 .0357760
589.441 .0356297
590.222 .0354938
591.003 .0353675
591.783 .0352499
592.563 .0351404
593.342 .0350382
594.121 .0349426
594.899 .0348529
595.678 .0347688
596.455 .0346895
597.233 .0346145
598.009 .0345434
598.786 .0344756
599.562 .0344110
600.338 .0343490
601.113 .0342895
601.888 .0342079
602.663 .0341539
603.437 .0341018
604.211 .0340515
604.984 .0340029
605.757 .0339559
606.530 .0339106
607.302 .0338667
608.074 .0338244
608.845 .0337837
609.616 .0337446
610.387 .0337285
611.158 .0336919
611.928 .0336570
612.697 .0336237
613.467 .0335920
614.236 .0335618
615.004 .0335327
615.773 .0335047
616.541 .0334776
617.308 .0334513
618.076 .0334256
618.843 .0334005
619.609 .0333761
620.375 .0333522
621.141 .0333288
621.907 .0333058
622.672 .0332830
623.437 .0332605
624.202 .0332380
624.966 .0332155
625.730 .0331928
626.493 .0331700
627.257 .0331469
628.020 .0331236
628.782 .0331001
629.545 .0330763
630.307 .0330522
631.068 .0330278
631.830 .0330032
632.591 .0329784
633.352 .0329534
634.112 .0329281
634.872 .0329025
635.632 .0328766
636.392 .0328502
637.151 .0328232
637.910 .0327955
638.668 .0327672
639.427 .0327382
640.185 .0327086
640.943 .0326785
641.700 .0326481
642.457 .0326175
643.214 .0325867
643.971 .0325559
644.727 .0325248
645.483 .0324936
646.239 .0324622
646.994 .0324305
647.750 .0323986
648.505 .0323665
649.259 .0323343
650.014 .0323022
650.768 .0322702
651.521 .0322383
652.275 .0322067
653.028 .0321754
653.781 .0321443
654.534 .0321134
655.286 .0320828
656.039 .0320524
656.791 .0320222
657.542 .0319924
658.294 .0319630
659.045 .0319339
659.796 .0319052
660.546 .0318769
661.297 .0318490
662.047 .0318215
662.796 .0317944
663.546 .0317679
664.295 .0317418
665.044 .0317162
665.793 .0316910
666.542 .0316664
667.290 .0316422
668.038 .0316185
668.786 .0315953
669.533 .0315724
670.281 .0315500
671.028 .0315279
671.774 .0315063
672.521 .0314851
673.267 .0314642
674.013 .0314437
674.759 .0314235
675.505 .0314035
676.250 .0313838
676.995 .0313643
677.740 .0313450
678.484 .0313258
679.229 .0313067
679.973 .0312876
680.717 .0312686
681.460 .0312495
682.204 .0312304
682.947 .0312111
683.690 .0311918
684.433 .0311724
685.175 .0311529
685.917 .0311334
686.659 .0311139
687.401 .0310945
688.142 .0310750
688.884 .0310557
689.625 .0310364
690.365 .0310172
691.106 .0309980
691.846 .0309790
692.586 .0309600
693.326 .0309412
694.066 .0309225
694.805 .0309039
695.545 .0308854
696.284 .0308670
697.022 .0308486
697.761 .0308302
698.499 .0308117
699.237 .0307932
699.975 .0307745
700.713 .0307558
701.450 .0307368
702.187 .0307178
702.924 .0306985
703.661 .0306791
704.397 .0306595
705.133 .0306398
705.869 .0306199
706.605 .0305999
707.341 .0305798
708.076 .0305595
708.811 .0305392
709.546 .0305189
710.281 .0304984
711.015 .0304780
711.749 .0304575
712.483 .0304369
713.217 .0304164
713.950 .0303958
714.684 .0303753
715.417 .0303548
716.150 .0303344
716.882 .0303141
717.615 .0302940
718.347 .0302738
719.079 .0302538
719.811 .0302338
720.542 .0302140
721.273 .0301943
722.005 .0301747
722.735 .0301553
723.466 .0301362
724.196 .0301173
724.927 .0300989
725.656 .0300808
726.386 .0300631
727.116 .0300458
727.845 .0300290
728.574 .0300127
729.303 .0299968
730.031 .0299814
730.760 .0299665
731.488 .0299521
732.216 .0299380
732.944 .0299243
733.671 .0299110
734.398 .0298979
735.125 .0298850
735.852 .0298723
736.579 .0298597
737.305 .0298472
738.031 .0298347
738.757 .0298223
739.483 .0298099
740.208 .0297975
740.933 .0297851
741.658 .0297726
742.383 .0297599
743.108 .0297472
743.832 .0297343
744.556 .0297213
745.280 .0297082
746.004 .0296950
746.727 .0296816
747.450 .0296683
748.173 .0296548
748.896 .0296414
749.618 .0296279
750.340 .0296144
751.062 .0296009
751.784 .0295872
752.506 .0295736
753.227 .0295598
753.948 .0295460
754.669 .0295322
755.389 .0295183
756.110 .0295045
756.830 .0294907
757.550 .0294768
758.269 .0294630
758.989 .0294491
759.708 .0294352
760.427 .0294211
761.146 .0294070
761.864 .0293928
762.582 .0293785
763.300 .0293642
764.018 .0293498
764.736 .0293354
765.453 .0293210
766.170 .0293066
766.887 .0292921
767.603 .0292777
768.320 .0292634
769.036 .0292493
769.751 .0292355
770.467 .0292221
771.182 .0292091
771.897 .0291967
772.612 .0291847
773.327 .0291733
774.041 .0291624
774.755 .0291520
775.469 .0291419
776.183 .0291323
776.896 .0291231
777.609 .0291143
778.322 .0291058
779.035 .0290977
779.747 .0290899
780.459 .0290823
781.171 .0290749
781.882 .0290676
782.594 .0290604
783.305 .0290532
784.016 .0290459
784.726 .0290385
785.436 .0290308
786.147 .0290181
786.856 .0290096
787.566 .0290008
788.275 .0289916
788.984 .0289820
789.693 .0289721
790.401 .0289618
791.110 .0289513
791.818 .0289406
792.525 .0289297
793.233 .0289186
793.940 .0289073
794.647 .0289011
795.353 .0288898
796.060 .0288784
796.766 .0288669
797.472 .0288553
798.177 .0288437
798.883 .0288319
799.588 .0288201
800.292 .0288081
800.997 .0287962
801.701 .0287842
802.405 .0287721
803.109 .0287600
803.812 .0287477
804.515 .0287352
805.218 .0287225
805.921 .0287095
806.623 .0286961
807.325 .0286825
808.027 .0286685
808.728 .0286543
809.429 .0286398
810.130 .0286251
810.831 .0286103
811.531 .0285954
812.231 .0285805
812.931 .0285654
813.630 .0285503
814.330 .0285351
815.029 .0285199
815.727 .0285048
816.426 .0284898
817.124 .0284751
817.821 .0284607
818.519 .0284467
819.216 .0284331
819.913 .0284201
820.609 .0284075
821.306 .0283955
822.002 .0283839
822.697 .0283729
823.393 .0283624
824.088 .0283525
824.783 .0283430
825.477 .0283340
826.171 .0283253
826.865 .0283169
827.559 .0283086
828.252 .0283004
828.945 .0282921
829.638 .0282838
830.330 .0282755
831.023 .0282671
831.714 .0282588
832.406 .0282504
833.097 .0282421
833.788 .0282339
834.479 .0282256
835.169 .0282174
835.859 .0282092
836.548 .0282010
837.238 .0281928
837.927 .0281846
838.615 .0281766
839.304 .0281686
839.992 .0281607
840.680 .0281529
841.367 .0281453
842.054 .0281377
842.741 .0281302
843.428 .0281227
844.114 .0281152
844.800 .0281076
845.485 .0280999
846.170 .0280921
846.855 .0280840
847.540 .0280756
848.224 .0280669
848.908 .0280579
849.592 .0280486
850.275 .0280391
850.958 .0280292
851.641 .0280192
852.323 .0280089
853.005 .0279984
853.687 .0279876
854.368 .0279766
855.049 .0279654
855.730 .0279539
856.410 .0279423
857.090 .0279305
857.769 .0279187
858.449 .0279068
859.128 .0278951
859.806 .0278834
860.485 .0278720
861.163 .0278608
861.840 .0278499
862.518 .0278394
863.195 .0278293
863.871 .0278196
864.548 .0278103
865.224 .0278014
865.899 .0277930
866.574 .0277848
867.249 .0277769
867.924 .0277693
868.598 .0277617
869.272 .0277543
869.946 .0277470
870.619 .0277398
871.292 .0277327
871.964 .0277256
872.636 .0277185
873.308 .0277115
873.979 .0277045
874.651 .0276975
875.321 .0276905
875.992 .0276835
876.662 .0276765
877.331 .0276695
878.001 .0276626
878.670 .0276557
879.338 .0276490
880.007 .0276423
880.675 .0276358
881.342 .0276295
882.009 .0276234
882.676 .0276174
883.343 .0276117
884.009 .0276062
884.675 .0276009
885.340 .0275959
886.005 .0275911
886.670 .0275865
887.334 .0275820
887.998 .0275778
888.662 .0275738
889.325 .0275700
889.988 .0275663
890.650 .0275628
891.312 .0275593
891.974 .0275559
892.636 .0275525
893.297 .0275490
893.957 .0275454
894.618 .0275416
895.278 .0275377
895.937 .0275334
896.596 .0275289
897.255 .0275240
897.914 .0275185
898.572 .0275126
899.230 .0275059
899.887 .0274985
900.544 .0274903
901.201 .0274812
901.857 .0274640
902.513 .0274528
903.168 .0274408
903.823 .0274281
904.478 .0274147
905.132 .0274007
905.786 .0273860
906.440 .0273706
907.093 .0273547
907.746 .0273381
908.399 .0273211
909.051 .0273036
909.703 .0272858
910.354 .0272762
911.005 .0272582
911.656 .0272402
912.306 .0272221
912.956 .0272040
913.605 .0271858
914.254 .0271677
914.903 .0271495
915.551 .0271314
916.199 .0271131
916.847 .0270949
917.494 .0270767
918.141 .0270584
918.788 .0270401
919.434 .0270218
920.079 .0270033
920.725 .0269846
921.370 .0269656
922.014 .0269463
922.658 .0269265
923.302 .0269062
923.946 .0268855
924.589 .0268643
925.231 .0268427
925.873 .0268206
926.515 .0267980
927.157 .0267750
927.798 .0267515
928.439 .0267275
929.079 .0267030
929.719 .0266781
930.359 .0266530
930.998 .0266277
931.637 .0266023
932.275 .0265772
932.913 .0265524
933.551 .0265279
934.188 .0265041
934.825 .0264808
935.462 .0264582
936.098 .0264363
936.733 .0264152
937.369 .0263949
938.004 .0263755
938.638 .0263572
939.273 .0263399
939.907 .0263237
940.540 .0263085
941.173 .0262944
941.806 .0262812
942.438 .0262688
943.070 .0262573
943.702 .0262464
944.333 .0262362
944.964 .0262266
945.594 .0262175
946.224 .0262088
946.854 .0262004
947.483 .0261923
948.112 .0261843
948.741 .0261762
949.369 .0261680
949.996 .0261596
950.624 .0261509
951.251 .0261419
951.878 .0261325
952.504 .0261227
953.130 .0261125
953.755 .0261019
954.380 .0260909
955.005 .0260796
955.629 .0260679
956.253 .0260558
956.877 .0260436
957.500 .0260311
958.123 .0260184
958.746 .0260057
959.368 .0259932
959.990 .0259807
960.611 .0259685
961.232 .0259567
961.853 .0259453
962.473 .0259344
963.093 .0259240
963.712 .0259141
964.331 .0259046
964.950 .0258957
965.569 .0258871
966.187 .0258790
966.804 .0258713
967.422 .0258639
968.039 .0258567
968.655 .0258499
969.272 .0258433
969.887 .0258369
970.503 .0258308
971.118 .0258248
971.733 .0258189
972.347 .0258130
972.961 .0258071
973.575 .0258011
974.188 .0257949
974.801 .0257886
975.414 .0257821
976.026 .0257753
976.638 .0257684
977.250 .0257612
977.861 .0257538
978.472 .0257461
979.083 .0257381
979.693 .0257299
980.303 .0257213
980.912 .0257077
981.521 .0256987
982.130 .0256897
982.738 .0256806
983.346 .0256716
983.954 .0256628
984.562 .0256542
985.169 .0256460
985.775 .0256382
986.382 .0256308
986.988 .0256240
987.594 .0256178
988.199 .0256123
988.804 .0256075
989.409 .0256076
990.013 .0256041
990.617 .0256015
991.221 .0255998
991.824 .0255991
992.427 .0255992
993.030 .0256003
993.632 .0256021
994.234 .0256048
994.836 .0256081
995.438 .0256120
996.039 .0256165
996.640 .0256214
997.240 .0256269
997.840 .0256329
998.440 .0256394
999.040 .0256465
999.639 .0256540
1000.238 .0256621
1000.836 .0256704
1001.435 .0256790
1002.033 .0256878
1002.630 .0256965
1003.228 .0257053
1003.825 .0257139
1004.422 .0257224
1005.018 .0257309
1005.614 .0257393
1006.210 .0257476
1006.806 .0257558
1007.401 .0257638
1007.996 .0257716
1008.591 .0257791
1009.186 .0257862
1009.780 .0257928
1010.374 .0257991
1010.967 .0258050
1011.561 .0258106
1012.154 .0258162
1012.746 .0258217
1013.339 .0258274
1013.931 .0258332
1014.523 .0258393
1015.115 .0258455
1015.706 .0258520
1016.298 .0258586
1016.888 .0258655
1017.479 .0258726
1018.069 .0258800
1018.660 .0258878
1019.250 .0258960
1019.839 .0259047
1020.429 .0259138
1021.018 .0259234
1021.607 .0259334
1022.195 .0259437
1022.784 .0259542
1023.372 .0259650
1023.960 .0259761
1024.547 .0259874
1025.135 .0259990
1025.722 .0260108
1026.309 .0260230
1026.896 .0260354
1027.483 .0260480
1028.069 .0260606
1028.655 .0260732
1029.241 .0260856
1029.827 .0260978
1030.412 .0261096
1030.997 .0261210
1031.582 .0261320
1032.167 .0261425
1032.752 .0261525
1033.336 .0261620
1033.921 .0261710
1034.505 .0261793
1035.089 .0261869
1035.672 .0261939
1036.256 .0262000
1036.839 .0262054
1037.422 .0262100
1038.005 .0262138
1038.588 .0262168
1039.171 .0262191
1039.753 .0262207
1040.335 .0262215
1040.918 .0262217
1041.500 .0262213
1042.081 .0262202
1042.663 .0262185
1043.244 .0262163
1043.826 .0262137
1044.407 .0262107
1044.988 .0262074
1045.569 .0262039
1046.150 .0262004
1046.730 .0261969
1047.311 .0261933
1047.891 .0261899
1048.471 .0261866
1049.052 .0261834
1049.632 .0261806
1050.211 .0261779
1050.791 .0261756
1051.371 .0261735
1051.950 .0261717
1052.530 .0261701
1053.109 .0261687
1053.688 .0261675
1054.268 .0261665
1054.847 .0261656
1055.426 .0261650
1056.005 .0261646
1056.583 .0261645
1057.162 .0261646
1057.741 .0261650
1058.319 .0261656
1058.898 .0261664
1059.476 .0261674
1060.055 .0261685
1060.633 .0261696
1061.211 .0261707
1061.790 .0261718
1062.368 .0261727
1062.946 .0261735
1063.524 .0261740
1064.102 .0261743
1064.680 .0261742
1065.258 .0261737
1065.836 .0261725
1066.414 .0261708
1066.992 .0261685
1067.570 .0261656
1068.148 .0261620
1068.726 .0261580
1069.304 .0261535
1069.882 .0261487
1070.460 .0261436
1071.038 .0261381
1071.616 .0261324
1072.194 .0261265
1072.772 .0261203
1073.350 .0261139
1073.928 .0261074
1074.506 .0261009
1075.084 .0260944
1075.662 .0260880
1076.240 .0260818
1076.819 .0260758
1077.397 .0260700
1077.976 .0260645
1078.554 .0260592
1079.133 .0260542
1079.711 .0260494
1080.290 .0260449
1080.869 .0260407
1081.448 .0260368
1082.027 .0260332
1082.606 .0260299
1083.185 .0260268
1083.764 .0260238
1084.343 .0260209
1084.923 .0260182
1085.502 .0260155
1086.082 .0260130
1086.662 .0260105
1087.242 .0260082
1087.822 .0260061
1088.402 .0260043
1088.983 .0260029
1089.563 .0260019
1090.144 .0260012
1090.725 .0260010
1091.306 .0260013
1091.887 .0260019
1092.469 .0260030
1093.050 .0260043
1093.632 .0260058
1094.214 .0260074
1094.796 .0260091
1095.379 .0260111
1095.961 .0260133
1096.544 .0260160
1097.127 .0260190
1097.710 .0260226
1098.294 .0260266
1098.877 .0260311
1099.461 .0260361
1100.046 .0260416
1100.630 .0260477
1101.215 .0260544
1101.800 .0260619
1102.385 .0260706
1102.970 .0260807
1103.556 .0260926
1104.142 .0261065
1104.728 .0261224
1105.315 .0261402
1105.902 .0261600
1106.489 .0261816
1107.077 .0262048
1107.664 .0262293
1108.253 .0262550
1108.841 .0262818
1109.430 .0263096
1110.019 .0263384
1110.609 .0263684
1111.198 .0263996
1111.789 .0264318
1112.379 .0264647
1112.970 .0264981
1113.561 .0265316
1114.153 .0265650
1114.745 .0265981
1115.338 .0266307
1115.931 .0266629
1116.524 .0266948
1117.117 .0267264
1117.712 .0267582
1118.306 .0267902
1118.901 .0268226
1119.496 .0268555
1120.092 .0268888
1120.689 .0269226
1121.285 .0269570
1121.882 .0269921
1122.480 .0270283
1123.078 .0270656
1123.677 .0271043
1124.276 .0271445
1124.875 .0271868
1125.476 .0272314
1126.076 .0272783
1126.677 .0273280
1127.279 .0273804
1127.881 .0274358
1128.484 .0274941
1129.087 .0275117
1129.691 .0275742
1130.295 .0276403
1130.900 .0277100
1131.505 .0277832
1132.111 .0278602
1132.718 .0279407
1133.325 .0280254
1133.933 .0281148
1134.541 .0282035
1135.150 .0283032
1135.760 .0283977
1136.370 .0285144
1136.981 .0286561
1137.592 .0287814
1138.204 .0289043
1138.817 .0290230
1139.431 .0291338
1140.045 .0292438
1140.660 .0293468
1141.275 .0294648
1141.891 .0295969
1142.508 .0295823
1143.126 .0299039
1143.744 .0297767
1144.363 .0304239
1144.983 .0307063
