Measurement Sequence started on: 15-12-46-377
Integration time: 28
Scans to Average: 2 
>>>>>Begin Spectral Data<<<<<
432.689 .0000100
433.621 .0000100
434.552 .0000100
435.482 .0000100
436.410 .0000100
437.337 .0000100
438.262 .0259128
439.187 .0549800
440.110 .0910475
441.031 .1316989
441.952 .1052883
442.871 .1099520
443.789 .1143040
444.705 .1184112
445.621 .1223185
446.535 .1260597
447.447 .1282960
448.359 .1288786
449.269 .1274544
450.178 .1237943
451.086 .1179727
451.993 .1104425
452.898 .1019526
453.803 .0933520
454.706 .0853628
455.608 .0784313
456.508 .0727046
457.408 .0688444
458.306 .0658862
459.204 .0634760
460.100 .0614375
460.995 .0596730
461.888 .0581171
462.781 .0567267
463.673 .0554703
464.563 .0543258
465.452 .0532784
466.340 .0523161
467.228 .0514304
468.114 .0506145
468.999 .0498628
469.882 .0491708
470.765 .0485342
471.647 .0479490
472.528 .0474118
473.407 .0469191
474.286 .0464689
475.163 .0460598
476.040 .0456905
476.915 .0453609
477.790 .0450704
478.663 .0448188
479.535 .0446050
480.407 .0444273
481.277 .0442833
482.147 .0441697
483.015 .0440831
483.883 .0440209
484.749 .0439801
485.615 .0439593
486.479 .0439571
487.343 .0439732
488.206 .0440078
489.067 .0440600
489.928 .0441297
490.788 .0442161
491.647 .0443179
492.505 .0444340
493.362 .0445631
494.218 .0447052
495.073 .0448603
495.928 .0451450
496.781 .0453399
497.634 .0455524
498.486 .0457839
499.337 .0460366
500.187 .0463120
501.036 .0466120
501.884 .0469381
502.731 .0472926
503.578 .0476787
504.424 .0479429
505.268 .0483889
506.113 .0488768
506.956 .0494118
507.798 .0499994
508.640 .0506470
509.480 .0513628
510.320 .0521555
511.160 .0530356
511.998 .0540150
512.836 .0551075
513.672 .0563267
514.508 .0576901
515.344 .0592163
516.178 .0609273
517.012 .0628447
517.845 .0649896
518.677 .0673845
519.508 .0700499
520.339 .0729985
521.169 .0762363
521.998 .0797461
522.826 .0834985
523.654 .0874438
524.481 .0915198
525.307 .0956501
526.133 .0997513
526.958 .1037365
527.782 .1075237
528.605 .1110355
529.428 .1142061
530.250 .1169764
531.072 .1193089
531.892 .1211683
532.712 .1225306
533.532 .1233777
534.350 .1237026
535.168 .1235044
535.986 .1227845
536.802 .1215440
537.618 .1197906
538.434 .1175359
539.249 .1148141
540.063 .1116679
540.876 .1081576
541.689 .1043539
542.501 .1003390
543.313 .0961977
544.124 .0920169
544.934 .0878766
545.744 .0838481
546.553 .0799900
547.361 .0763515
548.169 .0729589
548.976 .0698328
549.783 .0669807
550.589 .0643999
551.395 .0620764
552.200 .0599902
553.004 .0581165
553.808 .0564328
554.611 .0549174
555.414 .0535495
556.216 .0523092
557.018 .0511797
557.819 .0501462
558.619 .0491944
559.419 .0483130
560.218 .0474929
561.017 .0467253
561.815 .0460036
562.613 .0453222
563.410 .0446757
564.207 .0440595
565.003 .0434700
565.799 .0429035
566.594 .0423568
567.388 .0418285
568.182 .0413166
568.976 .0408198
569.769 .0403375
570.562 .0398690
571.354 .0394131
572.145 .0389700
572.936 .0385398
573.727 .0381223
574.517 .0377178
575.307 .0373271
576.096 .0369500
576.885 .0365877
577.673 .0362405
578.461 .0359088
579.248 .0355929
580.035 .0352930
580.821 .0350088
581.607 .0347400
582.392 .0344863
583.177 .0342475
583.962 .0340229
584.746 .0338121
585.529 .0336146
586.313 .0334299
587.095 .0332576
587.878 .0330972
588.660 .0329479
589.441 .0328093
590.222 .0326805
591.003 .0325608
591.783 .0324492
592.563 .0323450
593.342 .0322473
594.121 .0321555
594.899 .0320688
595.678 .0319867
596.455 .0319088
597.233 .0318350
598.009 .0317650
598.786 .0316986
599.562 .0316357
600.338 .0315760
601.113 .0315194
601.888 .0314435
602.663 .0313932
603.437 .0313454
604.211 .0312998
604.984 .0312565
605.757 .0312154
606.530 .0311764
607.302 .0311396
608.074 .0311050
608.845 .0310726
609.616 .0310423
610.387 .0310316
611.158 .0310040
611.928 .0309783
612.697 .0309543
613.467 .0309319
614.236 .0309110
615.004 .0308914
615.773 .0308732
616.541 .0308563
617.308 .0308405
618.076 .0308257
618.843 .0308121
619.609 .0307992
620.375 .0307870
621.141 .0307753
621.907 .0307637
622.672 .0307522
623.437 .0307405
624.202 .0307286
624.966 .0307163
625.730 .0307037
626.493 .0306907
627.257 .0306772
628.020 .0306632
628.782 .0306486
629.545 .0306332
630.307 .0306170
631.068 .0305999
631.830 .0305816
632.591 .0305623
633.352 .0305420
634.112 .0305206
634.872 .0304983
635.632 .0304750
636.392 .0304509
637.151 .0304260
637.910 .0304004
638.668 .0303743
639.427 .0303476
640.185 .0303207
640.943 .0302935
641.700 .0302662
642.457 .0302389
643.214 .0302117
643.971 .0301845
644.727 .0301575
645.483 .0301306
646.239 .0301038
646.994 .0300772
647.750 .0300508
648.505 .0300245
649.259 .0299985
650.014 .0299727
650.768 .0299470
651.521 .0299213
652.275 .0298955
653.028 .0298696
653.781 .0298435
654.534 .0298172
655.286 .0297907
656.039 .0297641
656.791 .0297373
657.542 .0297106
658.294 .0296839
659.045 .0296572
659.796 .0296307
660.546 .0296042
661.297 .0295779
662.047 .0295517
662.796 .0295258
663.546 .0295003
664.295 .0294753
665.044 .0294509
665.793 .0294273
666.542 .0294047
667.290 .0293831
668.038 .0293627
668.786 .0293436
669.533 .0293258
670.281 .0293092
671.028 .0292938
671.774 .0292797
672.521 .0292667
673.267 .0292548
674.013 .0292440
674.759 .0292341
675.505 .0292252
676.250 .0292173
676.995 .0292101
677.740 .0292037
678.484 .0291979
679.229 .0291926
679.973 .0291876
680.717 .0291828
681.460 .0291780
682.204 .0291731
682.947 .0291680
683.690 .0291627
684.433 .0291570
685.175 .0291509
685.917 .0291445
686.659 .0291377
687.401 .0291306
688.142 .0291231
688.884 .0291153
689.625 .0291070
690.365 .0290984
691.106 .0290892
691.846 .0290796
692.586 .0290694
693.326 .0290587
694.066 .0290474
694.805 .0290357
695.545 .0290236
696.284 .0290112
697.022 .0289987
697.761 .0289861
698.499 .0289734
699.237 .0289606
699.975 .0289479
700.713 .0289351
701.450 .0289222
702.187 .0289092
702.924 .0288960
703.661 .0288825
704.397 .0288687
705.133 .0288546
705.869 .0288400
706.605 .0288250
707.341 .0288093
708.076 .0287930
708.811 .0287760
709.546 .0287581
710.281 .0287394
711.015 .0287197
711.749 .0286990
712.483 .0286774
713.217 .0286547
713.950 .0286309
714.684 .0286061
715.417 .0285803
716.150 .0285535
716.882 .0285257
717.615 .0284970
718.347 .0284675
719.079 .0284374
719.811 .0284066
720.542 .0283754
721.273 .0283438
722.005 .0283120
722.735 .0282801
723.466 .0282483
724.196 .0282167
724.927 .0281855
725.656 .0281547
726.386 .0281246
727.116 .0280952
727.845 .0280666
728.574 .0280391
729.303 .0280125
730.031 .0279872
730.760 .0279631
731.488 .0279402
732.216 .0279187
732.944 .0278985
733.671 .0278796
734.398 .0278622
735.125 .0278461
735.852 .0278313
736.579 .0278178
737.305 .0278056
738.031 .0277945
738.757 .0277846
739.483 .0277756
740.208 .0277675
740.933 .0277604
741.658 .0277541
742.383 .0277485
743.108 .0277438
743.832 .0277397
744.556 .0277362
745.280 .0277333
746.004 .0277307
746.727 .0277285
747.450 .0277265
748.173 .0277246
748.896 .0277228
749.618 .0277212
750.340 .0277196
751.062 .0277180
751.784 .0277165
752.506 .0277149
753.227 .0277133
753.948 .0277116
754.669 .0277097
755.389 .0277077
756.110 .0277055
756.830 .0277032
757.550 .0277007
758.269 .0276982
758.989 .0276955
759.708 .0276927
760.427 .0276897
761.146 .0276865
761.864 .0276831
762.582 .0276795
763.300 .0276757
764.018 .0276717
764.736 .0276676
765.453 .0276633
766.170 .0276589
766.887 .0276544
767.603 .0276497
768.320 .0276449
769.036 .0276399
769.751 .0276349
770.467 .0276299
771.182 .0276250
771.897 .0276203
772.612 .0276157
773.327 .0276113
774.041 .0276070
774.755 .0276028
775.469 .0275987
776.183 .0275947
776.896 .0275906
777.609 .0275867
778.322 .0275827
779.035 .0275787
779.747 .0275746
780.459 .0275704
781.171 .0275660
781.882 .0275612
782.594 .0275560
783.305 .0275502
784.016 .0275437
784.726 .0275366
785.436 .0275286
786.147 .0275130
786.856 .0275027
787.566 .0274914
788.275 .0274791
788.984 .0274657
789.693 .0274512
790.401 .0274357
791.110 .0274191
791.818 .0274015
792.525 .0273829
793.233 .0273634
793.940 .0273430
794.647 .0273306
795.353 .0273092
796.060 .0272869
796.766 .0272639
797.472 .0272402
798.177 .0272158
798.883 .0271909
799.588 .0271654
800.292 .0271395
800.997 .0271133
801.701 .0270866
802.405 .0270596
803.109 .0270323
803.812 .0270047
804.515 .0269768
805.218 .0269486
805.921 .0269203
806.623 .0268918
807.325 .0268631
808.027 .0268345
808.728 .0268058
809.429 .0267772
810.130 .0267487
810.831 .0267204
811.531 .0266924
812.231 .0266647
812.931 .0266374
813.630 .0266107
814.330 .0265846
815.029 .0265591
815.727 .0265344
816.426 .0265105
817.124 .0264874
817.821 .0264652
818.519 .0264439
819.216 .0264236
819.913 .0264043
820.609 .0263861
821.306 .0263690
822.002 .0263530
822.697 .0263382
823.393 .0263245
824.088 .0263119
824.783 .0263006
825.477 .0262902
826.171 .0262809
826.865 .0262726
827.559 .0262653
828.252 .0262588
828.945 .0262532
829.638 .0262483
830.330 .0262442
831.023 .0262407
831.714 .0262379
832.406 .0262357
833.097 .0262341
833.788 .0262331
834.479 .0262326
835.169 .0262326
835.859 .0262331
836.548 .0262340
837.238 .0262353
837.927 .0262369
838.615 .0262390
839.304 .0262413
839.992 .0262440
840.680 .0262469
841.367 .0262502
842.054 .0262538
842.741 .0262576
843.428 .0262617
844.114 .0262659
844.800 .0262703
845.485 .0262748
846.170 .0262792
846.855 .0262837
847.540 .0262880
848.224 .0262923
848.908 .0262965
849.592 .0263005
850.275 .0263045
850.958 .0263083
851.641 .0263121
852.323 .0263157
853.005 .0263193
853.687 .0263228
854.368 .0263263
855.049 .0263297
855.730 .0263331
856.410 .0263364
857.090 .0263397
857.769 .0263430
858.449 .0263462
859.128 .0263493
859.806 .0263523
860.485 .0263552
861.163 .0263582
861.840 .0263611
862.518 .0263641
863.195 .0263671
863.871 .0263701
864.548 .0263731
865.224 .0263761
865.899 .0263790
866.574 .0263817
867.249 .0263843
867.924 .0263868
868.598 .0263890
869.272 .0263910
869.946 .0263927
870.619 .0263942
871.292 .0263954
871.964 .0263963
872.636 .0263968
873.308 .0263968
873.979 .0263965
874.651 .0263957
875.321 .0263944
875.992 .0263927
876.662 .0263907
877.331 .0263882
878.001 .0263853
878.670 .0263821
879.338 .0263784
880.007 .0263744
880.675 .0263700
881.342 .0263653
882.009 .0263603
882.676 .0263549
883.343 .0263492
884.009 .0263432
884.675 .0263367
885.340 .0263298
886.005 .0263224
886.670 .0263144
887.334 .0263058
887.998 .0262966
888.662 .0262867
889.325 .0262762
889.988 .0262649
890.650 .0262530
891.312 .0262403
891.974 .0262269
892.636 .0262126
893.297 .0261975
893.957 .0261817
894.618 .0261650
895.278 .0261477
895.937 .0261295
896.596 .0261107
897.255 .0260912
897.914 .0260709
898.572 .0260498
899.230 .0260280
899.887 .0260054
900.544 .0259819
901.201 .0259577
901.857 .0259190
902.513 .0258932
903.168 .0258667
903.823 .0258398
904.478 .0258122
905.132 .0257841
905.786 .0257554
906.440 .0257262
907.093 .0256965
907.746 .0256664
908.399 .0256358
909.051 .0256050
909.703 .0255739
910.354 .0255571
911.005 .0255258
911.656 .0254943
912.306 .0254626
912.956 .0254307
913.605 .0253985
914.254 .0253662
914.903 .0253337
915.551 .0253011
916.199 .0252683
916.847 .0252356
917.494 .0252029
918.141 .0251702
918.788 .0251376
919.434 .0251049
920.079 .0250723
920.725 .0250398
921.370 .0250074
922.014 .0249751
922.658 .0249430
923.302 .0249113
923.946 .0248801
924.589 .0248494
925.231 .0248194
925.873 .0247899
926.515 .0247612
927.157 .0247330
927.798 .0247056
928.439 .0246788
929.079 .0246526
929.719 .0246272
930.359 .0246024
930.998 .0245785
931.637 .0245553
932.275 .0245330
932.913 .0245117
933.551 .0244913
934.188 .0244719
934.825 .0244535
935.462 .0244360
936.098 .0244195
936.733 .0244040
937.369 .0243895
938.004 .0243759
938.638 .0243634
939.273 .0243518
939.907 .0243413
940.540 .0243318
941.173 .0243233
941.806 .0243158
942.438 .0243092
943.070 .0243033
943.702 .0242982
944.333 .0242938
944.964 .0242901
945.594 .0242870
946.224 .0242844
946.854 .0242825
947.483 .0242811
948.112 .0242803
948.741 .0242800
949.369 .0242802
949.996 .0242809
950.624 .0242820
951.251 .0242834
951.878 .0242852
952.504 .0242874
953.130 .0242900
953.755 .0242930
954.380 .0242965
955.005 .0243004
955.629 .0243048
956.253 .0243096
956.877 .0243148
957.500 .0243203
958.123 .0243262
958.746 .0243326
959.368 .0243394
959.990 .0243468
960.611 .0243549
961.232 .0243637
961.853 .0243733
962.473 .0243835
963.093 .0243945
963.712 .0244061
964.331 .0244183
964.950 .0244310
965.569 .0244442
966.187 .0244580
966.804 .0244721
967.422 .0244866
968.039 .0245015
968.655 .0245166
969.272 .0245318
969.887 .0245470
970.503 .0245620
971.118 .0245768
971.733 .0245912
972.347 .0246053
972.961 .0246190
973.575 .0246324
974.188 .0246455
974.801 .0246582
975.414 .0246705
976.026 .0246822
976.638 .0246934
977.250 .0247038
977.861 .0247136
978.472 .0247226
979.083 .0247308
979.693 .0247383
980.303 .0247452
980.912 .0247531
981.521 .0247588
982.130 .0247639
982.738 .0247685
983.346 .0247726
983.954 .0247762
984.562 .0247794
985.169 .0247823
985.775 .0247850
986.382 .0247877
986.988 .0247905
987.594 .0247937
988.199 .0247971
988.804 .0248010
989.409 .0248039
990.013 .0248086
990.617 .0248138
991.221 .0248195
991.824 .0248256
992.427 .0248322
993.030 .0248393
993.632 .0248468
994.234 .0248547
994.836 .0248630
995.438 .0248716
996.039 .0248805
996.640 .0248895
997.240 .0248987
997.840 .0249079
998.440 .0249172
999.040 .0249265
999.639 .0249357
1000.238 .0249447
1000.836 .0249536
1001.435 .0249623
1002.033 .0249706
1002.630 .0249785
1003.228 .0249861
1003.825 .0249932
1004.422 .0249998
1005.018 .0250059
1005.614 .0250114
1006.210 .0250164
1006.806 .0250208
1007.401 .0250245
1007.996 .0250274
1008.591 .0250294
1009.186 .0250307
1009.780 .0250310
1010.374 .0250305
1010.967 .0250293
1011.561 .0250274
1012.154 .0250248
1012.746 .0250218
1013.339 .0250183
1013.931 .0250145
1014.523 .0250102
1015.115 .0250057
1015.706 .0250008
1016.298 .0249955
1016.888 .0249901
1017.479 .0249845
1018.069 .0249788
1018.660 .0249732
1019.250 .0249676
1019.839 .0249622
1020.429 .0249570
1021.018 .0249519
1021.607 .0249469
1022.195 .0249420
1022.784 .0249372
1023.372 .0249324
1023.960 .0249275
1024.547 .0249227
1025.135 .0249179
1025.722 .0249130
1026.309 .0249080
1026.896 .0249028
1027.483 .0248973
1028.069 .0248915
1028.655 .0248851
1029.241 .0248781
1029.827 .0248704
1030.412 .0248619
1030.997 .0248527
1031.582 .0248427
1032.167 .0248320
1032.752 .0248205
1033.336 .0248084
1033.921 .0247956
1034.505 .0247821
1035.089 .0247679
1035.672 .0247531
1036.256 .0247377
1036.839 .0247217
1037.422 .0247050
1038.005 .0246879
1038.588 .0246702
1039.171 .0246522
1039.753 .0246337
1040.335 .0246148
1040.918 .0245954
1041.500 .0245757
1042.081 .0245555
1042.663 .0245351
1043.244 .0245144
1043.826 .0244935
1044.407 .0244726
1044.988 .0244517
1045.569 .0244310
1046.150 .0244106
1046.730 .0243905
1047.311 .0243708
1047.891 .0243514
1048.471 .0243323
1049.052 .0243136
1049.632 .0242953
1050.211 .0242773
1050.791 .0242597
1051.371 .0242425
1051.950 .0242256
1052.530 .0242090
1053.109 .0241926
1053.688 .0241764
1054.268 .0241601
1054.847 .0241439
1055.426 .0241275
1056.005 .0241111
1056.583 .0240946
1057.162 .0240781
1057.741 .0240618
1058.319 .0240458
1058.898 .0240301
1059.476 .0240148
1060.055 .0240000
1060.633 .0239854
1061.211 .0239712
1061.790 .0239573
1062.368 .0239436
1062.946 .0239302
1063.524 .0239170
1064.102 .0239043
1064.680 .0238920
1065.258 .0238802
1065.836 .0238690
1066.414 .0238584
1066.992 .0238483
1067.570 .0238388
1068.148 .0238296
1068.726 .0238208
1069.304 .0238123
1069.882 .0238041
1070.460 .0237964
1071.038 .0237892
1071.616 .0237826
1072.194 .0237768
1072.772 .0237717
1073.350 .0237674
1073.928 .0237637
1074.506 .0237607
1075.084 .0237581
1075.662 .0237559
1076.240 .0237539
1076.819 .0237522
1077.397 .0237509
1077.976 .0237500
1078.554 .0237495
1079.133 .0237497
1079.711 .0237505
1080.290 .0237520
1080.869 .0237542
1081.448 .0237570
1082.027 .0237603
1082.606 .0237639
1083.185 .0237680
1083.764 .0237722
1084.343 .0237767
1084.923 .0237815
1085.502 .0237866
1086.082 .0237922
1086.662 .0237984
1087.242 .0238054
1087.822 .0238130
1088.402 .0238214
1088.983 .0238304
1089.563 .0238400
1090.144 .0238501
1090.725 .0238607
1091.306 .0238717
1091.887 .0238830
1092.469 .0238949
1093.050 .0239074
1093.632 .0239206
1094.214 .0239346
1094.796 .0239493
1095.379 .0239649
1095.961 .0239811
1096.544 .0239978
1097.127 .0240149
1097.710 .0240323
1098.294 .0240499
1098.877 .0240677
1099.461 .0240858
1100.046 .0241043
1100.630 .0241233
1101.215 .0241429
1101.800 .0241632
1102.385 .0241843
1102.970 .0242061
1103.556 .0242284
1104.142 .0242514
1104.728 .0242749
1105.315 .0242990
1105.902 .0243237
1106.489 .0243491
1107.077 .0243755
1107.664 .0244031
1108.253 .0244319
1108.841 .0244623
1109.430 .0244943
1110.019 .0245279
1110.609 .0245632
1111.198 .0246002
1111.789 .0246390
1112.379 .0246797
1112.970 .0247225
1113.561 .0247674
1114.153 .0248144
1114.745 .0248638
1115.338 .0249154
1115.931 .0249691
1116.524 .0250248
1117.117 .0250824
1117.712 .0251417
1118.306 .0252026
1118.901 .0252649
1119.496 .0253288
1120.092 .0253944
1120.689 .0254616
1121.285 .0255304
1121.882 .0256011
1122.480 .0256737
1123.078 .0257482
1123.677 .0258247
1124.276 .0259031
1124.875 .0259833
1125.476 .0260655
1126.076 .0261498
1126.677 .0262363
1127.279 .0263250
1127.881 .0264158
1128.484 .0265089
1129.087 .0265516
1129.691 .0266473
1130.295 .0267447
1130.900 .0268439
1131.505 .0269447
1132.111 .0270470
1132.718 .0271506
1133.325 .0272553
1133.933 .0273620
1134.541 .0274708
1135.150 .0275836
1135.760 .0276914
1136.370 .0277966
1136.981 .0279361
1137.592 .0280760
1138.204 .0282124
1138.817 .0283470
1139.431 .0284812
1140.045 .0286134
1140.660 .0287347
1141.275 .0288478
1141.891 .0289834
1142.508 .0291212
1143.126 .0293033
1143.744 .0292345
1144.363 .0292354
1144.983 .0301111
