Measurement Sequence started on: 15-12-46-377
Integration time: 28
Scans to Average: 2 
>>>>>Begin Spectral Data<<<<<
432.689 .0000100
433.621 .0000100
434.552 .0000100
435.482 .0000100
436.410 .0000100
437.337 .0000100
438.262 .0274576
439.187 .0581792
440.110 .0964646
441.031 .1396155
441.952 .1121343
442.871 .1171402
443.789 .1218094
444.705 .1262150
445.621 .1304089
446.535 .1344288
447.447 .1368581
448.359 .1375458
449.269 .1361114
450.178 .1323112
451.086 .1262188
451.993 .1183091
452.898 .1093748
453.803 .1003128
454.706 .0918890
455.608 .0845799
456.508 .0785464
457.408 .0744949
458.306 .0714043
459.204 .0689079
460.100 .0668164
460.995 .0650244
461.888 .0634605
462.781 .0620739
463.673 .0608295
464.563 .0597017
465.452 .0586720
466.340 .0577258
467.228 .0568543
468.114 .0560512
468.999 .0553118
469.882 .0546307
470.765 .0540038
471.647 .0534267
472.528 .0528956
473.407 .0524071
474.286 .0519592
475.163 .0515512
476.040 .0511824
476.915 .0508524
477.790 .0505610
478.663 .0503074
479.535 .0500907
480.407 .0499095
481.277 .0497613
482.147 .0496433
483.015 .0495525
483.883 .0494860
484.749 .0494418
485.615 .0494186
486.479 .0494157
487.343 .0494326
488.206 .0494694
489.067 .0495254
489.928 .0496001
490.788 .0496926
491.647 .0498018
492.505 .0499267
493.362 .0500667
494.218 .0502214
495.073 .0503916
495.928 .0507090
496.781 .0509260
497.634 .0511634
498.486 .0514224
499.337 .0517042
500.187 .0520096
501.036 .0523401
501.884 .0526975
502.731 .0530860
503.578 .0535098
504.424 .0537993
505.268 .0542980
506.113 .0548511
506.956 .0554655
507.798 .0561484
508.640 .0569069
509.480 .0577494
510.320 .0586842
511.160 .0597213
511.998 .0608742
512.836 .0621612
513.672 .0636025
514.508 .0652223
515.344 .0670476
516.178 .0691052
517.012 .0714199
517.845 .0740147
518.677 .0769071
519.508 .0801083
520.339 .0836188
521.169 .0874370
521.998 .0915369
522.826 .0958849
523.654 .1004300
524.481 .1051131
525.307 .1098615
526.133 .1145880
526.958 .1191950
527.782 .1235856
528.605 .1276650
529.428 .1313472
530.250 .1345498
531.072 .1372177
531.892 .1393046
532.712 .1407817
533.532 .1416326
534.350 .1418571
535.168 .1414625
535.986 .1404614
536.802 .1388663
537.618 .1366965
538.434 .1339692
539.249 .1307253
540.063 .1270117
540.876 .1228893
541.689 .1184275
542.501 .1137070
543.313 .1088208
544.124 .1038702
544.934 .0989534
545.744 .0941617
546.553 .0895732
547.361 .0852562
548.169 .0812478
548.976 .0775726
549.783 .0742349
550.589 .0712263
551.395 .0685238
552.200 .0660982
553.004 .0639195
553.808 .0619615
554.611 .0602012
555.414 .0586182
556.216 .0571918
557.018 .0559019
557.819 .0547309
558.619 .0536616
559.419 .0526792
560.218 .0517708
561.017 .0509243
561.815 .0501300
562.613 .0493808
563.410 .0486702
564.207 .0479931
565.003 .0473454
565.799 .0467238
566.594 .0461244
567.388 .0455447
568.182 .0449827
568.976 .0444363
569.769 .0439045
570.562 .0433872
571.354 .0428841
572.145 .0423953
572.936 .0419211
573.727 .0414616
574.517 .0410171
575.307 .0405882
576.096 .0401748
576.885 .0397771
577.673 .0393958
578.461 .0390310
579.248 .0386829
580.035 .0383517
580.821 .0380374
581.607 .0377402
582.392 .0374598
583.177 .0371962
583.962 .0369491
584.746 .0367184
585.529 .0365037
586.313 .0363045
587.095 .0361203
587.878 .0359502
588.660 .0357936
589.441 .0356496
590.222 .0355172
591.003 .0353953
591.783 .0352829
592.563 .0351788
593.342 .0350820
594.121 .0349916
594.899 .0349066
595.678 .0348264
596.455 .0347505
597.233 .0346785
598.009 .0346100
598.786 .0345446
599.562 .0344821
600.338 .0344221
601.113 .0343643
601.888 .0342839
602.663 .0342303
603.437 .0341782
604.211 .0341275
604.984 .0340782
605.757 .0340299
606.530 .0339829
607.302 .0339369
608.074 .0338920
608.845 .0338482
609.616 .0338054
610.387 .0337862
611.158 .0337447
611.928 .0337042
612.697 .0336646
613.467 .0336258
614.236 .0335876
615.004 .0335500
615.773 .0335128
616.541 .0334760
617.308 .0334396
618.076 .0334036
618.843 .0333680
619.609 .0333327
620.375 .0332978
621.141 .0332632
621.907 .0332289
622.672 .0331947
623.437 .0331607
624.202 .0331268
624.966 .0330930
625.730 .0330593
626.493 .0330259
627.257 .0329927
628.020 .0329598
628.782 .0329272
629.545 .0328949
630.307 .0328629
631.068 .0328313
631.830 .0328000
632.591 .0327692
633.352 .0327388
634.112 .0327091
634.872 .0326799
635.632 .0326512
636.392 .0326231
637.151 .0325956
637.910 .0325686
638.668 .0325420
639.427 .0325160
640.185 .0324906
640.943 .0324657
641.700 .0324414
642.457 .0324176
643.214 .0323945
643.971 .0323718
644.727 .0323495
645.483 .0323275
646.239 .0323057
646.994 .0322840
647.750 .0322625
648.505 .0322411
649.259 .0322197
650.014 .0321982
650.768 .0321766
651.521 .0321546
652.275 .0321323
653.028 .0321095
653.781 .0320861
654.534 .0320622
655.286 .0320378
656.039 .0320127
656.791 .0319871
657.542 .0319610
658.294 .0319343
659.045 .0319070
659.796 .0318792
660.546 .0318509
661.297 .0318222
662.047 .0317930
662.796 .0317636
663.546 .0317340
664.295 .0317042
665.044 .0316742
665.793 .0316443
666.542 .0316143
667.290 .0315846
668.038 .0315550
668.786 .0315257
669.533 .0314968
670.281 .0314685
671.028 .0314407
671.774 .0314134
672.521 .0313868
673.267 .0313607
674.013 .0313351
674.759 .0313100
675.505 .0312853
676.250 .0312610
676.995 .0312370
677.740 .0312132
678.484 .0311896
679.229 .0311661
679.973 .0311427
680.717 .0311193
681.460 .0310958
682.204 .0310723
682.947 .0310487
683.690 .0310248
684.433 .0310007
685.175 .0309763
685.917 .0309515
686.659 .0309263
687.401 .0309007
688.142 .0308748
688.884 .0308486
689.625 .0308222
690.365 .0307956
691.106 .0307689
691.846 .0307421
692.586 .0307152
693.326 .0306883
694.066 .0306614
694.805 .0306346
695.545 .0306079
696.284 .0305814
697.022 .0305553
697.761 .0305297
698.499 .0305046
699.237 .0304802
699.975 .0304564
700.713 .0304335
701.450 .0304112
702.187 .0303898
702.924 .0303692
703.661 .0303493
704.397 .0303302
705.133 .0303119
705.869 .0302942
706.605 .0302772
707.341 .0302608
708.076 .0302448
708.811 .0302294
709.546 .0302143
710.281 .0301997
711.015 .0301854
711.749 .0301714
712.483 .0301577
713.217 .0301440
713.950 .0301306
714.684 .0301171
715.417 .0301037
716.150 .0300902
716.882 .0300767
717.615 .0300632
718.347 .0300496
719.079 .0300360
719.811 .0300225
720.542 .0300089
721.273 .0299955
722.005 .0299820
722.735 .0299687
723.466 .0299555
724.196 .0299426
724.927 .0299298
725.656 .0299174
726.386 .0299052
727.116 .0298934
727.845 .0298818
728.574 .0298704
729.303 .0298594
730.031 .0298486
730.760 .0298381
731.488 .0298278
732.216 .0298176
732.944 .0298076
733.671 .0297976
734.398 .0297877
735.125 .0297777
735.852 .0297676
736.579 .0297574
737.305 .0297469
738.031 .0297363
738.757 .0297254
739.483 .0297143
740.208 .0297027
740.933 .0296908
741.658 .0296784
742.383 .0296655
743.108 .0296520
743.832 .0296380
744.556 .0296235
745.280 .0296084
746.004 .0295928
746.727 .0295766
747.450 .0295597
748.173 .0295421
748.896 .0295238
749.618 .0295047
750.340 .0294847
751.062 .0294639
751.784 .0294424
752.506 .0294202
753.227 .0293974
753.948 .0293741
754.669 .0293502
755.389 .0293259
756.110 .0293011
756.830 .0292761
757.550 .0292508
758.269 .0292253
758.989 .0291997
759.708 .0291742
760.427 .0291488
761.146 .0291237
761.864 .0290988
762.582 .0290743
763.300 .0290502
764.018 .0290265
764.736 .0290034
765.453 .0289809
766.170 .0289592
766.887 .0289382
767.603 .0289179
768.320 .0288985
769.036 .0288799
769.751 .0288619
770.467 .0288446
771.182 .0288278
771.897 .0288116
772.612 .0287958
773.327 .0287805
774.041 .0287656
774.755 .0287513
775.469 .0287375
776.183 .0287242
776.896 .0287115
777.609 .0286993
778.322 .0286876
779.035 .0286764
779.747 .0286656
780.459 .0286553
781.171 .0286454
781.882 .0286359
782.594 .0286268
783.305 .0286182
784.016 .0286101
784.726 .0286024
785.436 .0285952
786.147 .0285866
786.856 .0285805
787.566 .0285748
788.275 .0285695
788.984 .0285645
789.693 .0285600
790.401 .0285558
791.110 .0285518
791.818 .0285482
792.525 .0285448
793.233 .0285415
793.940 .0285385
794.647 .0285370
795.353 .0285343
796.060 .0285317
796.766 .0285292
797.472 .0285268
798.177 .0285245
798.883 .0285223
799.588 .0285200
800.292 .0285177
800.997 .0285154
801.701 .0285130
802.405 .0285105
803.109 .0285080
803.812 .0285054
804.515 .0285026
805.218 .0284999
805.921 .0284970
806.623 .0284941
807.325 .0284912
808.027 .0284882
808.728 .0284852
809.429 .0284821
810.130 .0284789
810.831 .0284756
811.531 .0284722
812.231 .0284686
812.931 .0284649
813.630 .0284611
814.330 .0284572
815.029 .0284533
815.727 .0284494
816.426 .0284455
817.124 .0284416
817.821 .0284378
818.519 .0284339
819.216 .0284301
819.913 .0284262
820.609 .0284224
821.306 .0284186
822.002 .0284148
822.697 .0284110
823.393 .0284074
824.088 .0284038
824.783 .0284002
825.477 .0283966
826.171 .0283929
826.865 .0283890
827.559 .0283849
828.252 .0283805
828.945 .0283759
829.638 .0283709
830.330 .0283657
831.023 .0283600
831.714 .0283540
832.406 .0283475
833.097 .0283404
833.788 .0283328
834.479 .0283246
835.169 .0283158
835.859 .0283064
836.548 .0282964
837.238 .0282858
837.927 .0282746
838.615 .0282629
839.304 .0282505
839.992 .0282374
840.680 .0282236
841.367 .0282092
842.054 .0281941
842.741 .0281785
843.428 .0281624
844.114 .0281458
844.800 .0281287
845.485 .0281111
846.170 .0280930
846.855 .0280743
847.540 .0280549
848.224 .0280348
848.908 .0280142
849.592 .0279929
850.275 .0279710
850.958 .0279487
851.641 .0279260
852.323 .0279029
853.005 .0278795
853.687 .0278558
854.368 .0278318
855.049 .0278075
855.730 .0277830
856.410 .0277584
857.090 .0277337
857.769 .0277090
858.449 .0276843
859.128 .0276597
859.806 .0276352
860.485 .0276107
861.163 .0275863
861.840 .0275621
862.518 .0275379
863.195 .0275140
863.871 .0274903
864.548 .0274668
865.224 .0274437
865.899 .0274209
866.574 .0273983
867.249 .0273759
867.924 .0273536
868.598 .0273315
869.272 .0273096
869.946 .0272877
870.619 .0272661
871.292 .0272445
871.964 .0272232
872.636 .0272020
873.308 .0271810
873.979 .0271600
874.651 .0271392
875.321 .0271185
875.992 .0270980
876.662 .0270777
877.331 .0270575
878.001 .0270377
878.670 .0270183
879.338 .0269992
880.007 .0269807
880.675 .0269627
881.342 .0269454
882.009 .0269289
882.676 .0269133
883.343 .0268988
884.009 .0268854
884.675 .0268731
885.340 .0268620
886.005 .0268521
886.670 .0268432
887.334 .0268353
887.998 .0268284
888.662 .0268224
889.325 .0268174
889.988 .0268134
890.650 .0268103
891.312 .0268081
891.974 .0268068
892.636 .0268063
893.297 .0268066
893.957 .0268075
894.618 .0268090
895.278 .0268110
895.937 .0268133
896.596 .0268158
897.255 .0268185
897.914 .0268212
898.572 .0268237
899.230 .0268261
899.887 .0268281
900.544 .0268298
901.201 .0268311
901.857 .0268314
902.513 .0268317
903.168 .0268316
903.823 .0268311
904.478 .0268301
905.132 .0268287
905.786 .0268269
906.440 .0268246
907.093 .0268220
907.746 .0268190
908.399 .0268158
909.051 .0268124
909.703 .0268089
910.354 .0268070
911.005 .0268038
911.656 .0268006
912.306 .0267975
912.956 .0267946
913.605 .0267918
914.254 .0267893
914.903 .0267869
915.551 .0267847
916.199 .0267826
916.847 .0267807
917.494 .0267788
918.141 .0267769
918.788 .0267750
919.434 .0267730
920.079 .0267709
920.725 .0267687
921.370 .0267665
922.014 .0267641
922.658 .0267616
923.302 .0267590
923.946 .0267561
924.589 .0267531
925.231 .0267497
925.873 .0267459
926.515 .0267417
927.157 .0267371
927.798 .0267321
928.439 .0267267
929.079 .0267209
929.719 .0267148
930.359 .0267085
930.998 .0267020
931.637 .0266953
932.275 .0266884
932.913 .0266816
933.551 .0266748
934.188 .0266681
934.825 .0266616
935.462 .0266555
936.098 .0266498
936.733 .0266445
937.369 .0266397
938.004 .0266354
938.638 .0266316
939.273 .0266283
939.907 .0266255
940.540 .0266232
941.173 .0266213
941.806 .0266199
942.438 .0266189
943.070 .0266181
943.702 .0266176
944.333 .0266171
944.964 .0266167
945.594 .0266161
946.224 .0266152
946.854 .0266140
947.483 .0266124
948.112 .0266104
948.741 .0266079
949.369 .0266049
949.996 .0266014
950.624 .0265973
951.251 .0265925
951.878 .0265870
952.504 .0265807
953.130 .0265735
953.755 .0265655
954.380 .0265566
955.005 .0265469
955.629 .0265363
956.253 .0265249
956.877 .0265127
957.500 .0264997
958.123 .0264860
958.746 .0264717
959.368 .0264567
959.990 .0264412
960.611 .0264253
961.232 .0264090
961.853 .0263925
962.473 .0263759
963.093 .0263592
963.712 .0263425
964.331 .0263257
964.950 .0263090
965.569 .0262923
966.187 .0262755
966.804 .0262587
967.422 .0262417
968.039 .0262246
968.655 .0262072
969.272 .0261897
969.887 .0261719
970.503 .0261539
971.118 .0261356
971.733 .0261170
972.347 .0260981
972.961 .0260789
973.575 .0260592
974.188 .0260392
974.801 .0260187
975.414 .0259978
976.026 .0259764
976.638 .0259547
977.250 .0259325
977.861 .0259099
978.472 .0258869
979.083 .0258634
979.693 .0258395
980.303 .0258152
980.912 .0257767
981.521 .0257514
982.130 .0257259
982.738 .0257001
983.346 .0256742
983.954 .0256482
984.562 .0256223
985.169 .0255965
985.775 .0255710
986.382 .0255457
986.988 .0255207
987.594 .0254960
988.199 .0254717
988.804 .0254479
989.409 .0254380
990.013 .0254153
990.617 .0253932
991.221 .0253719
991.824 .0253513
992.427 .0253314
993.030 .0253121
993.632 .0252934
994.234 .0252752
994.836 .0252574
995.438 .0252400
996.039 .0252228
996.640 .0252060
997.240 .0251895
997.840 .0251735
998.440 .0251577
999.040 .0251423
999.639 .0251271
1000.238 .0251120
1000.836 .0250971
1001.435 .0250821
1002.033 .0250671
1002.630 .0250521
1003.228 .0250371
1003.825 .0250221
1004.422 .0250072
1005.018 .0249923
1005.614 .0249775
1006.210 .0249628
1006.806 .0249481
1007.401 .0249333
1007.996 .0249186
1008.591 .0249038
1009.186 .0248892
1009.780 .0248746
1010.374 .0248603
1010.967 .0248463
1011.561 .0248328
1012.154 .0248197
1012.746 .0248072
1013.339 .0247952
1013.931 .0247839
1014.523 .0247732
1015.115 .0247631
1015.706 .0247537
1016.298 .0247450
1016.888 .0247369
1017.479 .0247295
1018.069 .0247228
1018.660 .0247169
1019.250 .0247117
1019.839 .0247073
1020.429 .0247036
1021.018 .0247007
1021.607 .0246986
1022.195 .0246972
1022.784 .0246966
1023.372 .0246967
1023.960 .0246976
1024.547 .0246994
1025.135 .0247020
1025.722 .0247055
1026.309 .0247100
1026.896 .0247153
1027.483 .0247216
1028.069 .0247286
1028.655 .0247365
1029.241 .0247450
1029.827 .0247540
1030.412 .0247635
1030.997 .0247734
1031.582 .0247837
1032.167 .0247943
1032.752 .0248051
1033.336 .0248161
1033.921 .0248273
1034.505 .0248388
1035.089 .0248504
1035.672 .0248622
1036.256 .0248741
1036.839 .0248861
1037.422 .0248983
1038.005 .0249105
1038.588 .0249229
1039.171 .0249354
1039.753 .0249481
1040.335 .0249608
1040.918 .0249736
1041.500 .0249865
1042.081 .0249995
1042.663 .0250125
1043.244 .0250254
1043.826 .0250384
1044.407 .0250514
1044.988 .0250644
1045.569 .0250775
1046.150 .0250906
1046.730 .0251039
1047.311 .0251172
1047.891 .0251308
1048.471 .0251445
1049.052 .0251585
1049.632 .0251727
1050.211 .0251873
1050.791 .0252021
1051.371 .0252173
1051.950 .0252326
1052.530 .0252482
1053.109 .0252639
1053.688 .0252796
1054.268 .0252953
1054.847 .0253110
1055.426 .0253266
1056.005 .0253424
1056.583 .0253583
1057.162 .0253744
1057.741 .0253908
1058.319 .0254076
1058.898 .0254247
1059.476 .0254422
1060.055 .0254600
1060.633 .0254782
1061.211 .0254966
1061.790 .0255153
1062.368 .0255342
1062.946 .0255535
1063.524 .0255730
1064.102 .0255926
1064.680 .0256124
1065.258 .0256322
1065.836 .0256521
1066.414 .0256718
1066.992 .0256913
1067.570 .0257106
1068.148 .0257296
1068.726 .0257485
1069.304 .0257671
1069.882 .0257857
1070.460 .0258043
1071.038 .0258227
1071.616 .0258412
1072.194 .0258596
1072.772 .0258779
1073.350 .0258961
1073.928 .0259142
1074.506 .0259321
1075.084 .0259499
1075.662 .0259675
1076.240 .0259849
1076.819 .0260020
1077.397 .0260188
1077.976 .0260352
1078.554 .0260512
1079.133 .0260668
1079.711 .0260819
1080.290 .0260968
1080.869 .0261115
1081.448 .0261261
1082.027 .0261408
1082.606 .0261558
1083.185 .0261712
1083.764 .0261869
1084.343 .0262031
1084.923 .0262196
1085.502 .0262364
1086.082 .0262535
1086.662 .0262709
1087.242 .0262886
1087.822 .0263067
1088.402 .0263254
1088.983 .0263446
1089.563 .0263645
1090.144 .0263849
1090.725 .0264058
1091.306 .0264271
1091.887 .0264488
1092.469 .0264707
1093.050 .0264927
1093.632 .0265148
1094.214 .0265369
1094.796 .0265592
1095.379 .0265816
1095.961 .0266041
1096.544 .0266267
1097.127 .0266495
1097.710 .0266724
1098.294 .0266953
1098.877 .0267180
1099.461 .0267405
1100.046 .0267625
1100.630 .0267840
1101.215 .0268048
1101.800 .0268250
1102.385 .0268447
1102.970 .0268638
1103.556 .0268825
1104.142 .0269011
1104.728 .0269197
1105.315 .0269384
1105.902 .0269574
1106.489 .0269768
1107.077 .0269966
1107.664 .0270167
1108.253 .0270372
1108.841 .0270579
1109.430 .0270791
1110.019 .0271007
1110.609 .0271230
1111.198 .0271462
1111.789 .0271705
1112.379 .0271960
1112.970 .0272231
1113.561 .0272514
1114.153 .0272809
1114.745 .0273111
1115.338 .0273420
1115.931 .0273732
1116.524 .0274045
1117.117 .0274361
1117.712 .0274682
1118.306 .0275010
1118.901 .0275350
1119.496 .0275704
1120.092 .0276078
1120.689 .0276473
1121.285 .0276887
1121.882 .0277318
1122.480 .0277765
1123.078 .0278225
1123.677 .0278700
1124.276 .0279190
1124.875 .0279698
1125.476 .0280231
1126.076 .0280790
1126.677 .0281382
1127.279 .0282009
1127.881 .0282670
1128.484 .0283368
1129.087 .0283631
1129.691 .0284368
1130.295 .0285136
1130.900 .0285939
1131.505 .0286777
1132.111 .0287655
1132.718 .0288577
1133.325 .0289549
1133.933 .0290584
1134.541 .0291658
1135.150 .0292806
1135.760 .0294009
1136.370 .0295286
1136.981 .0295716
1137.592 .0297212
1138.204 .0298721
1138.817 .0300241
1139.431 .0301761
1140.045 .0303322
1140.660 .0304924
1141.275 .0306600
1141.891 .0308568
1142.508 .0309857
1143.126 .0312142
1143.744 .0313929
1144.363 .0316363
1144.983 .0323779
