Measurement Sequence started on: 15-12-46-377
Integration time: 28
Scans to Average: 2 
>>>>>Begin Spectral Data<<<<<
432.689 .0000100
433.621 .0000100
434.552 .0000100
435.482 .0000100
436.410 .0000100
437.337 .0000100
438.262 .0284944
439.187 .0604196
440.110 .1000929
441.031 .1448683
441.952 .1165947
442.871 .1218618
443.789 .1267839
444.705 .1314326
445.621 .1358577
446.535 .1400946
447.447 .1426682
448.359 .1434174
449.269 .1419505
450.178 .1380103
451.086 .1316750
451.993 .1234381
452.898 .1141204
453.803 .1046539
454.706 .0958300
455.608 .0881416
456.508 .0817545
457.408 .0774008
458.306 .0740242
459.204 .0712432
460.100 .0688700
460.995 .0668010
461.888 .0649688
462.781 .0633287
463.673 .0618493
464.563 .0605101
465.452 .0592944
466.340 .0581887
467.228 .0571838
468.114 .0562709
468.999 .0554427
469.882 .0546923
470.765 .0540132
471.647 .0534000
472.528 .0528483
473.407 .0523537
474.286 .0519129
475.163 .0515221
476.040 .0511771
476.915 .0508735
477.790 .0506065
478.663 .0503723
479.535 .0501665
480.407 .0499863
481.277 .0498294
482.147 .0496933
483.015 .0495770
483.883 .0494798
484.749 .0494010
485.615 .0493404
486.479 .0492977
487.343 .0492725
488.206 .0492653
489.067 .0492762
489.928 .0493057
490.788 .0493553
491.647 .0494266
492.505 .0495212
493.362 .0496408
494.218 .0497870
495.073 .0499608
495.928 .0503218
496.781 .0505655
497.634 .0508358
498.486 .0511327
499.337 .0514569
500.187 .0518091
501.036 .0521908
501.884 .0526039
502.731 .0530515
503.578 .0535365
504.424 .0538564
505.268 .0544109
506.113 .0550136
506.956 .0556687
507.798 .0563815
508.640 .0571583
509.480 .0580073
510.320 .0589394
511.160 .0599679
511.998 .0611089
512.836 .0623818
513.672 .0638066
514.508 .0654071
515.344 .0672098
516.178 .0692408
517.012 .0715268
517.845 .0740921
518.677 .0769573
519.508 .0801387
520.339 .0836455
521.169 .0874812
521.998 .0916210
522.826 .0960271
523.654 .1006439
524.481 .1053993
525.307 .1102087
526.133 .1149761
526.958 .1196004
527.782 .1239836
528.605 .1280323
529.428 .1316644
530.250 .1348077
531.072 .1374166
531.892 .1394538
532.712 .1408921
533.532 .1417179
534.350 .1419256
535.168 .1415178
535.986 .1405030
536.802 .1388902
537.618 .1366921
538.434 .1339236
539.249 .1306262
540.063 .1268529
540.876 .1226716
541.689 .1181657
542.501 .1134270
543.313 .1085549
544.124 .1036506
544.934 .0988081
545.744 .0941118
546.553 .0896327
547.361 .0854279
548.169 .0815268
548.976 .0779474
549.783 .0746941
550.589 .0717571
551.395 .0691161
552.200 .0667445
553.004 .0646124
553.808 .0626921
554.611 .0609590
555.414 .0593912
556.216 .0579678
557.018 .0566693
557.819 .0554800
558.619 .0543838
559.419 .0533681
560.218 .0524229
561.017 .0515385
561.815 .0507075
562.613 .0499242
563.410 .0491824
564.207 .0484765
565.003 .0478018
565.799 .0471532
566.594 .0465267
567.388 .0459193
568.182 .0453291
568.976 .0447544
569.769 .0441951
570.562 .0436516
571.354 .0431246
572.145 .0426153
572.936 .0421238
573.727 .0416500
574.517 .0411937
575.307 .0407545
576.096 .0403313
576.885 .0399237
577.673 .0395317
578.461 .0391553
579.248 .0387951
580.035 .0384518
580.821 .0381264
581.607 .0378195
582.392 .0375317
583.177 .0372628
583.962 .0370127
584.746 .0367809
585.529 .0365665
586.313 .0363683
587.095 .0361852
587.878 .0360159
588.660 .0358592
589.441 .0357141
590.222 .0355799
591.003 .0354557
591.783 .0353410
592.563 .0352350
593.342 .0351370
594.121 .0350460
594.899 .0349612
595.678 .0348821
596.455 .0348077
597.233 .0347375
598.009 .0346709
598.786 .0346075
599.562 .0345470
600.338 .0344892
601.113 .0344337
601.888 .0343581
602.663 .0343078
603.437 .0342595
604.211 .0342130
604.984 .0341684
605.757 .0341253
606.530 .0340837
607.302 .0340435
608.074 .0340045
608.845 .0339665
609.616 .0339295
610.387 .0339127
611.158 .0338767
611.928 .0338414
612.697 .0338068
613.467 .0337729
614.236 .0337396
615.004 .0337069
615.773 .0336747
616.541 .0336431
617.308 .0336119
618.076 .0335811
618.843 .0335505
619.609 .0335201
620.375 .0334898
621.141 .0334594
621.907 .0334288
622.672 .0333979
623.437 .0333666
624.202 .0333350
624.966 .0333031
625.730 .0332708
626.493 .0332382
627.257 .0332055
628.020 .0331726
628.782 .0331396
629.545 .0331064
630.307 .0330731
631.068 .0330396
631.830 .0330058
632.591 .0329718
633.352 .0329377
634.112 .0329034
634.872 .0328691
635.632 .0328349
636.392 .0328010
637.151 .0327674
637.910 .0327343
638.668 .0327017
639.427 .0326695
640.185 .0326379
640.943 .0326067
641.700 .0325762
642.457 .0325464
643.214 .0325173
643.971 .0324891
644.727 .0324618
645.483 .0324355
646.239 .0324100
646.994 .0323854
647.750 .0323614
648.505 .0323382
649.259 .0323155
650.014 .0322933
650.768 .0322716
651.521 .0322504
652.275 .0322295
653.028 .0322090
653.781 .0321887
654.534 .0321685
655.286 .0321483
656.039 .0321281
656.791 .0321078
657.542 .0320874
658.294 .0320668
659.045 .0320459
659.796 .0320248
660.546 .0320033
661.297 .0319814
662.047 .0319589
662.796 .0319358
663.546 .0319122
664.295 .0318880
665.044 .0318634
665.793 .0318384
666.542 .0318133
667.290 .0317881
668.038 .0317628
668.786 .0317374
669.533 .0317119
670.281 .0316863
671.028 .0316606
671.774 .0316347
672.521 .0316087
673.267 .0315827
674.013 .0315567
674.759 .0315308
675.505 .0315050
676.250 .0314794
676.995 .0314540
677.740 .0314288
678.484 .0314037
679.229 .0313786
679.973 .0313535
680.717 .0313284
681.460 .0313031
682.204 .0312777
682.947 .0312519
683.690 .0312259
684.433 .0311995
685.175 .0311727
685.917 .0311456
686.659 .0311182
687.401 .0310905
688.142 .0310627
688.884 .0310347
689.625 .0310065
690.365 .0309783
691.106 .0309500
691.846 .0309215
692.586 .0308930
693.326 .0308644
694.066 .0308359
694.805 .0308076
695.545 .0307796
696.284 .0307522
697.022 .0307255
697.761 .0306994
698.499 .0306741
699.237 .0306497
699.975 .0306261
700.713 .0306033
701.450 .0305813
702.187 .0305600
702.924 .0305394
703.661 .0305195
704.397 .0305002
705.133 .0304815
705.869 .0304634
706.605 .0304458
707.341 .0304288
708.076 .0304123
708.811 .0303962
709.546 .0303806
710.281 .0303655
711.015 .0303506
711.749 .0303359
712.483 .0303213
713.217 .0303069
713.950 .0302925
714.684 .0302782
715.417 .0302639
716.150 .0302498
716.882 .0302358
717.615 .0302220
718.347 .0302084
719.079 .0301950
719.811 .0301819
720.542 .0301689
721.273 .0301561
722.005 .0301435
722.735 .0301310
723.466 .0301187
724.196 .0301065
724.927 .0300947
725.656 .0300830
726.386 .0300717
727.116 .0300607
727.845 .0300501
728.574 .0300398
729.303 .0300297
730.031 .0300199
730.760 .0300102
731.488 .0300006
732.216 .0299910
732.944 .0299815
733.671 .0299719
734.398 .0299623
735.125 .0299527
735.852 .0299430
736.579 .0299333
737.305 .0299234
738.031 .0299134
738.757 .0299031
739.483 .0298926
740.208 .0298817
740.933 .0298704
741.658 .0298587
742.383 .0298466
743.108 .0298339
743.832 .0298208
744.556 .0298072
745.280 .0297931
746.004 .0297784
746.727 .0297633
747.450 .0297476
748.173 .0297314
748.896 .0297145
749.618 .0296971
750.340 .0296789
751.062 .0296601
751.784 .0296407
752.506 .0296206
753.227 .0295999
753.948 .0295787
754.669 .0295569
755.389 .0295347
756.110 .0295121
756.830 .0294890
757.550 .0294655
758.269 .0294417
758.989 .0294176
759.708 .0293933
760.427 .0293687
761.146 .0293441
761.864 .0293194
762.582 .0292948
763.300 .0292704
764.018 .0292461
764.736 .0292221
765.453 .0291984
766.170 .0291749
766.887 .0291518
767.603 .0291289
768.320 .0291065
769.036 .0290843
769.751 .0290626
770.467 .0290413
771.182 .0290206
771.897 .0290005
772.612 .0289810
773.327 .0289622
774.041 .0289443
774.755 .0289271
775.469 .0289107
776.183 .0288951
776.896 .0288803
777.609 .0288662
778.322 .0288528
779.035 .0288402
779.747 .0288283
780.459 .0288170
781.171 .0288065
781.882 .0287966
782.594 .0287874
783.305 .0287788
784.016 .0287708
784.726 .0287633
785.436 .0287564
786.147 .0287479
786.856 .0287419
787.566 .0287363
788.275 .0287311
788.984 .0287261
789.693 .0287214
790.401 .0287169
791.110 .0287126
791.818 .0287083
792.525 .0287042
793.233 .0287000
793.940 .0286959
794.647 .0286936
795.353 .0286895
796.060 .0286855
796.766 .0286815
797.472 .0286775
798.177 .0286734
798.883 .0286693
799.588 .0286651
800.292 .0286609
800.997 .0286566
801.701 .0286524
802.405 .0286482
803.109 .0286441
803.812 .0286401
804.515 .0286362
805.218 .0286324
805.921 .0286287
806.623 .0286251
807.325 .0286216
808.027 .0286182
808.728 .0286149
809.429 .0286118
810.130 .0286087
810.831 .0286058
811.531 .0286029
812.231 .0286001
812.931 .0285974
813.630 .0285947
814.330 .0285921
815.029 .0285895
815.727 .0285871
816.426 .0285848
817.124 .0285828
817.821 .0285808
818.519 .0285791
819.216 .0285774
819.913 .0285759
820.609 .0285743
821.306 .0285728
822.002 .0285712
822.697 .0285697
823.393 .0285682
824.088 .0285666
824.783 .0285650
825.477 .0285634
826.171 .0285616
826.865 .0285597
827.559 .0285576
828.252 .0285551
828.945 .0285524
829.638 .0285493
830.330 .0285458
831.023 .0285420
831.714 .0285376
832.406 .0285328
833.097 .0285274
833.788 .0285214
834.479 .0285148
835.169 .0285076
835.859 .0284997
836.548 .0284913
837.238 .0284822
837.927 .0284725
838.615 .0284622
839.304 .0284514
839.992 .0284400
840.680 .0284280
841.367 .0284154
842.054 .0284023
842.741 .0283886
843.428 .0283743
844.114 .0283594
844.800 .0283440
845.485 .0283279
846.170 .0283112
846.855 .0282940
847.540 .0282761
848.224 .0282575
848.908 .0282384
849.592 .0282186
850.275 .0281983
850.958 .0281775
851.641 .0281562
852.323 .0281344
853.005 .0281122
853.687 .0280896
854.368 .0280667
855.049 .0280435
855.730 .0280200
856.410 .0279962
857.090 .0279723
857.769 .0279481
858.449 .0279238
859.128 .0278993
859.806 .0278748
860.485 .0278503
861.163 .0278257
861.840 .0278011
862.518 .0277766
863.195 .0277523
863.871 .0277280
864.548 .0277039
865.224 .0276799
865.899 .0276560
866.574 .0276322
867.249 .0276085
867.924 .0275850
868.598 .0275615
869.272 .0275383
869.946 .0275152
870.619 .0274922
871.292 .0274693
871.964 .0274466
872.636 .0274240
873.308 .0274015
873.979 .0273791
874.651 .0273569
875.321 .0273348
875.992 .0273129
876.662 .0272914
877.331 .0272703
878.001 .0272496
878.670 .0272294
879.338 .0272098
880.007 .0271908
880.675 .0271724
881.342 .0271547
882.009 .0271378
882.676 .0271216
883.343 .0271062
884.009 .0270917
884.675 .0270782
885.340 .0270655
886.005 .0270537
886.670 .0270428
887.334 .0270327
887.998 .0270233
888.662 .0270148
889.325 .0270070
889.988 .0270000
890.650 .0269939
891.312 .0269886
891.974 .0269842
892.636 .0269806
893.297 .0269777
893.957 .0269755
894.618 .0269738
895.278 .0269727
895.937 .0269719
896.596 .0269714
897.255 .0269712
897.914 .0269712
898.572 .0269713
899.230 .0269715
899.887 .0269718
900.544 .0269720
901.201 .0269721
901.857 .0269713
902.513 .0269707
903.168 .0269697
903.823 .0269684
904.478 .0269668
905.132 .0269648
905.786 .0269626
906.440 .0269601
907.093 .0269573
907.746 .0269543
908.399 .0269510
909.051 .0269476
909.703 .0269440
910.354 .0269418
911.005 .0269383
911.656 .0269349
912.306 .0269314
912.956 .0269281
913.605 .0269247
914.254 .0269215
914.903 .0269183
915.551 .0269152
916.199 .0269121
916.847 .0269091
917.494 .0269061
918.141 .0269032
918.788 .0269005
919.434 .0268978
920.079 .0268954
920.725 .0268930
921.370 .0268907
922.014 .0268885
922.658 .0268864
923.302 .0268843
923.946 .0268822
924.589 .0268801
925.231 .0268780
925.873 .0268758
926.515 .0268735
927.157 .0268711
927.798 .0268684
928.439 .0268655
929.079 .0268624
929.719 .0268590
930.359 .0268554
930.998 .0268516
931.637 .0268476
932.275 .0268436
932.913 .0268395
933.551 .0268354
934.188 .0268314
934.825 .0268274
935.462 .0268234
936.098 .0268196
936.733 .0268158
937.369 .0268121
938.004 .0268086
938.638 .0268052
939.273 .0268020
939.907 .0267991
940.540 .0267964
941.173 .0267940
941.806 .0267919
942.438 .0267899
943.070 .0267881
943.702 .0267864
944.333 .0267847
944.964 .0267829
945.594 .0267811
946.224 .0267792
946.854 .0267771
947.483 .0267749
948.112 .0267725
948.741 .0267700
949.369 .0267672
949.996 .0267642
950.624 .0267608
951.251 .0267569
951.878 .0267526
952.504 .0267477
953.130 .0267423
953.755 .0267363
954.380 .0267298
955.005 .0267228
955.629 .0267153
956.253 .0267073
956.877 .0266989
957.500 .0266899
958.123 .0266805
958.746 .0266705
959.368 .0266600
959.990 .0266492
960.611 .0266380
961.232 .0266265
961.853 .0266148
962.473 .0266029
963.093 .0265908
963.712 .0265783
964.331 .0265656
964.950 .0265524
965.569 .0265389
966.187 .0265249
966.804 .0265106
967.422 .0264959
968.039 .0264808
968.655 .0264655
969.272 .0264498
969.887 .0264338
970.503 .0264174
971.118 .0264006
971.733 .0263832
972.347 .0263652
972.961 .0263467
973.575 .0263275
974.188 .0263076
974.801 .0262872
975.414 .0262660
976.026 .0262442
976.638 .0262217
977.250 .0261984
977.861 .0261745
978.472 .0261499
979.083 .0261246
979.693 .0260988
980.303 .0260725
980.912 .0260316
981.521 .0260047
982.130 .0259776
982.738 .0259504
983.346 .0259231
983.954 .0258959
984.562 .0258688
985.169 .0258418
985.775 .0258151
986.382 .0257887
986.988 .0257627
987.594 .0257372
988.199 .0257123
988.804 .0256878
989.409 .0256776
990.013 .0256540
990.617 .0256310
991.221 .0256085
991.824 .0255865
992.427 .0255650
993.030 .0255441
993.632 .0255237
994.234 .0255038
994.836 .0254844
995.438 .0254655
996.039 .0254471
996.640 .0254292
997.240 .0254117
997.840 .0253947
998.440 .0253782
999.040 .0253621
999.639 .0253465
1000.238 .0253313
1000.836 .0253164
1001.435 .0253019
1002.033 .0252877
1002.630 .0252737
1003.228 .0252599
1003.825 .0252462
1004.422 .0252327
1005.018 .0252193
1005.614 .0252059
1006.210 .0251926
1006.806 .0251793
1007.401 .0251661
1007.996 .0251530
1008.591 .0251400
1009.186 .0251271
1009.780 .0251144
1010.374 .0251018
1010.967 .0250894
1011.561 .0250772
1012.154 .0250651
1012.746 .0250534
1013.339 .0250420
1013.931 .0250310
1014.523 .0250205
1015.115 .0250105
1015.706 .0250011
1016.298 .0249924
1016.888 .0249842
1017.479 .0249767
1018.069 .0249698
1018.660 .0249634
1019.250 .0249576
1019.839 .0249525
1020.429 .0249480
1021.018 .0249443
1021.607 .0249414
1022.195 .0249393
1022.784 .0249381
1023.372 .0249378
1023.960 .0249383
1024.547 .0249397
1025.135 .0249418
1025.722 .0249447
1026.309 .0249483
1026.896 .0249526
1027.483 .0249576
1028.069 .0249632
1028.655 .0249694
1029.241 .0249762
1029.827 .0249835
1030.412 .0249912
1030.997 .0249992
1031.582 .0250075
1032.167 .0250159
1032.752 .0250243
1033.336 .0250328
1033.921 .0250412
1034.505 .0250495
1035.089 .0250577
1035.672 .0250659
1036.256 .0250741
1036.839 .0250823
1037.422 .0250904
1038.005 .0250984
1038.588 .0251063
1039.171 .0251141
1039.753 .0251218
1040.335 .0251293
1040.918 .0251368
1041.500 .0251441
1042.081 .0251514
1042.663 .0251587
1043.244 .0251661
1043.826 .0251737
1044.407 .0251816
1044.988 .0251899
1045.569 .0251985
1046.150 .0252075
1046.730 .0252169
1047.311 .0252268
1047.891 .0252371
1048.471 .0252478
1049.052 .0252590
1049.632 .0252706
1050.211 .0252827
1050.791 .0252953
1051.371 .0253084
1051.950 .0253221
1052.530 .0253364
1053.109 .0253510
1053.688 .0253661
1054.268 .0253814
1054.847 .0253969
1055.426 .0254125
1056.005 .0254283
1056.583 .0254443
1057.162 .0254605
1057.741 .0254770
1058.319 .0254939
1058.898 .0255112
1059.476 .0255290
1060.055 .0255472
1060.633 .0255658
1061.211 .0255847
1061.790 .0256038
1062.368 .0256231
1062.946 .0256426
1063.524 .0256622
1064.102 .0256817
1064.680 .0257011
1065.258 .0257203
1065.836 .0257392
1066.414 .0257576
1066.992 .0257755
1067.570 .0257928
1068.148 .0258095
1068.726 .0258256
1069.304 .0258412
1069.882 .0258562
1070.460 .0258709
1071.038 .0258850
1071.616 .0258989
1072.194 .0259123
1072.772 .0259256
1073.350 .0259387
1073.928 .0259518
1074.506 .0259648
1075.084 .0259780
1075.662 .0259915
1076.240 .0260053
1076.819 .0260195
1077.397 .0260341
1077.976 .0260490
1078.554 .0260642
1079.133 .0260797
1079.711 .0260956
1080.290 .0261118
1080.869 .0261285
1081.448 .0261459
1082.027 .0261640
1082.606 .0261829
1083.185 .0262027
1083.764 .0262233
1084.343 .0262449
1084.923 .0262672
1085.502 .0262901
1086.082 .0263137
1086.662 .0263380
1087.242 .0263629
1087.822 .0263886
1088.402 .0264151
1088.983 .0264425
1089.563 .0264707
1090.144 .0264996
1090.725 .0265292
1091.306 .0265592
1091.887 .0265895
1092.469 .0266200
1093.050 .0266505
1093.632 .0266809
1094.214 .0267111
1094.796 .0267412
1095.379 .0267709
1095.961 .0268002
1096.544 .0268290
1097.127 .0268572
1097.710 .0268846
1098.294 .0269113
1098.877 .0269374
1099.461 .0269626
1100.046 .0269873
1100.630 .0270115
1101.215 .0270351
1101.800 .0270583
1102.385 .0270811
1102.970 .0271035
1103.556 .0271257
1104.142 .0271477
1104.728 .0271697
1105.315 .0271916
1105.902 .0272136
1106.489 .0272356
1107.077 .0272578
1107.664 .0272802
1108.253 .0273028
1108.841 .0273256
1109.430 .0273487
1110.019 .0273719
1110.609 .0273955
1111.198 .0274195
1111.789 .0274442
1112.379 .0274696
1112.970 .0274960
1113.561 .0275232
1114.153 .0275512
1114.745 .0275800
1115.338 .0276097
1115.931 .0276400
1116.524 .0276711
1117.117 .0277028
1117.712 .0277354
1118.306 .0277688
1118.901 .0278033
1119.496 .0278388
1120.092 .0278754
1120.689 .0279130
1121.285 .0279514
1121.882 .0279904
1122.480 .0280301
1123.078 .0280705
1123.677 .0281121
1124.276 .0281551
1124.875 .0282001
1125.476 .0282476
1126.076 .0282981
1126.677 .0283522
1127.279 .0284103
1127.881 .0284725
1128.484 .0285387
1129.087 .0285626
1129.691 .0286336
1130.295 .0287086
1130.900 .0287876
1131.505 .0288712
1132.111 .0289593
1132.718 .0290524
1133.325 .0291503
1133.933 .0292526
1134.541 .0293674
1135.150 .0294849
1135.760 .0296032
1136.370 .0297189
1136.981 .0297442
1137.592 .0299063
1138.204 .0300672
1138.817 .0302225
1139.431 .0303883
1140.045 .0305553
1140.660 .0307278
1141.275 .0308970
1141.891 .0310563
1142.508 .0314348
1143.126 .0315507
1143.744 .0316116
1144.363 .0315811
1144.983 .0314767
