Measurement Sequence started on: 15-12-46-377
Integration time: 28
Scans to Average: 2 
>>>>>Begin Spectral Data<<<<<
432.689 .0000100
433.621 .0000100
434.552 .0000100
435.482 .0000100
436.410 .0000100
437.337 .0000100
438.262 .0277756
439.187 .0590332
440.110 .0979607
441.031 .1418523
441.952 .1136146
442.871 .1185866
443.789 .1232102
444.705 .1275619
445.621 .1316957
446.535 .1356515
447.447 .1379953
448.359 .1385637
449.269 .1369682
450.178 .1329591
451.086 .1266120
451.993 .1184109
452.898 .1091623
453.803 .0997839
454.706 .0910613
455.608 .0834846
456.508 .0772202
457.408 .0729836
458.306 .0697440
459.204 .0671216
460.100 .0649190
460.995 .0630250
461.888 .0613652
462.781 .0598891
463.673 .0585604
464.563 .0573549
465.452 .0562552
466.340 .0552488
467.228 .0543266
468.114 .0534816
468.999 .0527071
469.882 .0519966
470.765 .0513450
471.647 .0507472
472.528 .0501992
473.407 .0496974
474.286 .0492395
475.163 .0488245
476.040 .0484506
476.915 .0481158
477.790 .0478175
478.663 .0475538
479.535 .0473224
480.407 .0471205
481.277 .0469455
482.147 .0467952
483.015 .0466673
483.883 .0465601
484.749 .0464718
485.615 .0464011
486.479 .0463465
487.343 .0463072
488.206 .0462826
489.067 .0462720
489.928 .0462756
490.788 .0462939
491.647 .0463272
492.505 .0463767
493.362 .0464426
494.218 .0465258
495.073 .0466275
495.928 .0468481
496.781 .0469995
497.634 .0471712
498.486 .0473635
499.337 .0475771
500.187 .0478131
501.036 .0480728
501.884 .0483582
502.731 .0486727
503.578 .0490189
504.424 .0492602
505.268 .0496677
506.113 .0501196
506.956 .0506207
507.798 .0511773
508.640 .0517968
509.480 .0524885
510.320 .0532640
511.160 .0541356
511.998 .0551174
512.836 .0562279
513.672 .0574855
514.508 .0589116
515.344 .0605299
516.178 .0623645
517.012 .0644416
517.845 .0667851
518.677 .0694174
519.508 .0723560
520.339 .0756090
521.169 .0791794
521.998 .0830455
522.826 .0871732
523.654 .0915111
524.481 .0959938
525.307 .1005463
526.133 .1050809
526.958 .1095024
527.782 .1137187
528.605 .1176420
529.428 .1211972
530.250 .1243133
531.072 .1269442
531.892 .1290525
532.712 .1306124
533.532 .1316102
534.350 .1320383
535.168 .1318970
535.986 .1311902
536.802 .1299203
537.618 .1280973
538.434 .1257320
539.249 .1228586
540.063 .1195215
540.876 .1157818
541.689 .1117133
542.501 .1073979
543.313 .1029266
544.124 .0983968
544.934 .0938992
545.744 .0895173
546.553 .0853185
547.361 .0813606
548.169 .0776747
548.976 .0742801
549.783 .0711810
550.589 .0683691
551.395 .0658275
552.200 .0635334
553.004 .0614611
553.808 .0595902
554.611 .0579001
555.414 .0563747
556.216 .0549970
557.018 .0537516
557.819 .0526222
558.619 .0515936
559.419 .0506514
560.218 .0497835
561.017 .0489766
561.815 .0482195
562.613 .0475041
563.410 .0468227
564.207 .0461702
565.003 .0455433
565.799 .0449384
566.594 .0443532
567.388 .0437861
568.182 .0432351
568.976 .0426977
569.769 .0421726
570.562 .0416588
571.354 .0411555
572.145 .0406629
572.936 .0401813
573.727 .0397111
574.517 .0392540
575.307 .0388117
576.096 .0383850
576.885 .0379755
577.673 .0375846
578.461 .0372132
579.248 .0368614
580.035 .0365295
580.821 .0362169
581.607 .0359231
582.392 .0356475
583.177 .0353892
583.962 .0351477
584.746 .0349222
585.529 .0347121
586.313 .0345168
587.095 .0343358
587.878 .0341687
588.660 .0340148
589.441 .0338738
590.222 .0337450
591.003 .0336276
591.783 .0335207
592.563 .0334234
593.342 .0333346
594.121 .0332533
594.899 .0331784
595.678 .0331092
596.455 .0330448
597.233 .0329847
598.009 .0329282
598.786 .0328750
599.562 .0328246
600.338 .0327767
601.113 .0327309
601.888 .0326673
602.663 .0326250
603.437 .0325839
604.211 .0325439
604.984 .0325048
605.757 .0324665
606.530 .0324290
607.302 .0323923
608.074 .0323564
608.845 .0323214
609.616 .0322871
610.387 .0322718
611.158 .0322390
611.928 .0322071
612.697 .0321761
613.467 .0321460
614.236 .0321169
615.004 .0320887
615.773 .0320615
616.541 .0320352
617.308 .0320098
618.076 .0319852
618.843 .0319615
619.609 .0319386
620.375 .0319162
621.141 .0318944
621.907 .0318728
622.672 .0318514
623.437 .0318301
624.202 .0318086
624.966 .0317869
625.730 .0317650
626.493 .0317427
627.257 .0317200
628.020 .0316968
628.782 .0316728
629.545 .0316480
630.307 .0316223
631.068 .0315954
631.830 .0315675
632.591 .0315384
633.352 .0315084
634.112 .0314776
634.872 .0314461
635.632 .0314141
636.392 .0313819
637.151 .0313496
637.910 .0313173
638.668 .0312851
639.427 .0312531
640.185 .0312215
640.943 .0311902
641.700 .0311596
642.457 .0311296
643.214 .0311005
643.971 .0310722
644.727 .0310449
645.483 .0310185
646.239 .0309931
646.994 .0309686
647.750 .0309449
648.505 .0309219
649.259 .0308995
650.014 .0308774
650.768 .0308556
651.521 .0308337
652.275 .0308116
653.028 .0307891
653.781 .0307662
654.534 .0307427
655.286 .0307186
656.039 .0306937
656.791 .0306682
657.542 .0306421
658.294 .0306153
659.045 .0305879
659.796 .0305599
660.546 .0305314
661.297 .0305024
662.047 .0304729
662.796 .0304432
663.546 .0304132
664.295 .0303833
665.044 .0303535
665.793 .0303240
666.542 .0302951
667.290 .0302669
668.038 .0302394
668.786 .0302129
669.533 .0301873
670.281 .0301625
671.028 .0301386
671.774 .0301155
672.521 .0300932
673.267 .0300716
674.013 .0300507
674.759 .0300305
675.505 .0300108
676.250 .0299916
676.995 .0299729
677.740 .0299544
678.484 .0299361
679.229 .0299180
679.973 .0298999
680.717 .0298820
681.460 .0298643
682.204 .0298466
682.947 .0298291
683.690 .0298117
684.433 .0297943
685.175 .0297769
685.917 .0297594
686.659 .0297419
687.401 .0297243
688.142 .0297069
688.884 .0296896
689.625 .0296727
690.365 .0296560
691.106 .0296397
691.846 .0296236
692.586 .0296078
693.326 .0295922
694.066 .0295768
694.805 .0295615
695.545 .0295465
696.284 .0295316
697.022 .0295170
697.761 .0295028
698.499 .0294888
699.237 .0294750
699.975 .0294614
700.713 .0294480
701.450 .0294346
702.187 .0294213
702.924 .0294080
703.661 .0293948
704.397 .0293816
705.133 .0293683
705.869 .0293550
706.605 .0293416
707.341 .0293279
708.076 .0293139
708.811 .0292995
709.546 .0292848
710.281 .0292696
711.015 .0292541
711.749 .0292382
712.483 .0292220
713.217 .0292053
713.950 .0291882
714.684 .0291707
715.417 .0291528
716.150 .0291345
716.882 .0291159
717.615 .0290969
718.347 .0290776
719.079 .0290582
719.811 .0290387
720.542 .0290192
721.273 .0289997
722.005 .0289803
722.735 .0289610
723.466 .0289419
724.196 .0289231
724.927 .0289046
725.656 .0288866
726.386 .0288691
727.116 .0288521
727.845 .0288357
728.574 .0288199
729.303 .0288047
730.031 .0287901
730.760 .0287761
731.488 .0287626
732.216 .0287496
732.944 .0287371
733.671 .0287251
734.398 .0287136
735.125 .0287024
735.852 .0286915
736.579 .0286809
737.305 .0286705
738.031 .0286603
738.757 .0286503
739.483 .0286404
740.208 .0286305
740.933 .0286206
741.658 .0286106
742.383 .0286004
743.108 .0285900
743.832 .0285793
744.556 .0285682
745.280 .0285566
746.004 .0285446
746.727 .0285320
747.450 .0285189
748.173 .0285053
748.896 .0284911
749.618 .0284764
750.340 .0284611
751.062 .0284453
751.784 .0284290
752.506 .0284121
753.227 .0283947
753.948 .0283767
754.669 .0283583
755.389 .0283392
756.110 .0283195
756.830 .0282993
757.550 .0282785
758.269 .0282571
758.989 .0282354
759.708 .0282132
760.427 .0281907
761.146 .0281679
761.864 .0281448
762.582 .0281214
763.300 .0280979
764.018 .0280741
764.736 .0280501
765.453 .0280260
766.170 .0280018
766.887 .0279777
767.603 .0279537
768.320 .0279300
769.036 .0279066
769.751 .0278835
770.467 .0278610
771.182 .0278391
771.897 .0278179
772.612 .0277974
773.327 .0277777
774.041 .0277589
774.755 .0277410
775.469 .0277240
776.183 .0277079
776.896 .0276928
777.609 .0276787
778.322 .0276656
779.035 .0276535
779.747 .0276424
780.459 .0276322
781.171 .0276230
781.882 .0276146
782.594 .0276070
783.305 .0276001
784.016 .0275936
784.726 .0275875
785.436 .0275817
786.147 .0275734
786.856 .0275676
787.566 .0275617
788.275 .0275557
788.984 .0275496
789.693 .0275432
790.401 .0275366
791.110 .0275297
791.818 .0275226
792.525 .0275152
793.233 .0275074
793.940 .0274993
794.647 .0274941
795.353 .0274854
796.060 .0274765
796.766 .0274673
797.472 .0274578
798.177 .0274480
798.883 .0274380
799.588 .0274278
800.292 .0274173
800.997 .0274067
801.701 .0273959
802.405 .0273849
803.109 .0273738
803.812 .0273625
804.515 .0273512
805.218 .0273399
805.921 .0273285
806.623 .0273171
807.325 .0273058
808.027 .0272944
808.728 .0272831
809.429 .0272718
810.130 .0272606
810.831 .0272495
811.531 .0272386
812.231 .0272279
812.931 .0272175
813.630 .0272073
814.330 .0271975
815.029 .0271878
815.727 .0271785
816.426 .0271694
817.124 .0271607
817.821 .0271524
818.519 .0271446
819.216 .0271374
819.913 .0271310
820.609 .0271252
821.306 .0271202
822.002 .0271160
822.697 .0271125
823.393 .0271096
824.088 .0271075
824.783 .0271059
825.477 .0271050
826.171 .0271046
826.865 .0271048
827.559 .0271055
828.252 .0271066
828.945 .0271082
829.638 .0271102
830.330 .0271125
831.023 .0271150
831.714 .0271177
832.406 .0271205
833.097 .0271234
833.788 .0271264
834.479 .0271293
835.169 .0271322
835.859 .0271350
836.548 .0271377
837.238 .0271403
837.927 .0271428
838.615 .0271451
839.304 .0271471
839.992 .0271488
840.680 .0271502
841.367 .0271512
842.054 .0271518
842.741 .0271519
843.428 .0271515
844.114 .0271507
844.800 .0271493
845.485 .0271473
846.170 .0271447
846.855 .0271415
847.540 .0271376
848.224 .0271330
848.908 .0271277
849.592 .0271216
850.275 .0271147
850.958 .0271071
851.641 .0270988
852.323 .0270896
853.005 .0270796
853.687 .0270689
854.368 .0270574
855.049 .0270451
855.730 .0270320
856.410 .0270183
857.090 .0270039
857.769 .0269890
858.449 .0269736
859.128 .0269578
859.806 .0269416
860.485 .0269253
861.163 .0269089
861.840 .0268924
862.518 .0268760
863.195 .0268595
863.871 .0268432
864.548 .0268270
865.224 .0268109
865.899 .0267950
866.574 .0267794
867.249 .0267640
867.924 .0267489
868.598 .0267343
869.272 .0267199
869.946 .0267060
870.619 .0266923
871.292 .0266788
871.964 .0266656
872.636 .0266525
873.308 .0266395
873.979 .0266267
874.651 .0266141
875.321 .0266018
875.992 .0265896
876.662 .0265777
877.331 .0265659
878.001 .0265542
878.670 .0265425
879.338 .0265309
880.007 .0265192
880.675 .0265077
881.342 .0264962
882.009 .0264850
882.676 .0264739
883.343 .0264631
884.009 .0264525
884.675 .0264420
885.340 .0264317
886.005 .0264215
886.670 .0264113
887.334 .0264013
887.998 .0263914
888.662 .0263817
889.325 .0263721
889.988 .0263627
890.650 .0263533
891.312 .0263439
891.974 .0263344
892.636 .0263246
893.297 .0263146
893.957 .0263043
894.618 .0262936
895.278 .0262826
895.937 .0262712
896.596 .0262594
897.255 .0262470
897.914 .0262341
898.572 .0262205
899.230 .0262062
899.887 .0261912
900.544 .0261754
901.201 .0261588
901.857 .0261307
902.513 .0261123
903.168 .0260931
903.823 .0260733
904.478 .0260527
905.132 .0260315
905.786 .0260096
906.440 .0259871
907.093 .0259641
907.746 .0259406
908.399 .0259168
909.051 .0258926
909.703 .0258683
910.354 .0258557
911.005 .0258312
911.656 .0258066
912.306 .0257820
912.956 .0257574
913.605 .0257328
914.254 .0257084
914.903 .0256840
915.551 .0256598
916.199 .0256358
916.847 .0256119
917.494 .0255883
918.141 .0255648
918.788 .0255415
919.434 .0255183
920.079 .0254952
920.725 .0254722
921.370 .0254492
922.014 .0254262
922.658 .0254032
923.302 .0253802
923.946 .0253571
924.589 .0253339
925.231 .0253108
925.873 .0252876
926.515 .0252644
927.157 .0252413
927.798 .0252182
928.439 .0251953
929.079 .0251725
929.719 .0251498
930.359 .0251274
930.998 .0251052
931.637 .0250834
932.275 .0250619
932.913 .0250408
933.551 .0250203
934.188 .0250002
934.825 .0249808
935.462 .0249620
936.098 .0249438
936.733 .0249262
937.369 .0249094
938.004 .0248933
938.638 .0248780
939.273 .0248635
939.907 .0248500
940.540 .0248374
941.173 .0248257
941.806 .0248150
942.438 .0248052
943.070 .0247964
943.702 .0247883
944.333 .0247811
944.964 .0247746
945.594 .0247687
946.224 .0247634
946.854 .0247587
947.483 .0247545
948.112 .0247507
948.741 .0247473
949.369 .0247442
949.996 .0247412
950.624 .0247384
951.251 .0247356
951.878 .0247327
952.504 .0247299
953.130 .0247269
953.755 .0247239
954.380 .0247208
955.005 .0247177
955.629 .0247145
956.253 .0247113
956.877 .0247080
957.500 .0247046
958.123 .0247011
958.746 .0246975
959.368 .0246939
959.990 .0246903
960.611 .0246868
961.232 .0246833
961.853 .0246801
962.473 .0246772
963.093 .0246745
963.712 .0246720
964.331 .0246698
964.950 .0246679
965.569 .0246661
966.187 .0246645
966.804 .0246632
967.422 .0246620
968.039 .0246611
968.655 .0246604
969.272 .0246599
969.887 .0246597
970.503 .0246596
971.118 .0246596
971.733 .0246597
972.347 .0246598
972.961 .0246598
973.575 .0246597
974.188 .0246596
974.801 .0246593
975.414 .0246589
976.026 .0246584
976.638 .0246579
977.250 .0246574
977.861 .0246568
978.472 .0246562
979.083 .0246554
979.693 .0246544
980.303 .0246533
980.912 .0246516
981.521 .0246505
982.130 .0246496
982.738 .0246487
983.346 .0246479
983.954 .0246474
984.562 .0246470
985.169 .0246470
985.775 .0246473
986.382 .0246480
986.988 .0246490
987.594 .0246506
988.199 .0246527
988.804 .0246554
989.409 .0246585
990.013 .0246619
990.617 .0246660
991.221 .0246705
991.824 .0246756
992.427 .0246811
993.030 .0246870
993.632 .0246932
994.234 .0246997
994.836 .0247064
995.438 .0247133
996.039 .0247204
996.640 .0247276
997.240 .0247349
997.840 .0247425
998.440 .0247502
999.040 .0247581
999.639 .0247662
1000.238 .0247744
1000.836 .0247828
1001.435 .0247913
1002.033 .0248001
1002.630 .0248090
1003.228 .0248181
1003.825 .0248274
1004.422 .0248369
1005.018 .0248465
1005.614 .0248563
1006.210 .0248662
1006.806 .0248762
1007.401 .0248862
1007.996 .0248962
1008.591 .0249063
1009.186 .0249164
1009.780 .0249266
1010.374 .0249369
1010.967 .0249473
1011.561 .0249579
1012.154 .0249686
1012.746 .0249794
1013.339 .0249902
1013.931 .0250012
1014.523 .0250124
1015.115 .0250237
1015.706 .0250352
1016.298 .0250470
1016.888 .0250592
1017.479 .0250717
1018.069 .0250846
1018.660 .0250978
1019.250 .0251112
1019.839 .0251248
1020.429 .0251385
1021.018 .0251522
1021.607 .0251658
1022.195 .0251793
1022.784 .0251927
1023.372 .0252061
1023.960 .0252194
1024.547 .0252326
1025.135 .0252457
1025.722 .0252587
1026.309 .0252715
1026.896 .0252840
1027.483 .0252962
1028.069 .0253080
1028.655 .0253195
1029.241 .0253305
1029.827 .0253411
1030.412 .0253514
1030.997 .0253612
1031.582 .0253705
1032.167 .0253793
1032.752 .0253876
1033.336 .0253952
1033.921 .0254022
1034.505 .0254085
1035.089 .0254140
1035.672 .0254188
1036.256 .0254228
1036.839 .0254260
1037.422 .0254286
1038.005 .0254304
1038.588 .0254316
1039.171 .0254321
1039.753 .0254322
1040.335 .0254318
1040.918 .0254310
1041.500 .0254299
1042.081 .0254284
1042.663 .0254267
1043.244 .0254247
1043.826 .0254225
1044.407 .0254202
1044.988 .0254176
1045.569 .0254149
1046.150 .0254121
1046.730 .0254093
1047.311 .0254066
1047.891 .0254038
1048.471 .0254011
1049.052 .0253983
1049.632 .0253955
1050.211 .0253926
1050.791 .0253897
1051.371 .0253867
1051.950 .0253836
1052.530 .0253805
1053.109 .0253775
1053.688 .0253746
1054.268 .0253718
1054.847 .0253693
1055.426 .0253671
1056.005 .0253649
1056.583 .0253627
1057.162 .0253605
1057.741 .0253582
1058.319 .0253556
1058.898 .0253527
1059.476 .0253495
1060.055 .0253460
1060.633 .0253423
1061.211 .0253382
1061.790 .0253339
1062.368 .0253294
1062.946 .0253244
1063.524 .0253190
1064.102 .0253131
1064.680 .0253069
1065.258 .0253002
1065.836 .0252931
1066.414 .0252857
1066.992 .0252778
1067.570 .0252694
1068.148 .0252606
1068.726 .0252513
1069.304 .0252416
1069.882 .0252313
1070.460 .0252208
1071.038 .0252100
1071.616 .0251990
1072.194 .0251878
1072.772 .0251766
1073.350 .0251653
1073.928 .0251540
1074.506 .0251425
1075.084 .0251310
1075.662 .0251196
1076.240 .0251083
1076.819 .0250973
1077.397 .0250867
1077.976 .0250765
1078.554 .0250667
1079.133 .0250572
1079.711 .0250481
1080.290 .0250391
1080.869 .0250303
1081.448 .0250215
1082.027 .0250127
1082.606 .0250039
1083.185 .0249952
1083.764 .0249868
1084.343 .0249788
1084.923 .0249714
1085.502 .0249647
1086.082 .0249586
1086.662 .0249534
1087.242 .0249490
1087.822 .0249453
1088.402 .0249425
1088.983 .0249405
1089.563 .0249394
1090.144 .0249391
1090.725 .0249399
1091.306 .0249417
1091.887 .0249444
1092.469 .0249481
1093.050 .0249526
1093.632 .0249579
1094.214 .0249636
1094.796 .0249696
1095.379 .0249758
1095.961 .0249823
1096.544 .0249888
1097.127 .0249957
1097.710 .0250030
1098.294 .0250109
1098.877 .0250196
1099.461 .0250293
1100.046 .0250400
1100.630 .0250516
1101.215 .0250642
1101.800 .0250776
1102.385 .0250916
1102.970 .0251061
1103.556 .0251209
1104.142 .0251359
1104.728 .0251509
1105.315 .0251660
1105.902 .0251813
1106.489 .0251968
1107.077 .0252126
1107.664 .0252286
1108.253 .0252448
1108.841 .0252611
1109.430 .0252774
1110.019 .0252936
1110.609 .0253097
1111.198 .0253255
1111.789 .0253414
1112.379 .0253574
1112.970 .0253740
1113.561 .0253911
1114.153 .0254089
1114.745 .0254276
1115.338 .0254469
1115.931 .0254668
1116.524 .0254871
1117.117 .0255079
1117.712 .0255291
1118.306 .0255509
1118.901 .0255736
1119.496 .0255975
1120.092 .0256232
1120.689 .0256510
1121.285 .0256812
1121.882 .0257137
1122.480 .0257486
1123.078 .0257858
1123.677 .0258253
1124.276 .0258670
1124.875 .0259110
1125.476 .0259576
1126.076 .0260070
1126.677 .0260597
1127.279 .0261159
1127.881 .0261758
1128.484 .0262397
1129.087 .0262626
1129.691 .0263324
1130.295 .0264060
1130.900 .0264834
1131.505 .0265648
1132.111 .0266502
1132.718 .0267398
1133.325 .0268342
1133.933 .0269334
1134.541 .0270388
1135.150 .0271475
1135.760 .0272586
1136.370 .0273882
1136.981 .0274431
1137.592 .0275655
1138.204 .0276887
1138.817 .0278120
1139.431 .0279433
1140.045 .0280792
1140.660 .0282214
1141.275 .0283818
1141.891 .0285446
1142.508 .0287470
1143.126 .0288756
1143.744 .0289821
1144.363 .0295536
1144.983 .0293594
