Measurement Sequence started on: 15-12-46-377
Integration time: 28
Scans to Average: 2 
>>>>>Begin Spectral Data<<<<<
432.689 .0000100
433.621 .0000100
434.552 .0000100
435.482 .0000100
436.410 .0000100
437.337 .0000100
438.262 .0258910
439.187 .0548850
440.110 .0909186
441.031 .1316055
441.952 .1063236
442.871 .1111362
443.789 .1156185
444.705 .1198407
445.621 .1238512
446.535 .1276882
447.447 .1300172
448.359 .1306960
449.269 .1293718
450.178 .1258125
451.086 .1200841
451.993 .1126328
452.898 .1041993
453.803 .0956264
454.706 .0876326
455.608 .0806666
456.508 .0748835
457.408 .0709554
458.306 .0679269
459.204 .0654566
460.100 .0633759
460.995 .0615908
461.888 .0600334
462.781 .0586571
463.673 .0574255
464.563 .0563127
465.452 .0552993
466.340 .0543700
467.228 .0535144
468.114 .0527258
468.999 .0519990
469.882 .0513299
470.765 .0507150
471.647 .0501514
472.528 .0496357
473.407 .0491646
474.286 .0487344
475.163 .0483422
476.040 .0479844
476.915 .0476593
477.790 .0473652
478.663 .0471009
479.535 .0468663
480.407 .0466610
481.277 .0464846
482.147 .0463357
483.015 .0462132
483.883 .0461155
484.749 .0460407
485.615 .0459880
486.479 .0459561
487.343 .0459445
488.206 .0459540
489.067 .0459846
489.928 .0460374
490.788 .0461135
491.647 .0462140
492.505 .0463391
493.362 .0464892
494.218 .0466642
495.073 .0468633
495.928 .0472461
496.781 .0475024
497.634 .0477809
498.486 .0480818
499.337 .0484054
500.187 .0487531
501.036 .0491270
501.884 .0495291
502.731 .0499629
503.578 .0504318
504.424 .0507361
505.268 .0512713
506.113 .0518531
506.956 .0524851
507.798 .0531730
508.640 .0539232
509.480 .0547441
510.320 .0556458
511.160 .0566387
511.998 .0577361
512.836 .0589535
513.672 .0603064
514.508 .0618134
515.344 .0634939
516.178 .0653684
517.012 .0674587
517.845 .0697871
518.677 .0723738
519.508 .0752354
520.339 .0783842
521.169 .0818270
521.998 .0855425
522.826 .0894991
523.654 .0936429
524.481 .0979063
525.307 .1022128
526.133 .1064706
526.958 .1105863
527.782 .1144724
528.605 .1180493
529.428 .1212465
530.250 .1240021
531.072 .1262784
531.892 .1280402
532.712 .1292646
533.532 .1299376
534.350 .1300502
535.168 .1296056
535.986 .1286099
536.802 .1270718
537.618 .1250036
538.434 .1224214
539.249 .1193668
540.063 .1158896
540.876 .1120553
541.689 .1079407
542.501 .1036260
543.313 .0992032
544.124 .0947622
544.934 .0903841
545.744 .0861406
546.553 .0820938
547.361 .0782940
548.169 .0747665
548.976 .0715316
549.783 .0685956
550.589 .0659547
551.395 .0635965
552.200 .0614956
553.004 .0596248
553.808 .0579571
554.611 .0564648
555.414 .0551214
556.216 .0539029
557.018 .0527869
557.819 .0517568
558.619 .0507986
559.419 .0499027
560.218 .0490618
561.017 .0482703
561.815 .0475241
562.613 .0468199
563.410 .0461525
564.207 .0455166
565.003 .0449083
565.799 .0443235
566.594 .0437582
567.388 .0432093
568.182 .0426753
568.976 .0421552
569.769 .0416484
570.562 .0411546
571.354 .0406740
572.145 .0402074
572.936 .0397551
573.727 .0393165
574.517 .0388917
575.307 .0384804
576.096 .0380823
576.885 .0376974
577.673 .0373262
578.461 .0369689
579.248 .0366262
580.035 .0362990
580.821 .0359883
581.607 .0356948
582.392 .0354193
583.177 .0351620
583.962 .0349229
584.746 .0347016
585.529 .0344973
586.313 .0343086
587.095 .0341346
587.878 .0339741
588.660 .0338259
589.441 .0336892
590.222 .0335631
591.003 .0334469
591.783 .0333400
592.563 .0332417
593.342 .0331510
594.121 .0330672
594.899 .0329894
595.678 .0329168
596.455 .0328485
597.233 .0327840
598.009 .0327226
598.786 .0326640
599.562 .0326078
600.338 .0325539
601.113 .0325020
601.888 .0324295
602.663 .0323817
603.437 .0323355
604.211 .0322908
604.984 .0322475
605.757 .0322055
606.530 .0321648
607.302 .0321255
608.074 .0320875
608.845 .0320512
609.616 .0320167
610.387 .0320037
611.158 .0319717
611.928 .0319412
612.697 .0319123
613.467 .0318847
614.236 .0318585
615.004 .0318333
615.773 .0318090
616.541 .0317855
617.308 .0317626
618.076 .0317404
618.843 .0317186
619.609 .0316973
620.375 .0316763
621.141 .0316555
621.907 .0316347
622.672 .0316135
623.437 .0315920
624.202 .0315700
624.966 .0315472
625.730 .0315236
626.493 .0314993
627.257 .0314741
628.020 .0314482
628.782 .0314215
629.545 .0313941
630.307 .0313662
631.068 .0313378
631.830 .0313089
632.591 .0312796
633.352 .0312500
634.112 .0312201
634.872 .0311902
635.632 .0311603
636.392 .0311305
637.151 .0311008
637.910 .0310713
638.668 .0310420
639.427 .0310131
640.185 .0309845
640.943 .0309564
641.700 .0309288
642.457 .0309017
643.214 .0308754
643.971 .0308499
644.727 .0308251
645.483 .0308012
646.239 .0307778
646.994 .0307550
647.750 .0307325
648.505 .0307102
649.259 .0306880
650.014 .0306658
650.768 .0306436
651.521 .0306215
652.275 .0305993
653.028 .0305771
653.781 .0305549
654.534 .0305328
655.286 .0305105
656.039 .0304882
656.791 .0304658
657.542 .0304431
658.294 .0304201
659.045 .0303969
659.796 .0303733
660.546 .0303494
661.297 .0303251
662.047 .0303006
662.796 .0302757
663.546 .0302508
664.295 .0302258
665.044 .0302011
665.793 .0301766
666.542 .0301524
667.290 .0301287
668.038 .0301055
668.786 .0300826
669.533 .0300602
670.281 .0300381
671.028 .0300164
671.774 .0299950
672.521 .0299740
673.267 .0299534
674.013 .0299334
674.759 .0299138
675.505 .0298948
676.250 .0298763
676.995 .0298582
677.740 .0298404
678.484 .0298229
679.229 .0298056
679.973 .0297884
680.717 .0297714
681.460 .0297544
682.204 .0297375
682.947 .0297205
683.690 .0297035
684.433 .0296864
685.175 .0296692
685.917 .0296519
686.659 .0296345
687.401 .0296170
688.142 .0295994
688.884 .0295816
689.625 .0295638
690.365 .0295458
691.106 .0295277
691.846 .0295093
692.586 .0294908
693.326 .0294722
694.066 .0294534
694.805 .0294345
695.545 .0294156
696.284 .0293966
697.022 .0293776
697.761 .0293585
698.499 .0293395
699.237 .0293206
699.975 .0293018
700.713 .0292832
701.450 .0292648
702.187 .0292467
702.924 .0292288
703.661 .0292112
704.397 .0291937
705.133 .0291764
705.869 .0291591
706.605 .0291421
707.341 .0291251
708.076 .0291084
708.811 .0290919
709.546 .0290758
710.281 .0290599
711.015 .0290444
711.749 .0290293
712.483 .0290144
713.217 .0289998
713.950 .0289854
714.684 .0289711
715.417 .0289570
716.150 .0289430
716.882 .0289291
717.615 .0289153
718.347 .0289014
719.079 .0288875
719.811 .0288734
720.542 .0288593
721.273 .0288451
722.005 .0288308
722.735 .0288164
723.466 .0288019
724.196 .0287873
724.927 .0287726
725.656 .0287579
726.386 .0287431
727.116 .0287283
727.845 .0287134
728.574 .0286987
729.303 .0286841
730.031 .0286697
730.760 .0286555
731.488 .0286417
732.216 .0286281
732.944 .0286148
733.671 .0286018
734.398 .0285890
735.125 .0285766
735.852 .0285645
736.579 .0285527
737.305 .0285413
738.031 .0285301
738.757 .0285193
739.483 .0285088
740.208 .0284985
740.933 .0284884
741.658 .0284784
742.383 .0284685
743.108 .0284586
743.832 .0284486
744.556 .0284386
745.280 .0284283
746.004 .0284178
746.727 .0284070
747.450 .0283957
748.173 .0283841
748.896 .0283720
749.618 .0283594
750.340 .0283464
751.062 .0283329
751.784 .0283190
752.506 .0283045
753.227 .0282896
753.948 .0282742
754.669 .0282584
755.389 .0282421
756.110 .0282254
756.830 .0282084
757.550 .0281910
758.269 .0281734
758.989 .0281555
759.708 .0281374
760.427 .0281192
761.146 .0281008
761.864 .0280822
762.582 .0280635
763.300 .0280447
764.018 .0280259
764.736 .0280071
765.453 .0279884
766.170 .0279699
766.887 .0279514
767.603 .0279333
768.320 .0279153
769.036 .0278977
769.751 .0278805
770.467 .0278636
771.182 .0278472
771.897 .0278312
772.612 .0278157
773.327 .0278007
774.041 .0277864
774.755 .0277726
775.469 .0277596
776.183 .0277472
776.896 .0277356
777.609 .0277246
778.322 .0277142
779.035 .0277045
779.747 .0276953
780.459 .0276867
781.171 .0276785
781.882 .0276708
782.594 .0276635
783.305 .0276566
784.016 .0276499
784.726 .0276433
785.436 .0276369
786.147 .0276268
786.856 .0276199
787.566 .0276128
788.275 .0276054
788.984 .0275977
789.693 .0275896
790.401 .0275812
791.110 .0275723
791.818 .0275629
792.525 .0275530
793.233 .0275426
793.940 .0275317
794.647 .0275250
795.353 .0275136
796.060 .0275018
796.766 .0274898
797.472 .0274775
798.177 .0274650
798.883 .0274523
799.588 .0274393
800.292 .0274261
800.997 .0274126
801.701 .0273990
802.405 .0273853
803.109 .0273716
803.812 .0273579
804.515 .0273442
805.218 .0273307
805.921 .0273171
806.623 .0273035
807.325 .0272900
808.027 .0272763
808.728 .0272626
809.429 .0272487
810.130 .0272348
810.831 .0272208
811.531 .0272067
812.231 .0271925
812.931 .0271783
813.630 .0271640
814.330 .0271497
815.029 .0271353
815.727 .0271210
816.426 .0271068
817.124 .0270928
817.821 .0270791
818.519 .0270657
819.216 .0270526
819.913 .0270400
820.609 .0270277
821.306 .0270160
822.002 .0270047
822.697 .0269939
823.393 .0269837
824.088 .0269742
824.783 .0269652
825.477 .0269569
826.171 .0269492
826.865 .0269422
827.559 .0269357
828.252 .0269299
828.945 .0269246
829.638 .0269200
830.330 .0269159
831.023 .0269124
831.714 .0269094
832.406 .0269069
833.097 .0269047
833.788 .0269029
834.479 .0269013
835.169 .0268999
835.859 .0268986
836.548 .0268976
837.238 .0268967
837.927 .0268959
838.615 .0268951
839.304 .0268942
839.992 .0268932
840.680 .0268919
841.367 .0268902
842.054 .0268882
842.741 .0268859
843.428 .0268832
844.114 .0268801
844.800 .0268767
845.485 .0268729
846.170 .0268688
846.855 .0268642
847.540 .0268591
848.224 .0268534
848.908 .0268471
849.592 .0268402
850.275 .0268326
850.958 .0268244
851.641 .0268156
852.323 .0268061
853.005 .0267959
853.687 .0267851
854.368 .0267737
855.049 .0267618
855.730 .0267494
856.410 .0267366
857.090 .0267235
857.769 .0267101
858.449 .0266965
859.128 .0266828
859.806 .0266689
860.485 .0266548
861.163 .0266407
861.840 .0266265
862.518 .0266122
863.195 .0265981
863.871 .0265841
864.548 .0265702
865.224 .0265566
865.899 .0265433
866.574 .0265303
867.249 .0265176
867.924 .0265053
868.598 .0264933
869.272 .0264818
869.946 .0264707
870.619 .0264601
871.292 .0264499
871.964 .0264401
872.636 .0264308
873.308 .0264219
873.979 .0264133
874.651 .0264053
875.321 .0263976
875.992 .0263905
876.662 .0263839
877.331 .0263778
878.001 .0263720
878.670 .0263666
879.338 .0263614
880.007 .0263564
880.675 .0263516
881.342 .0263469
882.009 .0263424
882.676 .0263383
883.343 .0263345
884.009 .0263311
884.675 .0263281
885.340 .0263255
886.005 .0263233
886.670 .0263213
887.334 .0263194
887.998 .0263177
888.662 .0263160
889.325 .0263144
889.988 .0263128
890.650 .0263112
891.312 .0263097
891.974 .0263081
892.636 .0263064
893.297 .0263046
893.957 .0263026
894.618 .0263003
895.278 .0262977
895.937 .0262947
896.596 .0262914
897.255 .0262876
897.914 .0262832
898.572 .0262783
899.230 .0262727
899.887 .0262663
900.544 .0262592
901.201 .0262511
901.857 .0262353
902.513 .0262252
903.168 .0262142
903.823 .0262024
904.478 .0261898
905.132 .0261765
905.786 .0261624
906.440 .0261477
907.093 .0261322
907.746 .0261159
908.399 .0260991
909.051 .0260816
909.703 .0260635
910.354 .0260536
911.005 .0260350
911.656 .0260161
912.306 .0259968
912.956 .0259774
913.605 .0259578
914.254 .0259381
914.903 .0259183
915.551 .0258984
916.199 .0258783
916.847 .0258581
917.494 .0258376
918.141 .0258170
918.788 .0257963
919.434 .0257753
920.079 .0257543
920.725 .0257332
921.370 .0257119
922.014 .0256906
922.658 .0256692
923.302 .0256476
923.946 .0256258
924.589 .0256039
925.231 .0255817
925.873 .0255594
926.515 .0255370
927.157 .0255146
927.798 .0254922
928.439 .0254699
929.079 .0254478
929.719 .0254260
930.359 .0254044
930.998 .0253831
931.637 .0253622
932.275 .0253416
932.913 .0253215
933.551 .0253018
934.188 .0252828
934.825 .0252644
935.462 .0252467
936.098 .0252297
936.733 .0252134
937.369 .0251979
938.004 .0251830
938.638 .0251688
939.273 .0251552
939.907 .0251423
940.540 .0251300
941.173 .0251182
941.806 .0251072
942.438 .0250967
943.070 .0250868
943.702 .0250774
944.333 .0250684
944.964 .0250596
945.594 .0250511
946.224 .0250426
946.854 .0250341
947.483 .0250255
948.112 .0250168
948.741 .0250080
949.369 .0249990
949.996 .0249897
950.624 .0249803
951.251 .0249707
951.878 .0249607
952.504 .0249505
953.130 .0249400
953.755 .0249291
954.380 .0249180
955.005 .0249067
955.629 .0248951
956.253 .0248835
956.877 .0248718
957.500 .0248601
958.123 .0248483
958.746 .0248366
959.368 .0248250
959.990 .0248135
960.611 .0248021
961.232 .0247909
961.853 .0247798
962.473 .0247690
963.093 .0247584
963.712 .0247482
964.331 .0247383
964.950 .0247287
965.569 .0247194
966.187 .0247105
966.804 .0247019
967.422 .0246935
968.039 .0246853
968.655 .0246773
969.272 .0246694
969.887 .0246616
970.503 .0246539
971.118 .0246464
971.733 .0246388
972.347 .0246314
972.961 .0246239
973.575 .0246165
974.188 .0246090
974.801 .0246014
975.414 .0245937
976.026 .0245857
976.638 .0245775
977.250 .0245691
977.861 .0245605
978.472 .0245519
979.083 .0245433
979.693 .0245345
980.303 .0245257
980.912 .0245118
981.521 .0245025
982.130 .0244931
982.738 .0244834
983.346 .0244736
983.954 .0244637
984.562 .0244538
985.169 .0244441
985.775 .0244346
986.382 .0244255
986.988 .0244166
987.594 .0244081
988.199 .0244000
988.804 .0243922
989.409 .0243897
990.013 .0243828
990.617 .0243765
991.221 .0243707
991.824 .0243656
992.427 .0243611
993.030 .0243573
993.632 .0243541
994.234 .0243516
994.836 .0243497
995.438 .0243484
996.039 .0243475
996.640 .0243473
997.240 .0243476
997.840 .0243485
998.440 .0243502
999.040 .0243527
999.639 .0243558
1000.238 .0243598
1000.836 .0243645
1001.435 .0243698
1002.033 .0243759
1002.630 .0243824
1003.228 .0243895
1003.825 .0243969
1004.422 .0244046
1005.018 .0244125
1005.614 .0244205
1006.210 .0244285
1006.806 .0244364
1007.401 .0244442
1007.996 .0244518
1008.591 .0244592
1009.186 .0244665
1009.780 .0244736
1010.374 .0244806
1010.967 .0244875
1011.561 .0244943
1012.154 .0245010
1012.746 .0245077
1013.339 .0245143
1013.931 .0245211
1014.523 .0245279
1015.115 .0245348
1015.706 .0245419
1016.298 .0245491
1016.888 .0245567
1017.479 .0245645
1018.069 .0245726
1018.660 .0245809
1019.250 .0245894
1019.839 .0245982
1020.429 .0246071
1021.018 .0246164
1021.607 .0246259
1022.195 .0246358
1022.784 .0246461
1023.372 .0246569
1023.960 .0246683
1024.547 .0246802
1025.135 .0246928
1025.722 .0247059
1026.309 .0247194
1026.896 .0247334
1027.483 .0247476
1028.069 .0247622
1028.655 .0247769
1029.241 .0247918
1029.827 .0248068
1030.412 .0248218
1030.997 .0248368
1031.582 .0248517
1032.167 .0248663
1032.752 .0248806
1033.336 .0248944
1033.921 .0249076
1034.505 .0249202
1035.089 .0249321
1035.672 .0249435
1036.256 .0249543
1036.839 .0249648
1037.422 .0249748
1038.005 .0249844
1038.588 .0249935
1039.171 .0250020
1039.753 .0250100
1040.335 .0250174
1040.918 .0250241
1041.500 .0250302
1042.081 .0250357
1042.663 .0250408
1043.244 .0250455
1043.826 .0250500
1044.407 .0250542
1044.988 .0250582
1045.569 .0250618
1046.150 .0250649
1046.730 .0250676
1047.311 .0250697
1047.891 .0250714
1048.471 .0250726
1049.052 .0250736
1049.632 .0250744
1050.211 .0250752
1050.791 .0250761
1051.371 .0250773
1051.950 .0250788
1052.530 .0250805
1053.109 .0250825
1053.688 .0250848
1054.268 .0250874
1054.847 .0250904
1055.426 .0250938
1056.005 .0250978
1056.583 .0251024
1057.162 .0251076
1057.741 .0251133
1058.319 .0251194
1058.898 .0251258
1059.476 .0251325
1060.055 .0251392
1060.633 .0251459
1061.211 .0251524
1061.790 .0251589
1062.368 .0251653
1062.946 .0251718
1063.524 .0251783
1064.102 .0251850
1064.680 .0251918
1065.258 .0251987
1065.836 .0252055
1066.414 .0252122
1066.992 .0252188
1067.570 .0252251
1068.148 .0252312
1068.726 .0252368
1069.304 .0252421
1069.882 .0252468
1070.460 .0252511
1071.038 .0252548
1071.616 .0252578
1072.194 .0252600
1072.772 .0252613
1073.350 .0252618
1073.928 .0252615
1074.506 .0252603
1075.084 .0252585
1075.662 .0252562
1076.240 .0252534
1076.819 .0252504
1077.397 .0252474
1077.976 .0252444
1078.554 .0252416
1079.133 .0252390
1079.711 .0252366
1080.290 .0252345
1080.869 .0252327
1081.448 .0252312
1082.027 .0252301
1082.606 .0252294
1083.185 .0252293
1083.764 .0252297
1084.343 .0252306
1084.923 .0252322
1085.502 .0252342
1086.082 .0252368
1086.662 .0252399
1087.242 .0252434
1087.822 .0252473
1088.402 .0252519
1088.983 .0252570
1089.563 .0252629
1090.144 .0252696
1090.725 .0252771
1091.306 .0252855
1091.887 .0252945
1092.469 .0253042
1093.050 .0253143
1093.632 .0253249
1094.214 .0253359
1094.796 .0253471
1095.379 .0253587
1095.961 .0253705
1096.544 .0253825
1097.127 .0253947
1097.710 .0254069
1098.294 .0254192
1098.877 .0254315
1099.461 .0254439
1100.046 .0254565
1100.630 .0254696
1101.215 .0254831
1101.800 .0254973
1102.385 .0255122
1102.970 .0255280
1103.556 .0255446
1104.142 .0255621
1104.728 .0255805
1105.315 .0256000
1105.902 .0256206
1106.489 .0256425
1107.077 .0256658
1107.664 .0256906
1108.253 .0257170
1108.841 .0257451
1109.430 .0257746
1110.019 .0258057
1110.609 .0258381
1111.198 .0258719
1111.789 .0259070
1112.379 .0259432
1112.970 .0259807
1113.561 .0260194
1114.153 .0260593
1114.745 .0261004
1115.338 .0261427
1115.931 .0261859
1116.524 .0262299
1117.117 .0262744
1117.712 .0263191
1118.306 .0263638
1118.901 .0264086
1119.496 .0264535
1120.092 .0264982
1120.689 .0265430
1121.285 .0265877
1121.882 .0266326
1122.480 .0266776
1123.078 .0267225
1123.677 .0267673
1124.276 .0268118
1124.875 .0268560
1125.476 .0268999
1126.076 .0269436
1126.677 .0269874
1127.279 .0270319
1127.881 .0270774
1128.484 .0271242
1129.087 .0271451
1129.691 .0271937
1130.295 .0272445
1130.900 .0272977
1131.505 .0273533
1132.111 .0274116
1132.718 .0274730
1133.325 .0275383
1133.933 .0276065
1134.541 .0276762
1135.150 .0277506
1135.760 .0278388
1136.370 .0279371
1136.981 .0278497
1137.592 .0279502
1138.204 .0280596
1138.817 .0281744
1139.431 .0282887
1140.045 .0284059
1140.660 .0285352
1141.275 .0286773
1141.891 .0287963
1142.508 .0288693
1143.126 .0290337
1143.744 .0294528
1144.363 .0297711
1144.983 .0287994
