Measurement Sequence started on: 15-12-46-377
Integration time: 28
Scans to Average: 2 
>>>>>Begin Spectral Data<<<<<
432.689 .0000100
433.621 .0000100
434.552 .0000100
435.482 .0000100
436.410 .0000100
437.337 .0000100
438.262 .0281907
439.187 .0597245
440.110 .0989290
441.031 .1431915
441.952 .1152070
442.871 .1203459
443.789 .1251233
444.705 .1296151
445.621 .1338737
446.535 .1379400
447.447 .1403592
448.359 .1409798
449.269 .1394159
450.178 .1354160
451.086 .1290555
451.993 .1208229
452.898 .1115288
453.803 .1020939
454.706 .0933028
455.608 .0856473
456.508 .0792947
457.408 .0749764
458.306 .0716497
459.204 .0689416
460.100 .0666672
460.995 .0647212
461.888 .0630296
462.781 .0615415
463.673 .0602179
464.563 .0590315
465.452 .0579598
466.340 .0569865
467.228 .0560991
468.114 .0552887
468.999 .0545482
469.882 .0538707
470.765 .0532506
471.647 .0526821
472.528 .0521601
473.407 .0516799
474.286 .0512378
475.163 .0508309
476.040 .0504568
476.915 .0501138
477.790 .0498003
478.663 .0495161
479.535 .0492605
480.407 .0490331
481.277 .0488327
482.147 .0486578
483.015 .0485069
483.883 .0483788
484.749 .0482722
485.615 .0481866
486.479 .0481213
487.343 .0480762
488.206 .0480511
489.067 .0480453
489.928 .0480586
490.788 .0480906
491.647 .0481413
492.505 .0482109
493.362 .0482994
494.218 .0484076
495.073 .0485360
495.928 .0488063
496.781 .0489943
497.634 .0492068
498.486 .0494443
499.337 .0497077
500.187 .0499984
501.036 .0503177
501.884 .0506676
502.731 .0510514
503.578 .0514721
504.424 .0517657
505.268 .0522559
506.113 .0527965
506.956 .0533935
507.798 .0540533
508.640 .0547846
509.480 .0555971
510.320 .0565013
511.160 .0575090
511.998 .0586343
512.836 .0598932
513.672 .0613034
514.508 .0628870
515.344 .0646670
516.178 .0666696
517.012 .0689221
517.845 .0714528
518.677 .0742840
519.508 .0774330
520.339 .0809034
521.169 .0846908
521.998 .0887670
522.826 .0930888
523.654 .0975943
524.481 .1022119
525.307 .1068643
526.133 .1114653
526.958 .1159252
527.782 .1201628
528.605 .1240969
529.428 .1276574
530.250 .1307758
531.072 .1334012
531.892 .1354882
532.712 .1370045
533.532 .1379273
534.350 .1382429
535.168 .1379479
535.986 .1370487
536.802 .1355551
537.618 .1334894
538.434 .1308761
539.249 .1277614
540.063 .1242020
540.876 .1202682
541.689 .1160374
542.501 .1115901
543.313 .1070117
544.124 .1023903
544.934 .0978038
545.744 .0933273
546.553 .0890236
547.361 .0849495
548.169 .0811429
548.976 .0776312
549.783 .0744271
550.589 .0715297
551.395 .0689269
552.200 .0665943
553.004 .0645027
553.808 .0626226
554.611 .0609248
555.414 .0593845
556.216 .0579798
557.018 .0566918
557.819 .0555059
558.619 .0544099
559.419 .0533942
560.218 .0524501
561.017 .0515689
561.815 .0507424
562.613 .0499633
563.410 .0492227
564.207 .0485140
565.003 .0478311
565.799 .0471691
566.594 .0465243
567.388 .0458947
568.182 .0452790
568.976 .0446767
569.769 .0440873
570.562 .0435113
571.354 .0429493
572.145 .0424030
572.936 .0418729
573.727 .0413598
574.517 .0408645
575.307 .0403878
576.096 .0399296
576.885 .0394909
577.673 .0390724
578.461 .0386744
579.248 .0382970
580.035 .0379411
580.821 .0376065
581.607 .0372935
582.392 .0370014
583.177 .0367294
583.962 .0364763
584.746 .0362410
585.529 .0360221
586.313 .0358187
587.095 .0356300
587.878 .0354552
588.660 .0352936
589.441 .0351446
590.222 .0350071
591.003 .0348804
591.783 .0347634
592.563 .0346550
593.342 .0345542
594.121 .0344600
594.899 .0343715
595.678 .0342885
596.455 .0342105
597.233 .0341370
598.009 .0340679
598.786 .0340028
599.562 .0339414
600.338 .0338832
601.113 .0338278
601.888 .0337518
602.663 .0337011
603.437 .0336519
604.211 .0336043
604.984 .0335578
605.757 .0335127
606.530 .0334687
607.302 .0334259
608.074 .0333843
608.845 .0333438
609.616 .0333043
610.387 .0332862
611.158 .0332483
611.928 .0332115
612.697 .0331756
613.467 .0331407
614.236 .0331066
615.004 .0330735
615.773 .0330412
616.541 .0330097
617.308 .0329791
618.076 .0329493
618.843 .0329204
619.609 .0328922
620.375 .0328646
621.141 .0328376
621.907 .0328111
622.672 .0327848
623.437 .0327587
624.202 .0327325
624.966 .0327060
625.730 .0326792
626.493 .0326520
627.257 .0326242
628.020 .0325960
628.782 .0325672
629.545 .0325379
630.307 .0325080
631.068 .0324777
631.830 .0324467
632.591 .0324153
633.352 .0323834
634.112 .0323510
634.872 .0323183
635.632 .0322854
636.392 .0322523
637.151 .0322191
637.910 .0321860
638.668 .0321531
639.427 .0321204
640.185 .0320881
640.943 .0320562
641.700 .0320249
642.457 .0319943
643.214 .0319644
643.971 .0319352
644.727 .0319067
645.483 .0318789
646.239 .0318516
646.994 .0318250
647.750 .0317989
648.505 .0317732
649.259 .0317481
650.014 .0317236
650.768 .0316996
651.521 .0316762
652.275 .0316533
653.028 .0316309
653.781 .0316090
654.534 .0315875
655.286 .0315663
656.039 .0315453
656.791 .0315247
657.542 .0315042
658.294 .0314839
659.045 .0314639
659.796 .0314441
660.546 .0314244
661.297 .0314050
662.047 .0313856
662.796 .0313663
663.546 .0313470
664.295 .0313276
665.044 .0313082
665.793 .0312887
666.542 .0312690
667.290 .0312492
668.038 .0312293
668.786 .0312092
669.533 .0311890
670.281 .0311685
671.028 .0311479
671.774 .0311272
672.521 .0311062
673.267 .0310850
674.013 .0310637
674.759 .0310423
675.505 .0310207
676.250 .0309991
676.995 .0309775
677.740 .0309559
678.484 .0309344
679.229 .0309129
679.973 .0308914
680.717 .0308700
681.460 .0308486
682.204 .0308273
682.947 .0308059
683.690 .0307845
684.433 .0307630
685.175 .0307415
685.917 .0307199
686.659 .0306982
687.401 .0306766
688.142 .0306549
688.884 .0306332
689.625 .0306116
690.365 .0305899
691.106 .0305681
691.846 .0305462
692.586 .0305242
693.326 .0305021
694.066 .0304798
694.805 .0304574
695.545 .0304350
696.284 .0304127
697.022 .0303906
697.761 .0303685
698.499 .0303467
699.237 .0303251
699.975 .0303037
700.713 .0302824
701.450 .0302614
702.187 .0302404
702.924 .0302196
703.661 .0301989
704.397 .0301783
705.133 .0301579
705.869 .0301377
706.605 .0301177
707.341 .0300980
708.076 .0300785
708.811 .0300593
709.546 .0300403
710.281 .0300215
711.015 .0300030
711.749 .0299845
712.483 .0299662
713.217 .0299479
713.950 .0299296
714.684 .0299113
715.417 .0298930
716.150 .0298746
716.882 .0298562
717.615 .0298377
718.347 .0298192
719.079 .0298006
719.811 .0297821
720.542 .0297637
721.273 .0297453
722.005 .0297271
722.735 .0297089
723.466 .0296909
724.196 .0296731
724.927 .0296554
725.656 .0296379
726.386 .0296208
727.116 .0296041
727.845 .0295879
728.574 .0295723
729.303 .0295573
730.031 .0295431
730.760 .0295295
731.488 .0295165
732.216 .0295041
732.944 .0294921
733.671 .0294806
734.398 .0294696
735.125 .0294588
735.852 .0294484
736.579 .0294383
737.305 .0294285
738.031 .0294190
738.757 .0294096
739.483 .0294004
740.208 .0293912
740.933 .0293820
741.658 .0293727
742.383 .0293632
743.108 .0293535
743.832 .0293434
744.556 .0293330
745.280 .0293221
746.004 .0293108
746.727 .0292990
747.450 .0292868
748.173 .0292741
748.896 .0292610
749.618 .0292476
750.340 .0292339
751.062 .0292200
751.784 .0292058
752.506 .0291915
753.227 .0291769
753.948 .0291622
754.669 .0291472
755.389 .0291321
756.110 .0291169
756.830 .0291015
757.550 .0290862
758.269 .0290710
758.989 .0290559
759.708 .0290409
760.427 .0290262
761.146 .0290117
761.864 .0289973
762.582 .0289830
763.300 .0289688
764.018 .0289547
764.736 .0289407
765.453 .0289267
766.170 .0289128
766.887 .0288990
767.603 .0288853
768.320 .0288717
769.036 .0288582
769.751 .0288447
770.467 .0288315
771.182 .0288183
771.897 .0288052
772.612 .0287923
773.327 .0287795
774.041 .0287667
774.755 .0287541
775.469 .0287416
776.183 .0287291
776.896 .0287168
777.609 .0287046
778.322 .0286925
779.035 .0286805
779.747 .0286688
780.459 .0286572
781.171 .0286458
781.882 .0286345
782.594 .0286234
783.305 .0286124
784.016 .0286014
784.726 .0285906
785.436 .0285799
786.147 .0285640
786.856 .0285532
787.566 .0285423
788.275 .0285314
788.984 .0285204
789.693 .0285093
790.401 .0284980
791.110 .0284867
791.818 .0284752
792.525 .0284635
793.233 .0284517
793.940 .0284397
794.647 .0284329
795.353 .0284208
796.060 .0284086
796.766 .0283962
797.472 .0283838
798.177 .0283713
798.883 .0283588
799.588 .0283463
800.292 .0283338
800.997 .0283213
801.701 .0283089
802.405 .0282966
803.109 .0282843
803.812 .0282721
804.515 .0282600
805.218 .0282480
805.921 .0282360
806.623 .0282242
807.325 .0282125
808.027 .0282010
808.728 .0281894
809.429 .0281780
810.130 .0281665
810.831 .0281551
811.531 .0281436
812.231 .0281321
812.931 .0281204
813.630 .0281088
814.330 .0280970
815.029 .0280853
815.727 .0280735
816.426 .0280618
817.124 .0280502
817.821 .0280386
818.519 .0280270
819.216 .0280155
819.913 .0280041
820.609 .0279927
821.306 .0279815
822.002 .0279704
822.697 .0279597
823.393 .0279492
824.088 .0279392
824.783 .0279296
825.477 .0279204
826.171 .0279116
826.865 .0279032
827.559 .0278953
828.252 .0278877
828.945 .0278805
829.638 .0278737
830.330 .0278674
831.023 .0278614
831.714 .0278559
832.406 .0278508
833.097 .0278459
833.788 .0278414
834.479 .0278372
835.169 .0278332
835.859 .0278293
836.548 .0278257
837.238 .0278222
837.927 .0278188
838.615 .0278155
839.304 .0278122
839.992 .0278087
840.680 .0278051
841.367 .0278011
842.054 .0277967
842.741 .0277920
843.428 .0277868
844.114 .0277812
844.800 .0277752
845.485 .0277686
846.170 .0277615
846.855 .0277538
847.540 .0277454
848.224 .0277364
848.908 .0277267
849.592 .0277164
850.275 .0277055
850.958 .0276940
851.641 .0276821
852.323 .0276697
853.005 .0276570
853.687 .0276440
854.368 .0276308
855.049 .0276173
855.730 .0276037
856.410 .0275901
857.090 .0275764
857.769 .0275628
858.449 .0275493
859.128 .0275360
859.806 .0275228
860.485 .0275099
861.163 .0274972
861.840 .0274848
862.518 .0274726
863.195 .0274608
863.871 .0274492
864.548 .0274379
865.224 .0274268
865.899 .0274160
866.574 .0274053
867.249 .0273946
867.924 .0273840
868.598 .0273733
869.272 .0273626
869.946 .0273517
870.619 .0273407
871.292 .0273296
871.964 .0273183
872.636 .0273068
873.308 .0272951
873.979 .0272831
874.651 .0272709
875.321 .0272585
875.992 .0272458
876.662 .0272328
877.331 .0272196
878.001 .0272063
878.670 .0271927
879.338 .0271790
880.007 .0271651
880.675 .0271512
881.342 .0271373
882.009 .0271236
882.676 .0271100
883.343 .0270967
884.009 .0270838
884.675 .0270713
885.340 .0270592
886.005 .0270476
886.670 .0270364
887.334 .0270257
887.998 .0270155
888.662 .0270057
889.325 .0269964
889.988 .0269875
890.650 .0269790
891.312 .0269709
891.974 .0269630
892.636 .0269554
893.297 .0269478
893.957 .0269404
894.618 .0269330
895.278 .0269257
895.937 .0269183
896.596 .0269109
897.255 .0269034
897.914 .0268957
898.572 .0268878
899.230 .0268795
899.887 .0268708
900.544 .0268616
901.201 .0268518
901.857 .0268348
902.513 .0268237
903.168 .0268120
903.823 .0267998
904.478 .0267871
905.132 .0267738
905.786 .0267600
906.440 .0267457
907.093 .0267309
907.746 .0267157
908.399 .0267001
909.051 .0266842
909.703 .0266681
910.354 .0266596
911.005 .0266434
911.656 .0266271
912.306 .0266108
912.956 .0265946
913.605 .0265784
914.254 .0265622
914.903 .0265461
915.551 .0265300
916.199 .0265139
916.847 .0264978
917.494 .0264816
918.141 .0264654
918.788 .0264492
919.434 .0264328
920.079 .0264164
920.725 .0263998
921.370 .0263832
922.014 .0263663
922.658 .0263493
923.302 .0263320
923.946 .0263146
924.589 .0262970
925.231 .0262792
925.873 .0262613
926.515 .0262433
927.157 .0262253
927.798 .0262072
928.439 .0261891
929.079 .0261710
929.719 .0261531
930.359 .0261352
930.998 .0261175
931.637 .0260999
932.275 .0260827
932.913 .0260659
933.551 .0260497
934.188 .0260340
934.825 .0260191
935.462 .0260049
936.098 .0259915
936.733 .0259789
937.369 .0259672
938.004 .0259563
938.638 .0259462
939.273 .0259371
939.907 .0259289
940.540 .0259216
941.173 .0259153
941.806 .0259099
942.438 .0259053
943.070 .0259015
943.702 .0258983
944.333 .0258957
944.964 .0258935
945.594 .0258916
946.224 .0258899
946.854 .0258883
947.483 .0258868
948.112 .0258853
948.741 .0258837
949.369 .0258820
949.996 .0258799
950.624 .0258775
951.251 .0258746
951.878 .0258713
952.504 .0258673
953.130 .0258628
953.755 .0258578
954.380 .0258523
955.005 .0258465
955.629 .0258403
956.253 .0258338
956.877 .0258271
957.500 .0258202
958.123 .0258131
958.746 .0258060
959.368 .0257988
959.990 .0257916
960.611 .0257845
961.232 .0257776
961.853 .0257711
962.473 .0257649
963.093 .0257591
963.712 .0257538
964.331 .0257490
964.950 .0257447
965.569 .0257408
966.187 .0257374
966.804 .0257343
967.422 .0257316
968.039 .0257291
968.655 .0257270
969.272 .0257252
969.887 .0257235
970.503 .0257220
971.118 .0257207
971.733 .0257192
972.347 .0257177
972.961 .0257160
973.575 .0257141
974.188 .0257118
974.801 .0257091
975.414 .0257061
976.026 .0257027
976.638 .0256989
977.250 .0256947
977.861 .0256901
978.472 .0256850
979.083 .0256793
979.693 .0256731
980.303 .0256662
980.912 .0256537
981.521 .0256456
982.130 .0256370
982.738 .0256280
983.346 .0256189
983.954 .0256096
984.562 .0256003
985.169 .0255909
985.775 .0255817
986.382 .0255725
986.988 .0255635
987.594 .0255548
988.199 .0255463
988.804 .0255384
989.409 .0255358
990.013 .0255289
990.617 .0255227
991.221 .0255173
991.824 .0255126
992.427 .0255087
993.030 .0255054
993.632 .0255027
994.234 .0255005
994.836 .0254988
995.438 .0254975
996.039 .0254968
996.640 .0254965
997.240 .0254967
997.840 .0254975
998.440 .0254987
999.040 .0255004
999.639 .0255024
1000.238 .0255046
1000.836 .0255068
1001.435 .0255091
1002.033 .0255112
1002.630 .0255132
1003.228 .0255151
1003.825 .0255169
1004.422 .0255185
1005.018 .0255200
1005.614 .0255212
1006.210 .0255221
1006.806 .0255225
1007.401 .0255224
1007.996 .0255216
1008.591 .0255201
1009.186 .0255179
1009.780 .0255152
1010.374 .0255119
1010.967 .0255083
1011.561 .0255044
1012.154 .0255004
1012.746 .0254963
1013.339 .0254920
1013.931 .0254876
1014.523 .0254830
1015.115 .0254784
1015.706 .0254736
1016.298 .0254689
1016.888 .0254644
1017.479 .0254601
1018.069 .0254563
1018.660 .0254530
1019.250 .0254502
1019.839 .0254480
1020.429 .0254462
1021.018 .0254448
1021.607 .0254437
1022.195 .0254429
1022.784 .0254422
1023.372 .0254417
1023.960 .0254415
1024.547 .0254416
1025.135 .0254421
1025.722 .0254429
1026.309 .0254442
1026.896 .0254457
1027.483 .0254474
1028.069 .0254491
1028.655 .0254506
1029.241 .0254519
1029.827 .0254530
1030.412 .0254536
1030.997 .0254541
1031.582 .0254542
1032.167 .0254542
1032.752 .0254540
1033.336 .0254536
1033.921 .0254530
1034.505 .0254522
1035.089 .0254511
1035.672 .0254494
1036.256 .0254474
1036.839 .0254447
1037.422 .0254416
1038.005 .0254380
1038.588 .0254340
1039.171 .0254297
1039.753 .0254252
1040.335 .0254206
1040.918 .0254157
1041.500 .0254107
1042.081 .0254054
1042.663 .0253998
1043.244 .0253937
1043.826 .0253872
1044.407 .0253802
1044.988 .0253728
1045.569 .0253652
1046.150 .0253574
1046.730 .0253495
1047.311 .0253417
1047.891 .0253340
1048.471 .0253264
1049.052 .0253188
1049.632 .0253113
1050.211 .0253037
1050.791 .0252960
1051.371 .0252882
1051.950 .0252803
1052.530 .0252725
1053.109 .0252648
1053.688 .0252574
1054.268 .0252503
1054.847 .0252437
1055.426 .0252377
1056.005 .0252321
1056.583 .0252271
1057.162 .0252225
1057.741 .0252183
1058.319 .0252144
1058.898 .0252107
1059.476 .0252075
1060.055 .0252046
1060.633 .0252023
1061.211 .0252005
1061.790 .0251994
1062.368 .0251989
1062.946 .0251990
1063.524 .0251996
1064.102 .0252007
1064.680 .0252020
1065.258 .0252033
1065.836 .0252047
1066.414 .0252060
1066.992 .0252073
1067.570 .0252086
1068.148 .0252100
1068.726 .0252115
1069.304 .0252132
1069.882 .0252150
1070.460 .0252169
1071.038 .0252188
1071.616 .0252205
1072.194 .0252220
1072.772 .0252231
1073.350 .0252237
1073.928 .0252239
1074.506 .0252235
1075.084 .0252229
1075.662 .0252221
1076.240 .0252211
1076.819 .0252201
1077.397 .0252192
1077.976 .0252184
1078.554 .0252177
1079.133 .0252172
1079.711 .0252170
1080.290 .0252169
1080.869 .0252170
1081.448 .0252174
1082.027 .0252182
1082.606 .0252195
1083.185 .0252212
1083.764 .0252234
1084.343 .0252262
1084.923 .0252295
1085.502 .0252332
1086.082 .0252372
1086.662 .0252416
1087.242 .0252461
1087.822 .0252509
1088.402 .0252557
1088.983 .0252607
1089.563 .0252658
1090.144 .0252713
1090.725 .0252772
1091.306 .0252837
1091.887 .0252909
1092.469 .0252989
1093.050 .0253079
1093.632 .0253179
1094.214 .0253289
1094.796 .0253409
1095.379 .0253538
1095.961 .0253674
1096.544 .0253816
1097.127 .0253964
1097.710 .0254118
1098.294 .0254280
1098.877 .0254449
1099.461 .0254626
1100.046 .0254813
1100.630 .0255011
1101.215 .0255219
1101.800 .0255438
1102.385 .0255666
1102.970 .0255901
1103.556 .0256145
1104.142 .0256395
1104.728 .0256654
1105.315 .0256921
1105.902 .0257200
1106.489 .0257491
1107.077 .0257796
1107.664 .0258116
1108.253 .0258451
1108.841 .0258801
1109.430 .0259164
1110.019 .0259538
1110.609 .0259920
1111.198 .0260309
1111.789 .0260703
1112.379 .0261101
1112.970 .0261502
1113.561 .0261907
1114.153 .0262315
1114.745 .0262727
1115.338 .0263143
1115.931 .0263562
1116.524 .0263986
1117.117 .0264413
1117.712 .0264843
1118.306 .0265278
1118.901 .0265718
1119.496 .0266167
1120.092 .0266627
1120.689 .0267101
1121.285 .0267592
1121.882 .0268102
1122.480 .0268633
1123.078 .0269186
1123.677 .0269761
1124.276 .0270360
1124.875 .0270981
1125.476 .0271628
1126.076 .0272301
1126.677 .0273004
1127.279 .0273737
1127.881 .0274504
1128.484 .0275304
1129.087 .0275606
1129.691 .0276450
1130.295 .0277324
1130.900 .0278226
1131.505 .0279153
1132.111 .0280103
1132.718 .0281075
1133.325 .0282068
1133.933 .0283068
1134.541 .0284139
1135.150 .0285243
1135.760 .0286301
1136.370 .0287384
1136.981 .0289565
1137.592 .0290929
1138.204 .0292197
1138.817 .0293357
1139.431 .0294439
1140.045 .0295487
1140.660 .0296496
1141.275 .0297502
1141.891 .0298142
1142.508 .0300617
1143.126 .0302018
1143.744 .0301285
1144.363 .0302589
1144.983 .0292657
