Measurement Sequence started on: 15-12-46-377
Integration time: 28
Scans to Average: 2 
>>>>>Begin Spectral Data<<<<<
432.689 .0000100
433.621 .0000100
434.552 .0000100
435.482 .0000100
436.410 .0000100
437.337 .0000100
438.262 .0258788
439.187 .0549053
440.110 .0909789
441.031 .1317267
441.952 .1066504
442.871 .1115154
443.789 .1160479
444.705 .1203120
445.621 .1243551
446.535 .1282139
447.447 .1305546
448.359 .1312323
449.269 .1298937
450.178 .1263074
451.086 .1205429
451.993 .1130450
452.898 .1045565
453.803 .0959214
454.706 .0878605
455.608 .0808238
456.508 .0749659
457.408 .0709601
458.306 .0678544
459.204 .0653078
460.100 .0631543
460.995 .0613003
461.888 .0596836
462.781 .0582590
463.673 .0569919
464.563 .0558568
465.452 .0548349
466.340 .0539108
467.228 .0530726
468.114 .0523111
468.999 .0516188
469.882 .0509882
470.765 .0504130
471.647 .0498877
472.528 .0494074
473.407 .0489681
474.286 .0485672
475.163 .0482029
476.040 .0478735
476.915 .0475775
477.790 .0473136
478.663 .0470808
479.535 .0468770
480.407 .0467006
481.277 .0465493
482.147 .0464207
483.015 .0463126
483.883 .0462231
484.749 .0461507
485.615 .0460943
486.479 .0460536
487.343 .0460280
488.206 .0460178
489.067 .0460226
489.928 .0460420
490.788 .0460762
491.647 .0461247
492.505 .0461872
493.362 .0462635
494.218 .0463542
495.073 .0464599
495.928 .0466799
496.781 .0468305
497.634 .0470009
498.486 .0471935
499.337 .0474121
500.187 .0476598
501.036 .0479407
501.884 .0482588
502.731 .0486184
503.578 .0490238
504.424 .0493270
505.268 .0498169
506.113 .0503629
506.956 .0509694
507.798 .0516419
508.640 .0523861
509.480 .0532106
510.320 .0541256
511.160 .0551425
511.998 .0562755
512.836 .0575410
513.672 .0589548
514.508 .0605393
515.344 .0623166
516.178 .0643085
517.012 .0665370
517.845 .0690248
518.677 .0717899
519.508 .0748473
520.339 .0782045
521.169 .0818625
521.998 .0857995
522.826 .0899867
523.654 .0943704
524.481 .0988876
525.307 .1034639
526.133 .1080120
526.958 .1124358
527.782 .1166431
528.605 .1205420
529.428 .1240507
530.250 .1270979
531.072 .1296368
531.892 .1316231
532.712 .1330337
533.532 .1338565
534.350 .1340885
535.168 .1337340
535.986 .1328027
536.802 .1313018
537.618 .1292462
538.434 .1266512
539.249 .1235531
540.063 .1199950
540.876 .1160424
541.689 .1117676
542.501 .1072517
543.313 .1025864
544.124 .0978686
544.934 .0931885
545.744 .0886330
546.553 .0842755
547.361 .0801770
548.169 .0763738
548.976 .0728918
549.783 .0697351
550.589 .0668957
551.395 .0643536
552.200 .0620806
553.004 .0600458
553.808 .0582222
554.611 .0565827
555.414 .0551060
556.216 .0537723
557.018 .0525629
557.819 .0514612
558.619 .0504531
559.419 .0495266
560.218 .0486718
561.017 .0478789
561.815 .0471395
562.613 .0464472
563.410 .0457952
564.207 .0451764
565.003 .0445847
565.799 .0440149
566.594 .0434631
567.388 .0429261
568.182 .0424021
568.976 .0418898
569.769 .0413894
570.562 .0409014
571.354 .0404267
572.145 .0399661
572.936 .0395206
573.727 .0390906
574.517 .0386766
575.307 .0382784
576.096 .0378955
576.885 .0375277
577.673 .0371751
578.461 .0368378
579.248 .0365156
580.035 .0362089
580.821 .0359180
581.607 .0356430
582.392 .0353840
583.177 .0351405
583.962 .0349122
584.746 .0346983
585.529 .0344981
586.313 .0343107
587.095 .0341354
587.878 .0339716
588.660 .0338187
589.441 .0336763
590.222 .0335438
591.003 .0334209
591.783 .0333071
592.563 .0332017
593.342 .0331040
594.121 .0330133
594.899 .0329287
595.678 .0328494
596.455 .0327750
597.233 .0327045
598.009 .0326375
598.786 .0325736
599.562 .0325123
600.338 .0324533
601.113 .0323965
601.888 .0323186
602.663 .0322668
603.437 .0322170
604.211 .0321693
604.984 .0321237
605.757 .0320801
606.530 .0320385
607.302 .0319986
608.074 .0319603
608.845 .0319236
609.616 .0318884
610.387 .0318741
611.158 .0318412
611.928 .0318099
612.697 .0317803
613.467 .0317523
614.236 .0317258
615.004 .0317009
615.773 .0316773
616.541 .0316549
617.308 .0316336
618.076 .0316131
618.843 .0315932
619.609 .0315737
620.375 .0315546
621.141 .0315356
621.907 .0315167
622.672 .0314978
623.437 .0314789
624.202 .0314598
624.966 .0314404
625.730 .0314207
626.493 .0314006
627.257 .0313800
628.020 .0313588
628.782 .0313369
629.545 .0313142
630.307 .0312906
631.068 .0312660
631.830 .0312406
632.591 .0312145
633.352 .0311876
634.112 .0311602
634.872 .0311323
635.632 .0311039
636.392 .0310751
637.151 .0310459
637.910 .0310164
638.668 .0309867
639.427 .0309568
640.185 .0309268
640.943 .0308970
641.700 .0308675
642.457 .0308384
643.214 .0308099
643.971 .0307819
644.727 .0307546
645.483 .0307277
646.239 .0307012
646.994 .0306750
647.750 .0306491
648.505 .0306233
649.259 .0305978
650.014 .0305724
650.768 .0305474
651.521 .0305226
652.275 .0304982
653.028 .0304741
653.781 .0304503
654.534 .0304265
655.286 .0304028
656.039 .0303792
656.791 .0303554
657.542 .0303315
658.294 .0303074
659.045 .0302832
659.796 .0302590
660.546 .0302346
661.297 .0302103
662.047 .0301861
662.796 .0301620
663.546 .0301381
664.295 .0301145
665.044 .0300913
665.793 .0300685
666.542 .0300463
667.290 .0300246
668.038 .0300035
668.786 .0299830
669.533 .0299632
670.281 .0299442
671.028 .0299259
671.774 .0299084
672.521 .0298918
673.267 .0298759
674.013 .0298609
674.759 .0298465
675.505 .0298328
676.250 .0298196
676.995 .0298068
677.740 .0297943
678.484 .0297819
679.229 .0297696
679.973 .0297572
680.717 .0297448
681.460 .0297322
682.204 .0297193
682.947 .0297062
683.690 .0296928
684.433 .0296791
685.175 .0296650
685.917 .0296505
686.659 .0296356
687.401 .0296202
688.142 .0296043
688.884 .0295878
689.625 .0295707
690.365 .0295531
691.106 .0295350
691.846 .0295164
692.586 .0294973
693.326 .0294779
694.066 .0294581
694.805 .0294382
695.545 .0294180
696.284 .0293978
697.022 .0293775
697.761 .0293573
698.499 .0293372
699.237 .0293173
699.975 .0292976
700.713 .0292782
701.450 .0292590
702.187 .0292401
702.924 .0292213
703.661 .0292029
704.397 .0291847
705.133 .0291668
705.869 .0291493
706.605 .0291322
707.341 .0291155
708.076 .0290993
708.811 .0290835
709.546 .0290679
710.281 .0290523
711.015 .0290367
711.749 .0290209
712.483 .0290048
713.217 .0289882
713.950 .0289713
714.684 .0289540
715.417 .0289362
716.150 .0289181
716.882 .0288994
717.615 .0288802
718.347 .0288604
719.079 .0288400
719.811 .0288188
720.542 .0287969
721.273 .0287743
722.005 .0287512
722.735 .0287275
723.466 .0287035
724.196 .0286793
724.927 .0286551
725.656 .0286310
726.386 .0286071
727.116 .0285835
727.845 .0285603
728.574 .0285375
729.303 .0285154
730.031 .0284938
730.760 .0284728
731.488 .0284524
732.216 .0284326
732.944 .0284135
733.671 .0283951
734.398 .0283774
735.125 .0283604
735.852 .0283442
736.579 .0283288
737.305 .0283141
738.031 .0283001
738.757 .0282867
739.483 .0282738
740.208 .0282612
740.933 .0282488
741.658 .0282367
742.383 .0282246
743.108 .0282125
743.832 .0282006
744.556 .0281887
745.280 .0281769
746.004 .0281652
746.727 .0281536
747.450 .0281421
748.173 .0281306
748.896 .0281190
749.618 .0281073
750.340 .0280955
751.062 .0280834
751.784 .0280713
752.506 .0280590
753.227 .0280468
753.948 .0280346
754.669 .0280226
755.389 .0280108
756.110 .0279994
756.830 .0279882
757.550 .0279773
758.269 .0279667
758.989 .0279563
759.708 .0279461
760.427 .0279361
761.146 .0279263
761.864 .0279167
762.582 .0279073
763.300 .0278982
764.018 .0278893
764.736 .0278807
765.453 .0278725
766.170 .0278644
766.887 .0278567
767.603 .0278492
768.320 .0278420
769.036 .0278349
769.751 .0278281
770.467 .0278214
771.182 .0278149
771.897 .0278085
772.612 .0278023
773.327 .0277961
774.041 .0277901
774.755 .0277842
775.469 .0277786
776.183 .0277731
776.896 .0277678
777.609 .0277628
778.322 .0277580
779.035 .0277533
779.747 .0277487
780.459 .0277442
781.171 .0277397
781.882 .0277352
782.594 .0277306
783.305 .0277261
784.016 .0277216
784.726 .0277170
785.436 .0277126
786.147 .0277056
786.856 .0277010
787.566 .0276963
788.275 .0276916
788.984 .0276868
789.693 .0276818
790.401 .0276767
791.110 .0276715
791.818 .0276660
792.525 .0276604
793.233 .0276545
793.940 .0276482
794.647 .0276445
795.353 .0276378
796.060 .0276306
796.766 .0276230
797.472 .0276151
798.177 .0276067
798.883 .0275980
799.588 .0275888
800.292 .0275793
800.997 .0275693
801.701 .0275588
802.405 .0275479
803.109 .0275364
803.812 .0275245
804.515 .0275120
805.218 .0274991
805.921 .0274856
806.623 .0274716
807.325 .0274572
808.027 .0274422
808.728 .0274267
809.429 .0274107
810.130 .0273942
810.831 .0273773
811.531 .0273600
812.231 .0273424
812.931 .0273244
813.630 .0273062
814.330 .0272878
815.029 .0272694
815.727 .0272509
816.426 .0272326
817.124 .0272144
817.821 .0271964
818.519 .0271786
819.216 .0271612
819.913 .0271440
820.609 .0271273
821.306 .0271109
822.002 .0270949
822.697 .0270793
823.393 .0270642
824.088 .0270495
824.783 .0270353
825.477 .0270214
826.171 .0270079
826.865 .0269946
827.559 .0269816
828.252 .0269688
828.945 .0269562
829.638 .0269437
830.330 .0269313
831.023 .0269190
831.714 .0269067
832.406 .0268944
833.097 .0268820
833.788 .0268695
834.479 .0268569
835.169 .0268442
835.859 .0268314
836.548 .0268184
837.238 .0268052
837.927 .0267918
838.615 .0267782
839.304 .0267643
839.992 .0267501
840.680 .0267356
841.367 .0267209
842.054 .0267059
842.741 .0266906
843.428 .0266753
844.114 .0266598
844.800 .0266442
845.485 .0266286
846.170 .0266129
846.855 .0265970
847.540 .0265811
848.224 .0265650
848.908 .0265487
849.592 .0265324
850.275 .0265158
850.958 .0264992
851.641 .0264824
852.323 .0264655
853.005 .0264484
853.687 .0264312
854.368 .0264140
855.049 .0263966
855.730 .0263791
856.410 .0263616
857.090 .0263441
857.769 .0263266
858.449 .0263092
859.128 .0262918
859.806 .0262745
860.485 .0262573
861.163 .0262403
861.840 .0262234
862.518 .0262069
863.195 .0261906
863.871 .0261748
864.548 .0261594
865.224 .0261444
865.899 .0261299
866.574 .0261159
867.249 .0261024
867.924 .0260894
868.598 .0260768
869.272 .0260648
869.946 .0260533
870.619 .0260423
871.292 .0260319
871.964 .0260221
872.636 .0260129
873.308 .0260044
873.979 .0259966
874.651 .0259894
875.321 .0259828
875.992 .0259770
876.662 .0259718
877.331 .0259673
878.001 .0259635
878.670 .0259603
879.338 .0259579
880.007 .0259561
880.675 .0259550
881.342 .0259545
882.009 .0259547
882.676 .0259555
883.343 .0259570
884.009 .0259591
884.675 .0259619
885.340 .0259653
886.005 .0259693
886.670 .0259738
887.334 .0259788
887.998 .0259842
888.662 .0259899
889.325 .0259960
889.988 .0260024
890.650 .0260092
891.312 .0260163
891.974 .0260237
892.636 .0260316
893.297 .0260396
893.957 .0260479
894.618 .0260563
895.278 .0260646
895.937 .0260727
896.596 .0260805
897.255 .0260879
897.914 .0260949
898.572 .0261013
899.230 .0261073
899.887 .0261127
900.544 .0261176
901.201 .0261217
901.857 .0261247
902.513 .0261267
903.168 .0261279
903.823 .0261282
904.478 .0261276
905.132 .0261261
905.786 .0261238
906.440 .0261207
907.093 .0261168
907.746 .0261120
908.399 .0261064
909.051 .0260999
909.703 .0260927
910.354 .0260874
911.005 .0260794
911.656 .0260707
912.306 .0260615
912.956 .0260518
913.605 .0260418
914.254 .0260314
914.903 .0260209
915.551 .0260102
916.199 .0259993
916.847 .0259883
917.494 .0259772
918.141 .0259660
918.788 .0259548
919.434 .0259436
920.079 .0259324
920.725 .0259212
921.370 .0259102
922.014 .0258993
922.658 .0258884
923.302 .0258775
923.946 .0258665
924.589 .0258553
925.231 .0258439
925.873 .0258323
926.515 .0258205
927.157 .0258084
927.798 .0257962
928.439 .0257838
929.079 .0257713
929.719 .0257588
930.359 .0257462
930.998 .0257336
931.637 .0257210
932.275 .0257084
932.913 .0256958
933.551 .0256833
934.188 .0256709
934.825 .0256586
935.462 .0256466
936.098 .0256348
936.733 .0256232
937.369 .0256119
938.004 .0256008
938.638 .0255899
939.273 .0255792
939.907 .0255688
940.540 .0255585
941.173 .0255486
941.806 .0255389
942.438 .0255295
943.070 .0255204
943.702 .0255115
944.333 .0255027
944.964 .0254940
945.594 .0254852
946.224 .0254764
946.854 .0254674
947.483 .0254582
948.112 .0254489
948.741 .0254393
949.369 .0254295
949.996 .0254195
950.624 .0254092
951.251 .0253986
951.878 .0253876
952.504 .0253762
953.130 .0253643
953.755 .0253519
954.380 .0253392
955.005 .0253261
955.629 .0253126
956.253 .0252990
956.877 .0252850
957.500 .0252708
958.123 .0252564
958.746 .0252417
959.368 .0252268
959.990 .0252117
960.611 .0251963
961.232 .0251808
961.853 .0251652
962.473 .0251495
963.093 .0251338
963.712 .0251181
964.331 .0251024
964.950 .0250866
965.569 .0250708
966.187 .0250548
966.804 .0250388
967.422 .0250225
968.039 .0250062
968.655 .0249896
969.272 .0249730
969.887 .0249561
970.503 .0249392
971.118 .0249221
971.733 .0249048
972.347 .0248874
972.961 .0248698
973.575 .0248521
974.188 .0248342
974.801 .0248161
975.414 .0247979
976.026 .0247794
976.638 .0247607
977.250 .0247417
977.861 .0247224
978.472 .0247028
979.083 .0246830
979.693 .0246629
980.303 .0246426
980.912 .0246113
981.521 .0245905
982.130 .0245696
982.738 .0245485
983.346 .0245274
983.954 .0245062
984.562 .0244852
985.169 .0244642
985.775 .0244435
986.382 .0244231
986.988 .0244031
987.594 .0243835
988.199 .0243644
988.804 .0243456
989.409 .0243377
990.013 .0243199
990.617 .0243025
991.221 .0242856
991.824 .0242692
992.427 .0242532
993.030 .0242377
993.632 .0242227
994.234 .0242082
994.836 .0241941
995.438 .0241804
996.039 .0241672
996.640 .0241545
997.240 .0241422
997.840 .0241304
998.440 .0241191
999.040 .0241083
999.639 .0240981
1000.238 .0240883
1000.836 .0240789
1001.435 .0240699
1002.033 .0240613
1002.630 .0240529
1003.228 .0240447
1003.825 .0240367
1004.422 .0240289
1005.018 .0240212
1005.614 .0240136
1006.210 .0240061
1006.806 .0239986
1007.401 .0239912
1007.996 .0239838
1008.591 .0239765
1009.186 .0239693
1009.780 .0239623
1010.374 .0239555
1010.967 .0239491
1011.561 .0239431
1012.154 .0239377
1012.746 .0239328
1013.339 .0239285
1013.931 .0239248
1014.523 .0239218
1015.115 .0239195
1015.706 .0239178
1016.298 .0239168
1016.888 .0239166
1017.479 .0239172
1018.069 .0239186
1018.660 .0239209
1019.250 .0239241
1019.839 .0239283
1020.429 .0239333
1021.018 .0239392
1021.607 .0239458
1022.195 .0239530
1022.784 .0239609
1023.372 .0239694
1023.960 .0239783
1024.547 .0239878
1025.135 .0239979
1025.722 .0240084
1026.309 .0240194
1026.896 .0240307
1027.483 .0240423
1028.069 .0240541
1028.655 .0240659
1029.241 .0240776
1029.827 .0240893
1030.412 .0241009
1030.997 .0241124
1031.582 .0241237
1032.167 .0241350
1032.752 .0241460
1033.336 .0241568
1033.921 .0241673
1034.505 .0241774
1035.089 .0241870
1035.672 .0241960
1036.256 .0242043
1036.839 .0242120
1037.422 .0242190
1038.005 .0242252
1038.588 .0242308
1039.171 .0242358
1039.753 .0242403
1040.335 .0242443
1040.918 .0242480
1041.500 .0242514
1042.081 .0242548
1042.663 .0242581
1043.244 .0242616
1043.826 .0242654
1044.407 .0242697
1044.988 .0242744
1045.569 .0242797
1046.150 .0242855
1046.730 .0242917
1047.311 .0242984
1047.891 .0243053
1048.471 .0243125
1049.052 .0243199
1049.632 .0243274
1050.211 .0243350
1050.791 .0243427
1051.371 .0243505
1051.950 .0243583
1052.530 .0243662
1053.109 .0243742
1053.688 .0243822
1054.268 .0243903
1054.847 .0243987
1055.426 .0244074
1056.005 .0244167
1056.583 .0244265
1057.162 .0244371
1057.741 .0244485
1058.319 .0244605
1058.898 .0244730
1059.476 .0244859
1060.055 .0244989
1060.633 .0245119
1061.211 .0245245
1061.790 .0245369
1062.368 .0245490
1062.946 .0245609
1063.524 .0245725
1064.102 .0245839
1064.680 .0245951
1065.258 .0246061
1065.836 .0246169
1066.414 .0246275
1066.992 .0246379
1067.570 .0246482
1068.148 .0246585
1068.726 .0246691
1069.304 .0246799
1069.882 .0246913
1070.460 .0247033
1071.038 .0247160
1071.616 .0247292
1072.194 .0247428
1072.772 .0247566
1073.350 .0247703
1073.928 .0247838
1074.506 .0247969
1075.084 .0248095
1075.662 .0248218
1076.240 .0248338
1076.819 .0248457
1077.397 .0248576
1077.976 .0248699
1078.554 .0248825
1079.133 .0248955
1079.711 .0249089
1080.290 .0249228
1080.869 .0249372
1081.448 .0249521
1082.027 .0249675
1082.606 .0249835
1083.185 .0250002
1083.764 .0250176
1084.343 .0250357
1084.923 .0250545
1085.502 .0250740
1086.082 .0250940
1086.662 .0251145
1087.242 .0251353
1087.822 .0251563
1088.402 .0251774
1088.983 .0251985
1089.563 .0252196
1090.144 .0252406
1090.725 .0252615
1091.306 .0252824
1091.887 .0253034
1092.469 .0253247
1093.050 .0253463
1093.632 .0253683
1094.214 .0253909
1094.796 .0254139
1095.379 .0254372
1095.961 .0254606
1096.544 .0254842
1097.127 .0255077
1097.710 .0255313
1098.294 .0255548
1098.877 .0255786
1099.461 .0256030
1100.046 .0256281
1100.630 .0256541
1101.215 .0256812
1101.800 .0257092
1102.385 .0257379
1102.970 .0257670
1103.556 .0257963
1104.142 .0258258
1104.728 .0258552
1105.315 .0258849
1105.902 .0259152
1106.489 .0259463
1107.077 .0259786
1107.664 .0260123
1108.253 .0260476
1108.841 .0260841
1109.430 .0261216
1110.019 .0261597
1110.609 .0261980
1111.198 .0262362
1111.789 .0262744
1112.379 .0263125
1112.970 .0263509
1113.561 .0263897
1114.153 .0264289
1114.745 .0264689
1115.338 .0265095
1115.931 .0265505
1116.524 .0265917
1117.117 .0266328
1117.712 .0266736
1118.306 .0267140
1118.901 .0267542
1119.496 .0267944
1120.092 .0268348
1120.689 .0268756
1121.285 .0269171
1121.882 .0269595
1122.480 .0270030
1123.078 .0270474
1123.677 .0270931
1124.276 .0271401
1124.875 .0271884
1125.476 .0272381
1126.076 .0272894
1126.677 .0273425
1127.279 .0273972
1127.881 .0274534
1128.484 .0275113
1129.087 .0275354
1129.691 .0275958
1130.295 .0276576
1130.900 .0277210
1131.505 .0277863
1132.111 .0278535
1132.718 .0279227
1133.325 .0279938
1133.933 .0280669
1134.541 .0281476
1135.150 .0282246
1135.760 .0282965
1136.370 .0283701
1136.981 .0284840
1137.592 .0285573
1138.204 .0286333
1138.817 .0287133
1139.431 .0288058
1140.045 .0289035
1140.660 .0290012
1141.275 .0290964
1141.891 .0291934
1142.508 .0294518
1143.126 .0293900
1143.744 .0292930
1144.363 .0293865
1144.983 .0296895
