Measurement Sequence started on: 15-12-46-377
Integration time: 28
Scans to Average: 2 
>>>>>Begin Spectral Data<<<<<
432.689 .0000100
433.621 .0000100
434.552 .0000100
435.482 .0000100
436.410 .0000100
437.337 .0000100
438.262 .0246461
439.187 .0522838
440.110 .0866604
441.031 .1254389
441.952 .1012906
442.871 .1059082
443.789 .1102281
444.705 .1143129
445.621 .1182083
446.535 .1219476
447.447 .1242573
448.359 .1249977
449.269 .1238300
450.178 .1205345
451.086 .1151768
451.993 .1081816
452.898 .1002575
453.803 .0922093
454.706 .0847215
455.608 .0782191
456.508 .0728456
457.408 .0692346
458.306 .0664718
459.204 .0642265
460.100 .0623322
460.995 .0606983
461.888 .0592640
462.781 .0579864
463.673 .0568351
464.563 .0557898
465.452 .0548348
466.340 .0539564
467.228 .0531451
468.114 .0523930
468.999 .0516930
469.882 .0510405
470.765 .0504311
471.647 .0498631
472.528 .0493349
473.407 .0488448
474.286 .0483924
475.163 .0479778
476.040 .0476006
476.915 .0472601
477.790 .0469552
478.663 .0466848
479.535 .0464464
480.407 .0462376
481.277 .0460558
482.147 .0458986
483.015 .0457643
483.883 .0456511
484.749 .0455582
485.615 .0454856
486.479 .0454330
487.343 .0454003
488.206 .0453873
489.067 .0453933
489.928 .0454170
490.788 .0454570
491.647 .0455116
492.505 .0455795
493.362 .0456600
494.218 .0457536
495.073 .0458611
495.928 .0460814
496.781 .0462366
497.634 .0464139
498.486 .0466154
499.337 .0468420
500.187 .0470949
501.036 .0473752
501.884 .0476846
502.731 .0480256
503.578 .0484019
504.424 .0486728
505.268 .0491208
506.113 .0496197
506.956 .0501757
507.798 .0507960
508.640 .0514881
509.480 .0522605
510.320 .0531236
511.160 .0540882
511.998 .0551681
512.836 .0563778
513.672 .0577316
514.508 .0592486
515.344 .0609497
516.178 .0628576
517.012 .0649970
517.845 .0673920
518.677 .0700630
519.508 .0730261
520.339 .0762904
521.169 .0798578
521.998 .0837037
522.826 .0877959
523.654 .0920805
524.481 .0964906
525.307 .1009514
526.133 .1053774
526.958 .1096799
527.782 .1137714
528.605 .1175676
529.428 .1209920
530.250 .1239750
531.072 .1264702
531.892 .1284335
532.712 .1298377
533.532 .1306674
534.350 .1309138
535.168 .1305798
535.986 .1296755
536.802 .1282124
537.618 .1262063
538.434 .1236744
539.249 .1206566
540.063 .1171974
540.876 .1133574
541.689 .1092098
542.501 .1048342
543.313 .1003199
544.124 .0957566
544.934 .0912299
545.744 .0868205
546.553 .0825971
547.361 .0786184
548.169 .0749197
548.976 .0715273
549.783 .0684495
550.589 .0656794
551.395 .0632017
552.200 .0609902
553.004 .0590136
553.808 .0572420
554.611 .0556484
555.414 .0542092
556.216 .0529038
557.018 .0517139
557.819 .0506265
558.619 .0496290
559.419 .0487105
560.218 .0478602
561.017 .0470694
561.815 .0463306
562.613 .0456365
563.410 .0449803
564.207 .0443565
565.003 .0437598
565.799 .0431866
566.594 .0426332
567.388 .0420981
568.182 .0415795
568.976 .0410761
569.769 .0405876
570.562 .0401141
571.354 .0396555
572.145 .0392123
572.936 .0387849
573.727 .0383739
574.517 .0379790
575.307 .0376005
576.096 .0372377
576.885 .0368906
577.673 .0365587
578.461 .0362416
579.248 .0359389
580.035 .0356510
580.821 .0353779
581.607 .0351197
582.392 .0348768
583.177 .0346491
583.962 .0344362
584.746 .0342379
585.529 .0340532
586.313 .0338813
587.095 .0337211
587.878 .0335721
588.660 .0334332
589.441 .0333040
590.222 .0331840
591.003 .0330726
591.783 .0329693
592.563 .0328736
593.342 .0327846
594.121 .0327017
594.899 .0326240
595.678 .0325509
596.455 .0324817
597.233 .0324156
598.009 .0323522
598.786 .0322911
599.562 .0322320
600.338 .0321747
601.113 .0321192
601.888 .0320415
602.663 .0319902
603.437 .0319408
604.211 .0318931
604.984 .0318472
605.757 .0318031
606.530 .0317607
607.302 .0317201
608.074 .0316811
608.845 .0316437
609.616 .0316081
610.387 .0315947
611.158 .0315616
611.928 .0315300
612.697 .0315001
613.467 .0314717
614.236 .0314448
615.004 .0314191
615.773 .0313945
616.541 .0313708
617.308 .0313478
618.076 .0313254
618.843 .0313036
619.609 .0312821
620.375 .0312609
621.141 .0312399
621.907 .0312189
622.672 .0311977
623.437 .0311761
624.202 .0311539
624.966 .0311311
625.730 .0311075
626.493 .0310830
627.257 .0310579
628.020 .0310320
628.782 .0310056
629.545 .0309786
630.307 .0309512
631.068 .0309233
631.830 .0308952
632.591 .0308668
633.352 .0308382
634.112 .0308097
634.872 .0307814
635.632 .0307533
636.392 .0307258
637.151 .0306987
637.910 .0306723
638.668 .0306467
639.427 .0306218
640.185 .0305978
640.943 .0305747
641.700 .0305524
642.457 .0305311
643.214 .0305106
643.971 .0304909
644.727 .0304717
645.483 .0304530
646.239 .0304347
646.994 .0304166
647.750 .0303987
648.505 .0303810
649.259 .0303634
650.014 .0303458
650.768 .0303283
651.521 .0303106
652.275 .0302926
653.028 .0302741
653.781 .0302550
654.534 .0302353
655.286 .0302147
656.039 .0301934
656.791 .0301713
657.542 .0301484
658.294 .0301247
659.045 .0301004
659.796 .0300756
660.546 .0300502
661.297 .0300244
662.047 .0299983
662.796 .0299720
663.546 .0299454
664.295 .0299189
665.044 .0298923
665.793 .0298658
666.542 .0298395
667.290 .0298134
668.038 .0297878
668.786 .0297628
669.533 .0297383
670.281 .0297145
671.028 .0296913
671.774 .0296687
672.521 .0296467
673.267 .0296251
674.013 .0296039
674.759 .0295832
675.505 .0295629
676.250 .0295432
676.995 .0295241
677.740 .0295056
678.484 .0294877
679.229 .0294705
679.973 .0294538
680.717 .0294376
681.460 .0294217
682.204 .0294061
682.947 .0293907
683.690 .0293753
684.433 .0293601
685.175 .0293449
685.917 .0293298
686.659 .0293148
687.401 .0292998
688.142 .0292848
688.884 .0292699
689.625 .0292548
690.365 .0292396
691.106 .0292243
691.846 .0292086
692.586 .0291926
693.326 .0291763
694.066 .0291596
694.805 .0291426
695.545 .0291252
696.284 .0291077
697.022 .0290899
697.761 .0290721
698.499 .0290543
699.237 .0290366
699.975 .0290189
700.713 .0290013
701.450 .0289839
702.187 .0289666
702.924 .0289495
703.661 .0289325
704.397 .0289158
705.133 .0288992
705.869 .0288829
706.605 .0288670
707.341 .0288515
708.076 .0288365
708.811 .0288220
709.546 .0288082
710.281 .0287948
711.015 .0287820
711.749 .0287696
712.483 .0287575
713.217 .0287457
713.950 .0287340
714.684 .0287223
715.417 .0287107
716.150 .0286989
716.882 .0286871
717.615 .0286750
718.347 .0286627
719.079 .0286500
719.811 .0286370
720.542 .0286235
721.273 .0286096
722.005 .0285952
722.735 .0285802
723.466 .0285648
724.196 .0285489
724.927 .0285325
725.656 .0285158
726.386 .0284988
727.116 .0284817
727.845 .0284645
728.574 .0284474
729.303 .0284305
730.031 .0284140
730.760 .0283979
731.488 .0283823
732.216 .0283672
732.944 .0283527
733.671 .0283387
734.398 .0283252
735.125 .0283122
735.852 .0282996
736.579 .0282875
737.305 .0282757
738.031 .0282644
738.757 .0282533
739.483 .0282425
740.208 .0282320
740.933 .0282215
741.658 .0282110
742.383 .0282004
743.108 .0281896
743.832 .0281785
744.556 .0281671
745.280 .0281552
746.004 .0281428
746.727 .0281298
747.450 .0281162
748.173 .0281020
748.896 .0280870
749.618 .0280714
750.340 .0280552
751.062 .0280383
751.784 .0280209
752.506 .0280030
753.227 .0279846
753.948 .0279660
754.669 .0279469
755.389 .0279276
756.110 .0279080
756.830 .0278883
757.550 .0278684
758.269 .0278485
758.989 .0278288
759.708 .0278091
760.427 .0277898
761.146 .0277707
761.864 .0277518
762.582 .0277332
763.300 .0277149
764.018 .0276968
764.736 .0276789
765.453 .0276612
766.170 .0276438
766.887 .0276267
767.603 .0276099
768.320 .0275934
769.036 .0275773
769.751 .0275615
770.467 .0275462
771.182 .0275313
771.897 .0275169
772.612 .0275030
773.327 .0274896
774.041 .0274768
774.755 .0274646
775.469 .0274530
776.183 .0274421
776.896 .0274317
777.609 .0274221
778.322 .0274131
779.035 .0274049
779.747 .0273974
780.459 .0273907
781.171 .0273847
781.882 .0273794
782.594 .0273747
783.305 .0273704
784.016 .0273666
784.726 .0273631
785.436 .0273598
786.147 .0273558
786.856 .0273527
787.566 .0273497
788.275 .0273468
788.984 .0273439
789.693 .0273409
790.401 .0273378
791.110 .0273346
791.818 .0273311
792.525 .0273272
793.233 .0273229
793.940 .0273182
794.647 .0273143
795.353 .0273090
796.060 .0273033
796.766 .0272972
797.472 .0272907
798.177 .0272839
798.883 .0272768
799.588 .0272694
800.292 .0272618
800.997 .0272539
801.701 .0272460
802.405 .0272378
803.109 .0272297
803.812 .0272214
804.515 .0272131
805.218 .0272049
805.921 .0271966
806.623 .0271884
807.325 .0271801
808.027 .0271719
808.728 .0271637
809.429 .0271555
810.130 .0271473
810.831 .0271391
811.531 .0271310
812.231 .0271228
812.931 .0271145
813.630 .0271062
814.330 .0270978
815.029 .0270894
815.727 .0270810
816.426 .0270727
817.124 .0270644
817.821 .0270563
818.519 .0270485
819.216 .0270409
819.913 .0270336
820.609 .0270267
821.306 .0270200
822.002 .0270137
822.697 .0270077
823.393 .0270020
824.088 .0269966
824.783 .0269914
825.477 .0269865
826.171 .0269818
826.865 .0269772
827.559 .0269728
828.252 .0269686
828.945 .0269645
829.638 .0269605
830.330 .0269566
831.023 .0269528
831.714 .0269491
832.406 .0269453
833.097 .0269416
833.788 .0269378
834.479 .0269338
835.169 .0269298
835.859 .0269255
836.548 .0269211
837.238 .0269164
837.927 .0269115
838.615 .0269062
839.304 .0269006
839.992 .0268945
840.680 .0268880
841.367 .0268810
842.054 .0268736
842.741 .0268657
843.428 .0268574
844.114 .0268486
844.800 .0268394
845.485 .0268297
846.170 .0268194
846.855 .0268086
847.540 .0267972
848.224 .0267851
848.908 .0267725
849.592 .0267593
850.275 .0267455
850.958 .0267311
851.641 .0267162
852.323 .0267007
853.005 .0266847
853.687 .0266680
854.368 .0266509
855.049 .0266332
855.730 .0266150
856.410 .0265965
857.090 .0265776
857.769 .0265585
858.449 .0265391
859.128 .0265196
859.806 .0264998
860.485 .0264799
861.163 .0264598
861.840 .0264397
862.518 .0264195
863.195 .0263993
863.871 .0263792
864.548 .0263591
865.224 .0263391
865.899 .0263193
866.574 .0262995
867.249 .0262800
867.924 .0262606
868.598 .0262415
869.272 .0262226
869.946 .0262040
870.619 .0261857
871.292 .0261678
871.964 .0261503
872.636 .0261331
873.308 .0261162
873.979 .0260998
874.651 .0260836
875.321 .0260678
875.992 .0260524
876.662 .0260373
877.331 .0260225
878.001 .0260081
878.670 .0259940
879.338 .0259803
880.007 .0259669
880.675 .0259539
881.342 .0259413
882.009 .0259292
882.676 .0259175
883.343 .0259064
884.009 .0258958
884.675 .0258858
885.340 .0258763
886.005 .0258674
886.670 .0258590
887.334 .0258510
887.998 .0258435
888.662 .0258363
889.325 .0258294
889.988 .0258229
890.650 .0258167
891.312 .0258109
891.974 .0258053
892.636 .0258000
893.297 .0257949
893.957 .0257900
894.618 .0257854
895.278 .0257808
895.937 .0257763
896.596 .0257718
897.255 .0257673
897.914 .0257626
898.572 .0257578
899.230 .0257528
899.887 .0257474
900.544 .0257417
901.201 .0257355
901.857 .0257240
902.513 .0257167
903.168 .0257088
903.823 .0257005
904.478 .0256917
905.132 .0256824
905.786 .0256726
906.440 .0256624
907.093 .0256517
907.746 .0256407
908.399 .0256294
909.051 .0256179
909.703 .0256062
910.354 .0256002
911.005 .0255885
911.656 .0255769
912.306 .0255652
912.956 .0255535
913.605 .0255418
914.254 .0255300
914.903 .0255182
915.551 .0255064
916.199 .0254945
916.847 .0254826
917.494 .0254707
918.141 .0254588
918.788 .0254469
919.434 .0254350
920.079 .0254230
920.725 .0254110
921.370 .0253990
922.014 .0253870
922.658 .0253749
923.302 .0253628
923.946 .0253507
924.589 .0253386
925.231 .0253265
925.873 .0253144
926.515 .0253024
927.157 .0252904
927.798 .0252784
928.439 .0252665
929.079 .0252548
929.719 .0252432
930.359 .0252319
930.998 .0252209
931.637 .0252103
932.275 .0252001
932.913 .0251904
933.551 .0251812
934.188 .0251727
934.825 .0251648
935.462 .0251577
936.098 .0251514
936.733 .0251459
937.369 .0251411
938.004 .0251372
938.638 .0251340
939.273 .0251315
939.907 .0251298
940.540 .0251287
941.173 .0251284
941.806 .0251287
942.438 .0251296
943.070 .0251311
943.702 .0251330
944.333 .0251354
944.964 .0251380
945.594 .0251408
946.224 .0251438
946.854 .0251468
947.483 .0251498
948.112 .0251529
948.741 .0251560
949.369 .0251591
949.996 .0251621
950.624 .0251650
951.251 .0251677
951.878 .0251702
952.504 .0251722
953.130 .0251739
953.755 .0251751
954.380 .0251760
955.005 .0251765
955.629 .0251768
956.253 .0251769
956.877 .0251767
957.500 .0251763
958.123 .0251756
958.746 .0251746
959.368 .0251733
959.990 .0251716
960.611 .0251697
961.232 .0251675
961.853 .0251651
962.473 .0251626
963.093 .0251602
963.712 .0251577
964.331 .0251552
964.950 .0251528
965.569 .0251504
966.187 .0251479
966.804 .0251454
967.422 .0251427
968.039 .0251399
968.655 .0251369
969.272 .0251338
969.887 .0251304
970.503 .0251268
971.118 .0251231
971.733 .0251190
972.347 .0251146
972.961 .0251099
973.575 .0251048
974.188 .0250992
974.801 .0250932
975.414 .0250866
976.026 .0250795
976.638 .0250719
977.250 .0250638
977.861 .0250552
978.472 .0250461
979.083 .0250366
979.693 .0250265
980.303 .0250160
980.912 .0249978
981.521 .0249861
982.130 .0249740
982.738 .0249615
983.346 .0249488
983.954 .0249359
984.562 .0249229
985.169 .0249099
985.775 .0248970
986.382 .0248843
986.988 .0248717
987.594 .0248593
988.199 .0248472
988.804 .0248353
989.409 .0248309
990.013 .0248198
990.617 .0248091
991.221 .0247988
991.824 .0247890
992.427 .0247797
993.030 .0247708
993.632 .0247623
994.234 .0247540
994.836 .0247460
995.438 .0247381
996.039 .0247302
996.640 .0247224
997.240 .0247146
997.840 .0247069
998.440 .0246991
999.040 .0246913
999.639 .0246835
1000.238 .0246757
1000.836 .0246678
1001.435 .0246597
1002.033 .0246516
1002.630 .0246434
1003.228 .0246351
1003.825 .0246269
1004.422 .0246186
1005.018 .0246104
1005.614 .0246021
1006.210 .0245939
1006.806 .0245856
1007.401 .0245773
1007.996 .0245689
1008.591 .0245605
1009.186 .0245521
1009.780 .0245438
1010.374 .0245356
1010.967 .0245275
1011.561 .0245196
1012.154 .0245119
1012.746 .0245044
1013.339 .0244971
1013.931 .0244901
1014.523 .0244833
1015.115 .0244768
1015.706 .0244707
1016.298 .0244649
1016.888 .0244595
1017.479 .0244545
1018.069 .0244499
1018.660 .0244458
1019.250 .0244421
1019.839 .0244389
1020.429 .0244361
1021.018 .0244338
1021.607 .0244318
1022.195 .0244302
1022.784 .0244290
1023.372 .0244281
1023.960 .0244274
1024.547 .0244271
1025.135 .0244269
1025.722 .0244269
1026.309 .0244270
1026.896 .0244272
1027.483 .0244275
1028.069 .0244279
1028.655 .0244283
1029.241 .0244288
1029.827 .0244293
1030.412 .0244297
1030.997 .0244301
1031.582 .0244304
1032.167 .0244306
1032.752 .0244307
1033.336 .0244307
1033.921 .0244305
1034.505 .0244301
1035.089 .0244296
1035.672 .0244289
1036.256 .0244280
1036.839 .0244268
1037.422 .0244253
1038.005 .0244234
1038.588 .0244211
1039.171 .0244183
1039.753 .0244150
1040.335 .0244112
1040.918 .0244070
1041.500 .0244022
1042.081 .0243971
1042.663 .0243915
1043.244 .0243855
1043.826 .0243792
1044.407 .0243726
1044.988 .0243658
1045.569 .0243589
1046.150 .0243519
1046.730 .0243449
1047.311 .0243380
1047.891 .0243312
1048.471 .0243244
1049.052 .0243178
1049.632 .0243112
1050.211 .0243046
1050.791 .0242981
1051.371 .0242915
1051.950 .0242850
1052.530 .0242784
1053.109 .0242718
1053.688 .0242653
1054.268 .0242589
1054.847 .0242528
1055.426 .0242469
1056.005 .0242413
1056.583 .0242360
1057.162 .0242309
1057.741 .0242262
1058.319 .0242217
1058.898 .0242174
1059.476 .0242134
1060.055 .0242097
1060.633 .0242063
1061.211 .0242033
1061.790 .0242008
1062.368 .0241987
1062.946 .0241969
1063.524 .0241954
1064.102 .0241941
1064.680 .0241928
1065.258 .0241916
1065.836 .0241905
1066.414 .0241894
1066.992 .0241885
1067.570 .0241878
1068.148 .0241875
1068.726 .0241875
1069.304 .0241880
1069.882 .0241888
1070.460 .0241899
1071.038 .0241912
1071.616 .0241925
1072.194 .0241940
1072.772 .0241956
1073.350 .0241974
1073.928 .0241995
1074.506 .0242019
1075.084 .0242047
1075.662 .0242080
1076.240 .0242117
1076.819 .0242159
1077.397 .0242205
1077.976 .0242255
1078.554 .0242309
1079.133 .0242366
1079.711 .0242429
1080.290 .0242496
1080.869 .0242571
1081.448 .0242653
1082.027 .0242743
1082.606 .0242841
1083.185 .0242947
1083.764 .0243059
1084.343 .0243178
1084.923 .0243303
1085.502 .0243432
1086.082 .0243565
1086.662 .0243703
1087.242 .0243845
1087.822 .0243991
1088.402 .0244141
1088.983 .0244294
1089.563 .0244452
1090.144 .0244612
1090.725 .0244774
1091.306 .0244938
1091.887 .0245104
1092.469 .0245272
1093.050 .0245440
1093.632 .0245610
1094.214 .0245783
1094.796 .0245960
1095.379 .0246141
1095.961 .0246326
1096.544 .0246517
1097.127 .0246715
1097.710 .0246920
1098.294 .0247133
1098.877 .0247353
1099.461 .0247580
1100.046 .0247814
1100.630 .0248055
1101.215 .0248302
1101.800 .0248555
1102.385 .0248813
1102.970 .0249077
1103.556 .0249345
1104.142 .0249618
1104.728 .0249896
1105.315 .0250179
1105.902 .0250467
1106.489 .0250759
1107.077 .0251058
1107.664 .0251363
1108.253 .0251675
1108.841 .0251993
1109.430 .0252320
1110.019 .0252655
1110.609 .0252999
1111.198 .0253353
1111.789 .0253717
1112.379 .0254090
1112.970 .0254473
1113.561 .0254864
1114.153 .0255263
1114.745 .0255669
1115.338 .0256079
1115.931 .0256493
1116.524 .0256911
1117.117 .0257331
1117.712 .0257755
1118.306 .0258184
1118.901 .0258617
1119.496 .0259054
1120.092 .0259499
1120.689 .0259951
1121.285 .0260414
1121.882 .0260888
1122.480 .0261376
1123.078 .0261878
1123.677 .0262397
1124.276 .0262934
1124.875 .0263488
1125.476 .0264063
1126.076 .0264660
1126.677 .0265279
1127.279 .0265923
1127.881 .0266592
1128.484 .0267291
1129.087 .0267587
1129.691 .0268321
1130.295 .0269086
1130.900 .0269884
1131.505 .0270715
1132.111 .0271583
1132.718 .0272490
1133.325 .0273444
1133.933 .0274442
1134.541 .0275493
1135.150 .0276560
1135.760 .0277769
1136.370 .0279054
1136.981 .0278733
1137.592 .0280136
1138.204 .0281567
1138.817 .0283046
1139.431 .0284604
1140.045 .0286168
1140.660 .0287831
1141.275 .0289619
1141.891 .0291363
1142.508 .0293324
1143.126 .0294215
1143.744 .0298693
1144.363 .0301325
1144.983 .0298157
