Measurement Sequence started on: 15-12-46-377
Integration time: 28
Scans to Average: 2 
>>>>>Begin Spectral Data<<<<<
432.689 .0000100
433.621 .0000100
434.552 .0000100
435.482 .0000100
436.410 .0000100
437.337 .0000100
438.262 .0256840
439.187 .0544515
440.110 .0902418
441.031 .1305786
441.952 .1047701
442.871 .1094206
443.789 .1137497
444.705 .1178272
445.621 .1216996
446.535 .1254018
447.447 .1276063
448.359 .1281705
449.269 .1267415
450.178 .1230932
451.086 .1172943
451.993 .1097927
452.898 .1013291
453.803 .0927465
454.706 .0847604
455.608 .0778169
456.508 .0720657
457.408 .0681679
458.306 .0651689
459.204 .0627252
460.100 .0606606
460.995 .0588814
461.888 .0573202
462.781 .0559335
463.673 .0546882
464.563 .0535629
465.452 .0525398
466.340 .0516050
467.228 .0507474
468.114 .0499591
468.999 .0492336
469.882 .0485673
470.765 .0479558
471.647 .0473960
472.528 .0468845
473.407 .0464184
474.286 .0459951
475.163 .0456127
476.040 .0452684
476.915 .0449608
477.790 .0446882
478.663 .0444493
479.535 .0442421
480.407 .0440654
481.277 .0439171
482.147 .0437951
483.015 .0436967
483.883 .0436198
484.749 .0435615
485.615 .0435199
486.479 .0434935
487.343 .0434814
488.206 .0434831
489.067 .0434988
489.928 .0435289
490.788 .0435740
491.647 .0436348
492.505 .0437114
493.362 .0438045
494.218 .0439150
495.073 .0440434
495.928 .0443075
496.781 .0444904
497.634 .0446967
498.486 .0449282
499.337 .0451871
500.187 .0454757
501.036 .0457970
501.884 .0461531
502.731 .0465471
503.578 .0469811
504.424 .0472872
505.268 .0477916
506.113 .0483443
506.956 .0489479
507.798 .0496064
508.640 .0503249
509.480 .0511097
510.320 .0519692
511.160 .0529139
511.998 .0539570
512.836 .0551143
513.672 .0564010
514.508 .0578358
515.344 .0594364
516.178 .0612229
517.012 .0632136
517.845 .0654272
518.677 .0678816
519.508 .0705927
520.339 .0735695
521.169 .0768170
521.998 .0803200
522.826 .0840516
523.654 .0879656
524.481 .0920048
525.307 .0960998
526.133 .1001712
526.958 .1041352
527.782 .1079106
528.605 .1114183
529.428 .1145933
530.250 .1173747
531.072 .1197223
531.892 .1216011
532.712 .1229892
533.532 .1238711
534.350 .1242412
535.168 .1241004
535.986 .1234519
536.802 .1222981
537.618 .1206491
538.434 .1185139
539.249 .1159227
540.063 .1129150
540.876 .1095467
541.689 .1058835
542.501 .1020008
543.313 .0979790
544.124 .0939022
544.934 .0898491
545.744 .0858926
546.553 .0820890
547.361 .0784877
548.169 .0751170
548.976 .0719961
549.783 .0691314
550.589 .0665204
551.395 .0641510
552.200 .0620042
553.004 .0600575
553.808 .0582897
554.611 .0566792
555.414 .0552089
556.216 .0538610
557.018 .0526200
557.819 .0514735
558.619 .0504092
559.419 .0494177
560.218 .0484922
561.017 .0476257
561.815 .0468113
562.613 .0460429
563.410 .0453145
564.207 .0446203
565.003 .0439555
565.799 .0433158
566.594 .0426982
567.388 .0421004
568.182 .0415212
568.976 .0409588
569.769 .0404137
570.562 .0398870
571.354 .0393791
572.145 .0388909
572.936 .0384224
573.727 .0379727
574.517 .0375412
575.307 .0371272
576.096 .0367303
576.885 .0363499
577.673 .0359865
578.461 .0356403
579.248 .0353121
580.035 .0350029
580.821 .0347130
581.607 .0344427
582.392 .0341916
583.177 .0339588
583.962 .0337430
584.746 .0335429
585.529 .0333574
586.313 .0331853
587.095 .0330255
587.878 .0328771
588.660 .0327395
589.441 .0326120
590.222 .0324942
591.003 .0323856
591.783 .0322858
592.563 .0321942
593.342 .0321098
594.121 .0320318
594.899 .0319592
595.678 .0318912
596.455 .0318267
597.233 .0317650
598.009 .0317055
598.786 .0316477
599.562 .0315913
600.338 .0315360
601.113 .0314816
601.888 .0314016
602.663 .0313494
603.437 .0312981
604.211 .0312477
604.984 .0311983
605.757 .0311498
606.530 .0311023
607.302 .0310558
608.074 .0310105
608.845 .0309664
609.616 .0309236
610.387 .0309063
611.158 .0308661
611.928 .0308275
612.697 .0307905
613.467 .0307554
614.236 .0307220
615.004 .0306905
615.773 .0306609
616.541 .0306332
617.308 .0306074
618.076 .0305832
618.843 .0305606
619.609 .0305393
620.375 .0305191
621.141 .0305000
621.907 .0304818
622.672 .0304644
623.437 .0304478
624.202 .0304320
624.966 .0304168
625.730 .0304022
626.493 .0303882
627.257 .0303745
628.020 .0303609
628.782 .0303475
629.545 .0303340
630.307 .0303204
631.068 .0303068
631.830 .0302932
632.591 .0302796
633.352 .0302661
634.112 .0302528
634.872 .0302398
635.632 .0302271
636.392 .0302147
637.151 .0302026
637.910 .0301908
638.668 .0301792
639.427 .0301679
640.185 .0301567
640.943 .0301457
641.700 .0301347
642.457 .0301238
643.214 .0301127
643.971 .0301016
644.727 .0300902
645.483 .0300784
646.239 .0300663
646.994 .0300535
647.750 .0300401
648.505 .0300258
649.259 .0300107
650.014 .0299946
650.768 .0299776
651.521 .0299596
652.275 .0299405
653.028 .0299205
653.781 .0298994
654.534 .0298773
655.286 .0298542
656.039 .0298300
656.791 .0298047
657.542 .0297784
658.294 .0297511
659.045 .0297228
659.796 .0296936
660.546 .0296637
661.297 .0296330
662.047 .0296018
662.796 .0295700
663.546 .0295380
664.295 .0295057
665.044 .0294733
665.793 .0294410
666.542 .0294090
667.290 .0293772
668.038 .0293458
668.786 .0293148
669.533 .0292841
670.281 .0292538
671.028 .0292239
671.774 .0291943
672.521 .0291653
673.267 .0291369
674.013 .0291090
674.759 .0290819
675.505 .0290554
676.250 .0290297
676.995 .0290048
677.740 .0289805
678.484 .0289568
679.229 .0289338
679.973 .0289116
680.717 .0288900
681.460 .0288692
682.204 .0288493
682.947 .0288301
683.690 .0288118
684.433 .0287943
685.175 .0287776
685.917 .0287617
686.659 .0287466
687.401 .0287323
688.142 .0287188
688.884 .0287061
689.625 .0286941
690.365 .0286828
691.106 .0286721
691.846 .0286619
692.586 .0286521
693.326 .0286426
694.066 .0286335
694.805 .0286246
695.545 .0286160
696.284 .0286078
697.022 .0285998
697.761 .0285922
698.499 .0285847
699.237 .0285775
699.975 .0285704
700.713 .0285634
701.450 .0285564
702.187 .0285494
702.924 .0285424
703.661 .0285352
704.397 .0285280
705.133 .0285207
705.869 .0285131
706.605 .0285054
707.341 .0284975
708.076 .0284893
708.811 .0284810
709.546 .0284725
710.281 .0284638
711.015 .0284549
711.749 .0284457
712.483 .0284363
713.217 .0284264
713.950 .0284162
714.684 .0284055
715.417 .0283942
716.150 .0283825
716.882 .0283701
717.615 .0283571
718.347 .0283436
719.079 .0283294
719.811 .0283145
720.542 .0282990
721.273 .0282827
722.005 .0282657
722.735 .0282481
723.466 .0282297
724.196 .0282107
724.927 .0281911
725.656 .0281709
726.386 .0281501
727.116 .0281289
727.845 .0281073
728.574 .0280853
729.303 .0280630
730.031 .0280405
730.760 .0280178
731.488 .0279950
732.216 .0279722
732.944 .0279492
733.671 .0279261
734.398 .0279028
735.125 .0278793
735.852 .0278555
736.579 .0278316
737.305 .0278073
738.031 .0277829
738.757 .0277583
739.483 .0277335
740.208 .0277087
740.933 .0276837
741.658 .0276587
742.383 .0276336
743.108 .0276083
743.832 .0275829
744.556 .0275575
745.280 .0275320
746.004 .0275065
746.727 .0274811
747.450 .0274558
748.173 .0274308
748.896 .0274062
749.618 .0273819
750.340 .0273582
751.062 .0273350
751.784 .0273124
752.506 .0272904
753.227 .0272692
753.948 .0272486
754.669 .0272288
755.389 .0272095
756.110 .0271910
756.830 .0271730
757.550 .0271556
758.269 .0271389
758.989 .0271228
759.708 .0271073
760.427 .0270926
761.146 .0270785
761.864 .0270651
762.582 .0270524
763.300 .0270402
764.018 .0270286
764.736 .0270175
765.453 .0270069
766.170 .0269967
766.887 .0269869
767.603 .0269777
768.320 .0269691
769.036 .0269612
769.751 .0269541
770.467 .0269477
771.182 .0269423
771.897 .0269377
772.612 .0269340
773.327 .0269311
774.041 .0269291
774.755 .0269278
775.469 .0269272
776.183 .0269273
776.896 .0269280
777.609 .0269295
778.322 .0269316
779.035 .0269344
779.747 .0269380
780.459 .0269422
781.171 .0269471
781.882 .0269526
782.594 .0269585
783.305 .0269648
784.016 .0269713
784.726 .0269778
785.436 .0269843
786.147 .0269934
786.856 .0269991
787.566 .0270046
788.275 .0270096
788.984 .0270142
789.693 .0270184
790.401 .0270221
791.110 .0270252
791.818 .0270276
792.525 .0270293
793.233 .0270301
793.940 .0270300
794.647 .0270270
795.353 .0270252
796.060 .0270225
796.766 .0270187
797.472 .0270138
798.177 .0270080
798.883 .0270012
799.588 .0269934
800.292 .0269847
800.997 .0269751
801.701 .0269645
802.405 .0269531
803.109 .0269407
803.812 .0269276
804.515 .0269136
805.218 .0268988
805.921 .0268833
806.623 .0268670
807.325 .0268501
808.027 .0268326
808.728 .0268145
809.429 .0267959
810.130 .0267768
810.831 .0267573
811.531 .0267374
812.231 .0267170
812.931 .0266962
813.630 .0266749
814.330 .0266532
815.029 .0266310
815.727 .0266084
816.426 .0265855
817.124 .0265622
817.821 .0265388
818.519 .0265151
819.216 .0264912
819.913 .0264673
820.609 .0264432
821.306 .0264191
822.002 .0263950
822.697 .0263708
823.393 .0263468
824.088 .0263229
824.783 .0262992
825.477 .0262758
826.171 .0262528
826.865 .0262300
827.559 .0262076
828.252 .0261856
828.945 .0261640
829.638 .0261428
830.330 .0261220
831.023 .0261017
831.714 .0260818
832.406 .0260623
833.097 .0260431
833.788 .0260241
834.479 .0260053
835.169 .0259867
835.859 .0259681
836.548 .0259496
837.238 .0259312
837.927 .0259129
838.615 .0258947
839.304 .0258765
839.992 .0258584
840.680 .0258402
841.367 .0258221
842.054 .0258039
842.741 .0257857
843.428 .0257676
844.114 .0257495
844.800 .0257316
845.485 .0257139
846.170 .0256964
846.855 .0256791
847.540 .0256620
848.224 .0256452
848.908 .0256287
849.592 .0256125
850.275 .0255967
850.958 .0255815
851.641 .0255667
852.323 .0255525
853.005 .0255390
853.687 .0255260
854.368 .0255137
855.049 .0255019
855.730 .0254908
856.410 .0254803
857.090 .0254706
857.769 .0254615
858.449 .0254533
859.128 .0254457
859.806 .0254390
860.485 .0254329
861.163 .0254275
861.840 .0254227
862.518 .0254184
863.195 .0254147
863.871 .0254116
864.548 .0254090
865.224 .0254071
865.899 .0254057
866.574 .0254050
867.249 .0254048
867.924 .0254051
868.598 .0254060
869.272 .0254074
869.946 .0254093
870.619 .0254119
871.292 .0254152
871.964 .0254191
872.636 .0254238
873.308 .0254292
873.979 .0254352
874.651 .0254418
875.321 .0254489
875.992 .0254565
876.662 .0254646
877.331 .0254731
878.001 .0254820
878.670 .0254913
879.338 .0255011
880.007 .0255112
880.675 .0255216
881.342 .0255322
882.009 .0255430
882.676 .0255538
883.343 .0255646
884.009 .0255755
884.675 .0255863
885.340 .0255973
886.005 .0256082
886.670 .0256192
887.334 .0256302
887.998 .0256411
888.662 .0256518
889.325 .0256623
889.988 .0256726
890.650 .0256826
891.312 .0256922
891.974 .0257015
892.636 .0257105
893.297 .0257190
893.957 .0257270
894.618 .0257345
895.278 .0257414
895.937 .0257475
896.596 .0257530
897.255 .0257576
897.914 .0257614
898.572 .0257644
899.230 .0257664
899.887 .0257674
900.544 .0257675
901.201 .0257665
901.857 .0257600
902.513 .0257562
903.168 .0257513
903.823 .0257453
904.478 .0257381
905.132 .0257297
905.786 .0257202
906.440 .0257095
907.093 .0256977
907.746 .0256847
908.399 .0256706
909.051 .0256555
909.703 .0256394
910.354 .0256292
911.005 .0256119
911.656 .0255938
912.306 .0255749
912.956 .0255552
913.605 .0255347
914.254 .0255136
914.903 .0254919
915.551 .0254696
916.199 .0254468
916.847 .0254234
917.494 .0253996
918.141 .0253753
918.788 .0253505
919.434 .0253252
920.079 .0252993
920.725 .0252728
921.370 .0252457
922.014 .0252181
922.658 .0251901
923.302 .0251616
923.946 .0251327
924.589 .0251036
925.231 .0250741
925.873 .0250444
926.515 .0250144
927.157 .0249842
927.798 .0249536
928.439 .0249228
929.079 .0248918
929.719 .0248605
930.359 .0248290
930.998 .0247974
931.637 .0247657
932.275 .0247340
932.913 .0247021
933.551 .0246702
934.188 .0246384
934.825 .0246065
935.462 .0245748
936.098 .0245431
936.733 .0245117
937.369 .0244805
938.004 .0244496
938.638 .0244190
939.273 .0243887
939.907 .0243588
940.540 .0243292
941.173 .0243000
941.806 .0242712
942.438 .0242428
943.070 .0242148
943.702 .0241872
944.333 .0241601
944.964 .0241334
945.594 .0241071
946.224 .0240812
946.854 .0240557
947.483 .0240306
948.112 .0240060
948.741 .0239818
949.369 .0239582
949.996 .0239352
950.624 .0239129
951.251 .0238912
951.878 .0238702
952.504 .0238499
953.130 .0238302
953.755 .0238111
954.380 .0237926
955.005 .0237747
955.629 .0237574
956.253 .0237406
956.877 .0237243
957.500 .0237085
958.123 .0236931
958.746 .0236780
959.368 .0236634
959.990 .0236490
960.611 .0236351
961.232 .0236216
961.853 .0236085
962.473 .0235959
963.093 .0235838
963.712 .0235723
964.331 .0235613
964.950 .0235508
965.569 .0235409
966.187 .0235314
966.804 .0235224
967.422 .0235139
968.039 .0235058
968.655 .0234981
969.272 .0234908
969.887 .0234838
970.503 .0234773
971.118 .0234711
971.733 .0234654
972.347 .0234601
972.961 .0234553
973.575 .0234510
974.188 .0234473
974.801 .0234440
975.414 .0234414
976.026 .0234392
976.638 .0234376
977.250 .0234365
977.861 .0234358
978.472 .0234358
979.083 .0234362
979.693 .0234372
980.303 .0234388
980.912 .0234433
981.521 .0234461
982.130 .0234493
982.738 .0234528
983.346 .0234567
983.954 .0234609
984.562 .0234654
985.169 .0234703
985.775 .0234757
986.382 .0234816
986.988 .0234882
987.594 .0234953
988.199 .0235030
988.804 .0235112
989.409 .0235166
990.013 .0235255
990.617 .0235348
991.221 .0235445
991.824 .0235547
992.427 .0235653
993.030 .0235764
993.632 .0235879
994.234 .0235998
994.836 .0236120
995.438 .0236245
996.039 .0236373
996.640 .0236503
997.240 .0236636
997.840 .0236770
998.440 .0236908
999.040 .0237050
999.639 .0237197
1000.238 .0237348
1000.836 .0237506
1001.435 .0237668
1002.033 .0237836
1002.630 .0238008
1003.228 .0238184
1003.825 .0238364
1004.422 .0238547
1005.018 .0238732
1005.614 .0238919
1006.210 .0239108
1006.806 .0239299
1007.401 .0239492
1007.996 .0239686
1008.591 .0239882
1009.186 .0240078
1009.780 .0240275
1010.374 .0240472
1010.967 .0240669
1011.561 .0240865
1012.154 .0241061
1012.746 .0241256
1013.339 .0241451
1013.931 .0241646
1014.523 .0241840
1015.115 .0242034
1015.706 .0242226
1016.298 .0242417
1016.888 .0242605
1017.479 .0242791
1018.069 .0242973
1018.660 .0243152
1019.250 .0243327
1019.839 .0243498
1020.429 .0243664
1021.018 .0243826
1021.607 .0243985
1022.195 .0244140
1022.784 .0244292
1023.372 .0244441
1023.960 .0244586
1024.547 .0244728
1025.135 .0244866
1025.722 .0245000
1026.309 .0245129
1026.896 .0245253
1027.483 .0245371
1028.069 .0245485
1028.655 .0245593
1029.241 .0245696
1029.827 .0245794
1030.412 .0245886
1030.997 .0245973
1031.582 .0246053
1032.167 .0246128
1032.752 .0246196
1033.336 .0246259
1033.921 .0246316
1034.505 .0246368
1035.089 .0246416
1035.672 .0246459
1036.256 .0246497
1036.839 .0246532
1037.422 .0246561
1038.005 .0246585
1038.588 .0246603
1039.171 .0246615
1039.753 .0246621
1040.335 .0246620
1040.918 .0246613
1041.500 .0246599
1042.081 .0246579
1042.663 .0246553
1043.244 .0246521
1043.826 .0246481
1044.407 .0246434
1044.988 .0246379
1045.569 .0246317
1046.150 .0246247
1046.730 .0246170
1047.311 .0246087
1047.891 .0245998
1048.471 .0245903
1049.052 .0245804
1049.632 .0245700
1050.211 .0245591
1050.791 .0245478
1051.371 .0245360
1051.950 .0245236
1052.530 .0245108
1053.109 .0244974
1053.688 .0244838
1054.268 .0244698
1054.847 .0244556
1055.426 .0244414
1056.005 .0244273
1056.583 .0244131
1057.162 .0243988
1057.741 .0243846
1058.319 .0243702
1058.898 .0243557
1059.476 .0243410
1060.055 .0243262
1060.633 .0243114
1061.211 .0242965
1061.790 .0242818
1062.368 .0242673
1062.946 .0242529
1063.524 .0242388
1064.102 .0242248
1064.680 .0242110
1065.258 .0241971
1065.836 .0241833
1066.414 .0241695
1066.992 .0241556
1067.570 .0241419
1068.148 .0241283
1068.726 .0241149
1069.304 .0241018
1069.882 .0240891
1070.460 .0240766
1071.038 .0240643
1071.616 .0240523
1072.194 .0240403
1072.772 .0240283
1073.350 .0240164
1073.928 .0240046
1074.506 .0239930
1075.084 .0239816
1075.662 .0239705
1076.240 .0239598
1076.819 .0239497
1077.397 .0239400
1077.976 .0239307
1078.554 .0239220
1079.133 .0239137
1079.711 .0239059
1080.290 .0238984
1080.869 .0238913
1081.448 .0238844
1082.027 .0238777
1082.606 .0238710
1083.185 .0238642
1083.764 .0238572
1084.343 .0238501
1084.923 .0238428
1085.502 .0238354
1086.082 .0238280
1086.662 .0238206
1087.242 .0238132
1087.822 .0238060
1088.402 .0237987
1088.983 .0237914
1089.563 .0237840
1090.144 .0237765
1090.725 .0237690
1091.306 .0237617
1091.887 .0237547
1092.469 .0237484
1093.050 .0237429
1093.632 .0237384
1094.214 .0237346
1094.796 .0237317
1095.379 .0237292
1095.961 .0237270
1096.544 .0237248
1097.127 .0237226
1097.710 .0237203
1098.294 .0237183
1098.877 .0237168
1099.461 .0237160
1100.046 .0237164
1100.630 .0237179
1101.215 .0237205
1101.800 .0237240
1102.385 .0237280
1102.970 .0237323
1103.556 .0237368
1104.142 .0237412
1104.728 .0237458
1105.315 .0237507
1105.902 .0237561
1106.489 .0237625
1107.077 .0237698
1107.664 .0237781
1108.253 .0237873
1108.841 .0237972
1109.430 .0238077
1110.019 .0238182
1110.609 .0238289
1111.198 .0238400
1111.789 .0238516
1112.379 .0238642
1112.970 .0238780
1113.561 .0238933
1114.153 .0239101
1114.745 .0239286
1115.338 .0239483
1115.931 .0239690
1116.524 .0239905
1117.117 .0240125
1117.712 .0240351
1118.306 .0240586
1118.901 .0240834
1119.496 .0241101
1120.092 .0241391
1120.689 .0241708
1121.285 .0242054
1121.882 .0242428
1122.480 .0242833
1123.078 .0243266
1123.677 .0243726
1124.276 .0244215
1124.875 .0244734
1125.476 .0245286
1126.076 .0245873
1126.677 .0246499
1127.279 .0247164
1127.881 .0247869
1128.484 .0248609
1129.087 .0248883
1129.691 .0249666
1130.295 .0250471
1130.900 .0251292
1131.505 .0252126
1132.111 .0252968
1132.718 .0253818
1133.325 .0254677
1133.933 .0255548
1134.541 .0256411
1135.150 .0257311
1135.760 .0258237
1136.370 .0259158
1136.981 .0262034
1137.592 .0263202
1138.204 .0264239
1138.817 .0265110
1139.431 .0265836
1140.045 .0266479
1140.660 .0267060
1141.275 .0267640
1141.891 .0268237
1142.508 .0268299
1143.126 .0269669
1143.744 .0270775
1144.363 .0271142
1144.983 .0271490
