Measurement Sequence started on: 15-12-46-377
Integration time: 28
Scans to Average: 2 
>>>>>Begin Spectral Data<<<<<
432.689 .0000100
433.621 .0000100
434.552 .0000100
435.482 .0000100
436.410 .0000100
437.337 .0000100
438.262 .0286349
439.187 .0606320
440.110 .1002840
441.031 .1449925
441.952 .1154412
442.871 .1204578
443.789 .1251113
444.705 .1294745
445.621 .1335979
446.535 .1375194
447.447 .1397603
448.359 .1401659
449.269 .1383547
450.178 .1340772
451.086 .1274208
451.993 .1188899
452.898 .1093145
453.803 .0996316
454.706 .0906352
455.608 .0828156
456.508 .0763352
457.408 .0719273
458.306 .0685247
459.204 .0657420
460.100 .0633928
460.995 .0613727
461.888 .0596125
462.781 .0580650
463.673 .0566956
464.563 .0554784
465.452 .0543928
466.340 .0534195
467.228 .0525434
468.114 .0517527
468.999 .0510365
469.882 .0503866
470.765 .0497966
471.647 .0492625
472.528 .0487811
473.407 .0483492
474.286 .0479640
475.163 .0476220
476.040 .0473194
476.915 .0470526
477.790 .0468176
478.663 .0466114
479.535 .0464311
480.407 .0462744
481.277 .0461396
482.147 .0460253
483.015 .0459306
483.883 .0458547
484.749 .0457969
485.615 .0457564
486.479 .0457328
487.343 .0457257
488.206 .0457349
489.067 .0457602
489.928 .0458025
490.788 .0458618
491.647 .0459387
492.505 .0460336
493.362 .0461473
494.218 .0462803
495.073 .0464337
495.928 .0467410
496.781 .0469500
497.634 .0471829
498.486 .0474405
499.337 .0477245
500.187 .0480364
501.036 .0483782
501.884 .0487521
502.731 .0491606
503.578 .0496068
504.424 .0499122
505.268 .0504308
506.113 .0510003
506.956 .0516261
507.798 .0523155
508.640 .0530767
509.480 .0539194
510.320 .0548554
511.160 .0558960
511.998 .0570554
512.836 .0583494
513.672 .0597937
514.508 .0614079
515.344 .0632103
516.178 .0652215
517.012 .0674611
517.845 .0699493
518.677 .0727034
519.508 .0757352
520.339 .0790529
521.169 .0826577
521.998 .0865255
522.826 .0906228
523.654 .0948972
524.481 .0992854
525.307 .1037113
526.133 .1080894
526.958 .1123305
527.782 .1163459
528.605 .1200542
529.428 .1233831
530.250 .1262679
531.072 .1286686
531.892 .1305473
532.712 .1318811
533.532 .1326564
534.350 .1328677
535.168 .1325162
535.986 .1316069
536.802 .1301492
537.618 .1281550
538.434 .1256389
539.249 .1226423
540.063 .1192130
540.876 .1154161
541.689 .1113239
542.501 .1070164
543.313 .1025798
544.124 .0981012
544.934 .0936623
545.744 .0893377
546.553 .0851911
547.361 .0812763
548.169 .0776225
548.976 .0742533
549.783 .0711777
550.589 .0683911
551.395 .0658793
552.200 .0636206
553.004 .0615901
553.808 .0597627
554.611 .0581143
555.414 .0566252
556.216 .0552740
557.018 .0540416
557.819 .0529109
558.619 .0518669
559.419 .0508990
560.218 .0499980
561.017 .0491555
561.815 .0483654
562.613 .0476215
563.410 .0469169
564.207 .0462446
565.003 .0455991
565.799 .0449746
566.594 .0443659
567.388 .0437702
568.182 .0431865
568.976 .0426143
569.769 .0420544
570.562 .0415085
571.354 .0409780
572.145 .0404643
572.936 .0399673
573.727 .0394865
574.517 .0390214
575.307 .0385720
576.096 .0381379
576.885 .0377196
577.673 .0373182
578.461 .0369351
579.248 .0365713
580.035 .0362283
580.821 .0359068
581.607 .0356069
582.392 .0353284
583.177 .0350703
583.962 .0348315
584.746 .0346111
585.529 .0344076
586.313 .0342203
587.095 .0340483
587.878 .0338906
588.660 .0337465
589.441 .0336150
590.222 .0334954
591.003 .0333866
591.783 .0332877
592.563 .0331974
593.342 .0331145
594.121 .0330380
594.899 .0329668
595.678 .0329000
596.455 .0328372
597.233 .0327775
598.009 .0327207
598.786 .0326662
599.562 .0326140
600.338 .0325636
601.113 .0325152
601.888 .0324472
602.663 .0324026
603.437 .0323594
604.211 .0323175
604.984 .0322770
605.757 .0322377
606.530 .0321995
607.302 .0321625
608.074 .0321266
608.845 .0320919
609.616 .0320585
610.387 .0320451
611.158 .0320137
611.928 .0319837
612.697 .0319552
613.467 .0319279
614.236 .0319017
615.004 .0318765
615.773 .0318521
616.541 .0318284
617.308 .0318054
618.076 .0317829
618.843 .0317610
619.609 .0317395
620.375 .0317183
621.141 .0316973
621.907 .0316765
622.672 .0316555
623.437 .0316343
624.202 .0316127
624.966 .0315906
625.730 .0315680
626.493 .0315448
627.257 .0315212
628.020 .0314970
628.782 .0314721
629.545 .0314467
630.307 .0314207
631.068 .0313942
631.830 .0313673
632.591 .0313400
633.352 .0313125
634.112 .0312850
634.872 .0312575
635.632 .0312301
636.392 .0312029
637.151 .0311758
637.910 .0311488
638.668 .0311219
639.427 .0310951
640.185 .0310683
640.943 .0310418
641.700 .0310155
642.457 .0309896
643.214 .0309642
643.971 .0309394
644.727 .0309151
645.483 .0308912
646.239 .0308676
646.994 .0308443
647.750 .0308211
648.505 .0307980
649.259 .0307748
650.014 .0307515
650.768 .0307282
651.521 .0307046
652.275 .0306809
653.028 .0306570
653.781 .0306329
654.534 .0306084
655.286 .0305837
656.039 .0305585
656.791 .0305330
657.542 .0305072
658.294 .0304810
659.045 .0304545
659.796 .0304278
660.546 .0304008
661.297 .0303738
662.047 .0303466
662.796 .0303195
663.546 .0302923
664.295 .0302653
665.044 .0302386
665.793 .0302121
666.542 .0301860
667.290 .0301603
668.038 .0301351
668.786 .0301103
669.533 .0300859
670.281 .0300621
671.028 .0300387
671.774 .0300158
672.521 .0299933
673.267 .0299714
674.013 .0299499
674.759 .0299288
675.505 .0299081
676.250 .0298877
676.995 .0298676
677.740 .0298478
678.484 .0298281
679.229 .0298087
679.973 .0297895
680.717 .0297705
681.460 .0297517
682.204 .0297329
682.947 .0297142
683.690 .0296954
684.433 .0296765
685.175 .0296574
685.917 .0296382
686.659 .0296188
687.401 .0295992
688.142 .0295795
688.884 .0295598
689.625 .0295401
690.365 .0295204
691.106 .0295008
691.846 .0294813
692.586 .0294618
693.326 .0294425
694.066 .0294232
694.805 .0294041
695.545 .0293851
696.284 .0293663
697.022 .0293477
697.761 .0293292
698.499 .0293110
699.237 .0292932
699.975 .0292756
700.713 .0292585
701.450 .0292418
702.187 .0292256
702.924 .0292099
703.661 .0291945
704.397 .0291795
705.133 .0291647
705.869 .0291500
706.605 .0291353
707.341 .0291205
708.076 .0291056
708.811 .0290907
709.546 .0290758
710.281 .0290609
711.015 .0290460
711.749 .0290312
712.483 .0290163
713.217 .0290015
713.950 .0289865
714.684 .0289713
715.417 .0289559
716.150 .0289403
716.882 .0289245
717.615 .0289085
718.347 .0288923
719.079 .0288761
719.811 .0288598
720.542 .0288434
721.273 .0288271
722.005 .0288107
722.735 .0287945
723.466 .0287783
724.196 .0287623
724.927 .0287466
725.656 .0287312
726.386 .0287160
727.116 .0287011
727.845 .0286864
728.574 .0286720
729.303 .0286580
730.031 .0286443
730.760 .0286310
731.488 .0286184
732.216 .0286063
732.944 .0285948
733.671 .0285839
734.398 .0285735
735.125 .0285636
735.852 .0285540
736.579 .0285448
737.305 .0285359
738.031 .0285273
738.757 .0285190
739.483 .0285110
740.208 .0285033
740.933 .0284959
741.658 .0284885
742.383 .0284812
743.108 .0284738
743.832 .0284661
744.556 .0284582
745.280 .0284499
746.004 .0284411
746.727 .0284319
747.450 .0284221
748.173 .0284117
748.896 .0284007
749.618 .0283890
750.340 .0283766
751.062 .0283636
751.784 .0283499
752.506 .0283356
753.227 .0283207
753.948 .0283053
754.669 .0282893
755.389 .0282729
756.110 .0282561
756.830 .0282388
757.550 .0282213
758.269 .0282034
758.989 .0281854
759.708 .0281673
760.427 .0281492
761.146 .0281312
761.864 .0281132
762.582 .0280953
763.300 .0280774
764.018 .0280594
764.736 .0280414
765.453 .0280233
766.170 .0280052
766.887 .0279870
767.603 .0279689
768.320 .0279507
769.036 .0279327
769.751 .0279148
770.467 .0278971
771.182 .0278795
771.897 .0278620
772.612 .0278446
773.327 .0278273
774.041 .0278103
774.755 .0277935
775.469 .0277771
776.183 .0277610
776.896 .0277454
777.609 .0277303
778.322 .0277157
779.035 .0277017
779.747 .0276881
780.459 .0276751
781.171 .0276626
781.882 .0276506
782.594 .0276391
783.305 .0276280
784.016 .0276173
784.726 .0276069
785.436 .0275967
786.147 .0275818
786.856 .0275716
787.566 .0275613
788.275 .0275509
788.984 .0275404
789.693 .0275299
790.401 .0275192
791.110 .0275083
791.818 .0274972
792.525 .0274859
793.233 .0274742
793.940 .0274621
794.647 .0274551
795.353 .0274426
796.060 .0274299
796.766 .0274170
797.472 .0274038
798.177 .0273904
798.883 .0273768
799.588 .0273630
800.292 .0273488
800.997 .0273345
801.701 .0273198
802.405 .0273050
803.109 .0272900
803.812 .0272748
804.515 .0272595
805.218 .0272442
805.921 .0272287
806.623 .0272131
807.325 .0271974
808.027 .0271816
808.728 .0271658
809.429 .0271498
810.130 .0271338
810.831 .0271179
811.531 .0271019
812.231 .0270861
812.931 .0270704
813.630 .0270549
814.330 .0270396
815.029 .0270246
815.727 .0270100
816.426 .0269958
817.124 .0269822
817.821 .0269690
818.519 .0269564
819.216 .0269444
819.913 .0269330
820.609 .0269221
821.306 .0269119
822.002 .0269024
822.697 .0268936
823.393 .0268856
824.088 .0268784
824.783 .0268721
825.477 .0268665
826.171 .0268616
826.865 .0268574
827.559 .0268537
828.252 .0268504
828.945 .0268476
829.638 .0268452
830.330 .0268430
831.023 .0268411
831.714 .0268394
832.406 .0268379
833.097 .0268365
833.788 .0268351
834.479 .0268337
835.169 .0268322
835.859 .0268306
836.548 .0268290
837.238 .0268273
837.927 .0268257
838.615 .0268239
839.304 .0268221
839.992 .0268202
840.680 .0268182
841.367 .0268160
842.054 .0268136
842.741 .0268110
843.428 .0268083
844.114 .0268054
844.800 .0268023
845.485 .0267990
846.170 .0267956
846.855 .0267920
847.540 .0267881
848.224 .0267838
848.908 .0267792
849.592 .0267741
850.275 .0267687
850.958 .0267628
851.641 .0267564
852.323 .0267497
853.005 .0267426
853.687 .0267351
854.368 .0267272
855.049 .0267191
855.730 .0267106
856.410 .0267019
857.090 .0266928
857.769 .0266835
858.449 .0266738
859.128 .0266639
859.806 .0266536
860.485 .0266432
861.163 .0266325
861.840 .0266216
862.518 .0266108
863.195 .0266000
863.871 .0265893
864.548 .0265788
865.224 .0265685
865.899 .0265584
866.574 .0265485
867.249 .0265389
867.924 .0265294
868.598 .0265203
869.272 .0265114
869.946 .0265028
870.619 .0264946
871.292 .0264868
871.964 .0264793
872.636 .0264721
873.308 .0264653
873.979 .0264587
874.651 .0264525
875.321 .0264465
875.992 .0264408
876.662 .0264354
877.331 .0264303
878.001 .0264256
878.670 .0264210
879.338 .0264168
880.007 .0264127
880.675 .0264088
881.342 .0264052
882.009 .0264019
882.676 .0263988
883.343 .0263961
884.009 .0263937
884.675 .0263916
885.340 .0263898
886.005 .0263881
886.670 .0263866
887.334 .0263850
887.998 .0263835
888.662 .0263819
889.325 .0263803
889.988 .0263787
890.650 .0263770
891.312 .0263753
891.974 .0263735
892.636 .0263714
893.297 .0263692
893.957 .0263666
894.618 .0263636
895.278 .0263602
895.937 .0263562
896.596 .0263517
897.255 .0263466
897.914 .0263407
898.572 .0263339
899.230 .0263264
899.887 .0263178
900.544 .0263083
901.201 .0262978
901.857 .0262780
902.513 .0262650
903.168 .0262512
903.823 .0262365
904.478 .0262209
905.132 .0262043
905.786 .0261868
906.440 .0261684
907.093 .0261490
907.746 .0261289
908.399 .0261080
909.051 .0260866
909.703 .0260647
910.354 .0260527
911.005 .0260307
911.656 .0260085
912.306 .0259861
912.956 .0259636
913.605 .0259410
914.254 .0259183
914.903 .0258955
915.551 .0258727
916.199 .0258499
916.847 .0258271
917.494 .0258045
918.141 .0257820
918.788 .0257596
919.434 .0257374
920.079 .0257153
920.725 .0256933
921.370 .0256713
922.014 .0256492
922.658 .0256271
923.302 .0256049
923.946 .0255827
924.589 .0255604
925.231 .0255381
925.873 .0255158
926.515 .0254934
927.157 .0254709
927.798 .0254484
928.439 .0254259
929.079 .0254032
929.719 .0253806
930.359 .0253579
930.998 .0253353
931.637 .0253128
932.275 .0252904
932.913 .0252683
933.551 .0252463
934.188 .0252246
934.825 .0252031
935.462 .0251819
936.098 .0251609
936.733 .0251402
937.369 .0251198
938.004 .0250997
938.638 .0250800
939.273 .0250607
939.907 .0250420
940.540 .0250238
941.173 .0250063
941.806 .0249893
942.438 .0249728
943.070 .0249569
943.702 .0249415
944.333 .0249265
944.964 .0249119
945.594 .0248976
946.224 .0248835
946.854 .0248697
947.483 .0248560
948.112 .0248426
948.741 .0248293
949.369 .0248162
949.996 .0248032
950.624 .0247903
951.251 .0247774
951.878 .0247647
952.504 .0247519
953.130 .0247392
953.755 .0247266
954.380 .0247140
955.005 .0247017
955.629 .0246896
956.253 .0246777
956.877 .0246660
957.500 .0246546
958.123 .0246434
958.746 .0246324
959.368 .0246215
959.990 .0246108
960.611 .0246002
961.232 .0245898
961.853 .0245794
962.473 .0245692
963.093 .0245591
963.712 .0245491
964.331 .0245393
964.950 .0245297
965.569 .0245203
966.187 .0245111
966.804 .0245022
967.422 .0244935
968.039 .0244850
968.655 .0244767
969.272 .0244685
969.887 .0244604
970.503 .0244524
971.118 .0244445
971.733 .0244365
972.347 .0244286
972.961 .0244205
973.575 .0244124
974.188 .0244042
974.801 .0243958
975.414 .0243872
976.026 .0243784
976.638 .0243695
977.250 .0243603
977.861 .0243511
978.472 .0243418
979.083 .0243325
979.693 .0243232
980.303 .0243140
980.912 .0243004
981.521 .0242917
982.130 .0242833
982.738 .0242750
983.346 .0242671
983.954 .0242594
984.562 .0242521
985.169 .0242452
985.775 .0242389
986.382 .0242332
986.988 .0242281
987.594 .0242236
988.199 .0242199
988.804 .0242169
989.409 .0242178
990.013 .0242158
990.617 .0242145
991.221 .0242139
991.824 .0242138
992.427 .0242144
993.030 .0242155
993.632 .0242172
994.234 .0242195
994.836 .0242223
995.438 .0242256
996.039 .0242293
996.640 .0242334
997.240 .0242379
997.840 .0242428
998.440 .0242479
999.040 .0242532
999.639 .0242587
1000.238 .0242645
1000.836 .0242704
1001.435 .0242764
1002.033 .0242827
1002.630 .0242890
1003.228 .0242954
1003.825 .0243018
1004.422 .0243082
1005.018 .0243146
1005.614 .0243209
1006.210 .0243272
1006.806 .0243334
1007.401 .0243396
1007.996 .0243458
1008.591 .0243522
1009.186 .0243587
1009.780 .0243654
1010.374 .0243723
1010.967 .0243794
1011.561 .0243869
1012.154 .0243946
1012.746 .0244027
1013.339 .0244112
1013.931 .0244201
1014.523 .0244294
1015.115 .0244393
1015.706 .0244495
1016.298 .0244602
1016.888 .0244712
1017.479 .0244825
1018.069 .0244942
1018.660 .0245061
1019.250 .0245184
1019.839 .0245311
1020.429 .0245444
1021.018 .0245581
1021.607 .0245725
1022.195 .0245874
1022.784 .0246028
1023.372 .0246186
1023.960 .0246348
1024.547 .0246514
1025.135 .0246682
1025.722 .0246852
1026.309 .0247025
1026.896 .0247198
1027.483 .0247373
1028.069 .0247548
1028.655 .0247723
1029.241 .0247896
1029.827 .0248066
1030.412 .0248233
1030.997 .0248395
1031.582 .0248552
1032.167 .0248705
1032.752 .0248852
1033.336 .0248996
1033.921 .0249137
1034.505 .0249275
1035.089 .0249412
1035.672 .0249547
1036.256 .0249681
1036.839 .0249813
1037.422 .0249943
1038.005 .0250071
1038.588 .0250195
1039.171 .0250316
1039.753 .0250434
1040.335 .0250549
1040.918 .0250660
1041.500 .0250767
1042.081 .0250872
1042.663 .0250973
1043.244 .0251071
1043.826 .0251166
1044.407 .0251259
1044.988 .0251348
1045.569 .0251435
1046.150 .0251520
1046.730 .0251602
1047.311 .0251684
1047.891 .0251763
1048.471 .0251841
1049.052 .0251919
1049.632 .0251995
1050.211 .0252070
1050.791 .0252144
1051.371 .0252215
1051.950 .0252283
1052.530 .0252347
1053.109 .0252407
1053.688 .0252463
1054.268 .0252516
1054.847 .0252564
1055.426 .0252610
1056.005 .0252653
1056.583 .0252694
1057.162 .0252733
1057.741 .0252771
1058.319 .0252806
1058.898 .0252840
1059.476 .0252871
1060.055 .0252902
1060.633 .0252931
1061.211 .0252962
1061.790 .0252993
1062.368 .0253026
1062.946 .0253060
1063.524 .0253097
1064.102 .0253135
1064.680 .0253173
1065.258 .0253212
1065.836 .0253250
1066.414 .0253287
1066.992 .0253325
1067.570 .0253363
1068.148 .0253403
1068.726 .0253446
1069.304 .0253491
1069.882 .0253538
1070.460 .0253587
1071.038 .0253635
1071.616 .0253682
1072.194 .0253727
1072.772 .0253769
1073.350 .0253807
1073.928 .0253842
1074.506 .0253873
1075.084 .0253902
1075.662 .0253927
1076.240 .0253949
1076.819 .0253966
1077.397 .0253979
1077.976 .0253986
1078.554 .0253987
1079.133 .0253984
1079.711 .0253978
1080.290 .0253969
1080.869 .0253957
1081.448 .0253944
1082.027 .0253928
1082.606 .0253911
1083.185 .0253891
1083.764 .0253869
1084.343 .0253843
1084.923 .0253814
1085.502 .0253783
1086.082 .0253751
1086.662 .0253722
1087.242 .0253694
1087.822 .0253671
1088.402 .0253652
1088.983 .0253637
1089.563 .0253625
1090.144 .0253619
1090.725 .0253619
1091.306 .0253627
1091.887 .0253646
1092.469 .0253678
1093.050 .0253723
1093.632 .0253785
1094.214 .0253860
1094.796 .0253948
1095.379 .0254045
1095.961 .0254148
1096.544 .0254252
1097.127 .0254357
1097.710 .0254461
1098.294 .0254565
1098.877 .0254671
1099.461 .0254781
1100.046 .0254895
1100.630 .0255016
1101.215 .0255142
1101.800 .0255274
1102.385 .0255410
1102.970 .0255546
1103.556 .0255681
1104.142 .0255814
1104.728 .0255945
1105.315 .0256075
1105.902 .0256206
1106.489 .0256341
1107.077 .0256482
1107.664 .0256629
1108.253 .0256779
1108.841 .0256932
1109.430 .0257086
1110.019 .0257237
1110.609 .0257386
1111.198 .0257532
1111.789 .0257678
1112.379 .0257828
1112.970 .0257985
1113.561 .0258156
1114.153 .0258342
1114.745 .0258548
1115.338 .0258774
1115.931 .0259019
1116.524 .0259282
1117.117 .0259560
1117.712 .0259853
1118.306 .0260160
1118.901 .0260482
1119.496 .0260819
1120.092 .0261173
1120.689 .0261545
1121.285 .0261937
1121.882 .0262349
1122.480 .0262782
1123.078 .0263237
1123.677 .0263714
1124.276 .0264216
1124.875 .0264741
1125.476 .0265293
1126.076 .0265873
1126.677 .0266482
1127.279 .0267121
1127.881 .0267791
1128.484 .0268493
1129.087 .0268779
1129.691 .0269530
1130.295 .0270312
1130.900 .0271129
1131.505 .0271981
1132.111 .0272866
1132.718 .0273789
1133.325 .0274753
1133.933 .0275770
1134.541 .0276825
1135.150 .0277830
1135.760 .0278993
1136.370 .0280303
1136.981 .0280556
1137.592 .0281767
1138.204 .0283017
1138.817 .0284363
1139.431 .0285798
1140.045 .0287254
1140.660 .0288829
1141.275 .0290561
1141.891 .0292568
1142.508 .0294186
1143.126 .0293305
1143.744 .0298252
1144.363 .0302956
1144.983 .0308984
