Measurement Sequence started on: 15-12-46-377
Integration time: 28
Scans to Average: 2 
>>>>>Begin Spectral Data<<<<<
432.689 .0000100
433.621 .0000100
434.552 .0000100
435.482 .0000100
436.410 .0000100
437.337 .0000100
438.262 .0265576
439.187 .0563093
440.110 .0932665
441.031 .1349300
441.952 .1081794
442.871 .1130282
443.789 .1175597
444.705 .1218420
445.621 .1259213
446.535 .1298338
447.447 .1322070
448.359 .1328929
449.269 .1315292
450.178 .1278800
451.086 .1220193
451.993 .1144090
452.898 .1058131
453.803 .0970990
454.706 .0890023
455.608 .0819779
456.508 .0761765
457.408 .0722786
458.306 .0692958
459.204 .0668707
460.100 .0648249
460.995 .0630608
461.888 .0615132
462.781 .0601381
463.673 .0589018
464.563 .0577820
465.452 .0567611
466.340 .0558256
467.228 .0549666
468.114 .0541789
468.999 .0534581
469.882 .0528007
470.765 .0522024
471.647 .0516595
472.528 .0511689
473.407 .0507266
474.286 .0503285
475.163 .0499719
476.040 .0496532
476.915 .0493708
477.790 .0491227
478.663 .0489075
479.535 .0487242
480.407 .0485704
481.277 .0484438
482.147 .0483407
483.015 .0482572
483.883 .0481898
484.749 .0481351
485.615 .0480909
486.479 .0480562
487.343 .0480311
488.206 .0480166
489.067 .0480141
489.928 .0480252
490.788 .0480516
491.647 .0480942
492.505 .0481530
493.362 .0482284
494.218 .0483204
495.073 .0484300
495.928 .0486686
496.781 .0488338
497.634 .0490238
498.486 .0492413
499.337 .0494892
500.187 .0497703
501.036 .0500868
501.884 .0504409
502.731 .0508350
503.578 .0512710
504.424 .0515805
505.268 .0520889
506.113 .0526480
506.956 .0532608
507.798 .0539324
508.640 .0546695
509.480 .0554819
510.320 .0563791
511.160 .0573741
511.998 .0584799
512.836 .0597135
513.672 .0610924
514.508 .0626370
515.344 .0643701
516.178 .0663173
517.012 .0685045
517.845 .0709566
518.677 .0736959
519.508 .0767416
520.339 .0801040
521.169 .0837880
521.998 .0877708
522.826 .0920175
523.654 .0964731
524.481 .1010703
525.307 .1057284
526.133 .1103584
526.958 .1148647
527.782 .1191565
528.605 .1231468
529.428 .1267595
530.250 .1299247
531.072 .1325966
531.892 .1347336
532.712 .1363064
533.532 .1372937
534.350 .1376848
535.168 .1374776
535.986 .1366772
536.802 .1352891
537.618 .1333248
538.434 .1307983
539.249 .1277496
540.063 .1242274
540.876 .1202972
541.689 .1160349
542.501 .1115261
543.313 .1068620
544.124 .1021356
544.934 .0974344
545.744 .0928376
546.553 .0884135
547.361 .0842201
548.169 .0802907
548.976 .0766520
549.783 .0733147
550.589 .0702781
551.395 .0675296
552.200 .0650486
553.004 .0628090
553.808 .0607851
554.611 .0589534
555.414 .0572925
556.216 .0557818
557.018 .0544035
557.819 .0531423
558.619 .0519855
559.419 .0509227
560.218 .0499444
561.017 .0490428
561.815 .0482104
562.613 .0474410
563.410 .0467268
564.207 .0460607
565.003 .0454353
565.799 .0448435
566.594 .0442788
567.388 .0437370
568.182 .0432147
568.976 .0427088
569.769 .0422174
570.562 .0417399
571.354 .0412757
572.145 .0408247
572.936 .0403867
573.727 .0399614
574.517 .0395490
575.307 .0391495
576.096 .0387622
576.885 .0383873
577.673 .0380259
578.461 .0376783
579.248 .0373454
580.035 .0370284
580.821 .0367278
581.607 .0364440
582.392 .0361775
583.177 .0359282
583.962 .0356954
584.746 .0354782
585.529 .0352758
586.313 .0350870
587.095 .0349112
587.878 .0347479
588.660 .0345963
589.441 .0344562
590.222 .0343272
591.003 .0342085
591.783 .0340997
592.563 .0339999
593.342 .0339083
594.121 .0338237
594.899 .0337454
595.678 .0336723
596.455 .0336038
597.233 .0335392
598.009 .0334779
598.786 .0334194
599.562 .0333633
600.338 .0333089
601.113 .0332559
601.888 .0331786
602.663 .0331279
603.437 .0330778
604.211 .0330283
604.984 .0329795
605.757 .0329313
606.530 .0328840
607.302 .0328375
608.074 .0327921
608.845 .0327479
609.616 .0327050
610.387 .0326871
611.158 .0326466
611.928 .0326077
612.697 .0325704
613.467 .0325347
614.236 .0325009
615.004 .0324688
615.773 .0324385
616.541 .0324098
617.308 .0323826
618.076 .0323568
618.843 .0323323
619.609 .0323087
620.375 .0322860
621.141 .0322640
621.907 .0322425
622.672 .0322213
623.437 .0322002
624.202 .0321791
624.966 .0321578
625.730 .0321361
626.493 .0321141
627.257 .0320916
628.020 .0320686
628.782 .0320450
629.545 .0320207
630.307 .0319958
631.068 .0319702
631.830 .0319440
632.591 .0319171
633.352 .0318897
634.112 .0318619
634.872 .0318337
635.632 .0318053
636.392 .0317769
637.151 .0317485
637.910 .0317202
638.668 .0316923
639.427 .0316646
640.185 .0316374
640.943 .0316107
641.700 .0315845
642.457 .0315591
643.214 .0315344
643.971 .0315105
644.727 .0314874
645.483 .0314650
646.239 .0314432
646.994 .0314220
647.750 .0314012
648.505 .0313809
649.259 .0313610
650.014 .0313414
650.768 .0313219
651.521 .0313025
652.275 .0312830
653.028 .0312633
653.781 .0312433
654.534 .0312230
655.286 .0312021
656.039 .0311809
656.791 .0311592
657.542 .0311371
658.294 .0311145
659.045 .0310916
659.796 .0310683
660.546 .0310444
661.297 .0310200
662.047 .0309950
662.796 .0309695
663.546 .0309436
664.295 .0309172
665.044 .0308905
665.793 .0308636
666.542 .0308365
667.290 .0308092
668.038 .0307819
668.786 .0307546
669.533 .0307272
670.281 .0306997
671.028 .0306722
671.774 .0306447
672.521 .0306172
673.267 .0305898
674.013 .0305623
674.759 .0305350
675.505 .0305078
676.250 .0304807
676.995 .0304538
677.740 .0304271
678.484 .0304007
679.229 .0303745
679.973 .0303485
680.717 .0303227
681.460 .0302972
682.204 .0302720
682.947 .0302471
683.690 .0302223
684.433 .0301979
685.175 .0301737
685.917 .0301498
686.659 .0301262
687.401 .0301030
688.142 .0300801
688.884 .0300576
689.625 .0300354
690.365 .0300135
691.106 .0299919
691.846 .0299706
692.586 .0299495
693.326 .0299287
694.066 .0299081
694.805 .0298878
695.545 .0298679
696.284 .0298483
697.022 .0298292
697.761 .0298105
698.499 .0297922
699.237 .0297743
699.975 .0297568
700.713 .0297398
701.450 .0297232
702.187 .0297070
702.924 .0296912
703.661 .0296757
704.397 .0296605
705.133 .0296457
705.869 .0296312
706.605 .0296170
707.341 .0296030
708.076 .0295893
708.811 .0295758
709.546 .0295625
710.281 .0295495
711.015 .0295367
711.749 .0295241
712.483 .0295116
713.217 .0294991
713.950 .0294867
714.684 .0294743
715.417 .0294619
716.150 .0294494
716.882 .0294368
717.615 .0294240
718.347 .0294112
719.079 .0293983
719.811 .0293853
720.542 .0293723
721.273 .0293592
722.005 .0293461
722.735 .0293331
723.466 .0293201
724.196 .0293073
724.927 .0292945
725.656 .0292820
726.386 .0292695
727.116 .0292572
727.845 .0292451
728.574 .0292331
729.303 .0292212
730.031 .0292095
730.760 .0291978
731.488 .0291862
732.216 .0291746
732.944 .0291630
733.671 .0291514
734.398 .0291397
735.125 .0291280
735.852 .0291162
736.579 .0291043
737.305 .0290923
738.031 .0290803
738.757 .0290681
739.483 .0290559
740.208 .0290437
740.933 .0290313
741.658 .0290189
742.383 .0290064
743.108 .0289939
743.832 .0289814
744.556 .0289688
745.280 .0289561
746.004 .0289432
746.727 .0289302
747.450 .0289170
748.173 .0289035
748.896 .0288897
749.618 .0288755
750.340 .0288610
751.062 .0288460
751.784 .0288306
752.506 .0288148
753.227 .0287984
753.948 .0287815
754.669 .0287640
755.389 .0287460
756.110 .0287273
756.830 .0287081
757.550 .0286883
758.269 .0286679
758.989 .0286470
759.708 .0286256
760.427 .0286036
761.146 .0285813
761.864 .0285587
762.582 .0285358
763.300 .0285127
764.018 .0284895
764.736 .0284662
765.453 .0284430
766.170 .0284198
766.887 .0283968
767.603 .0283739
768.320 .0283514
769.036 .0283292
769.751 .0283076
770.467 .0282864
771.182 .0282659
771.897 .0282460
772.612 .0282268
773.327 .0282082
774.041 .0281903
774.755 .0281729
775.469 .0281559
776.183 .0281395
776.896 .0281236
777.609 .0281081
778.322 .0280931
779.035 .0280786
779.747 .0280646
780.459 .0280510
781.171 .0280378
781.882 .0280251
782.594 .0280127
783.305 .0280005
784.016 .0279886
784.726 .0279767
785.436 .0279650
786.147 .0279479
786.856 .0279365
787.566 .0279252
788.275 .0279142
788.984 .0279034
789.693 .0278929
790.401 .0278828
791.110 .0278729
791.818 .0278634
792.525 .0278540
793.233 .0278449
793.940 .0278358
794.647 .0278317
795.353 .0278228
796.060 .0278140
796.766 .0278054
797.472 .0277968
798.177 .0277883
798.883 .0277800
799.588 .0277718
800.292 .0277636
800.997 .0277554
801.701 .0277472
802.405 .0277389
803.109 .0277305
803.812 .0277219
804.515 .0277131
805.218 .0277041
805.921 .0276949
806.623 .0276856
807.325 .0276761
808.027 .0276664
808.728 .0276565
809.429 .0276465
810.130 .0276365
810.831 .0276263
811.531 .0276162
812.231 .0276061
812.931 .0275961
813.630 .0275862
814.330 .0275765
815.029 .0275671
815.727 .0275581
816.426 .0275495
817.124 .0275413
817.821 .0275338
818.519 .0275270
819.216 .0275209
819.913 .0275157
820.609 .0275113
821.306 .0275079
822.002 .0275054
822.697 .0275038
823.393 .0275031
824.088 .0275032
824.783 .0275041
825.477 .0275057
826.171 .0275079
826.865 .0275107
827.559 .0275140
828.252 .0275177
828.945 .0275219
829.638 .0275263
830.330 .0275309
831.023 .0275355
831.714 .0275401
832.406 .0275445
833.097 .0275486
833.788 .0275524
834.479 .0275558
835.169 .0275587
835.859 .0275613
836.548 .0275635
837.238 .0275653
837.927 .0275666
838.615 .0275675
839.304 .0275678
839.992 .0275676
840.680 .0275667
841.367 .0275651
842.054 .0275629
842.741 .0275601
843.428 .0275568
844.114 .0275529
844.800 .0275485
845.485 .0275434
846.170 .0275378
846.855 .0275315
847.540 .0275246
848.224 .0275169
848.908 .0275085
849.592 .0274994
850.275 .0274896
850.958 .0274792
851.641 .0274681
852.323 .0274563
853.005 .0274439
853.687 .0274308
854.368 .0274169
855.049 .0274024
855.730 .0273871
856.410 .0273711
857.090 .0273545
857.769 .0273371
858.449 .0273192
859.128 .0273007
859.806 .0272816
860.485 .0272619
861.163 .0272417
861.840 .0272211
862.518 .0272002
863.195 .0271789
863.871 .0271574
864.548 .0271358
865.224 .0271140
865.899 .0270922
866.574 .0270704
867.249 .0270486
867.924 .0270267
868.598 .0270049
869.272 .0269831
869.946 .0269615
870.619 .0269399
871.292 .0269185
871.964 .0268973
872.636 .0268762
873.308 .0268553
873.979 .0268347
874.651 .0268142
875.321 .0267940
875.992 .0267740
876.662 .0267542
877.331 .0267347
878.001 .0267154
878.670 .0266965
879.338 .0266778
880.007 .0266595
880.675 .0266415
881.342 .0266238
882.009 .0266064
882.676 .0265892
883.343 .0265724
884.009 .0265559
884.675 .0265397
885.340 .0265238
886.005 .0265082
886.670 .0264929
887.334 .0264778
887.998 .0264629
888.662 .0264482
889.325 .0264336
889.988 .0264191
890.650 .0264047
891.312 .0263905
891.974 .0263765
892.636 .0263626
893.297 .0263489
893.957 .0263354
894.618 .0263219
895.278 .0263085
895.937 .0262951
896.596 .0262815
897.255 .0262679
897.914 .0262542
898.572 .0262402
899.230 .0262262
899.887 .0262118
900.544 .0261972
901.201 .0261823
901.857 .0261581
902.513 .0261419
903.168 .0261252
903.823 .0261080
904.478 .0260903
905.132 .0260723
905.786 .0260538
906.440 .0260349
907.093 .0260158
907.746 .0259963
908.399 .0259765
909.051 .0259566
909.703 .0259365
910.354 .0259260
911.005 .0259061
911.656 .0258863
912.306 .0258666
912.956 .0258471
913.605 .0258278
914.254 .0258088
914.903 .0257900
915.551 .0257717
916.199 .0257536
916.847 .0257360
917.494 .0257188
918.141 .0257020
918.788 .0256857
919.434 .0256699
920.079 .0256544
920.725 .0256394
921.370 .0256249
922.014 .0256107
922.658 .0255968
923.302 .0255833
923.946 .0255702
924.589 .0255574
925.231 .0255448
925.873 .0255326
926.515 .0255206
927.157 .0255087
927.798 .0254971
928.439 .0254857
929.079 .0254746
929.719 .0254637
930.359 .0254531
930.998 .0254429
931.637 .0254331
932.275 .0254237
932.913 .0254148
933.551 .0254063
934.188 .0253983
934.825 .0253910
935.462 .0253844
936.098 .0253786
936.733 .0253737
937.369 .0253696
938.004 .0253663
938.638 .0253640
939.273 .0253624
939.907 .0253617
940.540 .0253618
941.173 .0253626
941.806 .0253643
942.438 .0253667
943.070 .0253699
943.702 .0253739
944.333 .0253785
944.964 .0253836
945.594 .0253891
946.224 .0253949
946.854 .0254008
947.483 .0254068
948.112 .0254128
948.741 .0254188
949.369 .0254248
949.996 .0254308
950.624 .0254367
951.251 .0254426
951.878 .0254483
952.504 .0254538
953.130 .0254590
953.755 .0254639
954.380 .0254686
955.005 .0254730
955.629 .0254772
956.253 .0254813
956.877 .0254853
957.500 .0254892
958.123 .0254930
958.746 .0254967
959.368 .0255004
959.990 .0255039
960.611 .0255075
961.232 .0255110
961.853 .0255145
962.473 .0255181
963.093 .0255217
963.712 .0255254
964.331 .0255292
964.950 .0255330
965.569 .0255369
966.187 .0255408
966.804 .0255447
967.422 .0255486
968.039 .0255525
968.655 .0255563
969.272 .0255600
969.887 .0255635
970.503 .0255668
971.118 .0255697
971.733 .0255723
972.347 .0255745
972.961 .0255763
973.575 .0255777
974.188 .0255786
974.801 .0255790
975.414 .0255790
976.026 .0255784
976.638 .0255774
977.250 .0255758
977.861 .0255736
978.472 .0255708
979.083 .0255676
979.693 .0255638
980.303 .0255595
980.912 .0255513
981.521 .0255462
982.130 .0255406
982.738 .0255348
983.346 .0255286
983.954 .0255222
984.562 .0255154
985.169 .0255085
985.775 .0255014
986.382 .0254943
986.988 .0254871
987.594 .0254800
988.199 .0254729
988.804 .0254659
989.409 .0254628
990.013 .0254561
990.617 .0254496
991.221 .0254433
991.824 .0254373
992.427 .0254315
993.030 .0254260
993.632 .0254207
994.234 .0254156
994.836 .0254107
995.438 .0254060
996.039 .0254013
996.640 .0253968
997.240 .0253925
997.840 .0253882
998.440 .0253840
999.040 .0253798
999.639 .0253757
1000.238 .0253717
1000.836 .0253676
1001.435 .0253634
1002.033 .0253591
1002.630 .0253547
1003.228 .0253501
1003.825 .0253454
1004.422 .0253405
1005.018 .0253355
1005.614 .0253303
1006.210 .0253251
1006.806 .0253196
1007.401 .0253140
1007.996 .0253082
1008.591 .0253022
1009.186 .0252961
1009.780 .0252897
1010.374 .0252831
1010.967 .0252763
1011.561 .0252692
1012.154 .0252620
1012.746 .0252546
1013.339 .0252471
1013.931 .0252394
1014.523 .0252316
1015.115 .0252237
1015.706 .0252158
1016.298 .0252077
1016.888 .0251997
1017.479 .0251917
1018.069 .0251838
1018.660 .0251761
1019.250 .0251686
1019.839 .0251613
1020.429 .0251545
1021.018 .0251480
1021.607 .0251419
1022.195 .0251363
1022.784 .0251310
1023.372 .0251260
1023.960 .0251213
1024.547 .0251169
1025.135 .0251127
1025.722 .0251087
1026.309 .0251049
1026.896 .0251012
1027.483 .0250976
1028.069 .0250940
1028.655 .0250904
1029.241 .0250867
1029.827 .0250829
1030.412 .0250789
1030.997 .0250747
1031.582 .0250704
1032.167 .0250659
1032.752 .0250612
1033.336 .0250565
1033.921 .0250516
1034.505 .0250466
1035.089 .0250414
1035.672 .0250360
1036.256 .0250302
1036.839 .0250241
1037.422 .0250176
1038.005 .0250107
1038.588 .0250033
1039.171 .0249956
1039.753 .0249874
1040.335 .0249788
1040.918 .0249697
1041.500 .0249602
1042.081 .0249503
1042.663 .0249399
1043.244 .0249291
1043.826 .0249179
1044.407 .0249063
1044.988 .0248945
1045.569 .0248826
1046.150 .0248706
1046.730 .0248586
1047.311 .0248465
1047.891 .0248345
1048.471 .0248224
1049.052 .0248102
1049.632 .0247979
1050.211 .0247855
1050.791 .0247730
1051.371 .0247605
1051.950 .0247479
1052.530 .0247354
1053.109 .0247229
1053.688 .0247104
1054.268 .0246980
1054.847 .0246857
1055.426 .0246735
1056.005 .0246613
1056.583 .0246492
1057.162 .0246371
1057.741 .0246252
1058.319 .0246133
1058.898 .0246016
1059.476 .0245898
1060.055 .0245781
1060.633 .0245663
1061.211 .0245546
1061.790 .0245428
1062.368 .0245312
1062.946 .0245197
1063.524 .0245084
1064.102 .0244975
1064.680 .0244868
1065.258 .0244765
1065.836 .0244666
1066.414 .0244571
1066.992 .0244480
1067.570 .0244391
1068.148 .0244306
1068.726 .0244226
1069.304 .0244149
1069.882 .0244077
1070.460 .0244010
1071.038 .0243948
1071.616 .0243891
1072.194 .0243838
1072.772 .0243787
1073.350 .0243740
1073.928 .0243694
1074.506 .0243650
1075.084 .0243607
1075.662 .0243568
1076.240 .0243532
1076.819 .0243502
1077.397 .0243479
1077.976 .0243465
1078.554 .0243458
1079.133 .0243460
1079.711 .0243469
1080.290 .0243486
1080.869 .0243509
1081.448 .0243538
1082.027 .0243572
1082.606 .0243611
1083.185 .0243653
1083.764 .0243700
1084.343 .0243751
1084.923 .0243808
1085.502 .0243869
1086.082 .0243936
1086.662 .0244007
1087.242 .0244083
1087.822 .0244164
1088.402 .0244249
1088.983 .0244340
1089.563 .0244436
1090.144 .0244539
1090.725 .0244650
1091.306 .0244769
1091.887 .0244900
1092.469 .0245041
1093.050 .0245195
1093.632 .0245358
1094.214 .0245531
1094.796 .0245713
1095.379 .0245901
1095.961 .0246095
1096.544 .0246294
1097.127 .0246495
1097.710 .0246700
1098.294 .0246907
1098.877 .0247118
1099.461 .0247332
1100.046 .0247549
1100.630 .0247770
1101.215 .0247994
1101.800 .0248221
1102.385 .0248450
1102.970 .0248680
1103.556 .0248913
1104.142 .0249147
1104.728 .0249383
1105.315 .0249621
1105.902 .0249864
1106.489 .0250112
1107.077 .0250369
1107.664 .0250638
1108.253 .0250920
1108.841 .0251214
1109.430 .0251523
1110.019 .0251845
1110.609 .0252179
1111.198 .0252523
1111.789 .0252879
1112.379 .0253246
1112.970 .0253625
1113.561 .0254019
1114.153 .0254428
1114.745 .0254856
1115.338 .0255303
1115.931 .0255768
1116.524 .0256249
1117.117 .0256744
1117.712 .0257251
1118.306 .0257771
1118.901 .0258304
1119.496 .0258853
1120.092 .0259423
1120.689 .0260017
1121.285 .0260638
1121.882 .0261287
1122.480 .0261961
1123.078 .0262661
1123.677 .0263382
1124.276 .0264120
1124.875 .0264871
1125.476 .0265632
1126.076 .0266405
1126.677 .0267191
1127.279 .0267995
1127.881 .0268820
1128.484 .0269671
1129.087 .0270048
1129.691 .0270934
1130.295 .0271848
1130.900 .0272791
1131.505 .0273765
1132.111 .0274772
1132.718 .0275820
1133.325 .0276925
1133.933 .0278093
1134.541 .0279329
1135.150 .0280611
1135.760 .0282066
1136.370 .0283714
1136.981 .0283159
1137.592 .0284601
1138.204 .0286044
1138.817 .0287516
1139.431 .0289094
1140.045 .0290767
1140.660 .0292667
1141.275 .0294924
1141.891 .0297361
1142.508 .0299847
1143.126 .0301669
1143.744 .0307076
1144.363 .0313072
1144.983 .0311373
