Measurement Sequence started on: 15-12-46-377
Integration time: 28
Scans to Average: 2 
>>>>>Begin Spectral Data<<<<<
432.689 .0000100
433.621 .0000100
434.552 .0000100
435.482 .0000100
436.410 .0000100
437.337 .0000100
438.262 .0284241
439.187 .0600543
440.110 .0993452
441.031 .1435707
441.952 .1143808
442.871 .1194012
443.789 .1240711
444.705 .1284604
445.621 .1326188
446.535 .1365851
447.447 .1388933
448.359 .1393980
449.269 .1377163
450.178 .1336043
451.086 .1271494
451.993 .1188488
452.898 .1095208
453.803 .1000886
454.706 .0913346
455.608 .0837405
456.508 .0774619
457.408 .0732243
458.306 .0699639
459.204 .0673050
460.100 .0650611
460.995 .0631292
461.888 .0614428
462.781 .0599555
463.673 .0586317
464.563 .0574451
465.452 .0563743
466.340 .0554016
467.228 .0545140
468.114 .0537002
468.999 .0529528
469.882 .0522655
470.765 .0516349
471.647 .0510590
472.528 .0505365
473.407 .0500659
474.286 .0496458
475.163 .0492745
476.040 .0489489
476.915 .0486655
477.790 .0484209
478.663 .0482119
479.535 .0480357
480.407 .0478892
481.277 .0477694
482.147 .0476741
483.015 .0476005
483.883 .0475458
484.749 .0475080
485.615 .0474851
486.479 .0474752
487.343 .0474765
488.206 .0474884
489.067 .0475102
489.928 .0475425
490.788 .0475858
491.647 .0476414
492.505 .0477101
493.362 .0477933
494.218 .0478916
495.073 .0480069
495.928 .0482520
496.781 .0484221
497.634 .0486178
498.486 .0488422
499.337 .0490986
500.187 .0493904
501.036 .0497210
501.884 .0500929
502.731 .0505086
503.578 .0509706
504.424 .0513052
505.268 .0518477
506.113 .0524457
506.956 .0531032
507.798 .0538258
508.640 .0546196
509.480 .0554924
510.320 .0564544
511.160 .0575163
511.998 .0586892
512.836 .0599862
513.672 .0614216
514.508 .0630118
515.344 .0647761
516.178 .0667372
517.012 .0689207
517.845 .0713511
518.677 .0740519
519.508 .0770440
520.339 .0803377
521.169 .0839381
521.998 .0878235
522.826 .0919573
523.654 .0962864
524.481 .1007416
525.307 .1052434
526.133 .1097024
526.958 .1140266
527.782 .1181250
528.605 .1219103
529.428 .1253106
530.250 .1282596
531.072 .1307138
531.892 .1326399
532.712 .1340144
533.532 .1348224
534.350 .1350575
535.168 .1347191
535.986 .1338111
536.802 .1323380
537.618 .1303124
538.434 .1277484
539.249 .1246842
540.063 .1211707
540.876 .1172713
541.689 .1130645
542.501 .1086370
543.313 .1040796
544.124 .0994853
544.934 .0949413
545.744 .0905285
546.553 .0863122
547.361 .0823485
548.169 .0786687
548.976 .0752921
549.783 .0722237
550.589 .0694552
551.395 .0669672
552.200 .0647347
553.004 .0627286
553.808 .0609218
554.611 .0592889
555.414 .0578078
556.216 .0564575
557.018 .0552196
557.819 .0540794
558.619 .0530222
559.419 .0520346
560.218 .0511074
561.017 .0502313
561.815 .0493997
562.613 .0486077
563.410 .0478502
564.207 .0471240
565.003 .0464264
565.799 .0457534
566.594 .0451021
567.388 .0444710
568.182 .0438585
568.976 .0432631
569.769 .0426844
570.562 .0421227
571.354 .0415786
572.145 .0410537
572.936 .0405489
573.727 .0400650
574.517 .0396020
575.307 .0391605
576.096 .0387400
576.885 .0383408
577.673 .0379628
578.461 .0376054
579.248 .0372689
580.035 .0369527
580.821 .0366557
581.607 .0363772
582.392 .0361164
583.177 .0358729
583.962 .0356460
584.746 .0354350
585.529 .0352391
586.313 .0350578
587.095 .0348900
587.878 .0347348
588.660 .0345907
589.441 .0344570
590.222 .0343325
591.003 .0342164
591.783 .0341079
592.563 .0340065
593.342 .0339117
594.121 .0338232
594.899 .0337406
595.678 .0336635
596.455 .0335912
597.233 .0335234
598.009 .0334594
598.786 .0333986
599.562 .0333406
600.338 .0332849
601.113 .0332312
601.888 .0331566
602.663 .0331070
603.437 .0330590
604.211 .0330125
604.984 .0329676
605.757 .0329242
606.530 .0328822
607.302 .0328416
608.074 .0328023
608.845 .0327644
609.616 .0327277
610.387 .0327119
611.158 .0326769
611.928 .0326431
612.697 .0326103
613.467 .0325788
614.236 .0325486
615.004 .0325197
615.773 .0324920
616.541 .0324657
617.308 .0324406
618.076 .0324167
618.843 .0323938
619.609 .0323717
620.375 .0323503
621.141 .0323293
621.907 .0323085
622.672 .0322877
623.437 .0322668
624.202 .0322456
624.966 .0322240
625.730 .0322017
626.493 .0321787
627.257 .0321547
628.020 .0321298
628.782 .0321038
629.545 .0320766
630.307 .0320482
631.068 .0320185
631.830 .0319875
632.591 .0319553
633.352 .0319220
634.112 .0318877
634.872 .0318525
635.632 .0318168
636.392 .0317806
637.151 .0317442
637.910 .0317079
638.668 .0316717
639.427 .0316358
640.185 .0316004
640.943 .0315656
641.700 .0315314
642.457 .0314979
643.214 .0314654
643.971 .0314339
644.727 .0314035
645.483 .0313742
646.239 .0313462
646.994 .0313194
647.750 .0312937
648.505 .0312691
649.259 .0312455
650.014 .0312228
650.768 .0312009
651.521 .0311795
652.275 .0311587
653.028 .0311381
653.781 .0311178
654.534 .0310975
655.286 .0310770
656.039 .0310563
656.791 .0310354
657.542 .0310140
658.294 .0309924
659.045 .0309703
659.796 .0309479
660.546 .0309252
661.297 .0309022
662.047 .0308788
662.796 .0308551
663.546 .0308311
664.295 .0308068
665.044 .0307825
665.793 .0307581
666.542 .0307339
667.290 .0307099
668.038 .0306862
668.786 .0306629
669.533 .0306401
670.281 .0306176
671.028 .0305956
671.774 .0305739
672.521 .0305528
673.267 .0305320
674.013 .0305117
674.759 .0304919
675.505 .0304725
676.250 .0304535
676.995 .0304349
677.740 .0304165
678.484 .0303984
679.229 .0303805
679.973 .0303626
680.717 .0303449
681.460 .0303272
682.204 .0303095
682.947 .0302915
683.690 .0302732
684.433 .0302545
685.175 .0302352
685.917 .0302153
686.659 .0301948
687.401 .0301738
688.142 .0301523
688.884 .0301304
689.625 .0301083
690.365 .0300861
691.106 .0300637
691.846 .0300413
692.586 .0300190
693.326 .0299968
694.066 .0299748
694.805 .0299530
695.545 .0299314
696.284 .0299102
697.022 .0298894
697.761 .0298690
698.499 .0298490
699.237 .0298295
699.975 .0298104
700.713 .0297919
701.450 .0297738
702.187 .0297561
702.924 .0297388
703.661 .0297217
704.397 .0297047
705.133 .0296877
705.869 .0296707
706.605 .0296534
707.341 .0296358
708.076 .0296179
708.811 .0295996
709.546 .0295810
710.281 .0295620
711.015 .0295428
711.749 .0295232
712.483 .0295034
713.217 .0294834
713.950 .0294632
714.684 .0294428
715.417 .0294221
716.150 .0294013
716.882 .0293802
717.615 .0293590
718.347 .0293376
719.079 .0293162
719.811 .0292947
720.542 .0292733
721.273 .0292522
722.005 .0292313
722.735 .0292108
723.466 .0291907
724.196 .0291709
724.927 .0291515
725.656 .0291324
726.386 .0291137
727.116 .0290953
727.845 .0290773
728.574 .0290595
729.303 .0290421
730.031 .0290251
730.760 .0290085
731.488 .0289923
732.216 .0289766
732.944 .0289612
733.671 .0289463
734.398 .0289318
735.125 .0289176
735.852 .0289038
736.579 .0288903
737.305 .0288771
738.031 .0288641
738.757 .0288513
739.483 .0288388
740.208 .0288264
740.933 .0288143
741.658 .0288025
742.383 .0287908
743.108 .0287792
743.832 .0287677
744.556 .0287562
745.280 .0287447
746.004 .0287330
746.727 .0287213
747.450 .0287093
748.173 .0286972
748.896 .0286848
749.618 .0286722
750.340 .0286595
751.062 .0286466
751.784 .0286335
752.506 .0286203
753.227 .0286069
753.948 .0285934
754.669 .0285799
755.389 .0285663
756.110 .0285527
756.830 .0285390
757.550 .0285254
758.269 .0285117
758.989 .0284981
759.708 .0284846
760.427 .0284712
761.146 .0284581
761.864 .0284451
762.582 .0284324
763.300 .0284199
764.018 .0284075
764.736 .0283953
765.453 .0283832
766.170 .0283712
766.887 .0283592
767.603 .0283473
768.320 .0283356
769.036 .0283240
769.751 .0283128
770.467 .0283018
771.182 .0282913
771.897 .0282811
772.612 .0282713
773.327 .0282618
774.041 .0282527
774.755 .0282439
775.469 .0282354
776.183 .0282272
776.896 .0282194
777.609 .0282119
778.322 .0282048
779.035 .0281981
779.747 .0281918
780.459 .0281860
781.171 .0281806
781.882 .0281755
782.594 .0281708
783.305 .0281663
784.016 .0281619
784.726 .0281577
785.436 .0281535
786.147 .0281467
786.856 .0281421
787.566 .0281373
788.275 .0281323
788.984 .0281270
789.693 .0281214
790.401 .0281154
791.110 .0281090
791.818 .0281022
792.525 .0280950
793.233 .0280872
793.940 .0280791
794.647 .0280735
795.353 .0280646
796.060 .0280551
796.766 .0280452
797.472 .0280346
798.177 .0280235
798.883 .0280118
799.588 .0279996
800.292 .0279868
800.997 .0279736
801.701 .0279600
802.405 .0279459
803.109 .0279314
803.812 .0279166
804.515 .0279013
805.218 .0278856
805.921 .0278694
806.623 .0278528
807.325 .0278357
808.027 .0278183
808.728 .0278004
809.429 .0277822
810.130 .0277636
810.831 .0277448
811.531 .0277258
812.231 .0277066
812.931 .0276873
813.630 .0276679
814.330 .0276486
815.029 .0276293
815.727 .0276102
816.426 .0275914
817.124 .0275729
817.821 .0275547
818.519 .0275370
819.216 .0275197
819.913 .0275029
820.609 .0274867
821.306 .0274710
822.002 .0274559
822.697 .0274415
823.393 .0274277
824.088 .0274146
824.783 .0274020
825.477 .0273901
826.171 .0273786
826.865 .0273676
827.559 .0273571
828.252 .0273469
828.945 .0273373
829.638 .0273280
830.330 .0273192
831.023 .0273107
831.714 .0273026
832.406 .0272947
833.097 .0272870
833.788 .0272794
834.479 .0272719
835.169 .0272644
835.859 .0272571
836.548 .0272498
837.238 .0272427
837.927 .0272356
838.615 .0272287
839.304 .0272217
839.992 .0272146
840.680 .0272074
841.367 .0272002
842.054 .0271928
842.741 .0271853
843.428 .0271778
844.114 .0271702
844.800 .0271626
845.485 .0271549
846.170 .0271471
846.855 .0271390
847.540 .0271306
848.224 .0271219
848.908 .0271126
849.592 .0271029
850.275 .0270927
850.958 .0270820
851.641 .0270708
852.323 .0270591
853.005 .0270468
853.687 .0270341
854.368 .0270208
855.049 .0270069
855.730 .0269926
856.410 .0269777
857.090 .0269625
857.769 .0269468
858.449 .0269309
859.128 .0269147
859.806 .0268984
860.485 .0268821
861.163 .0268658
861.840 .0268496
862.518 .0268336
863.195 .0268178
863.871 .0268024
864.548 .0267873
865.224 .0267726
865.899 .0267585
866.574 .0267449
867.249 .0267320
867.924 .0267197
868.598 .0267081
869.272 .0266973
869.946 .0266872
870.619 .0266778
871.292 .0266691
871.964 .0266611
872.636 .0266539
873.308 .0266473
873.979 .0266414
874.651 .0266361
875.321 .0266315
875.992 .0266274
876.662 .0266238
877.331 .0266206
878.001 .0266178
878.670 .0266153
879.338 .0266129
880.007 .0266108
880.675 .0266087
881.342 .0266069
882.009 .0266052
882.676 .0266037
883.343 .0266024
884.009 .0266014
884.675 .0266006
885.340 .0266000
886.005 .0265996
886.670 .0265994
887.334 .0265993
887.998 .0265994
888.662 .0265997
889.325 .0266001
889.988 .0266008
890.650 .0266018
891.312 .0266031
891.974 .0266046
892.636 .0266065
893.297 .0266087
893.957 .0266111
894.618 .0266136
895.278 .0266162
895.937 .0266189
896.596 .0266215
897.255 .0266240
897.914 .0266264
898.572 .0266285
899.230 .0266303
899.887 .0266318
900.544 .0266329
901.201 .0266334
901.857 .0266313
902.513 .0266300
903.168 .0266280
903.823 .0266253
904.478 .0266217
905.132 .0266172
905.786 .0266119
906.440 .0266056
907.093 .0265984
907.746 .0265903
908.399 .0265812
909.051 .0265713
909.703 .0265605
910.354 .0265532
911.005 .0265416
911.656 .0265294
912.306 .0265166
912.956 .0265033
913.605 .0264897
914.254 .0264756
914.903 .0264612
915.551 .0264465
916.199 .0264314
916.847 .0264161
917.494 .0264004
918.141 .0263845
918.788 .0263684
919.434 .0263520
920.079 .0263353
920.725 .0263184
921.370 .0263012
922.014 .0262837
922.658 .0262659
923.302 .0262478
923.946 .0262293
924.589 .0262104
925.231 .0261912
925.873 .0261717
926.515 .0261520
927.157 .0261320
927.798 .0261118
928.439 .0260914
929.079 .0260708
929.719 .0260501
930.359 .0260292
930.998 .0260082
931.637 .0259871
932.275 .0259661
932.913 .0259451
933.551 .0259243
934.188 .0259037
934.825 .0258835
935.462 .0258636
936.098 .0258441
936.733 .0258250
937.369 .0258064
938.004 .0257882
938.638 .0257705
939.273 .0257534
939.907 .0257371
940.540 .0257214
941.173 .0257066
941.806 .0256926
942.438 .0256793
943.070 .0256667
943.702 .0256547
944.333 .0256432
944.964 .0256321
945.594 .0256214
946.224 .0256110
946.854 .0256010
947.483 .0255914
948.112 .0255821
948.741 .0255731
949.369 .0255642
949.996 .0255554
950.624 .0255465
951.251 .0255375
951.878 .0255283
952.504 .0255188
953.130 .0255091
953.755 .0254993
954.380 .0254892
955.005 .0254791
955.629 .0254688
956.253 .0254582
956.877 .0254474
957.500 .0254363
958.123 .0254248
958.746 .0254129
959.368 .0254006
959.990 .0253881
960.611 .0253754
961.232 .0253626
961.853 .0253498
962.473 .0253368
963.093 .0253239
963.712 .0253108
964.331 .0252976
964.950 .0252842
965.569 .0252706
966.187 .0252569
966.804 .0252431
967.422 .0252292
968.039 .0252152
968.655 .0252012
969.272 .0251871
969.887 .0251730
970.503 .0251588
971.118 .0251446
971.733 .0251301
972.347 .0251156
972.961 .0251009
973.575 .0250860
974.188 .0250709
974.801 .0250558
975.414 .0250405
976.026 .0250250
976.638 .0250094
977.250 .0249936
977.861 .0249774
978.472 .0249610
979.083 .0249442
979.693 .0249271
980.303 .0249097
980.912 .0248827
981.521 .0248648
982.130 .0248470
982.738 .0248291
983.346 .0248112
983.954 .0247934
984.562 .0247757
985.169 .0247582
985.775 .0247408
986.382 .0247236
986.988 .0247068
987.594 .0246903
988.199 .0246744
988.804 .0246589
989.409 .0246530
990.013 .0246387
990.617 .0246251
991.221 .0246121
991.824 .0245998
992.427 .0245881
993.030 .0245771
993.632 .0245666
994.234 .0245568
994.836 .0245477
995.438 .0245391
996.039 .0245313
996.640 .0245242
997.240 .0245177
997.840 .0245119
998.440 .0245068
999.040 .0245024
999.639 .0244985
1000.238 .0244953
1000.836 .0244926
1001.435 .0244904
1002.033 .0244887
1002.630 .0244873
1003.228 .0244864
1003.825 .0244858
1004.422 .0244855
1005.018 .0244854
1005.614 .0244854
1006.210 .0244856
1006.806 .0244859
1007.401 .0244863
1007.996 .0244868
1008.591 .0244875
1009.186 .0244882
1009.780 .0244890
1010.374 .0244898
1010.967 .0244907
1011.561 .0244915
1012.154 .0244923
1012.746 .0244932
1013.339 .0244941
1013.931 .0244952
1014.523 .0244964
1015.115 .0244980
1015.706 .0244998
1016.298 .0245019
1016.888 .0245044
1017.479 .0245071
1018.069 .0245102
1018.660 .0245136
1019.250 .0245173
1019.839 .0245213
1020.429 .0245258
1021.018 .0245308
1021.607 .0245364
1022.195 .0245426
1022.784 .0245495
1023.372 .0245570
1023.960 .0245653
1024.547 .0245743
1025.135 .0245839
1025.722 .0245942
1026.309 .0246051
1026.896 .0246168
1027.483 .0246291
1028.069 .0246423
1028.655 .0246561
1029.241 .0246707
1029.827 .0246860
1030.412 .0247019
1030.997 .0247183
1031.582 .0247351
1032.167 .0247522
1032.752 .0247695
1033.336 .0247868
1033.921 .0248042
1034.505 .0248215
1035.089 .0248387
1035.672 .0248557
1036.256 .0248724
1036.839 .0248890
1037.422 .0249051
1038.005 .0249209
1038.588 .0249362
1039.171 .0249509
1039.753 .0249650
1040.335 .0249783
1040.918 .0249910
1041.500 .0250029
1042.081 .0250142
1042.663 .0250247
1043.244 .0250348
1043.826 .0250444
1044.407 .0250536
1044.988 .0250626
1045.569 .0250713
1046.150 .0250798
1046.730 .0250880
1047.311 .0250959
1047.891 .0251035
1048.471 .0251107
1049.052 .0251176
1049.632 .0251243
1050.211 .0251306
1050.791 .0251368
1051.371 .0251429
1051.950 .0251489
1052.530 .0251549
1053.109 .0251607
1053.688 .0251665
1054.268 .0251721
1054.847 .0251775
1055.426 .0251829
1056.005 .0251883
1056.583 .0251938
1057.162 .0251996
1057.741 .0252058
1058.319 .0252124
1058.898 .0252195
1059.476 .0252270
1060.055 .0252350
1060.633 .0252431
1061.211 .0252513
1061.790 .0252596
1062.368 .0252678
1062.946 .0252759
1063.524 .0252841
1064.102 .0252924
1064.680 .0253008
1065.258 .0253093
1065.836 .0253178
1066.414 .0253265
1066.992 .0253351
1067.570 .0253435
1068.148 .0253518
1068.726 .0253599
1069.304 .0253678
1069.882 .0253756
1070.460 .0253834
1071.038 .0253912
1071.616 .0253991
1072.194 .0254069
1072.772 .0254148
1073.350 .0254224
1073.928 .0254297
1074.506 .0254365
1075.084 .0254427
1075.662 .0254484
1076.240 .0254536
1076.819 .0254585
1077.397 .0254633
1077.976 .0254680
1078.554 .0254729
1079.133 .0254781
1079.711 .0254836
1080.290 .0254895
1080.869 .0254957
1081.448 .0255024
1082.027 .0255095
1082.606 .0255173
1083.185 .0255256
1083.764 .0255347
1084.343 .0255446
1084.923 .0255553
1085.502 .0255666
1086.082 .0255787
1086.662 .0255914
1087.242 .0256047
1087.822 .0256186
1088.402 .0256331
1088.983 .0256482
1089.563 .0256640
1090.144 .0256806
1090.725 .0256979
1091.306 .0257161
1091.887 .0257351
1092.469 .0257549
1093.050 .0257756
1093.632 .0257971
1094.214 .0258193
1094.796 .0258422
1095.379 .0258656
1095.961 .0258893
1096.544 .0259131
1097.127 .0259368
1097.710 .0259601
1098.294 .0259829
1098.877 .0260050
1099.461 .0260264
1100.046 .0260473
1100.630 .0260676
1101.215 .0260875
1101.800 .0261072
1102.385 .0261268
1102.970 .0261462
1103.556 .0261655
1104.142 .0261846
1104.728 .0262038
1105.315 .0262230
1105.902 .0262424
1106.489 .0262623
1107.077 .0262829
1107.664 .0263043
1108.253 .0263267
1108.841 .0263500
1109.430 .0263743
1110.019 .0263993
1110.609 .0264250
1111.198 .0264513
1111.789 .0264782
1112.379 .0265058
1112.970 .0265343
1113.561 .0265640
1114.153 .0265952
1114.745 .0266279
1115.338 .0266626
1115.931 .0266993
1116.524 .0267380
1117.117 .0267786
1117.712 .0268215
1118.306 .0268666
1118.901 .0269141
1119.496 .0269640
1120.092 .0270165
1120.689 .0270718
1121.285 .0271296
1121.882 .0271901
1122.480 .0272531
1123.078 .0273186
1123.677 .0273861
1124.276 .0274557
1124.875 .0275270
1125.476 .0275999
1126.076 .0276742
1126.677 .0277498
1127.279 .0278268
1127.881 .0279051
1128.484 .0279850
1129.087 .0280218
1129.691 .0281044
1130.295 .0281890
1130.900 .0282756
1131.505 .0283642
1132.111 .0284553
1132.718 .0285490
1133.325 .0286459
1133.933 .0287466
1134.541 .0288430
1135.150 .0289533
1135.760 .0290628
1136.370 .0291881
1136.981 .0292215
1137.592 .0293222
1138.204 .0294340
1138.817 .0295478
1139.431 .0296640
1140.045 .0297945
1140.660 .0299294
1141.275 .0300831
1141.891 .0302549
1142.508 .0302031
1143.126 .0306658
1143.744 .0307227
1144.363 .0312497
1144.983 .0315065
