Measurement Sequence started on: 15-12-46-377
Integration time: 28
Scans to Average: 2 
>>>>>Begin Spectral Data<<<<<
432.689 .0000100
433.621 .0000100
434.552 .0000100
435.482 .0000100
436.410 .0000100
437.337 .0000100
438.262 .0262239
439.187 .0558249
440.110 .0927244
441.031 .1344923
441.952 .1094249
442.871 .1144594
443.789 .1191623
444.705 .1236013
445.621 .1278245
446.535 .1318677
447.447 .1343780
448.359 .1351992
449.269 .1339645
450.178 .1304321
451.086 .1246676
451.993 .1171217
452.898 .1085493
453.803 .0998125
454.706 .0916494
455.608 .0845243
456.508 .0785985
457.408 .0745545
458.306 .0714294
459.204 .0688710
460.100 .0667030
460.995 .0648253
461.888 .0631727
462.781 .0617002
463.673 .0603748
464.563 .0591727
465.452 .0580748
466.340 .0570671
467.228 .0561379
468.114 .0552796
468.999 .0544864
469.882 .0537529
470.765 .0530749
471.647 .0524491
472.528 .0518737
473.407 .0513460
474.286 .0508653
475.163 .0504306
476.040 .0500412
476.915 .0496962
477.790 .0493936
478.663 .0491316
479.535 .0489086
480.407 .0487222
481.277 .0485699
482.147 .0484491
483.015 .0483572
483.883 .0482916
484.749 .0482504
485.615 .0482316
486.479 .0482338
487.343 .0482555
488.206 .0482958
489.067 .0483531
489.928 .0484266
490.788 .0485153
491.647 .0486183
492.505 .0487350
493.362 .0488651
494.218 .0490085
495.073 .0491658
495.928 .0494551
496.781 .0496551
497.634 .0498747
498.486 .0501161
499.337 .0503814
500.187 .0506728
501.036 .0509927
501.884 .0513446
502.731 .0517321
503.578 .0521598
504.424 .0524659
505.268 .0529731
506.113 .0535356
506.956 .0541598
507.798 .0548519
508.640 .0556194
509.480 .0564717
510.320 .0574205
511.160 .0584775
511.998 .0596581
512.836 .0609804
513.672 .0624636
514.508 .0641304
515.344 .0660056
516.178 .0681123
517.012 .0704765
517.845 .0731217
518.677 .0760678
519.508 .0793299
520.339 .0829166
521.169 .0868257
521.998 .0910324
522.826 .0955000
523.654 .1001696
524.481 .1049693
525.307 .1098186
526.133 .1146239
526.958 .1192875
527.782 .1237125
528.605 .1278108
529.428 .1315023
530.250 .1347168
531.072 .1374032
531.892 .1395193
532.712 .1410361
533.532 .1419356
534.350 .1422076
535.168 .1418538
535.986 .1408817
536.802 .1393013
537.618 .1371250
538.434 .1343734
539.249 .1310879
540.063 .1273201
540.876 .1231391
541.689 .1186263
542.501 .1138693
543.313 .1089652
544.124 .1040116
544.934 .0991017
545.744 .0943177
546.553 .0897301
547.361 .0853959
548.169 .0813500
548.976 .0776159
549.783 .0742011
550.589 .0711034
551.395 .0683084
552.200 .0657933
553.004 .0635313
553.808 .0614956
554.611 .0596627
555.414 .0580101
556.216 .0565157
557.018 .0551596
557.819 .0539256
558.619 .0527973
559.419 .0517615
560.218 .0508075
561.017 .0499255
561.815 .0491073
562.613 .0483472
563.410 .0476382
564.207 .0469740
565.003 .0463495
565.799 .0457591
566.594 .0451971
567.388 .0446588
568.182 .0441402
568.976 .0436376
569.769 .0431486
570.562 .0426721
571.354 .0422068
572.145 .0417535
572.936 .0413124
573.727 .0408837
574.517 .0404678
575.307 .0400654
576.096 .0396760
576.885 .0392997
577.673 .0389372
578.461 .0385884
579.248 .0382534
580.035 .0379328
580.821 .0376269
581.607 .0373364
582.392 .0370615
583.177 .0368025
583.962 .0365594
584.746 .0363322
585.529 .0361202
586.313 .0359229
587.095 .0357394
587.878 .0355691
588.660 .0354111
589.441 .0352647
590.222 .0351288
591.003 .0350025
591.783 .0348849
592.563 .0347751
593.342 .0346721
594.121 .0345750
594.899 .0344828
595.678 .0343948
596.455 .0343102
597.233 .0342284
598.009 .0341488
598.786 .0340712
599.562 .0339952
600.338 .0339206
601.113 .0338473
601.888 .0337419
602.663 .0336724
603.437 .0336044
604.211 .0335381
604.984 .0334735
605.757 .0334107
606.530 .0333498
607.302 .0332909
608.074 .0332341
608.845 .0331795
609.616 .0331272
610.387 .0331073
611.158 .0330587
611.928 .0330125
612.697 .0329687
613.467 .0329273
614.236 .0328883
615.004 .0328515
615.773 .0328167
616.541 .0327838
617.308 .0327525
618.076 .0327225
618.843 .0326937
619.609 .0326659
620.375 .0326389
621.141 .0326127
621.907 .0325872
622.672 .0325622
623.437 .0325375
624.202 .0325131
624.966 .0324889
625.730 .0324647
626.493 .0324404
627.257 .0324159
628.020 .0323913
628.782 .0323666
629.545 .0323417
630.307 .0323168
631.068 .0322920
631.830 .0322672
632.591 .0322425
633.352 .0322181
634.112 .0321941
634.872 .0321706
635.632 .0321476
636.392 .0321253
637.151 .0321036
637.910 .0320824
638.668 .0320619
639.427 .0320418
640.185 .0320222
640.943 .0320029
641.700 .0319841
642.457 .0319657
643.214 .0319477
643.971 .0319301
644.727 .0319128
645.483 .0318957
646.239 .0318786
646.994 .0318612
647.750 .0318435
648.505 .0318252
649.259 .0318062
650.014 .0317863
650.768 .0317656
651.521 .0317440
652.275 .0317215
653.028 .0316982
653.781 .0316740
654.534 .0316489
655.286 .0316230
656.039 .0315963
656.791 .0315689
657.542 .0315406
658.294 .0315117
659.045 .0314821
659.796 .0314519
660.546 .0314210
661.297 .0313896
662.047 .0313576
662.796 .0313251
663.546 .0312922
664.295 .0312590
665.044 .0312257
665.793 .0311923
666.542 .0311589
667.290 .0311257
668.038 .0310927
668.786 .0310599
669.533 .0310272
670.281 .0309947
671.028 .0309624
671.774 .0309302
672.521 .0308982
673.267 .0308664
674.013 .0308349
674.759 .0308036
675.505 .0307726
676.250 .0307420
676.995 .0307118
677.740 .0306820
678.484 .0306527
679.229 .0306237
679.973 .0305952
680.717 .0305671
681.460 .0305394
682.204 .0305122
682.947 .0304853
683.690 .0304588
684.433 .0304327
685.175 .0304069
685.917 .0303815
686.659 .0303563
687.401 .0303315
688.142 .0303070
688.884 .0302828
689.625 .0302590
690.365 .0302356
691.106 .0302127
691.846 .0301901
692.586 .0301678
693.326 .0301459
694.066 .0301243
694.805 .0301032
695.545 .0300824
696.284 .0300622
697.022 .0300425
697.761 .0300235
698.499 .0300052
699.237 .0299876
699.975 .0299708
700.713 .0299548
701.450 .0299395
702.187 .0299249
702.924 .0299108
703.661 .0298972
704.397 .0298840
705.133 .0298711
705.869 .0298586
706.605 .0298463
707.341 .0298343
708.076 .0298225
708.811 .0298109
709.546 .0297995
710.281 .0297882
711.015 .0297771
711.749 .0297660
712.483 .0297549
713.217 .0297437
713.950 .0297324
714.684 .0297210
715.417 .0297094
716.150 .0296976
716.882 .0296857
717.615 .0296736
718.347 .0296614
719.079 .0296492
719.811 .0296369
720.542 .0296246
721.273 .0296123
722.005 .0296000
722.735 .0295878
723.466 .0295756
724.196 .0295634
724.927 .0295512
725.656 .0295392
726.386 .0295272
727.116 .0295154
727.845 .0295037
728.574 .0294921
729.303 .0294806
730.031 .0294693
730.760 .0294581
731.488 .0294470
732.216 .0294360
732.944 .0294249
733.671 .0294138
734.398 .0294026
735.125 .0293914
735.852 .0293801
736.579 .0293688
737.305 .0293574
738.031 .0293461
738.757 .0293347
739.483 .0293234
740.208 .0293121
740.933 .0293008
741.658 .0292895
742.383 .0292782
743.108 .0292667
743.832 .0292551
744.556 .0292433
745.280 .0292313
746.004 .0292189
746.727 .0292061
747.450 .0291929
748.173 .0291791
748.896 .0291647
749.618 .0291497
750.340 .0291341
751.062 .0291178
751.784 .0291009
752.506 .0290833
753.227 .0290650
753.948 .0290458
754.669 .0290258
755.389 .0290050
756.110 .0289834
756.830 .0289610
757.550 .0289379
758.269 .0289142
758.989 .0288899
759.708 .0288650
760.427 .0288397
761.146 .0288140
761.864 .0287878
762.582 .0287614
763.300 .0287347
764.018 .0287079
764.736 .0286811
765.453 .0286544
766.170 .0286280
766.887 .0286019
767.603 .0285763
768.320 .0285511
769.036 .0285265
769.751 .0285026
770.467 .0284794
771.182 .0284569
771.897 .0284350
772.612 .0284139
773.327 .0283934
774.041 .0283736
774.755 .0283543
775.469 .0283356
776.183 .0283174
776.896 .0282998
777.609 .0282827
778.322 .0282662
779.035 .0282503
779.747 .0282350
780.459 .0282201
781.171 .0282058
781.882 .0281918
782.594 .0281782
783.305 .0281649
784.016 .0281519
784.726 .0281391
785.436 .0281266
786.147 .0281090
786.856 .0280971
787.566 .0280855
788.275 .0280741
788.984 .0280629
789.693 .0280520
790.401 .0280411
791.110 .0280304
791.818 .0280197
792.525 .0280091
793.233 .0279986
793.940 .0279882
794.647 .0279830
795.353 .0279728
796.060 .0279628
796.766 .0279531
797.472 .0279435
798.177 .0279341
798.883 .0279249
799.588 .0279158
800.292 .0279068
800.997 .0278979
801.701 .0278890
802.405 .0278802
803.109 .0278714
803.812 .0278628
804.515 .0278542
805.218 .0278457
805.921 .0278373
806.623 .0278290
807.325 .0278208
808.027 .0278127
808.728 .0278048
809.429 .0277972
810.130 .0277898
810.831 .0277827
811.531 .0277760
812.231 .0277696
812.931 .0277635
813.630 .0277578
814.330 .0277525
815.029 .0277475
815.727 .0277430
816.426 .0277390
817.124 .0277355
817.821 .0277325
818.519 .0277302
819.216 .0277285
819.913 .0277274
820.609 .0277270
821.306 .0277271
822.002 .0277279
822.697 .0277293
823.393 .0277314
824.088 .0277341
824.783 .0277376
825.477 .0277415
826.171 .0277461
826.865 .0277510
827.559 .0277563
828.252 .0277619
828.945 .0277677
829.638 .0277737
830.330 .0277797
831.023 .0277858
831.714 .0277920
832.406 .0277980
833.097 .0278040
833.788 .0278098
834.479 .0278154
835.169 .0278207
835.859 .0278258
836.548 .0278305
837.238 .0278349
837.927 .0278390
838.615 .0278426
839.304 .0278458
839.992 .0278485
840.680 .0278506
841.367 .0278520
842.054 .0278528
842.741 .0278530
843.428 .0278525
844.114 .0278513
844.800 .0278494
845.485 .0278467
846.170 .0278433
846.855 .0278390
847.540 .0278338
848.224 .0278275
848.908 .0278202
849.592 .0278118
850.275 .0278023
850.958 .0277917
851.641 .0277801
852.323 .0277674
853.005 .0277538
853.687 .0277392
854.368 .0277237
855.049 .0277073
855.730 .0276900
856.410 .0276719
857.090 .0276529
857.769 .0276332
858.449 .0276127
859.128 .0275916
859.806 .0275698
860.485 .0275475
861.163 .0275248
861.840 .0275016
862.518 .0274782
863.195 .0274546
863.871 .0274308
864.548 .0274070
865.224 .0273830
865.899 .0273590
866.574 .0273349
867.249 .0273107
867.924 .0272866
868.598 .0272625
869.272 .0272384
869.946 .0272144
870.619 .0271904
871.292 .0271666
871.964 .0271429
872.636 .0271195
873.308 .0270962
873.979 .0270732
874.651 .0270505
875.321 .0270282
875.992 .0270061
876.662 .0269844
877.331 .0269631
878.001 .0269420
878.670 .0269211
879.338 .0269004
880.007 .0268799
880.675 .0268596
881.342 .0268396
882.009 .0268200
882.676 .0268007
883.343 .0267819
884.009 .0267635
884.675 .0267457
885.340 .0267283
886.005 .0267113
886.670 .0266946
887.334 .0266783
887.998 .0266623
888.662 .0266466
889.325 .0266313
889.988 .0266163
890.650 .0266017
891.312 .0265875
891.974 .0265737
892.636 .0265601
893.297 .0265469
893.957 .0265337
894.618 .0265207
895.278 .0265077
895.937 .0264945
896.596 .0264813
897.255 .0264678
897.914 .0264540
898.572 .0264399
899.230 .0264254
899.887 .0264104
900.544 .0263948
901.201 .0263786
901.857 .0263510
902.513 .0263328
903.168 .0263139
903.823 .0262944
904.478 .0262742
905.132 .0262533
905.786 .0262318
906.440 .0262098
907.093 .0261872
907.746 .0261641
908.399 .0261407
909.051 .0261169
909.703 .0260931
910.354 .0260813
911.005 .0260578
911.656 .0260345
912.306 .0260114
912.956 .0259885
913.605 .0259660
914.254 .0259438
914.903 .0259221
915.551 .0259008
916.199 .0258801
916.847 .0258598
917.494 .0258401
918.141 .0258210
918.788 .0258025
919.434 .0257844
920.079 .0257670
920.725 .0257500
921.370 .0257335
922.014 .0257174
922.658 .0257017
923.302 .0256864
923.946 .0256715
924.589 .0256568
925.231 .0256424
925.873 .0256281
926.515 .0256141
927.157 .0256002
927.798 .0255866
928.439 .0255731
929.079 .0255599
929.719 .0255471
930.359 .0255347
930.998 .0255227
931.637 .0255112
932.275 .0255002
932.913 .0254898
933.551 .0254801
934.188 .0254711
934.825 .0254630
935.462 .0254558
936.098 .0254496
936.733 .0254445
937.369 .0254406
938.004 .0254377
938.638 .0254360
939.273 .0254352
939.907 .0254355
940.540 .0254367
941.173 .0254387
941.806 .0254416
942.438 .0254453
943.070 .0254498
943.702 .0254550
944.333 .0254609
944.964 .0254674
945.594 .0254743
946.224 .0254817
946.854 .0254893
947.483 .0254972
948.112 .0255052
948.741 .0255133
949.369 .0255215
949.996 .0255297
950.624 .0255379
951.251 .0255461
951.878 .0255541
952.504 .0255620
953.130 .0255696
953.755 .0255771
954.380 .0255843
955.005 .0255914
955.629 .0255983
956.253 .0256051
956.877 .0256118
957.500 .0256185
958.123 .0256251
958.746 .0256317
959.368 .0256383
959.990 .0256449
960.611 .0256515
961.232 .0256583
961.853 .0256651
962.473 .0256720
963.093 .0256790
963.712 .0256862
964.331 .0256935
964.950 .0257008
965.569 .0257083
966.187 .0257158
966.804 .0257232
967.422 .0257307
968.039 .0257380
968.655 .0257452
969.272 .0257522
969.887 .0257590
970.503 .0257655
971.118 .0257717
971.733 .0257774
972.347 .0257828
972.961 .0257877
973.575 .0257922
974.188 .0257963
974.801 .0257999
975.414 .0258030
976.026 .0258056
976.638 .0258076
977.250 .0258090
977.861 .0258097
978.472 .0258098
979.083 .0258092
979.693 .0258080
980.303 .0258062
980.912 .0258014
981.521 .0257986
982.130 .0257952
982.738 .0257913
983.346 .0257870
983.954 .0257822
984.562 .0257770
985.169 .0257714
985.775 .0257657
986.382 .0257598
986.988 .0257538
987.594 .0257479
988.199 .0257421
988.804 .0257365
989.409 .0257340
990.013 .0257287
990.617 .0257235
991.221 .0257184
991.824 .0257136
992.427 .0257089
993.030 .0257044
993.632 .0257002
994.234 .0256961
994.836 .0256923
995.438 .0256887
996.039 .0256852
996.640 .0256819
997.240 .0256786
997.840 .0256754
998.440 .0256723
999.040 .0256691
999.639 .0256661
1000.238 .0256632
1000.836 .0256605
1001.435 .0256579
1002.033 .0256555
1002.630 .0256532
1003.228 .0256510
1003.825 .0256488
1004.422 .0256466
1005.018 .0256443
1005.614 .0256418
1006.210 .0256391
1006.806 .0256361
1007.401 .0256328
1007.996 .0256292
1008.591 .0256252
1009.186 .0256207
1009.780 .0256158
1010.374 .0256104
1010.967 .0256046
1011.561 .0255984
1012.154 .0255919
1012.746 .0255851
1013.339 .0255781
1013.931 .0255710
1014.523 .0255639
1015.115 .0255567
1015.706 .0255495
1016.298 .0255422
1016.888 .0255350
1017.479 .0255279
1018.069 .0255208
1018.660 .0255139
1019.250 .0255071
1019.839 .0255004
1020.429 .0254938
1021.018 .0254873
1021.607 .0254808
1022.195 .0254743
1022.784 .0254676
1023.372 .0254608
1023.960 .0254537
1024.547 .0254465
1025.135 .0254392
1025.722 .0254318
1026.309 .0254244
1026.896 .0254169
1027.483 .0254095
1028.069 .0254019
1028.655 .0253943
1029.241 .0253864
1029.827 .0253783
1030.412 .0253699
1030.997 .0253612
1031.582 .0253521
1032.167 .0253427
1032.752 .0253331
1033.336 .0253232
1033.921 .0253130
1034.505 .0253026
1035.089 .0252918
1035.672 .0252807
1036.256 .0252691
1036.839 .0252570
1037.422 .0252445
1038.005 .0252316
1038.588 .0252184
1039.171 .0252049
1039.753 .0251912
1040.335 .0251773
1040.918 .0251633
1041.500 .0251491
1042.081 .0251347
1042.663 .0251200
1043.244 .0251052
1043.826 .0250902
1044.407 .0250750
1044.988 .0250597
1045.569 .0250443
1046.150 .0250290
1046.730 .0250137
1047.311 .0249985
1047.891 .0249833
1048.471 .0249680
1049.052 .0249527
1049.632 .0249372
1050.211 .0249217
1050.791 .0249060
1051.371 .0248903
1051.950 .0248746
1052.530 .0248589
1053.109 .0248432
1053.688 .0248277
1054.268 .0248122
1054.847 .0247968
1055.426 .0247815
1056.005 .0247664
1056.583 .0247516
1057.162 .0247372
1057.741 .0247231
1058.319 .0247097
1058.898 .0246967
1059.476 .0246842
1060.055 .0246721
1060.633 .0246605
1061.211 .0246492
1061.790 .0246384
1062.368 .0246280
1062.946 .0246181
1063.524 .0246087
1064.102 .0245997
1064.680 .0245913
1065.258 .0245835
1065.836 .0245761
1066.414 .0245691
1066.992 .0245626
1067.570 .0245563
1068.148 .0245504
1068.726 .0245450
1069.304 .0245400
1069.882 .0245356
1070.460 .0245317
1071.038 .0245284
1071.616 .0245255
1072.194 .0245231
1072.772 .0245208
1073.350 .0245188
1073.928 .0245167
1074.506 .0245147
1075.084 .0245126
1075.662 .0245106
1076.240 .0245086
1076.819 .0245068
1077.397 .0245051
1077.976 .0245034
1078.554 .0245016
1079.133 .0244998
1079.711 .0244978
1080.290 .0244957
1080.869 .0244934
1081.448 .0244908
1082.027 .0244881
1082.606 .0244852
1083.185 .0244822
1083.764 .0244792
1084.343 .0244762
1084.923 .0244732
1085.502 .0244704
1086.082 .0244677
1086.662 .0244652
1087.242 .0244631
1087.822 .0244614
1088.402 .0244603
1088.983 .0244598
1089.563 .0244601
1090.144 .0244612
1090.725 .0244630
1091.306 .0244657
1091.887 .0244693
1092.469 .0244737
1093.050 .0244790
1093.632 .0244853
1094.214 .0244926
1094.796 .0245010
1095.379 .0245104
1095.961 .0245210
1096.544 .0245326
1097.127 .0245453
1097.710 .0245591
1098.294 .0245740
1098.877 .0245902
1099.461 .0246077
1100.046 .0246266
1100.630 .0246470
1101.215 .0246691
1101.800 .0246928
1102.385 .0247181
1102.970 .0247449
1103.556 .0247732
1104.142 .0248028
1104.728 .0248337
1105.315 .0248659
1105.902 .0248995
1106.489 .0249346
1107.077 .0249713
1107.664 .0250095
1108.253 .0250495
1108.841 .0250912
1109.430 .0251346
1110.019 .0251795
1110.609 .0252258
1111.198 .0252735
1111.789 .0253225
1112.379 .0253727
1112.970 .0254242
1113.561 .0254770
1114.153 .0255308
1114.745 .0255857
1115.338 .0256414
1115.931 .0256978
1116.524 .0257549
1117.117 .0258124
1117.712 .0258705
1118.306 .0259291
1118.901 .0259883
1119.496 .0260483
1120.092 .0261093
1120.689 .0261713
1121.285 .0262342
1121.882 .0262982
1122.480 .0263631
1123.078 .0264290
1123.677 .0264958
1124.276 .0265637
1124.875 .0266326
1125.476 .0267023
1126.076 .0267726
1126.677 .0268434
1127.279 .0269145
1127.881 .0269855
1128.484 .0270566
1129.087 .0270894
1129.691 .0271608
1130.295 .0272323
1130.900 .0273043
1131.505 .0273772
1132.111 .0274510
1132.718 .0275262
1133.325 .0276034
1133.933 .0276844
1134.541 .0277659
1135.150 .0278396
1135.760 .0279261
1136.370 .0280271
1136.981 .0281361
1137.592 .0281995
1138.204 .0282669
1138.817 .0283383
1139.431 .0284201
1140.045 .0285001
1140.660 .0285918
1141.275 .0286987
1141.891 .0288508
1142.508 .0289127
1143.126 .0287522
1143.744 .0291688
1144.363 .0296409
1144.983 .0305833
