Measurement Sequence started on: 15-12-46-377
Integration time: 28
Scans to Average: 2 
>>>>>Begin Spectral Data<<<<<
432.689 .0000100
433.621 .0000100
434.552 .0000100
435.482 .0000100
436.410 .0000100
437.337 .0000100
438.262 .0270953
439.187 .0573908
440.110 .0951471
441.031 .1377508
441.952 .1109826
442.871 .1159577
443.789 .1205897
444.705 .1249501
445.621 .1290895
446.535 .1330439
447.447 .1354138
448.359 .1360502
449.269 .1345766
450.178 .1307509
451.086 .1246438
451.993 .1167238
452.898 .1077722
453.803 .0986747
454.706 .0901891
455.608 .0827875
456.508 .0766327
457.408 .0724267
458.306 .0691653
459.204 .0664922
460.100 .0642250
460.995 .0622629
461.888 .0605377
462.781 .0590021
463.673 .0576237
464.563 .0563796
465.452 .0552528
466.340 .0542302
467.228 .0533016
468.114 .0524593
468.999 .0516965
469.882 .0510056
470.765 .0503802
471.647 .0498135
472.528 .0493000
473.407 .0488346
474.286 .0484132
475.163 .0480334
476.040 .0476916
476.915 .0473855
477.790 .0471120
478.663 .0468677
479.535 .0466498
480.407 .0464548
481.277 .0462797
482.147 .0461217
483.015 .0459786
483.883 .0458483
484.749 .0457295
485.615 .0456216
486.479 .0455250
487.343 .0454405
488.206 .0453689
489.067 .0453114
489.928 .0452695
490.788 .0452450
491.647 .0452393
492.505 .0452541
493.362 .0452914
494.218 .0453530
495.073 .0454408
495.928 .0456794
496.781 .0458433
497.634 .0460396
498.486 .0462701
499.337 .0465366
500.187 .0468408
501.036 .0471846
501.884 .0475703
502.731 .0480007
503.578 .0484783
504.424 .0488171
505.268 .0493773
506.113 .0499948
506.956 .0506738
507.798 .0514191
508.640 .0522369
509.480 .0531342
510.320 .0541197
511.160 .0552025
511.998 .0563944
512.836 .0577103
513.672 .0591654
514.508 .0607792
515.344 .0625736
516.178 .0645711
517.012 .0667971
517.845 .0692764
518.677 .0720291
519.508 .0750735
520.339 .0784172
521.169 .0820606
521.998 .0859784
522.826 .0901328
523.654 .0944663
524.481 .0989082
525.307 .1033806
526.133 .1077957
526.958 .1120613
527.782 .1160912
528.605 .1198035
529.428 .1231285
530.250 .1260037
531.072 .1283877
531.892 .1302454
532.712 .1315553
533.532 .1323050
534.350 .1324881
535.168 .1321059
535.986 .1311685
536.802 .1296816
537.618 .1276574
538.434 .1251123
539.249 .1220840
540.063 .1186221
540.876 .1147923
541.689 .1106708
542.501 .1063399
543.313 .1018872
544.124 .0974026
544.934 .0929673
545.744 .0886573
546.553 .0845342
547.361 .0806484
548.169 .0770304
548.976 .0736995
549.783 .0706592
550.589 .0679027
551.395 .0654143
552.200 .0631701
553.004 .0611415
553.808 .0593025
554.611 .0576312
555.414 .0561076
556.216 .0547151
557.018 .0534369
557.819 .0522602
558.619 .0511738
559.419 .0501674
560.218 .0492340
561.017 .0483672
561.815 .0475611
562.613 .0468110
563.410 .0461110
564.207 .0454551
565.003 .0448370
565.799 .0442511
566.594 .0436920
567.388 .0431550
568.182 .0426358
568.976 .0421308
569.769 .0416377
570.562 .0411557
571.354 .0406845
572.145 .0402244
572.936 .0397761
573.727 .0393399
574.517 .0389157
575.307 .0385040
576.096 .0381043
576.885 .0377167
577.673 .0373414
578.461 .0369792
579.248 .0366306
580.035 .0362969
580.821 .0359794
581.607 .0356790
582.392 .0353966
583.177 .0351322
583.962 .0348855
584.746 .0346559
585.529 .0344427
586.313 .0342448
587.095 .0340614
587.878 .0338917
588.660 .0337347
589.441 .0335901
590.222 .0334569
591.003 .0333346
591.783 .0332226
592.563 .0331200
593.342 .0330260
594.121 .0329402
594.899 .0328615
595.678 .0327894
596.455 .0327232
597.233 .0326624
598.009 .0326063
598.786 .0325544
599.562 .0325062
600.338 .0324613
601.113 .0324191
601.888 .0323612
602.663 .0323233
603.437 .0322867
604.211 .0322509
604.984 .0322157
605.757 .0321808
606.530 .0321461
607.302 .0321115
608.074 .0320772
608.845 .0320432
609.616 .0320098
610.387 .0319949
611.158 .0319628
611.928 .0319314
612.697 .0319008
613.467 .0318711
614.236 .0318423
615.004 .0318143
615.773 .0317870
616.541 .0317603
617.308 .0317341
618.076 .0317084
618.843 .0316830
619.609 .0316581
620.375 .0316336
621.141 .0316094
621.907 .0315857
622.672 .0315624
623.437 .0315394
624.202 .0315168
624.966 .0314944
625.730 .0314720
626.493 .0314495
627.257 .0314267
628.020 .0314035
628.782 .0313799
629.545 .0313558
630.307 .0313313
631.068 .0313064
631.830 .0312812
632.591 .0312557
633.352 .0312300
634.112 .0312040
634.872 .0311779
635.632 .0311516
636.392 .0311251
637.151 .0310985
637.910 .0310716
638.668 .0310447
639.427 .0310177
640.185 .0309905
640.943 .0309634
641.700 .0309363
642.457 .0309093
643.214 .0308825
643.971 .0308561
644.727 .0308302
645.483 .0308048
646.239 .0307801
646.994 .0307561
647.750 .0307327
648.505 .0307099
649.259 .0306875
650.014 .0306654
650.768 .0306435
651.521 .0306218
652.275 .0306003
653.028 .0305790
653.781 .0305580
654.534 .0305373
655.286 .0305168
656.039 .0304965
656.791 .0304764
657.542 .0304562
658.294 .0304359
659.045 .0304154
659.796 .0303947
660.546 .0303735
661.297 .0303520
662.047 .0303302
662.796 .0303080
663.546 .0302854
664.295 .0302626
665.044 .0302396
665.793 .0302166
666.542 .0301935
667.290 .0301707
668.038 .0301480
668.786 .0301258
669.533 .0301039
670.281 .0300825
671.028 .0300615
671.774 .0300409
672.521 .0300208
673.267 .0300011
674.013 .0299818
674.759 .0299632
675.505 .0299451
676.250 .0299276
676.995 .0299107
677.740 .0298944
678.484 .0298785
679.229 .0298630
679.973 .0298479
680.717 .0298329
681.460 .0298181
682.204 .0298035
682.947 .0297888
683.690 .0297740
684.433 .0297591
685.175 .0297440
685.917 .0297285
686.659 .0297126
687.401 .0296964
688.142 .0296798
688.884 .0296628
689.625 .0296456
690.365 .0296281
691.106 .0296106
691.846 .0295929
692.586 .0295751
693.326 .0295572
694.066 .0295391
694.805 .0295210
695.545 .0295027
696.284 .0294845
697.022 .0294663
697.761 .0294481
698.499 .0294300
699.237 .0294121
699.975 .0293943
700.713 .0293767
701.450 .0293593
702.187 .0293421
702.924 .0293250
703.661 .0293081
704.397 .0292912
705.133 .0292744
705.869 .0292576
706.605 .0292408
707.341 .0292239
708.076 .0292069
708.811 .0291898
709.546 .0291726
710.281 .0291554
711.015 .0291381
711.749 .0291208
712.483 .0291034
713.217 .0290859
713.950 .0290682
714.684 .0290504
715.417 .0290324
716.150 .0290142
716.882 .0289958
717.615 .0289773
718.347 .0289585
719.079 .0289397
719.811 .0289208
720.542 .0289019
721.273 .0288831
722.005 .0288644
722.735 .0288458
723.466 .0288274
724.196 .0288092
724.927 .0287911
725.656 .0287731
726.386 .0287553
727.116 .0287375
727.845 .0287198
728.574 .0287023
729.303 .0286848
730.031 .0286676
730.760 .0286507
731.488 .0286340
732.216 .0286175
732.944 .0286014
733.671 .0285855
734.398 .0285698
735.125 .0285543
735.852 .0285389
736.579 .0285237
737.305 .0285086
738.031 .0284936
738.757 .0284787
739.483 .0284639
740.208 .0284493
740.933 .0284349
741.658 .0284208
742.383 .0284068
743.108 .0283931
743.832 .0283797
744.556 .0283665
745.280 .0283535
746.004 .0283406
746.727 .0283279
747.450 .0283152
748.173 .0283026
748.896 .0282900
749.618 .0282775
750.340 .0282649
751.062 .0282525
751.784 .0282401
752.506 .0282278
753.227 .0282156
753.948 .0282034
754.669 .0281913
755.389 .0281792
756.110 .0281672
756.830 .0281551
757.550 .0281430
758.269 .0281308
758.989 .0281185
759.708 .0281062
760.427 .0280937
761.146 .0280812
761.864 .0280686
762.582 .0280560
763.300 .0280434
764.018 .0280308
764.736 .0280182
765.453 .0280056
766.170 .0279929
766.887 .0279801
767.603 .0279673
768.320 .0279544
769.036 .0279415
769.751 .0279286
770.467 .0279159
771.182 .0279033
771.897 .0278909
772.612 .0278788
773.327 .0278668
774.041 .0278551
774.755 .0278436
775.469 .0278323
776.183 .0278212
776.896 .0278103
777.609 .0277996
778.322 .0277891
779.035 .0277789
779.747 .0277688
780.459 .0277590
781.171 .0277493
781.882 .0277399
782.594 .0277307
783.305 .0277217
784.016 .0277129
784.726 .0277044
785.436 .0276962
786.147 .0276843
786.856 .0276765
787.566 .0276688
788.275 .0276612
788.984 .0276537
789.693 .0276461
790.401 .0276386
791.110 .0276310
791.818 .0276233
792.525 .0276154
793.233 .0276074
793.940 .0275991
794.647 .0275944
795.353 .0275857
796.060 .0275768
796.766 .0275677
797.472 .0275583
798.177 .0275486
798.883 .0275386
799.588 .0275284
800.292 .0275179
800.997 .0275072
801.701 .0274962
802.405 .0274851
803.109 .0274737
803.812 .0274620
804.515 .0274502
805.218 .0274381
805.921 .0274257
806.623 .0274130
807.325 .0274000
808.027 .0273867
808.728 .0273733
809.429 .0273597
810.130 .0273460
810.831 .0273323
811.531 .0273187
812.231 .0273051
812.931 .0272917
813.630 .0272783
814.330 .0272651
815.029 .0272520
815.727 .0272390
816.426 .0272263
817.124 .0272138
817.821 .0272017
818.519 .0271899
819.216 .0271785
819.913 .0271676
820.609 .0271571
821.306 .0271471
822.002 .0271375
822.697 .0271284
823.393 .0271197
824.088 .0271115
824.783 .0271036
825.477 .0270962
826.171 .0270891
826.865 .0270824
827.559 .0270761
828.252 .0270700
828.945 .0270642
829.638 .0270586
830.330 .0270532
831.023 .0270478
831.714 .0270425
832.406 .0270372
833.097 .0270319
833.788 .0270264
834.479 .0270208
835.169 .0270151
835.859 .0270091
836.548 .0270029
837.238 .0269965
837.927 .0269897
838.615 .0269826
839.304 .0269751
839.992 .0269672
840.680 .0269589
841.367 .0269503
842.054 .0269414
842.741 .0269322
843.428 .0269228
844.114 .0269131
844.800 .0269032
845.485 .0268928
846.170 .0268820
846.855 .0268708
847.540 .0268591
848.224 .0268470
848.908 .0268344
849.592 .0268214
850.275 .0268082
850.958 .0267947
851.641 .0267810
852.323 .0267670
853.005 .0267527
853.687 .0267382
854.368 .0267233
855.049 .0267080
855.730 .0266925
856.410 .0266767
857.090 .0266607
857.769 .0266445
858.449 .0266282
859.128 .0266117
859.806 .0265951
860.485 .0265784
861.163 .0265616
861.840 .0265447
862.518 .0265279
863.195 .0265112
863.871 .0264947
864.548 .0264784
865.224 .0264624
865.899 .0264467
866.574 .0264313
867.249 .0264162
867.924 .0264014
868.598 .0263869
869.272 .0263728
869.946 .0263591
870.619 .0263457
871.292 .0263328
871.964 .0263204
872.636 .0263085
873.308 .0262970
873.979 .0262860
874.651 .0262755
875.321 .0262655
875.992 .0262558
876.662 .0262465
877.331 .0262376
878.001 .0262290
878.670 .0262207
879.338 .0262127
880.007 .0262050
880.675 .0261975
881.342 .0261903
882.009 .0261833
882.676 .0261767
883.343 .0261702
884.009 .0261641
884.675 .0261582
885.340 .0261525
886.005 .0261470
886.670 .0261418
887.334 .0261368
887.998 .0261321
888.662 .0261276
889.325 .0261234
889.988 .0261194
890.650 .0261157
891.312 .0261122
891.974 .0261091
892.636 .0261061
893.297 .0261035
893.957 .0261010
894.618 .0260986
895.278 .0260963
895.937 .0260939
896.596 .0260914
897.255 .0260888
897.914 .0260859
898.572 .0260828
899.230 .0260793
899.887 .0260754
900.544 .0260712
901.201 .0260665
901.857 .0260567
902.513 .0260503
903.168 .0260432
903.823 .0260354
904.478 .0260268
905.132 .0260174
905.786 .0260073
906.440 .0259964
907.093 .0259847
907.746 .0259725
908.399 .0259596
909.051 .0259462
909.703 .0259324
910.354 .0259246
911.005 .0259107
911.656 .0258967
912.306 .0258826
912.956 .0258686
913.605 .0258547
914.254 .0258411
914.903 .0258277
915.551 .0258146
916.199 .0258018
916.847 .0257893
917.494 .0257771
918.141 .0257652
918.788 .0257535
919.434 .0257419
920.079 .0257305
920.725 .0257192
921.370 .0257078
922.014 .0256965
922.658 .0256851
923.302 .0256736
923.946 .0256619
924.589 .0256502
925.231 .0256382
925.873 .0256261
926.515 .0256138
927.157 .0256012
927.798 .0255885
928.439 .0255755
929.079 .0255624
929.719 .0255492
930.359 .0255359
930.998 .0255227
931.637 .0255095
932.275 .0254965
932.913 .0254837
933.551 .0254712
934.188 .0254588
934.825 .0254467
935.462 .0254349
936.098 .0254234
936.733 .0254123
937.369 .0254017
938.004 .0253916
938.638 .0253820
939.273 .0253732
939.907 .0253651
940.540 .0253577
941.173 .0253510
941.806 .0253449
942.438 .0253393
943.070 .0253341
943.702 .0253294
944.333 .0253249
944.964 .0253207
945.594 .0253165
946.224 .0253125
946.854 .0253084
947.483 .0253043
948.112 .0252999
948.741 .0252953
949.369 .0252903
949.996 .0252849
950.624 .0252790
951.251 .0252727
951.878 .0252659
952.504 .0252587
953.130 .0252511
953.755 .0252431
954.380 .0252347
955.005 .0252262
955.629 .0252174
956.253 .0252084
956.877 .0251993
957.500 .0251901
958.123 .0251809
958.746 .0251718
959.368 .0251628
959.990 .0251540
960.611 .0251454
961.232 .0251369
961.853 .0251285
962.473 .0251203
963.093 .0251120
963.712 .0251038
964.331 .0250956
964.950 .0250874
965.569 .0250792
966.187 .0250710
966.804 .0250627
967.422 .0250544
968.039 .0250459
968.655 .0250374
969.272 .0250286
969.887 .0250197
970.503 .0250105
971.118 .0250010
971.733 .0249913
972.347 .0249813
972.961 .0249709
973.575 .0249603
974.188 .0249492
974.801 .0249378
975.414 .0249258
976.026 .0249134
976.638 .0249005
977.250 .0248870
977.861 .0248730
978.472 .0248587
979.083 .0248439
979.693 .0248289
980.303 .0248136
980.912 .0247901
981.521 .0247745
982.130 .0247589
982.738 .0247432
983.346 .0247276
983.954 .0247121
984.562 .0246968
985.169 .0246818
985.775 .0246673
986.382 .0246533
986.988 .0246399
987.594 .0246271
988.199 .0246148
988.804 .0246029
989.409 .0245985
990.013 .0245872
990.617 .0245763
991.221 .0245656
991.824 .0245552
992.427 .0245450
993.030 .0245351
993.632 .0245254
994.234 .0245160
994.836 .0245068
995.438 .0244978
996.039 .0244890
996.640 .0244805
997.240 .0244722
997.840 .0244640
998.440 .0244561
999.040 .0244484
999.639 .0244410
1000.238 .0244338
1000.836 .0244268
1001.435 .0244202
1002.033 .0244138
1002.630 .0244077
1003.228 .0244018
1003.825 .0243961
1004.422 .0243907
1005.018 .0243853
1005.614 .0243801
1006.210 .0243750
1006.806 .0243699
1007.401 .0243650
1007.996 .0243603
1008.591 .0243558
1009.186 .0243515
1009.780 .0243476
1010.374 .0243440
1010.967 .0243407
1011.561 .0243379
1012.154 .0243353
1012.746 .0243332
1013.339 .0243314
1013.931 .0243299
1014.523 .0243288
1015.115 .0243280
1015.706 .0243276
1016.298 .0243275
1016.888 .0243278
1017.479 .0243284
1018.069 .0243293
1018.660 .0243306
1019.250 .0243322
1019.839 .0243341
1020.429 .0243364
1021.018 .0243390
1021.607 .0243420
1022.195 .0243453
1022.784 .0243492
1023.372 .0243534
1023.960 .0243581
1024.547 .0243633
1025.135 .0243689
1025.722 .0243749
1026.309 .0243812
1026.896 .0243879
1027.483 .0243948
1028.069 .0244018
1028.655 .0244090
1029.241 .0244161
1029.827 .0244233
1030.412 .0244303
1030.997 .0244371
1031.582 .0244438
1032.167 .0244503
1032.752 .0244566
1033.336 .0244628
1033.921 .0244688
1034.505 .0244746
1035.089 .0244803
1035.672 .0244857
1036.256 .0244909
1036.839 .0244958
1037.422 .0245005
1038.005 .0245049
1038.588 .0245092
1039.171 .0245135
1039.753 .0245177
1040.335 .0245221
1040.918 .0245266
1041.500 .0245313
1042.081 .0245362
1042.663 .0245412
1043.244 .0245463
1043.826 .0245514
1044.407 .0245567
1044.988 .0245620
1045.569 .0245675
1046.150 .0245731
1046.730 .0245789
1047.311 .0245849
1047.891 .0245909
1048.471 .0245971
1049.052 .0246031
1049.632 .0246089
1050.211 .0246145
1050.791 .0246198
1051.371 .0246249
1051.950 .0246295
1052.530 .0246340
1053.109 .0246382
1053.688 .0246421
1054.268 .0246459
1054.847 .0246495
1055.426 .0246528
1056.005 .0246560
1056.583 .0246589
1057.162 .0246617
1057.741 .0246642
1058.319 .0246667
1058.898 .0246692
1059.476 .0246716
1060.055 .0246740
1060.633 .0246765
1061.211 .0246790
1061.790 .0246818
1062.368 .0246847
1062.946 .0246879
1063.524 .0246916
1064.102 .0246959
1064.680 .0247007
1065.258 .0247062
1065.836 .0247123
1066.414 .0247193
1066.992 .0247271
1067.570 .0247356
1068.148 .0247450
1068.726 .0247551
1069.304 .0247661
1069.882 .0247779
1070.460 .0247903
1071.038 .0248032
1071.616 .0248166
1072.194 .0248301
1072.772 .0248435
1073.350 .0248568
1073.928 .0248696
1074.506 .0248821
1075.084 .0248941
1075.662 .0249056
1076.240 .0249169
1076.819 .0249279
1077.397 .0249388
1077.976 .0249495
1078.554 .0249601
1079.133 .0249705
1079.711 .0249806
1080.290 .0249904
1080.869 .0250001
1081.448 .0250097
1082.027 .0250195
1082.606 .0250297
1083.185 .0250405
1083.764 .0250519
1084.343 .0250640
1084.923 .0250765
1085.502 .0250893
1086.082 .0251020
1086.662 .0251147
1087.242 .0251270
1087.822 .0251392
1088.402 .0251512
1088.983 .0251633
1089.563 .0251758
1090.144 .0251887
1090.725 .0252022
1091.306 .0252163
1091.887 .0252308
1092.469 .0252457
1093.050 .0252609
1093.632 .0252764
1094.214 .0252920
1094.796 .0253081
1095.379 .0253247
1095.961 .0253420
1096.544 .0253603
1097.127 .0253795
1097.710 .0253996
1098.294 .0254205
1098.877 .0254418
1099.461 .0254633
1100.046 .0254848
1100.630 .0255059
1101.215 .0255268
1101.800 .0255475
1102.385 .0255683
1102.970 .0255893
1103.556 .0256111
1104.142 .0256338
1104.728 .0256575
1105.315 .0256825
1105.902 .0257088
1106.489 .0257363
1107.077 .0257652
1107.664 .0257953
1108.253 .0258268
1108.841 .0258598
1109.430 .0258944
1110.019 .0259309
1110.609 .0259694
1111.198 .0260098
1111.789 .0260521
1112.379 .0260962
1112.970 .0261418
1113.561 .0261884
1114.153 .0262359
1114.745 .0262838
1115.338 .0263321
1115.931 .0263803
1116.524 .0264287
1117.117 .0264772
1117.712 .0265259
1118.306 .0265748
1118.901 .0266239
1119.496 .0266732
1120.092 .0267226
1120.689 .0267716
1121.285 .0268197
1121.882 .0268665
1122.480 .0269116
1123.078 .0269545
1123.677 .0269951
1124.276 .0270333
1124.875 .0270693
1125.476 .0271032
1126.076 .0271355
1126.677 .0271663
1127.279 .0271961
1127.881 .0272253
1128.484 .0272540
1129.087 .0272719
1129.691 .0272990
1130.295 .0273266
1130.900 .0273557
1131.505 .0273873
1132.111 .0274228
1132.718 .0274636
1133.325 .0275116
1133.933 .0275684
1134.541 .0276313
1135.150 .0277091
1135.760 .0277981
1136.370 .0279032
1136.981 .0275147
1137.592 .0275896
1138.204 .0276743
1138.817 .0277817
1139.431 .0279108
1140.045 .0280708
1140.660 .0282653
1141.275 .0285030
1141.891 .0287855
1142.508 .0289859
1143.126 .0294356
1143.744 .0297810
1144.363 .0302614
1144.983 .0307267
