Measurement Sequence started on: 15-12-46-377
Integration time: 28
Scans to Average: 2 
>>>>>Begin Spectral Data<<<<<
432.689 .0000100
433.621 .0000100
434.552 .0000100
435.482 .0000100
436.410 .0000100
437.337 .0000100
438.262 .0288650
439.187 .0611613
440.110 .1012597
441.031 .1464154
441.952 .1168087
442.871 .1219238
443.789 .1266789
444.705 .1311496
445.621 .1353888
446.535 .1394368
447.447 .1418031
448.359 .1423294
449.269 .1406239
450.178 .1364338
451.086 .1298418
451.993 .1213533
452.898 .1118030
453.803 .1021374
454.706 .0931601
455.608 .0853689
456.508 .0789306
457.408 .0745872
458.306 .0712628
459.204 .0685694
460.100 .0663112
460.995 .0643806
461.888 .0627034
462.781 .0612284
463.673 .0599173
464.563 .0587445
465.452 .0576900
466.340 .0567383
467.228 .0558782
468.114 .0551023
468.999 .0544017
469.882 .0537692
470.765 .0531962
471.647 .0526763
472.528 .0522034
473.407 .0517722
474.286 .0513785
475.163 .0510211
476.040 .0506978
476.915 .0504080
477.790 .0501507
478.663 .0499255
479.535 .0497305
480.407 .0495645
481.277 .0494243
482.147 .0493075
483.015 .0492109
483.883 .0491329
484.749 .0490722
485.615 .0490288
486.479 .0490025
487.343 .0489940
488.206 .0490041
489.067 .0490327
489.928 .0490796
490.788 .0491449
491.647 .0492277
492.505 .0493282
493.362 .0494462
494.218 .0495827
495.073 .0497388
495.928 .0500556
496.781 .0502730
497.634 .0505165
498.486 .0507870
499.337 .0510862
500.187 .0514147
501.036 .0517733
501.884 .0521633
502.731 .0525872
503.578 .0530481
504.424 .0533600
505.268 .0538905
506.113 .0544713
506.956 .0551076
507.798 .0558062
508.640 .0565743
509.480 .0574209
510.320 .0583567
511.160 .0593933
511.998 .0605457
512.836 .0618314
513.672 .0632691
514.508 .0648819
515.344 .0666928
516.178 .0687254
517.012 .0710029
517.845 .0735467
518.677 .0763732
519.508 .0794966
520.339 .0829246
521.169 .0866570
521.998 .0906695
522.826 .0949270
523.654 .0993735
524.481 .1039390
525.307 .1085424
526.133 .1130898
526.958 .1174833
527.782 .1216296
528.605 .1254402
529.428 .1288392
530.250 .1317618
531.072 .1341671
531.892 .1360178
532.712 .1372934
533.532 .1379829
534.350 .1380814
535.168 .1375943
535.986 .1365323
536.802 .1349046
537.618 .1327230
538.434 .1300054
539.249 .1267921
540.063 .1231312
540.876 .1190900
541.689 .1147475
542.501 .1101914
543.313 .1055176
544.124 .1008236
544.934 .0961979
545.744 .0917214
546.553 .0874590
547.361 .0834602
548.169 .0797493
548.976 .0763433
549.783 .0732413
550.589 .0704321
551.395 .0678980
552.200 .0656132
553.004 .0635506
553.808 .0616863
554.611 .0599985
555.414 .0584670
556.216 .0570720
557.018 .0557954
557.819 .0546204
558.619 .0535323
559.419 .0525183
560.218 .0515690
561.017 .0506755
561.815 .0498319
562.613 .0490335
563.410 .0482758
564.207 .0475558
565.003 .0468703
565.799 .0462157
566.594 .0455890
567.388 .0449888
568.182 .0444128
568.976 .0438592
569.769 .0433269
570.562 .0428148
571.354 .0423220
572.145 .0418480
572.936 .0413925
573.727 .0409550
574.517 .0405356
575.307 .0401342
576.096 .0397498
576.885 .0393822
577.673 .0390312
578.461 .0386962
579.248 .0383766
580.035 .0380720
580.821 .0377814
581.607 .0375046
582.392 .0372414
583.177 .0369918
583.962 .0367558
584.746 .0365331
585.529 .0363237
586.313 .0361273
587.095 .0359435
587.878 .0357719
588.660 .0356119
589.441 .0354630
590.222 .0353247
591.003 .0351964
591.783 .0350776
592.563 .0349678
593.342 .0348662
594.121 .0347720
594.899 .0346843
595.678 .0346024
596.455 .0345254
597.233 .0344529
598.009 .0343844
598.786 .0343194
599.562 .0342576
600.338 .0341988
601.113 .0341427
601.888 .0340660
602.663 .0340157
603.437 .0339675
604.211 .0339213
604.984 .0338770
605.757 .0338343
606.530 .0337933
607.302 .0337539
608.074 .0337162
608.845 .0336801
609.616 .0336458
610.387 .0336332
611.158 .0336015
611.928 .0335714
612.697 .0335429
613.467 .0335158
614.236 .0334898
615.004 .0334649
615.773 .0334407
616.541 .0334171
617.308 .0333939
618.076 .0333709
618.843 .0333481
619.609 .0333253
620.375 .0333022
621.141 .0332788
621.907 .0332549
622.672 .0332304
623.437 .0332051
624.202 .0331790
624.966 .0331520
625.730 .0331240
626.493 .0330951
627.257 .0330652
628.020 .0330343
628.782 .0330025
629.545 .0329699
630.307 .0329365
631.068 .0329027
631.830 .0328684
632.591 .0328339
633.352 .0327994
634.112 .0327649
634.872 .0327305
635.632 .0326963
636.392 .0326623
637.151 .0326286
637.910 .0325953
638.668 .0325623
639.427 .0325299
640.185 .0324980
640.943 .0324668
641.700 .0324362
642.457 .0324062
643.214 .0323767
643.971 .0323477
644.727 .0323192
645.483 .0322908
646.239 .0322627
646.994 .0322347
647.750 .0322067
648.505 .0321788
649.259 .0321510
650.014 .0321233
650.768 .0320957
651.521 .0320683
652.275 .0320409
653.028 .0320136
653.781 .0319864
654.534 .0319592
655.286 .0319320
656.039 .0319048
656.791 .0318775
657.542 .0318502
658.294 .0318229
659.045 .0317956
659.796 .0317684
660.546 .0317415
661.297 .0317149
662.047 .0316885
662.796 .0316626
663.546 .0316371
664.295 .0316120
665.044 .0315874
665.793 .0315632
666.542 .0315396
667.290 .0315165
668.038 .0314940
668.786 .0314721
669.533 .0314508
670.281 .0314301
671.028 .0314100
671.774 .0313905
672.521 .0313715
673.267 .0313530
674.013 .0313349
674.759 .0313173
675.505 .0313001
676.250 .0312833
676.995 .0312667
677.740 .0312503
678.484 .0312340
679.229 .0312178
679.973 .0312017
680.717 .0311856
681.460 .0311696
682.204 .0311535
682.947 .0311374
683.690 .0311211
684.433 .0311045
685.175 .0310876
685.917 .0310703
686.659 .0310526
687.401 .0310344
688.142 .0310158
688.884 .0309968
689.625 .0309774
690.365 .0309576
691.106 .0309376
691.846 .0309173
692.586 .0308967
693.326 .0308759
694.066 .0308548
694.805 .0308337
695.545 .0308125
696.284 .0307914
697.022 .0307704
697.761 .0307497
698.499 .0307292
699.237 .0307089
699.975 .0306890
700.713 .0306693
701.450 .0306499
702.187 .0306308
702.924 .0306118
703.661 .0305931
704.397 .0305745
705.133 .0305562
705.869 .0305380
706.605 .0305199
707.341 .0305020
708.076 .0304840
708.811 .0304660
709.546 .0304479
710.281 .0304297
711.015 .0304113
711.749 .0303926
712.483 .0303738
713.217 .0303547
713.950 .0303354
714.684 .0303158
715.417 .0302961
716.150 .0302760
716.882 .0302557
717.615 .0302351
718.347 .0302143
719.079 .0301932
719.811 .0301719
720.542 .0301504
721.273 .0301289
722.005 .0301073
722.735 .0300857
723.466 .0300642
724.196 .0300429
724.927 .0300219
725.656 .0300012
726.386 .0299809
727.116 .0299611
727.845 .0299418
728.574 .0299230
729.303 .0299047
730.031 .0298870
730.760 .0298697
731.488 .0298529
732.216 .0298364
732.944 .0298205
733.671 .0298049
734.398 .0297898
735.125 .0297751
735.852 .0297607
736.579 .0297467
737.305 .0297329
738.031 .0297192
738.757 .0297057
739.483 .0296923
740.208 .0296789
740.933 .0296655
741.658 .0296522
742.383 .0296389
743.108 .0296257
743.832 .0296125
744.556 .0295993
745.280 .0295862
746.004 .0295730
746.727 .0295598
747.450 .0295466
748.173 .0295334
748.896 .0295202
749.618 .0295071
750.340 .0294941
751.062 .0294811
751.784 .0294682
752.506 .0294554
753.227 .0294427
753.948 .0294301
754.669 .0294176
755.389 .0294053
756.110 .0293931
756.830 .0293812
757.550 .0293694
758.269 .0293578
758.989 .0293463
759.708 .0293350
760.427 .0293237
761.146 .0293124
761.864 .0293012
762.582 .0292899
763.300 .0292785
764.018 .0292670
764.736 .0292555
765.453 .0292438
766.170 .0292321
766.887 .0292204
767.603 .0292087
768.320 .0291971
769.036 .0291858
769.751 .0291747
770.467 .0291639
771.182 .0291534
771.897 .0291433
772.612 .0291335
773.327 .0291242
774.041 .0291152
774.755 .0291066
775.469 .0290984
776.183 .0290905
776.896 .0290831
777.609 .0290760
778.322 .0290692
779.035 .0290627
779.747 .0290564
780.459 .0290503
781.171 .0290444
781.882 .0290384
782.594 .0290325
783.305 .0290264
784.016 .0290202
784.726 .0290138
785.436 .0290070
786.147 .0289949
786.856 .0289871
787.566 .0289789
788.275 .0289704
788.984 .0289614
789.693 .0289520
790.401 .0289423
791.110 .0289321
791.818 .0289215
792.525 .0289104
793.233 .0288989
793.940 .0288871
794.647 .0288807
795.353 .0288686
796.060 .0288563
796.766 .0288437
797.472 .0288310
798.177 .0288181
798.883 .0288051
799.588 .0287919
800.292 .0287786
800.997 .0287652
801.701 .0287517
802.405 .0287380
803.109 .0287243
803.812 .0287105
804.515 .0286965
805.218 .0286823
805.921 .0286679
806.623 .0286533
807.325 .0286384
808.027 .0286234
808.728 .0286082
809.429 .0285928
810.130 .0285774
810.831 .0285619
811.531 .0285463
812.231 .0285308
812.931 .0285152
813.630 .0284995
814.330 .0284840
815.029 .0284685
815.727 .0284532
816.426 .0284381
817.124 .0284233
817.821 .0284088
818.519 .0283947
819.216 .0283809
819.913 .0283674
820.609 .0283543
821.306 .0283416
822.002 .0283293
822.697 .0283174
823.393 .0283061
824.088 .0282952
824.783 .0282848
825.477 .0282749
826.171 .0282653
826.865 .0282561
827.559 .0282471
828.252 .0282385
828.945 .0282301
829.638 .0282220
830.330 .0282142
831.023 .0282066
831.714 .0281992
832.406 .0281919
833.097 .0281847
833.788 .0281775
834.479 .0281702
835.169 .0281630
835.859 .0281558
836.548 .0281486
837.238 .0281415
837.927 .0281346
838.615 .0281278
839.304 .0281209
839.992 .0281140
840.680 .0281070
841.367 .0280997
842.054 .0280922
842.741 .0280845
843.428 .0280765
844.114 .0280683
844.800 .0280600
845.485 .0280515
846.170 .0280427
846.855 .0280338
847.540 .0280245
848.224 .0280149
848.908 .0280050
849.592 .0279948
850.275 .0279843
850.958 .0279736
851.641 .0279626
852.323 .0279514
853.005 .0279400
853.687 .0279284
854.368 .0279165
855.049 .0279044
855.730 .0278921
856.410 .0278797
857.090 .0278671
857.769 .0278545
858.449 .0278418
859.128 .0278292
859.806 .0278166
860.485 .0278041
861.163 .0277917
861.840 .0277793
862.518 .0277671
863.195 .0277550
863.871 .0277430
864.548 .0277312
865.224 .0277195
865.899 .0277081
866.574 .0276968
867.249 .0276858
867.924 .0276751
868.598 .0276647
869.272 .0276546
869.946 .0276448
870.619 .0276352
871.292 .0276260
871.964 .0276170
872.636 .0276083
873.308 .0275999
873.979 .0275918
874.651 .0275840
875.321 .0275764
875.992 .0275692
876.662 .0275622
877.331 .0275554
878.001 .0275487
878.670 .0275421
879.338 .0275355
880.007 .0275290
880.675 .0275224
881.342 .0275158
882.009 .0275093
882.676 .0275027
883.343 .0274962
884.009 .0274896
884.675 .0274831
885.340 .0274765
886.005 .0274698
886.670 .0274630
887.334 .0274563
887.998 .0274494
888.662 .0274425
889.325 .0274356
889.988 .0274288
890.650 .0274219
891.312 .0274151
891.974 .0274084
892.636 .0274016
893.297 .0273948
893.957 .0273881
894.618 .0273813
895.278 .0273744
895.937 .0273675
896.596 .0273604
897.255 .0273533
897.914 .0273459
898.572 .0273385
899.230 .0273308
899.887 .0273228
900.544 .0273146
901.201 .0273060
901.857 .0272911
902.513 .0272812
903.168 .0272709
903.823 .0272599
904.478 .0272484
905.132 .0272361
905.786 .0272233
906.440 .0272098
907.093 .0271956
907.746 .0271808
908.399 .0271655
909.051 .0271498
909.703 .0271336
910.354 .0271244
911.005 .0271080
911.656 .0270912
912.306 .0270742
912.956 .0270570
913.605 .0270397
914.254 .0270222
914.903 .0270046
915.551 .0269870
916.199 .0269694
916.847 .0269517
917.494 .0269339
918.141 .0269162
918.788 .0268983
919.434 .0268805
920.079 .0268625
920.725 .0268443
921.370 .0268260
922.014 .0268076
922.658 .0267889
923.302 .0267700
923.946 .0267509
924.589 .0267316
925.231 .0267120
925.873 .0266922
926.515 .0266721
927.157 .0266519
927.798 .0266314
928.439 .0266108
929.079 .0265900
929.719 .0265693
930.359 .0265485
930.998 .0265278
931.637 .0265072
932.275 .0264868
932.913 .0264667
933.551 .0264469
934.188 .0264274
934.825 .0264084
935.462 .0263899
936.098 .0263719
936.733 .0263546
937.369 .0263378
938.004 .0263217
938.638 .0263063
939.273 .0262916
939.907 .0262776
940.540 .0262645
941.173 .0262521
941.806 .0262406
942.438 .0262298
943.070 .0262198
943.702 .0262105
944.333 .0262018
944.964 .0261937
945.594 .0261861
946.224 .0261790
946.854 .0261723
947.483 .0261659
948.112 .0261596
948.741 .0261535
949.369 .0261474
949.996 .0261412
950.624 .0261349
951.251 .0261284
951.878 .0261216
952.504 .0261145
953.130 .0261071
953.755 .0260993
954.380 .0260913
955.005 .0260830
955.629 .0260745
956.253 .0260659
956.877 .0260571
957.500 .0260483
958.123 .0260395
958.746 .0260307
959.368 .0260220
959.990 .0260134
960.611 .0260050
961.232 .0259968
961.853 .0259888
962.473 .0259810
963.093 .0259734
963.712 .0259660
964.331 .0259589
964.950 .0259522
965.569 .0259457
966.187 .0259397
966.804 .0259341
967.422 .0259289
968.039 .0259240
968.655 .0259196
969.272 .0259155
969.887 .0259117
970.503 .0259082
971.118 .0259051
971.733 .0259022
972.347 .0258996
972.961 .0258971
973.575 .0258948
974.188 .0258925
974.801 .0258902
975.414 .0258878
976.026 .0258851
976.638 .0258822
977.250 .0258788
977.861 .0258751
978.472 .0258709
979.083 .0258663
979.693 .0258612
980.303 .0258557
980.912 .0258457
981.521 .0258394
982.130 .0258327
982.738 .0258257
983.346 .0258184
983.954 .0258107
984.562 .0258029
985.169 .0257949
985.775 .0257869
986.382 .0257790
986.988 .0257712
987.594 .0257637
988.199 .0257566
988.804 .0257498
989.409 .0257476
990.013 .0257417
990.617 .0257362
991.221 .0257312
991.824 .0257266
992.427 .0257226
993.030 .0257191
993.632 .0257163
994.234 .0257142
994.836 .0257129
995.438 .0257123
996.039 .0257125
996.640 .0257135
997.240 .0257150
997.840 .0257172
998.440 .0257199
999.040 .0257230
999.639 .0257265
1000.238 .0257305
1000.836 .0257348
1001.435 .0257395
1002.033 .0257446
1002.630 .0257500
1003.228 .0257555
1003.825 .0257612
1004.422 .0257668
1005.018 .0257723
1005.614 .0257775
1006.210 .0257825
1006.806 .0257872
1007.401 .0257916
1007.996 .0257956
1008.591 .0257993
1009.186 .0258027
1009.780 .0258058
1010.374 .0258086
1010.967 .0258110
1011.561 .0258131
1012.154 .0258149
1012.746 .0258163
1013.339 .0258176
1013.931 .0258187
1014.523 .0258197
1015.115 .0258207
1015.706 .0258218
1016.298 .0258229
1016.888 .0258241
1017.479 .0258254
1018.069 .0258269
1018.660 .0258287
1019.250 .0258307
1019.839 .0258332
1020.429 .0258360
1021.018 .0258393
1021.607 .0258431
1022.195 .0258474
1022.784 .0258520
1023.372 .0258571
1023.960 .0258626
1024.547 .0258684
1025.135 .0258745
1025.722 .0258810
1026.309 .0258878
1026.896 .0258949
1027.483 .0259021
1028.069 .0259094
1028.655 .0259167
1029.241 .0259238
1029.827 .0259305
1030.412 .0259369
1030.997 .0259428
1031.582 .0259483
1032.167 .0259533
1032.752 .0259581
1033.336 .0259624
1033.921 .0259665
1034.505 .0259702
1035.089 .0259735
1035.672 .0259764
1036.256 .0259787
1036.839 .0259805
1037.422 .0259818
1038.005 .0259825
1038.588 .0259827
1039.171 .0259825
1039.753 .0259820
1040.335 .0259810
1040.918 .0259797
1041.500 .0259780
1042.081 .0259759
1042.663 .0259734
1043.244 .0259705
1043.826 .0259670
1044.407 .0259631
1044.988 .0259588
1045.569 .0259542
1046.150 .0259492
1046.730 .0259441
1047.311 .0259387
1047.891 .0259332
1048.471 .0259275
1049.052 .0259216
1049.632 .0259154
1050.211 .0259089
1050.791 .0259022
1051.371 .0258950
1051.950 .0258874
1052.530 .0258794
1053.109 .0258710
1053.688 .0258625
1054.268 .0258537
1054.847 .0258448
1055.426 .0258358
1056.005 .0258270
1056.583 .0258182
1057.162 .0258095
1057.741 .0258009
1058.319 .0257926
1058.898 .0257845
1059.476 .0257766
1060.055 .0257690
1060.633 .0257618
1061.211 .0257550
1061.790 .0257486
1062.368 .0257426
1062.946 .0257370
1063.524 .0257317
1064.102 .0257265
1064.680 .0257215
1065.258 .0257164
1065.836 .0257112
1066.414 .0257059
1066.992 .0257006
1067.570 .0256953
1068.148 .0256900
1068.726 .0256849
1069.304 .0256800
1069.882 .0256753
1070.460 .0256709
1071.038 .0256666
1071.616 .0256626
1072.194 .0256587
1072.772 .0256550
1073.350 .0256515
1073.928 .0256482
1074.506 .0256452
1075.084 .0256426
1075.662 .0256404
1076.240 .0256386
1076.819 .0256374
1077.397 .0256367
1077.976 .0256366
1078.554 .0256369
1079.133 .0256377
1079.711 .0256390
1080.290 .0256407
1080.869 .0256429
1081.448 .0256454
1082.027 .0256483
1082.606 .0256515
1083.185 .0256551
1083.764 .0256589
1084.343 .0256630
1084.923 .0256672
1085.502 .0256715
1086.082 .0256759
1086.662 .0256803
1087.242 .0256848
1087.822 .0256895
1088.402 .0256942
1088.983 .0256990
1089.563 .0257039
1090.144 .0257090
1090.725 .0257142
1091.306 .0257194
1091.887 .0257247
1092.469 .0257300
1093.050 .0257353
1093.632 .0257407
1094.214 .0257461
1094.796 .0257515
1095.379 .0257569
1095.961 .0257624
1096.544 .0257678
1097.127 .0257732
1097.710 .0257785
1098.294 .0257838
1098.877 .0257891
1099.461 .0257945
1100.046 .0258002
1100.630 .0258062
1101.215 .0258129
1101.800 .0258202
1102.385 .0258283
1102.970 .0258373
1103.556 .0258474
1104.142 .0258586
1104.728 .0258710
1105.315 .0258849
1105.902 .0259003
1106.489 .0259175
1107.077 .0259363
1107.664 .0259569
1108.253 .0259795
1108.841 .0260039
1109.430 .0260302
1110.019 .0260582
1110.609 .0260880
1111.198 .0261194
1111.789 .0261524
1112.379 .0261868
1112.970 .0262226
1113.561 .0262599
1114.153 .0262986
1114.745 .0263388
1115.338 .0263806
1115.931 .0264241
1116.524 .0264695
1117.117 .0265168
1117.712 .0265663
1118.306 .0266178
1118.901 .0266713
1119.496 .0267268
1120.092 .0267843
1120.689 .0268434
1121.285 .0269041
1121.882 .0269662
1122.480 .0270298
1123.078 .0270945
1123.677 .0271603
1124.276 .0272273
1124.875 .0272953
1125.476 .0273642
1126.076 .0274336
1126.677 .0275035
1127.279 .0275738
1127.881 .0276446
1128.484 .0277159
1129.087 .0277480
1129.691 .0278207
1130.295 .0278947
1130.900 .0279706
1131.505 .0280490
1132.111 .0281306
1132.718 .0282160
1133.325 .0283065
1133.933 .0284024
1134.541 .0284997
1135.150 .0286072
1135.760 .0287206
1136.370 .0288580
1136.981 .0288215
1137.592 .0289102
1138.204 .0290047
1138.817 .0291108
1139.431 .0292285
1140.045 .0293635
1140.660 .0295171
1141.275 .0297108
1141.891 .0299144
1142.508 .0300104
1143.126 .0303628
1143.744 .0305976
1144.363 .0313406
1144.983 .0309987
