Measurement Sequence started on: 15-12-46-377
Integration time: 28
Scans to Average: 2 
>>>>>Begin Spectral Data<<<<<
432.689 .0000100
433.621 .0000100
434.552 .0000100
435.482 .0000100
436.410 .0000100
437.337 .0000100
438.262 .0276041
439.187 .0584386
440.110 .0967183
441.031 .1398241
441.952 .1122742
442.871 .1173030
443.789 .1219831
444.705 .1263847
445.621 .1305574
446.535 .1345389
447.447 .1369059
448.359 .1375112
449.269 .1359810
450.178 .1320774
451.086 .1258769
451.993 .1178595
452.898 .1088180
453.803 .0996481
454.706 .0911104
455.608 .0836767
456.508 .0775032
457.408 .0733003
458.306 .0700436
459.204 .0673698
460.100 .0651001
460.995 .0631410
461.888 .0614261
462.781 .0599094
463.673 .0585561
464.563 .0573398
465.452 .0562392
466.340 .0552381
467.228 .0543226
468.114 .0534830
468.999 .0527113
469.882 .0520012
470.765 .0513488
471.647 .0507525
472.528 .0502103
473.407 .0497202
474.286 .0492797
475.163 .0488862
476.040 .0485355
476.915 .0482247
477.790 .0479497
478.663 .0477075
479.535 .0474953
480.407 .0473111
481.277 .0471528
482.147 .0470185
483.015 .0469065
483.883 .0468153
484.749 .0467435
485.615 .0466897
486.479 .0466527
487.343 .0466315
488.206 .0466258
489.067 .0466357
489.928 .0466612
490.788 .0467026
491.647 .0467600
492.505 .0468340
493.362 .0469252
494.218 .0470344
495.073 .0471627
495.928 .0474300
496.781 .0476143
497.634 .0478210
498.486 .0480512
499.337 .0483060
500.187 .0485867
501.036 .0488948
501.884 .0492328
502.731 .0496041
503.578 .0500123
504.424 .0502962
505.268 .0507759
506.113 .0513038
506.956 .0518830
507.798 .0525177
508.640 .0532131
509.480 .0539770
510.320 .0548195
511.160 .0557537
511.998 .0567962
512.836 .0579668
513.672 .0592854
514.508 .0607746
515.344 .0624586
516.178 .0643614
517.012 .0665072
517.845 .0689181
518.677 .0716143
519.508 .0746127
520.339 .0779217
521.169 .0815447
521.998 .0854602
522.826 .0896363
523.654 .0940214
524.481 .0985486
525.307 .1031405
526.133 .1077074
526.958 .1121546
527.782 .1163896
528.605 .1203260
529.428 .1238874
530.250 .1270044
531.072 .1296305
531.892 .1317270
532.712 .1332672
533.532 .1342349
534.350 .1346203
535.168 .1344248
535.986 .1336521
536.802 .1323066
537.618 .1303990
538.434 .1279432
539.249 .1249767
540.063 .1215466
540.876 .1177139
541.689 .1135566
542.501 .1091591
543.313 .1046156
544.124 .1000213
544.934 .0954661
545.744 .0910293
546.553 .0867759
547.361 .0827609
548.169 .0790147
548.976 .0755572
549.783 .0723961
550.589 .0695258
551.395 .0669333
552.200 .0645961
553.004 .0624884
553.808 .0605866
554.611 .0588678
555.414 .0573108
556.216 .0558941
557.018 .0545984
557.819 .0534097
558.619 .0523129
559.419 .0512964
560.218 .0503504
561.017 .0494658
561.815 .0486349
562.613 .0478512
563.410 .0471083
564.207 .0464004
565.003 .0457228
565.799 .0450711
566.594 .0444407
567.388 .0438290
568.182 .0432340
568.976 .0426541
569.769 .0420896
570.562 .0415409
571.354 .0410082
572.145 .0404927
572.936 .0399951
573.727 .0395161
574.517 .0390562
575.307 .0386163
576.096 .0381966
576.885 .0377977
577.673 .0374201
578.461 .0370634
579.248 .0367273
580.035 .0364115
580.821 .0361152
581.607 .0358376
582.392 .0355783
583.177 .0353366
583.962 .0351120
584.746 .0349039
585.529 .0347120
586.313 .0345353
587.095 .0343732
587.878 .0342247
588.660 .0340886
589.441 .0339636
590.222 .0338486
591.003 .0337425
591.783 .0336445
592.563 .0335539
593.342 .0334699
594.121 .0333920
594.899 .0333198
595.678 .0332526
596.455 .0331899
597.233 .0331315
598.009 .0330767
598.786 .0330251
599.562 .0329763
600.338 .0329298
601.113 .0328853
601.888 .0328239
602.663 .0327828
603.437 .0327429
604.211 .0327041
604.984 .0326663
605.757 .0326295
606.530 .0325934
607.302 .0325581
608.074 .0325234
608.845 .0324893
609.616 .0324556
610.387 .0324390
611.158 .0324056
611.928 .0323724
612.697 .0323393
613.467 .0323062
614.236 .0322731
615.004 .0322401
615.773 .0322071
616.541 .0321741
617.308 .0321411
618.076 .0321083
618.843 .0320756
619.609 .0320430
620.375 .0320104
621.141 .0319779
621.907 .0319454
622.672 .0319130
623.437 .0318806
624.202 .0318482
624.966 .0318159
625.730 .0317836
626.493 .0317514
627.257 .0317193
628.020 .0316871
628.782 .0316551
629.545 .0316232
630.307 .0315914
631.068 .0315599
631.830 .0315286
632.591 .0314975
633.352 .0314668
634.112 .0314366
634.872 .0314067
635.632 .0313773
636.392 .0313483
637.151 .0313198
637.910 .0312918
638.668 .0312643
639.427 .0312374
640.185 .0312110
640.943 .0311854
641.700 .0311604
642.457 .0311361
643.214 .0311125
643.971 .0310896
644.727 .0310674
645.483 .0310458
646.239 .0310248
646.994 .0310043
647.750 .0309842
648.505 .0309644
649.259 .0309450
650.014 .0309258
650.768 .0309069
651.521 .0308883
652.275 .0308700
653.028 .0308519
653.781 .0308341
654.534 .0308166
655.286 .0307992
656.039 .0307818
656.791 .0307644
657.542 .0307469
658.294 .0307291
659.045 .0307110
659.796 .0306926
660.546 .0306740
661.297 .0306551
662.047 .0306361
662.796 .0306170
663.546 .0305978
664.295 .0305786
665.044 .0305594
665.793 .0305401
666.542 .0305208
667.290 .0305013
668.038 .0304817
668.786 .0304619
669.533 .0304418
670.281 .0304215
671.028 .0304011
671.774 .0303806
672.521 .0303600
673.267 .0303394
674.013 .0303188
674.759 .0302982
675.505 .0302775
676.250 .0302569
676.995 .0302363
677.740 .0302156
678.484 .0301948
679.229 .0301740
679.973 .0301532
680.717 .0301324
681.460 .0301117
682.204 .0300911
682.947 .0300704
683.690 .0300497
684.433 .0300291
685.175 .0300086
685.917 .0299881
686.659 .0299676
687.401 .0299472
688.142 .0299268
688.884 .0299065
689.625 .0298861
690.365 .0298659
691.106 .0298456
691.846 .0298254
692.586 .0298052
693.326 .0297851
694.066 .0297650
694.805 .0297451
695.545 .0297254
696.284 .0297058
697.022 .0296863
697.761 .0296668
698.499 .0296475
699.237 .0296282
699.975 .0296091
700.713 .0295902
701.450 .0295715
702.187 .0295530
702.924 .0295349
703.661 .0295171
704.397 .0294996
705.133 .0294823
705.869 .0294652
706.605 .0294483
707.341 .0294315
708.076 .0294148
708.811 .0293982
709.546 .0293818
710.281 .0293654
711.015 .0293493
711.749 .0293332
712.483 .0293171
713.217 .0293012
713.950 .0292852
714.684 .0292692
715.417 .0292532
716.150 .0292371
716.882 .0292208
717.615 .0292045
718.347 .0291880
719.079 .0291715
719.811 .0291548
720.542 .0291380
721.273 .0291210
722.005 .0291040
722.735 .0290871
723.466 .0290702
724.196 .0290534
724.927 .0290369
725.656 .0290207
726.386 .0290048
727.116 .0289893
727.845 .0289741
728.574 .0289593
729.303 .0289448
730.031 .0289306
730.760 .0289168
731.488 .0289034
732.216 .0288903
732.944 .0288776
733.671 .0288653
734.398 .0288535
735.125 .0288421
735.852 .0288312
736.579 .0288207
737.305 .0288105
738.031 .0288008
738.757 .0287913
739.483 .0287821
740.208 .0287732
740.933 .0287644
741.658 .0287559
742.383 .0287474
743.108 .0287391
743.832 .0287309
744.556 .0287228
745.280 .0287146
746.004 .0287065
746.727 .0286982
747.450 .0286898
748.173 .0286812
748.896 .0286724
749.618 .0286633
750.340 .0286538
751.062 .0286440
751.784 .0286338
752.506 .0286233
753.227 .0286123
753.948 .0286009
754.669 .0285891
755.389 .0285768
756.110 .0285642
756.830 .0285512
757.550 .0285379
758.269 .0285243
758.989 .0285103
759.708 .0284961
760.427 .0284817
761.146 .0284669
761.864 .0284519
762.582 .0284366
763.300 .0284211
764.018 .0284054
764.736 .0283895
765.453 .0283735
766.170 .0283575
766.887 .0283415
767.603 .0283255
768.320 .0283096
769.036 .0282938
769.751 .0282783
770.467 .0282630
771.182 .0282481
771.897 .0282334
772.612 .0282191
773.327 .0282052
774.041 .0281915
774.755 .0281782
775.469 .0281651
776.183 .0281523
776.896 .0281398
777.609 .0281276
778.322 .0281158
779.035 .0281044
779.747 .0280934
780.459 .0280830
781.171 .0280731
781.882 .0280637
782.594 .0280548
783.305 .0280464
784.016 .0280383
784.726 .0280305
785.436 .0280229
786.147 .0280122
786.856 .0280049
787.566 .0279976
788.275 .0279905
788.984 .0279833
789.693 .0279762
790.401 .0279690
791.110 .0279617
791.818 .0279542
792.525 .0279465
793.233 .0279384
793.940 .0279299
794.647 .0279246
795.353 .0279155
796.060 .0279062
796.766 .0278966
797.472 .0278867
798.177 .0278766
798.883 .0278663
799.588 .0278557
800.292 .0278449
800.997 .0278338
801.701 .0278224
802.405 .0278108
803.109 .0277990
803.812 .0277869
804.515 .0277748
805.218 .0277624
805.921 .0277500
806.623 .0277374
807.325 .0277248
808.027 .0277120
808.728 .0276993
809.429 .0276867
810.130 .0276742
810.831 .0276620
811.531 .0276501
812.231 .0276384
812.931 .0276271
813.630 .0276160
814.330 .0276053
815.029 .0275948
815.727 .0275846
816.426 .0275747
817.124 .0275652
817.821 .0275561
818.519 .0275473
819.216 .0275390
819.913 .0275311
820.609 .0275235
821.306 .0275162
822.002 .0275092
822.697 .0275026
823.393 .0274962
824.088 .0274900
824.783 .0274841
825.477 .0274785
826.171 .0274730
826.865 .0274676
827.559 .0274623
828.252 .0274572
828.945 .0274522
829.638 .0274472
830.330 .0274424
831.023 .0274376
831.714 .0274329
832.406 .0274281
833.097 .0274232
833.788 .0274182
834.479 .0274130
835.169 .0274075
835.859 .0274019
836.548 .0273961
837.238 .0273902
837.927 .0273843
838.615 .0273783
839.304 .0273722
839.992 .0273659
840.680 .0273595
841.367 .0273527
842.054 .0273456
842.741 .0273381
843.428 .0273302
844.114 .0273219
844.800 .0273133
845.485 .0273044
846.170 .0272951
846.855 .0272854
847.540 .0272753
848.224 .0272648
848.908 .0272538
849.592 .0272423
850.275 .0272304
850.958 .0272179
851.641 .0272051
852.323 .0271917
853.005 .0271779
853.687 .0271636
854.368 .0271488
855.049 .0271335
855.730 .0271176
856.410 .0271012
857.090 .0270843
857.769 .0270670
858.449 .0270493
859.128 .0270313
859.806 .0270131
860.485 .0269947
861.163 .0269762
861.840 .0269577
862.518 .0269391
863.195 .0269206
863.871 .0269021
864.548 .0268837
865.224 .0268654
865.899 .0268473
866.574 .0268293
867.249 .0268116
867.924 .0267941
868.598 .0267770
869.272 .0267603
869.946 .0267440
870.619 .0267281
871.292 .0267126
871.964 .0266974
872.636 .0266827
873.308 .0266684
873.979 .0266545
874.651 .0266410
875.321 .0266280
875.992 .0266155
876.662 .0266036
877.331 .0265922
878.001 .0265813
878.670 .0265709
879.338 .0265610
880.007 .0265514
880.675 .0265423
881.342 .0265336
882.009 .0265254
882.676 .0265175
883.343 .0265101
884.009 .0265031
884.675 .0264966
885.340 .0264905
886.005 .0264848
886.670 .0264795
887.334 .0264746
887.998 .0264700
888.662 .0264658
889.325 .0264620
889.988 .0264586
890.650 .0264556
891.312 .0264531
891.974 .0264509
892.636 .0264489
893.297 .0264472
893.957 .0264456
894.618 .0264440
895.278 .0264424
895.937 .0264407
896.596 .0264389
897.255 .0264368
897.914 .0264345
898.572 .0264318
899.230 .0264288
899.887 .0264255
900.544 .0264216
901.201 .0264172
901.857 .0264081
902.513 .0264021
903.168 .0263956
903.823 .0263884
904.478 .0263806
905.132 .0263723
905.786 .0263635
906.440 .0263543
907.093 .0263448
907.746 .0263350
908.399 .0263249
909.051 .0263146
909.703 .0263041
910.354 .0262985
911.005 .0262880
911.656 .0262774
912.306 .0262667
912.956 .0262560
913.605 .0262454
914.254 .0262349
914.903 .0262245
915.551 .0262141
916.199 .0262039
916.847 .0261937
917.494 .0261836
918.141 .0261735
918.788 .0261634
919.434 .0261533
920.079 .0261430
920.725 .0261327
921.370 .0261222
922.014 .0261115
922.658 .0261006
923.302 .0260895
923.946 .0260782
924.589 .0260666
925.231 .0260549
925.873 .0260429
926.515 .0260309
927.157 .0260186
927.798 .0260064
928.439 .0259940
929.079 .0259816
929.719 .0259692
930.359 .0259568
930.998 .0259445
931.637 .0259323
932.275 .0259202
932.913 .0259084
933.551 .0258969
934.188 .0258858
934.825 .0258752
935.462 .0258650
936.098 .0258554
936.733 .0258464
937.369 .0258380
938.004 .0258303
938.638 .0258231
939.273 .0258166
939.907 .0258108
940.540 .0258055
941.173 .0258009
941.806 .0257969
942.438 .0257935
943.070 .0257905
943.702 .0257879
944.333 .0257857
944.964 .0257838
945.594 .0257820
946.224 .0257803
946.854 .0257787
947.483 .0257770
948.112 .0257753
948.741 .0257735
949.369 .0257715
949.996 .0257694
950.624 .0257671
951.251 .0257645
951.878 .0257615
952.504 .0257581
953.130 .0257542
953.755 .0257499
954.380 .0257452
955.005 .0257401
955.629 .0257345
956.253 .0257285
956.877 .0257221
957.500 .0257152
958.123 .0257076
958.746 .0256995
959.368 .0256907
959.990 .0256812
960.611 .0256712
961.232 .0256606
961.853 .0256496
962.473 .0256382
963.093 .0256266
963.712 .0256148
964.331 .0256028
964.950 .0255907
965.569 .0255783
966.187 .0255658
966.804 .0255531
967.422 .0255402
968.039 .0255271
968.655 .0255139
969.272 .0255005
969.887 .0254871
970.503 .0254737
971.118 .0254602
971.733 .0254467
972.347 .0254330
972.961 .0254191
973.575 .0254050
974.188 .0253906
974.801 .0253759
975.414 .0253610
976.026 .0253460
976.638 .0253308
977.250 .0253155
977.861 .0253001
978.472 .0252846
979.083 .0252690
979.693 .0252533
980.303 .0252373
980.912 .0252123
981.521 .0251959
982.130 .0251794
982.738 .0251628
983.346 .0251462
983.954 .0251296
984.562 .0251132
985.169 .0250969
985.775 .0250809
986.382 .0250652
986.988 .0250497
987.594 .0250345
988.199 .0250195
988.804 .0250048
989.409 .0249992
990.013 .0249851
990.617 .0249714
991.221 .0249582
991.824 .0249455
992.427 .0249333
993.030 .0249217
993.632 .0249104
994.234 .0248995
994.836 .0248888
995.438 .0248784
996.039 .0248680
996.640 .0248578
997.240 .0248478
997.840 .0248379
998.440 .0248283
999.040 .0248190
999.639 .0248100
1000.238 .0248012
1000.836 .0247926
1001.435 .0247841
1002.033 .0247757
1002.630 .0247673
1003.228 .0247588
1003.825 .0247504
1004.422 .0247419
1005.018 .0247335
1005.614 .0247252
1006.210 .0247170
1006.806 .0247090
1007.401 .0247011
1007.996 .0246934
1008.591 .0246858
1009.186 .0246783
1009.780 .0246710
1010.374 .0246638
1010.967 .0246567
1011.561 .0246499
1012.154 .0246433
1012.746 .0246371
1013.339 .0246314
1013.931 .0246262
1014.523 .0246215
1015.115 .0246173
1015.706 .0246137
1016.298 .0246105
1016.888 .0246079
1017.479 .0246057
1018.069 .0246040
1018.660 .0246028
1019.250 .0246022
1019.839 .0246022
1020.429 .0246028
1021.018 .0246041
1021.607 .0246062
1022.195 .0246090
1022.784 .0246124
1023.372 .0246165
1023.960 .0246212
1024.547 .0246264
1025.135 .0246320
1025.722 .0246381
1026.309 .0246444
1026.896 .0246511
1027.483 .0246582
1028.069 .0246656
1028.655 .0246732
1029.241 .0246812
1029.827 .0246894
1030.412 .0246977
1030.997 .0247061
1031.582 .0247145
1032.167 .0247230
1032.752 .0247314
1033.336 .0247397
1033.921 .0247481
1034.505 .0247564
1035.089 .0247646
1035.672 .0247728
1036.256 .0247808
1036.839 .0247886
1037.422 .0247961
1038.005 .0248034
1038.588 .0248104
1039.171 .0248170
1039.753 .0248234
1040.335 .0248296
1040.918 .0248356
1041.500 .0248415
1042.081 .0248472
1042.663 .0248529
1043.244 .0248585
1043.826 .0248641
1044.407 .0248697
1044.988 .0248754
1045.569 .0248812
1046.150 .0248872
1046.730 .0248933
1047.311 .0248996
1047.891 .0249060
1048.471 .0249126
1049.052 .0249191
1049.632 .0249257
1050.211 .0249323
1050.791 .0249390
1051.371 .0249457
1051.950 .0249525
1052.530 .0249595
1053.109 .0249667
1053.688 .0249741
1054.268 .0249817
1054.847 .0249895
1055.426 .0249975
1056.005 .0250058
1056.583 .0250143
1057.162 .0250230
1057.741 .0250321
1058.319 .0250414
1058.898 .0250511
1059.476 .0250610
1060.055 .0250714
1060.633 .0250820
1061.211 .0250928
1061.790 .0251039
1062.368 .0251153
1062.946 .0251269
1063.524 .0251388
1064.102 .0251511
1064.680 .0251639
1065.258 .0251770
1065.836 .0251906
1066.414 .0252046
1066.992 .0252191
1067.570 .0252338
1068.148 .0252487
1068.726 .0252639
1069.304 .0252792
1069.882 .0252945
1070.460 .0253099
1071.038 .0253253
1071.616 .0253407
1072.194 .0253560
1072.772 .0253710
1073.350 .0253857
1073.928 .0254000
1074.506 .0254138
1075.084 .0254273
1075.662 .0254404
1076.240 .0254530
1076.819 .0254654
1077.397 .0254775
1077.976 .0254893
1078.554 .0255010
1079.133 .0255126
1079.711 .0255239
1080.290 .0255349
1080.869 .0255457
1081.448 .0255563
1082.027 .0255667
1082.606 .0255770
1083.185 .0255873
1083.764 .0255977
1084.343 .0256083
1084.923 .0256193
1085.502 .0256307
1086.082 .0256426
1086.662 .0256550
1087.242 .0256678
1087.822 .0256810
1088.402 .0256944
1088.983 .0257082
1089.563 .0257223
1090.144 .0257368
1090.725 .0257518
1091.306 .0257672
1091.887 .0257832
1092.469 .0257997
1093.050 .0258167
1093.632 .0258342
1094.214 .0258519
1094.796 .0258700
1095.379 .0258882
1095.961 .0259066
1096.544 .0259252
1097.127 .0259440
1097.710 .0259633
1098.294 .0259829
1098.877 .0260030
1099.461 .0260236
1100.046 .0260445
1100.630 .0260657
1101.215 .0260870
1101.800 .0261083
1102.385 .0261296
1102.970 .0261508
1103.556 .0261719
1104.142 .0261930
1104.728 .0262144
1105.315 .0262361
1105.902 .0262585
1106.489 .0262818
1107.077 .0263061
1107.664 .0263315
1108.253 .0263579
1108.841 .0263856
1109.430 .0264143
1110.019 .0264440
1110.609 .0264748
1111.198 .0265068
1111.789 .0265399
1112.379 .0265744
1112.970 .0266104
1113.561 .0266479
1114.153 .0266870
1114.745 .0267277
1115.338 .0267699
1115.931 .0268132
1116.524 .0268575
1117.117 .0269027
1117.712 .0269486
1118.306 .0269953
1118.901 .0270430
1119.496 .0270917
1120.092 .0271418
1120.689 .0271934
1121.285 .0272465
1121.882 .0273011
1122.480 .0273569
1123.078 .0274136
1123.677 .0274708
1124.276 .0275281
1124.875 .0275854
1125.476 .0276426
1126.076 .0277000
1126.677 .0277578
1127.279 .0278165
1127.881 .0278763
1128.484 .0279374
1129.087 .0279676
1129.691 .0280306
1130.295 .0280949
1130.900 .0281605
1131.505 .0282277
1132.111 .0282967
1132.718 .0283680
1133.325 .0284419
1133.933 .0285195
1134.541 .0286029
1135.150 .0286894
1135.760 .0287850
1136.370 .0288721
1136.981 .0288183
1137.592 .0289130
1138.204 .0290065
1138.817 .0291074
1139.431 .0292174
1140.045 .0293348
1140.660 .0294684
1141.275 .0296027
1141.891 .0297649
1142.508 .0299786
1143.126 .0301173
1143.744 .0304233
1144.363 .0302389
1144.983 .0308666
