Measurement Sequence started on: 15-12-46-377
Integration time: 28
Scans to Average: 2 
>>>>>Begin Spectral Data<<<<<
432.689 .0000100
433.621 .0000100
434.552 .0000100
435.482 .0000100
436.410 .0000100
437.337 .0000100
438.262 .0267939
439.187 .0569333
440.110 .0943525
441.031 .1365239
441.952 .1098777
442.871 .1148384
443.789 .1194677
444.705 .1238332
445.621 .1279834
446.535 .1319551
447.447 .1343675
448.359 .1350669
449.269 .1336890
450.178 .1299982
451.086 .1240689
451.993 .1163649
452.898 .1076574
453.803 .0988215
454.706 .0906009
455.608 .0834569
456.508 .0775427
457.408 .0735455
458.306 .0704739
459.204 .0679658
460.100 .0658432
460.995 .0640106
461.888 .0624035
462.781 .0609769
463.673 .0596971
464.563 .0585382
465.452 .0574812
466.340 .0565105
467.228 .0556149
468.114 .0547860
468.999 .0540185
469.882 .0533084
470.765 .0526527
471.647 .0520502
472.528 .0514993
473.407 .0509978
474.286 .0505454
475.163 .0501414
476.040 .0497844
476.915 .0494718
477.790 .0492014
478.663 .0489701
479.535 .0487748
480.407 .0486120
481.277 .0484781
482.147 .0483690
483.015 .0482812
483.883 .0482121
484.749 .0481594
485.615 .0481218
486.479 .0480982
487.343 .0480880
488.206 .0480911
489.067 .0481063
489.928 .0481331
490.788 .0481706
491.647 .0482189
492.505 .0482775
493.362 .0483470
494.218 .0484281
495.073 .0485222
495.928 .0487232
496.781 .0488625
497.634 .0490232
498.486 .0492079
499.337 .0494194
500.187 .0496606
501.036 .0499345
501.884 .0502447
502.731 .0505957
503.578 .0509919
504.424 .0512914
505.268 .0517744
506.113 .0523170
506.956 .0529247
507.798 .0536049
508.640 .0543649
509.480 .0552143
510.320 .0561649
511.160 .0572282
511.998 .0584184
512.836 .0597532
513.672 .0612502
514.508 .0629325
515.344 .0648230
516.178 .0669447
517.012 .0693217
517.845 .0719780
518.677 .0749321
519.508 .0781978
520.339 .0817815
521.169 .0856854
521.998 .0898842
522.826 .0943429
523.654 .0990062
524.481 .1038070
525.307 .1086671
526.133 .1134935
526.958 .1181861
527.782 .1226472
528.605 .1267834
529.428 .1305103
530.250 .1337498
531.072 .1364514
531.892 .1385695
532.712 .1400761
533.532 .1409564
534.350 .1412049
535.168 .1408255
535.986 .1398289
536.802 .1382266
537.618 .1360330
538.434 .1332640
539.249 .1299613
540.063 .1261744
540.876 .1219706
541.689 .1174278
542.501 .1126322
543.313 .1076813
544.124 .1026764
544.934 .0977120
545.744 .0928759
546.553 .0882448
547.361 .0838843
548.169 .0798312
548.976 .0761129
549.783 .0727375
550.589 .0696994
551.395 .0669802
552.200 .0645525
553.004 .0623843
553.808 .0604466
554.611 .0587131
555.414 .0571603
556.216 .0557656
557.018 .0545088
557.819 .0533719
558.619 .0523380
559.419 .0513923
560.218 .0505228
561.017 .0497178
561.815 .0489685
562.613 .0482676
563.410 .0476070
564.207 .0469795
565.003 .0463790
565.799 .0457995
566.594 .0452356
567.388 .0446842
568.182 .0441425
568.976 .0436087
569.769 .0430828
570.562 .0425656
571.354 .0420576
572.145 .0415608
572.936 .0410764
573.727 .0406048
574.517 .0401466
575.307 .0397025
576.096 .0392722
576.885 .0388564
577.673 .0384561
578.461 .0380720
579.248 .0377049
580.035 .0373560
580.821 .0370259
581.607 .0367153
582.392 .0364247
583.177 .0361536
583.962 .0359017
584.746 .0356682
585.529 .0354522
586.313 .0352529
587.095 .0350694
587.878 .0349010
588.660 .0347467
589.441 .0346056
590.222 .0344768
591.003 .0343593
591.783 .0342519
592.563 .0341536
593.342 .0340633
594.121 .0339795
594.899 .0339011
595.678 .0338273
596.455 .0337571
597.233 .0336896
598.009 .0336244
598.786 .0335611
599.562 .0334992
600.338 .0334385
601.113 .0333787
601.888 .0332916
602.663 .0332344
603.437 .0331780
604.211 .0331225
604.984 .0330678
605.757 .0330142
606.530 .0329616
607.302 .0329102
608.074 .0328600
608.845 .0328113
609.616 .0327641
610.387 .0327447
611.158 .0327005
611.928 .0326582
612.697 .0326179
613.467 .0325796
614.236 .0325434
615.004 .0325093
615.773 .0324773
616.541 .0324472
617.308 .0324189
618.076 .0323923
618.843 .0323672
619.609 .0323434
620.375 .0323207
621.141 .0322990
621.907 .0322781
622.672 .0322578
623.437 .0322379
624.202 .0322183
624.966 .0321987
625.730 .0321789
626.493 .0321588
627.257 .0321381
628.020 .0321168
628.782 .0320947
629.545 .0320718
630.307 .0320482
631.068 .0320239
631.830 .0319988
632.591 .0319732
633.352 .0319469
634.112 .0319202
634.872 .0318931
635.632 .0318656
636.392 .0318380
637.151 .0318102
637.910 .0317825
638.668 .0317548
639.427 .0317274
640.185 .0317003
640.943 .0316735
641.700 .0316473
642.457 .0316216
643.214 .0315966
643.971 .0315721
644.727 .0315482
645.483 .0315248
646.239 .0315017
646.994 .0314790
647.750 .0314565
648.505 .0314340
649.259 .0314117
650.014 .0313893
650.768 .0313671
651.521 .0313448
652.275 .0313224
653.028 .0312999
653.781 .0312770
654.534 .0312537
655.286 .0312299
656.039 .0312055
656.791 .0311804
657.542 .0311548
658.294 .0311286
659.045 .0311020
659.796 .0310751
660.546 .0310479
661.297 .0310205
662.047 .0309929
662.796 .0309650
663.546 .0309369
664.295 .0309087
665.044 .0308804
665.793 .0308521
666.542 .0308239
667.290 .0307958
668.038 .0307679
668.786 .0307402
669.533 .0307126
670.281 .0306852
671.028 .0306579
671.774 .0306309
672.521 .0306040
673.267 .0305774
674.013 .0305510
674.759 .0305249
675.505 .0304989
676.250 .0304730
676.995 .0304472
677.740 .0304215
678.484 .0303960
679.229 .0303706
679.973 .0303454
680.717 .0303206
681.460 .0302960
682.204 .0302718
682.947 .0302478
683.690 .0302241
684.433 .0302005
685.175 .0301772
685.917 .0301540
686.659 .0301311
687.401 .0301085
688.142 .0300862
688.884 .0300644
689.625 .0300430
690.365 .0300222
691.106 .0300018
691.846 .0299820
692.586 .0299627
693.326 .0299438
694.066 .0299255
694.805 .0299077
695.545 .0298903
696.284 .0298735
697.022 .0298572
697.761 .0298413
698.499 .0298258
699.237 .0298108
699.975 .0297961
700.713 .0297818
701.450 .0297677
702.187 .0297540
702.924 .0297404
703.661 .0297270
704.397 .0297138
705.133 .0297007
705.869 .0296877
706.605 .0296748
707.341 .0296619
708.076 .0296491
708.811 .0296362
709.546 .0296232
710.281 .0296101
711.015 .0295969
711.749 .0295836
712.483 .0295701
713.217 .0295563
713.950 .0295424
714.684 .0295282
715.417 .0295139
716.150 .0294992
716.882 .0294844
717.615 .0294693
718.347 .0294540
719.079 .0294385
719.811 .0294230
720.542 .0294073
721.273 .0293916
722.005 .0293759
722.735 .0293602
723.466 .0293445
724.196 .0293290
724.927 .0293136
725.656 .0292985
726.386 .0292837
727.116 .0292692
727.845 .0292551
728.574 .0292414
729.303 .0292280
730.031 .0292148
730.760 .0292018
731.488 .0291890
732.216 .0291762
732.944 .0291634
733.671 .0291506
734.398 .0291378
735.125 .0291250
735.852 .0291123
736.579 .0290996
737.305 .0290870
738.031 .0290744
738.757 .0290618
739.483 .0290492
740.208 .0290366
740.933 .0290238
741.658 .0290109
742.383 .0289978
743.108 .0289844
743.832 .0289707
744.556 .0289567
745.280 .0289425
746.004 .0289280
746.727 .0289133
747.450 .0288983
748.173 .0288830
748.896 .0288673
749.618 .0288513
750.340 .0288348
751.062 .0288178
751.784 .0288003
752.506 .0287822
753.227 .0287635
753.948 .0287443
754.669 .0287245
755.389 .0287042
756.110 .0286834
756.830 .0286621
757.550 .0286405
758.269 .0286185
758.989 .0285962
759.708 .0285736
760.427 .0285508
761.146 .0285278
761.864 .0285045
762.582 .0284811
763.300 .0284576
764.018 .0284340
764.736 .0284105
765.453 .0283871
766.170 .0283639
766.887 .0283411
767.603 .0283187
768.320 .0282969
769.036 .0282757
769.751 .0282551
770.467 .0282352
771.182 .0282160
771.897 .0281974
772.612 .0281796
773.327 .0281625
774.041 .0281462
774.755 .0281306
775.469 .0281158
776.183 .0281017
776.896 .0280883
777.609 .0280757
778.322 .0280636
779.035 .0280522
779.747 .0280414
780.459 .0280311
781.171 .0280214
781.882 .0280121
782.594 .0280033
783.305 .0279950
784.016 .0279870
784.726 .0279793
785.436 .0279719
786.147 .0279610
786.856 .0279539
787.566 .0279469
788.275 .0279400
788.984 .0279331
789.693 .0279263
790.401 .0279194
791.110 .0279125
791.818 .0279056
792.525 .0278986
793.233 .0278915
793.940 .0278844
794.647 .0278811
795.353 .0278740
796.060 .0278669
796.766 .0278599
797.472 .0278529
798.177 .0278458
798.883 .0278388
799.588 .0278317
800.292 .0278246
800.997 .0278174
801.701 .0278102
802.405 .0278030
803.109 .0277958
803.812 .0277886
804.515 .0277813
805.218 .0277740
805.921 .0277665
806.623 .0277588
807.325 .0277509
808.027 .0277427
808.728 .0277344
809.429 .0277259
810.130 .0277174
810.831 .0277089
811.531 .0277004
812.231 .0276921
812.931 .0276839
813.630 .0276759
814.330 .0276681
815.029 .0276606
815.727 .0276535
816.426 .0276467
817.124 .0276404
817.821 .0276346
818.519 .0276294
819.216 .0276248
819.913 .0276207
820.609 .0276172
821.306 .0276142
822.002 .0276118
822.697 .0276099
823.393 .0276086
824.088 .0276080
824.783 .0276079
825.477 .0276083
826.171 .0276093
826.865 .0276106
827.559 .0276122
828.252 .0276142
828.945 .0276163
829.638 .0276187
830.330 .0276212
831.023 .0276239
831.714 .0276266
832.406 .0276293
833.097 .0276319
833.788 .0276343
834.479 .0276363
835.169 .0276379
835.859 .0276391
836.548 .0276398
837.238 .0276399
837.927 .0276396
838.615 .0276387
839.304 .0276372
839.992 .0276352
840.680 .0276325
841.367 .0276293
842.054 .0276253
842.741 .0276208
843.428 .0276155
844.114 .0276097
844.800 .0276032
845.485 .0275961
846.170 .0275883
846.855 .0275796
847.540 .0275701
848.224 .0275597
848.908 .0275483
849.592 .0275359
850.275 .0275226
850.958 .0275083
851.641 .0274932
852.323 .0274771
853.005 .0274602
853.687 .0274425
854.368 .0274238
855.049 .0274042
855.730 .0273837
856.410 .0273624
857.090 .0273403
857.769 .0273177
858.449 .0272944
859.128 .0272708
859.806 .0272468
860.485 .0272225
861.163 .0271979
861.840 .0271731
862.518 .0271480
863.195 .0271228
863.871 .0270973
864.548 .0270718
865.224 .0270462
865.899 .0270207
866.574 .0269953
867.249 .0269701
867.924 .0269452
868.598 .0269204
869.272 .0268960
869.946 .0268719
870.619 .0268481
871.292 .0268246
871.964 .0268016
872.636 .0267790
873.308 .0267569
873.979 .0267354
874.651 .0267143
875.321 .0266937
875.992 .0266736
876.662 .0266540
877.331 .0266349
878.001 .0266162
878.670 .0265980
879.338 .0265802
880.007 .0265631
880.675 .0265464
881.342 .0265303
882.009 .0265147
882.676 .0264997
883.343 .0264852
884.009 .0264712
884.675 .0264578
885.340 .0264449
886.005 .0264326
886.670 .0264208
887.334 .0264095
887.998 .0263986
888.662 .0263883
889.325 .0263782
889.988 .0263685
890.650 .0263590
891.312 .0263497
891.974 .0263405
892.636 .0263313
893.297 .0263220
893.957 .0263127
894.618 .0263033
895.278 .0262937
895.937 .0262838
896.596 .0262738
897.255 .0262634
897.914 .0262526
898.572 .0262413
899.230 .0262296
899.887 .0262171
900.544 .0262041
901.201 .0261903
901.857 .0261667
902.513 .0261514
903.168 .0261355
903.823 .0261191
904.478 .0261022
905.132 .0260849
905.786 .0260673
906.440 .0260493
907.093 .0260310
907.746 .0260125
908.399 .0259940
909.051 .0259755
909.703 .0259572
910.354 .0259485
911.005 .0259309
911.656 .0259136
912.306 .0258966
912.956 .0258800
913.605 .0258637
914.254 .0258479
914.903 .0258325
915.551 .0258177
916.199 .0258034
916.847 .0257897
917.494 .0257766
918.141 .0257641
918.788 .0257522
919.434 .0257408
920.079 .0257299
920.725 .0257194
921.370 .0257093
922.014 .0256996
922.658 .0256902
923.302 .0256812
923.946 .0256725
924.589 .0256642
925.231 .0256560
925.873 .0256481
926.515 .0256402
927.157 .0256325
927.798 .0256247
928.439 .0256169
929.079 .0256092
929.719 .0256014
930.359 .0255938
930.998 .0255863
931.637 .0255789
932.275 .0255717
932.913 .0255648
933.551 .0255583
934.188 .0255522
934.825 .0255466
935.462 .0255416
936.098 .0255371
936.733 .0255333
937.369 .0255302
938.004 .0255278
938.638 .0255260
939.273 .0255248
939.907 .0255244
940.540 .0255246
941.173 .0255255
941.806 .0255270
942.438 .0255292
943.070 .0255320
943.702 .0255353
944.333 .0255392
944.964 .0255434
945.594 .0255481
946.224 .0255530
946.854 .0255583
947.483 .0255638
948.112 .0255695
948.741 .0255754
949.369 .0255814
949.996 .0255876
950.624 .0255938
951.251 .0256001
951.878 .0256062
952.504 .0256123
953.130 .0256182
953.755 .0256240
954.380 .0256296
955.005 .0256350
955.629 .0256401
956.253 .0256450
956.877 .0256497
957.500 .0256540
958.123 .0256580
958.746 .0256618
959.368 .0256653
959.990 .0256687
960.611 .0256719
961.232 .0256749
961.853 .0256778
962.473 .0256805
963.093 .0256830
963.712 .0256853
964.331 .0256872
964.950 .0256889
965.569 .0256903
966.187 .0256914
966.804 .0256923
967.422 .0256930
968.039 .0256934
968.655 .0256936
969.272 .0256934
969.887 .0256929
970.503 .0256920
971.118 .0256907
971.733 .0256889
972.347 .0256867
972.961 .0256841
973.575 .0256812
974.188 .0256779
974.801 .0256743
975.414 .0256703
976.026 .0256660
976.638 .0256611
977.250 .0256559
977.861 .0256502
978.472 .0256440
979.083 .0256375
979.693 .0256306
980.303 .0256235
980.912 .0256118
981.521 .0256042
982.130 .0255964
982.738 .0255883
983.346 .0255801
983.954 .0255717
984.562 .0255631
985.169 .0255544
985.775 .0255458
986.382 .0255372
986.988 .0255289
987.594 .0255207
988.199 .0255128
988.804 .0255050
989.409 .0255017
990.013 .0254941
990.617 .0254867
991.221 .0254793
991.824 .0254720
992.427 .0254648
993.030 .0254577
993.632 .0254507
994.234 .0254439
994.836 .0254370
995.438 .0254301
996.039 .0254231
996.640 .0254160
997.240 .0254086
997.840 .0254010
998.440 .0253932
999.040 .0253852
999.639 .0253769
1000.238 .0253685
1000.836 .0253599
1001.435 .0253510
1002.033 .0253419
1002.630 .0253324
1003.228 .0253227
1003.825 .0253125
1004.422 .0253020
1005.018 .0252911
1005.614 .0252798
1006.210 .0252684
1006.806 .0252567
1007.401 .0252450
1007.996 .0252333
1008.591 .0252215
1009.186 .0252099
1009.780 .0251983
1010.374 .0251869
1010.967 .0251755
1011.561 .0251642
1012.154 .0251531
1012.746 .0251423
1013.339 .0251318
1013.931 .0251217
1014.523 .0251121
1015.115 .0251030
1015.706 .0250943
1016.298 .0250861
1016.888 .0250783
1017.479 .0250708
1018.069 .0250635
1018.660 .0250565
1019.250 .0250496
1019.839 .0250430
1020.429 .0250367
1021.018 .0250307
1021.607 .0250250
1022.195 .0250197
1022.784 .0250147
1023.372 .0250101
1023.960 .0250056
1024.547 .0250013
1025.135 .0249971
1025.722 .0249929
1026.309 .0249886
1026.896 .0249841
1027.483 .0249795
1028.069 .0249747
1028.655 .0249697
1029.241 .0249645
1029.827 .0249590
1030.412 .0249532
1030.997 .0249473
1031.582 .0249411
1032.167 .0249347
1032.752 .0249280
1033.336 .0249213
1033.921 .0249144
1034.505 .0249076
1035.089 .0249007
1035.672 .0248939
1036.256 .0248871
1036.839 .0248804
1037.422 .0248737
1038.005 .0248670
1038.588 .0248604
1039.171 .0248536
1039.753 .0248468
1040.335 .0248399
1040.918 .0248327
1041.500 .0248252
1042.081 .0248173
1042.663 .0248091
1043.244 .0248004
1043.826 .0247912
1044.407 .0247817
1044.988 .0247719
1045.569 .0247618
1046.150 .0247515
1046.730 .0247411
1047.311 .0247306
1047.891 .0247200
1048.471 .0247093
1049.052 .0246987
1049.632 .0246880
1050.211 .0246772
1050.791 .0246663
1051.371 .0246554
1051.950 .0246444
1052.530 .0246334
1053.109 .0246222
1053.688 .0246111
1054.268 .0245999
1054.847 .0245889
1055.426 .0245781
1056.005 .0245676
1056.583 .0245574
1057.162 .0245477
1057.741 .0245384
1058.319 .0245297
1058.898 .0245214
1059.476 .0245136
1060.055 .0245063
1060.633 .0244994
1061.211 .0244929
1061.790 .0244869
1062.368 .0244814
1062.946 .0244762
1063.524 .0244713
1064.102 .0244668
1064.680 .0244624
1065.258 .0244581
1065.836 .0244540
1066.414 .0244499
1066.992 .0244458
1067.570 .0244419
1068.148 .0244381
1068.726 .0244344
1069.304 .0244310
1069.882 .0244279
1070.460 .0244250
1071.038 .0244225
1071.616 .0244204
1072.194 .0244186
1072.772 .0244172
1073.350 .0244162
1073.928 .0244156
1074.506 .0244154
1075.084 .0244155
1075.662 .0244159
1076.240 .0244167
1076.819 .0244177
1077.397 .0244192
1077.976 .0244211
1078.554 .0244235
1079.133 .0244263
1079.711 .0244296
1080.290 .0244334
1080.869 .0244377
1081.448 .0244425
1082.027 .0244476
1082.606 .0244531
1083.185 .0244588
1083.764 .0244649
1084.343 .0244712
1084.923 .0244780
1085.502 .0244850
1086.082 .0244924
1086.662 .0245001
1087.242 .0245080
1087.822 .0245160
1088.402 .0245241
1088.983 .0245323
1089.563 .0245404
1090.144 .0245486
1090.725 .0245570
1091.306 .0245657
1091.887 .0245752
1092.469 .0245854
1093.050 .0245965
1093.632 .0246087
1094.214 .0246220
1094.796 .0246364
1095.379 .0246519
1095.961 .0246687
1096.544 .0246868
1097.127 .0247062
1097.710 .0247272
1098.294 .0247498
1098.877 .0247742
1099.461 .0248005
1100.046 .0248286
1100.630 .0248584
1101.215 .0248897
1101.800 .0249224
1102.385 .0249562
1102.970 .0249910
1103.556 .0250265
1104.142 .0250627
1104.728 .0250995
1105.315 .0251369
1105.902 .0251747
1106.489 .0252130
1107.077 .0252518
1107.664 .0252910
1108.253 .0253304
1108.841 .0253699
1109.430 .0254094
1110.019 .0254490
1110.609 .0254885
1111.198 .0255279
1111.789 .0255674
1112.379 .0256071
1112.970 .0256472
1113.561 .0256876
1114.153 .0257285
1114.745 .0257701
1115.338 .0258123
1115.931 .0258552
1116.524 .0258988
1117.117 .0259434
1117.712 .0259889
1118.306 .0260356
1118.901 .0260836
1119.496 .0261331
1120.092 .0261841
1120.689 .0262369
1121.285 .0262917
1121.882 .0263488
1122.480 .0264084
1123.078 .0264710
1123.677 .0265369
1124.276 .0266065
1124.875 .0266801
1125.476 .0267577
1126.076 .0268394
1126.677 .0269251
1127.279 .0270143
1127.881 .0271068
1128.484 .0272022
1129.087 .0272428
1129.691 .0273428
1130.295 .0274453
1130.900 .0275501
1131.505 .0276568
1132.111 .0277652
1132.718 .0278745
1133.325 .0279841
1133.933 .0280952
1134.541 .0282051
1135.150 .0283125
1135.760 .0284096
1136.370 .0285131
1136.981 .0287911
1137.592 .0289115
1138.204 .0290339
1138.817 .0291562
1139.431 .0292768
1140.045 .0293937
1140.660 .0294925
1141.275 .0295775
1141.891 .0296984
1142.508 .0297459
1143.126 .0297575
1143.744 .0295483
1144.363 .0298092
1144.983 .0313461
