Measurement Sequence started on: 15-12-46-377
Integration time: 28
Scans to Average: 2 
>>>>>Begin Spectral Data<<<<<
432.689 .0000100
433.621 .0000100
434.552 .0000100
435.482 .0000100
436.410 .0000100
437.337 .0000100
438.262 .0278830
439.187 .0591915
440.110 .0981676
441.031 .1422381
441.952 .1147378
442.871 .1198456
443.789 .1245870
444.705 .1290391
445.621 .1332552
446.535 .1372765
447.447 .1396662
448.359 .1402664
449.269 .1386937
450.178 .1346950
451.086 .1283433
451.993 .1201215
452.898 .1108339
453.803 .1013976
454.706 .0925971
455.608 .0849238
456.508 .0785499
457.408 .0742007
458.306 .0708483
459.204 .0681197
460.100 .0658275
460.995 .0638637
461.888 .0621528
462.781 .0606436
463.673 .0592972
464.563 .0580860
465.452 .0569900
466.340 .0559917
467.228 .0550789
468.114 .0542424
468.999 .0534750
469.882 .0527692
470.765 .0521183
471.647 .0515171
472.528 .0509607
473.407 .0504455
474.286 .0499697
475.163 .0495321
476.040 .0491320
476.915 .0487696
477.790 .0484444
478.663 .0481563
479.535 .0479043
480.407 .0476866
481.277 .0475009
482.147 .0473438
483.015 .0472121
483.883 .0471029
484.749 .0470141
485.615 .0469450
486.479 .0468951
487.343 .0468650
488.206 .0468554
489.067 .0468664
489.928 .0468985
490.788 .0469508
491.647 .0470221
492.505 .0471107
493.362 .0472140
494.218 .0473311
495.073 .0474612
495.928 .0477106
496.781 .0478802
497.634 .0480685
498.486 .0482775
499.337 .0485095
500.187 .0487663
501.036 .0490501
501.884 .0493627
502.731 .0497068
503.578 .0500852
504.424 .0503477
505.268 .0507930
506.113 .0512861
506.956 .0518327
507.798 .0524391
508.640 .0531136
509.480 .0538659
510.320 .0547080
511.160 .0556525
511.998 .0567140
512.836 .0579109
513.672 .0592632
514.508 .0607929
515.344 .0625221
516.178 .0644733
517.012 .0666708
517.845 .0691352
518.677 .0718855
519.508 .0749374
520.339 .0782982
521.169 .0819709
521.998 .0859334
522.826 .0901523
523.654 .0945731
524.481 .0991265
525.307 .1037326
526.133 .1082981
526.958 .1127261
527.782 .1169211
528.605 .1207962
529.428 .1242774
530.250 .1272977
531.072 .1298104
531.892 .1317769
532.712 .1331742
533.532 .1339885
534.350 .1342124
535.168 .1338491
535.986 .1329071
536.802 .1313953
537.618 .1293276
538.434 .1267220
539.249 .1236187
540.063 .1200681
540.876 .1161364
541.689 .1119009
542.501 .1074475
543.313 .1028699
544.124 .0982631
544.934 .0937165
545.744 .0893089
546.553 .0851041
547.361 .0811541
548.169 .0774891
548.976 .0741287
549.783 .0710759
550.589 .0683239
551.395 .0658565
552.200 .0636492
553.004 .0616730
553.808 .0599008
554.611 .0583077
555.414 .0568697
556.216 .0555642
557.018 .0543694
557.819 .0532682
558.619 .0522467
559.419 .0512934
560.218 .0504000
561.017 .0495593
561.815 .0487654
562.613 .0480139
563.410 .0472996
564.207 .0466180
565.003 .0459646
565.799 .0453357
566.594 .0447280
567.388 .0441394
568.182 .0435686
568.976 .0430155
569.769 .0424800
570.562 .0419630
571.354 .0414644
572.145 .0409842
572.936 .0405222
573.727 .0400777
574.517 .0396500
575.307 .0392382
576.096 .0388415
576.885 .0384599
577.673 .0380940
578.461 .0377446
579.248 .0374120
580.035 .0370971
580.821 .0368002
581.607 .0365211
582.392 .0362592
583.177 .0360137
583.962 .0357836
584.746 .0355680
585.529 .0353660
586.313 .0351768
587.095 .0349999
587.878 .0348348
588.660 .0346811
589.441 .0345384
590.222 .0344059
591.003 .0342833
591.783 .0341698
592.563 .0340646
593.342 .0339667
594.121 .0338751
594.899 .0337886
595.678 .0337062
596.455 .0336270
597.233 .0335502
598.009 .0334753
598.786 .0334022
599.562 .0333306
600.338 .0332605
601.113 .0331920
601.888 .0330949
602.663 .0330315
603.437 .0329700
604.211 .0329104
604.984 .0328526
605.757 .0327966
606.530 .0327426
607.302 .0326906
608.074 .0326408
608.845 .0325934
609.616 .0325487
610.387 .0325340
611.158 .0324938
611.928 .0324565
612.697 .0324223
613.467 .0323912
614.236 .0323630
615.004 .0323376
615.773 .0323146
616.541 .0322938
617.308 .0322750
618.076 .0322578
618.843 .0322418
619.609 .0322269
620.375 .0322129
621.141 .0321995
621.907 .0321865
622.672 .0321738
623.437 .0321611
624.202 .0321481
624.966 .0321345
625.730 .0321203
626.493 .0321051
627.257 .0320890
628.020 .0320717
628.782 .0320532
629.545 .0320335
630.307 .0320126
631.068 .0319904
631.830 .0319671
632.591 .0319427
633.352 .0319175
634.112 .0318914
634.872 .0318648
635.632 .0318377
636.392 .0318104
637.151 .0317829
637.910 .0317555
638.668 .0317280
639.427 .0317008
640.185 .0316737
640.943 .0316471
641.700 .0316209
642.457 .0315954
643.214 .0315707
643.971 .0315467
644.727 .0315235
645.483 .0315012
646.239 .0314796
646.994 .0314587
647.750 .0314383
648.505 .0314183
649.259 .0313986
650.014 .0313790
650.768 .0313594
651.521 .0313395
652.275 .0313194
653.028 .0312988
653.781 .0312776
654.534 .0312559
655.286 .0312335
656.039 .0312105
656.791 .0311869
657.542 .0311625
658.294 .0311376
659.045 .0311119
659.796 .0310855
660.546 .0310584
661.297 .0310306
662.047 .0310023
662.796 .0309735
663.546 .0309443
664.295 .0309150
665.044 .0308858
665.793 .0308567
666.542 .0308278
667.290 .0307993
668.038 .0307712
668.786 .0307436
669.533 .0307164
670.281 .0306897
671.028 .0306636
671.774 .0306381
672.521 .0306132
673.267 .0305892
674.013 .0305660
674.759 .0305437
675.505 .0305223
676.250 .0305017
676.995 .0304818
677.740 .0304625
678.484 .0304438
679.229 .0304255
679.973 .0304076
680.717 .0303900
681.460 .0303727
682.204 .0303557
682.947 .0303391
683.690 .0303229
684.433 .0303071
685.175 .0302916
685.917 .0302763
686.659 .0302613
687.401 .0302463
688.142 .0302314
688.884 .0302165
689.625 .0302015
690.365 .0301863
691.106 .0301709
691.846 .0301553
692.586 .0301396
693.326 .0301236
694.066 .0301076
694.805 .0300915
695.545 .0300753
696.284 .0300592
697.022 .0300432
697.761 .0300273
698.499 .0300115
699.237 .0299959
699.975 .0299804
700.713 .0299649
701.450 .0299496
702.187 .0299343
702.924 .0299191
703.661 .0299039
704.397 .0298887
705.133 .0298736
705.869 .0298586
706.605 .0298435
707.341 .0298283
708.076 .0298131
708.811 .0297977
709.546 .0297820
710.281 .0297659
711.015 .0297495
711.749 .0297325
712.483 .0297149
713.217 .0296967
713.950 .0296778
714.684 .0296581
715.417 .0296378
716.150 .0296168
716.882 .0295950
717.615 .0295726
718.347 .0295495
719.079 .0295258
719.811 .0295015
720.542 .0294766
721.273 .0294511
722.005 .0294253
722.735 .0293990
723.466 .0293724
724.196 .0293457
724.927 .0293188
725.656 .0292920
726.386 .0292653
727.116 .0292388
727.845 .0292126
728.574 .0291869
729.303 .0291616
730.031 .0291367
730.760 .0291124
731.488 .0290886
732.216 .0290652
732.944 .0290423
733.671 .0290199
734.398 .0289979
735.125 .0289765
735.852 .0289556
736.579 .0289353
737.305 .0289156
738.031 .0288965
738.757 .0288781
739.483 .0288603
740.208 .0288431
740.933 .0288264
741.658 .0288102
742.383 .0287944
743.108 .0287790
743.832 .0287639
744.556 .0287492
745.280 .0287347
746.004 .0287205
746.727 .0287065
747.450 .0286926
748.173 .0286789
748.896 .0286652
749.618 .0286515
750.340 .0286379
751.062 .0286243
751.784 .0286108
752.506 .0285975
753.227 .0285843
753.948 .0285714
754.669 .0285587
755.389 .0285462
756.110 .0285339
756.830 .0285218
757.550 .0285099
758.269 .0284981
758.989 .0284864
759.708 .0284748
760.427 .0284634
761.146 .0284522
761.864 .0284413
762.582 .0284307
763.300 .0284204
764.018 .0284104
764.736 .0284007
765.453 .0283914
766.170 .0283825
766.887 .0283738
767.603 .0283655
768.320 .0283576
769.036 .0283500
769.751 .0283428
770.467 .0283360
771.182 .0283296
771.897 .0283237
772.612 .0283182
773.327 .0283132
774.041 .0283085
774.755 .0283043
775.469 .0283005
776.183 .0282971
776.896 .0282940
777.609 .0282913
778.322 .0282889
779.035 .0282867
779.747 .0282847
780.459 .0282828
781.171 .0282811
781.882 .0282794
782.594 .0282777
783.305 .0282760
784.016 .0282741
784.726 .0282721
785.436 .0282698
786.147 .0282644
786.856 .0282608
787.566 .0282566
788.275 .0282518
788.984 .0282463
789.693 .0282400
790.401 .0282331
791.110 .0282255
791.818 .0282171
792.525 .0282079
793.233 .0281978
793.940 .0281868
794.647 .0281791
795.353 .0281666
796.060 .0281531
796.766 .0281388
797.472 .0281235
798.177 .0281073
798.883 .0280903
799.588 .0280724
800.292 .0280537
800.997 .0280340
801.701 .0280133
802.405 .0279917
803.109 .0279691
803.812 .0279456
804.515 .0279213
805.218 .0278962
805.921 .0278704
806.623 .0278439
807.325 .0278168
808.027 .0277891
808.728 .0277607
809.429 .0277318
810.130 .0277024
810.831 .0276726
811.531 .0276425
812.231 .0276123
812.931 .0275820
813.630 .0275519
814.330 .0275220
815.029 .0274923
815.727 .0274631
816.426 .0274344
817.124 .0274063
817.821 .0273788
818.519 .0273521
819.216 .0273263
819.913 .0273014
820.609 .0272776
821.306 .0272549
822.002 .0272334
822.697 .0272129
823.393 .0271935
824.088 .0271752
824.783 .0271580
825.477 .0271417
826.171 .0271264
826.865 .0271121
827.559 .0270988
828.252 .0270864
828.945 .0270748
829.638 .0270640
830.330 .0270539
831.023 .0270443
831.714 .0270352
832.406 .0270264
833.097 .0270179
833.788 .0270096
834.479 .0270014
835.169 .0269934
835.859 .0269856
836.548 .0269778
837.238 .0269700
837.927 .0269621
838.615 .0269542
839.304 .0269460
839.992 .0269377
840.680 .0269293
841.367 .0269207
842.054 .0269120
842.741 .0269033
843.428 .0268947
844.114 .0268861
844.800 .0268775
845.485 .0268690
846.170 .0268606
846.855 .0268521
847.540 .0268437
848.224 .0268353
848.908 .0268270
849.592 .0268187
850.275 .0268105
850.958 .0268023
851.641 .0267942
852.323 .0267861
853.005 .0267779
853.687 .0267697
854.368 .0267615
855.049 .0267532
855.730 .0267449
856.410 .0267366
857.090 .0267282
857.769 .0267199
858.449 .0267115
859.128 .0267030
859.806 .0266946
860.485 .0266861
861.163 .0266777
861.840 .0266694
862.518 .0266613
863.195 .0266536
863.871 .0266464
864.548 .0266396
865.224 .0266334
865.899 .0266278
866.574 .0266227
867.249 .0266182
867.924 .0266143
868.598 .0266109
869.272 .0266081
869.946 .0266060
870.619 .0266045
871.292 .0266037
871.964 .0266036
872.636 .0266040
873.308 .0266049
873.979 .0266063
874.651 .0266080
875.321 .0266099
875.992 .0266121
876.662 .0266145
877.331 .0266169
878.001 .0266195
878.670 .0266221
879.338 .0266247
880.007 .0266272
880.675 .0266296
881.342 .0266319
882.009 .0266342
882.676 .0266363
883.343 .0266383
884.009 .0266401
884.675 .0266419
885.340 .0266436
886.005 .0266452
886.670 .0266465
887.334 .0266478
887.998 .0266489
888.662 .0266499
889.325 .0266508
889.988 .0266515
890.650 .0266521
891.312 .0266526
891.974 .0266529
892.636 .0266529
893.297 .0266527
893.957 .0266522
894.618 .0266512
895.278 .0266499
895.937 .0266480
896.596 .0266454
897.255 .0266421
897.914 .0266378
898.572 .0266325
899.230 .0266260
899.887 .0266183
900.544 .0266092
901.201 .0265988
901.857 .0265769
902.513 .0265629
903.168 .0265476
903.823 .0265309
904.478 .0265129
905.132 .0264936
905.786 .0264729
906.440 .0264510
907.093 .0264280
907.746 .0264039
908.399 .0263789
909.051 .0263531
909.703 .0263266
910.354 .0263118
911.005 .0262847
911.656 .0262570
912.306 .0262289
912.956 .0262003
913.605 .0261714
914.254 .0261421
914.903 .0261126
915.551 .0260828
916.199 .0260529
916.847 .0260228
917.494 .0259925
918.141 .0259622
918.788 .0259317
919.434 .0259010
920.079 .0258703
920.725 .0258394
921.370 .0258084
922.014 .0257773
922.658 .0257462
923.302 .0257149
923.946 .0256836
924.589 .0256522
925.231 .0256207
925.873 .0255892
926.515 .0255575
927.157 .0255258
927.798 .0254941
928.439 .0254625
929.079 .0254311
929.719 .0253998
930.359 .0253688
930.998 .0253381
931.637 .0253078
932.275 .0252778
932.913 .0252484
933.551 .0252194
934.188 .0251911
934.825 .0251635
935.462 .0251367
936.098 .0251106
936.733 .0250853
937.369 .0250608
938.004 .0250372
938.638 .0250143
939.273 .0249922
939.907 .0249709
940.540 .0249504
941.173 .0249308
941.806 .0249119
942.438 .0248939
943.070 .0248767
943.702 .0248603
944.333 .0248446
944.964 .0248295
945.594 .0248151
946.224 .0248012
946.854 .0247878
947.483 .0247749
948.112 .0247625
948.741 .0247507
949.369 .0247393
949.996 .0247286
950.624 .0247183
951.251 .0247086
951.878 .0246993
952.504 .0246905
953.130 .0246821
953.755 .0246743
954.380 .0246670
955.005 .0246602
955.629 .0246540
956.253 .0246484
956.877 .0246433
957.500 .0246387
958.123 .0246346
958.746 .0246309
959.368 .0246276
959.990 .0246247
960.611 .0246221
961.232 .0246198
961.853 .0246179
962.473 .0246163
963.093 .0246149
963.712 .0246139
964.331 .0246130
964.950 .0246122
965.569 .0246114
966.187 .0246106
966.804 .0246098
967.422 .0246090
968.039 .0246081
968.655 .0246073
969.272 .0246065
969.887 .0246057
970.503 .0246050
971.118 .0246043
971.733 .0246035
972.347 .0246026
972.961 .0246016
973.575 .0246006
974.188 .0245997
974.801 .0245989
975.414 .0245984
976.026 .0245982
976.638 .0245983
977.250 .0245989
977.861 .0245998
978.472 .0246010
979.083 .0246025
979.693 .0246042
980.303 .0246061
980.912 .0246107
981.521 .0246134
982.130 .0246165
982.738 .0246199
983.346 .0246237
983.954 .0246278
984.562 .0246322
985.169 .0246369
985.775 .0246417
986.382 .0246467
986.988 .0246520
987.594 .0246576
988.199 .0246635
988.804 .0246698
989.409 .0246733
990.013 .0246802
990.617 .0246875
991.221 .0246951
991.824 .0247030
992.427 .0247112
993.030 .0247195
993.632 .0247279
994.234 .0247363
994.836 .0247448
995.438 .0247535
996.039 .0247622
996.640 .0247712
997.240 .0247803
997.840 .0247897
998.440 .0247993
999.040 .0248091
999.639 .0248190
1000.238 .0248291
1000.836 .0248393
1001.435 .0248496
1002.033 .0248601
1002.630 .0248706
1003.228 .0248811
1003.825 .0248918
1004.422 .0249024
1005.018 .0249130
1005.614 .0249234
1006.210 .0249337
1006.806 .0249435
1007.401 .0249531
1007.996 .0249622
1008.591 .0249709
1009.186 .0249792
1009.780 .0249873
1010.374 .0249950
1010.967 .0250025
1011.561 .0250097
1012.154 .0250169
1012.746 .0250238
1013.339 .0250305
1013.931 .0250369
1014.523 .0250431
1015.115 .0250490
1015.706 .0250547
1016.298 .0250603
1016.888 .0250657
1017.479 .0250710
1018.069 .0250763
1018.660 .0250815
1019.250 .0250867
1019.839 .0250918
1020.429 .0250968
1021.018 .0251017
1021.607 .0251066
1022.195 .0251114
1022.784 .0251161
1023.372 .0251210
1023.960 .0251259
1024.547 .0251310
1025.135 .0251362
1025.722 .0251415
1026.309 .0251468
1026.896 .0251520
1027.483 .0251571
1028.069 .0251618
1028.655 .0251662
1029.241 .0251702
1029.827 .0251738
1030.412 .0251770
1030.997 .0251798
1031.582 .0251822
1032.167 .0251843
1032.752 .0251861
1033.336 .0251874
1033.921 .0251883
1034.505 .0251887
1035.089 .0251886
1035.672 .0251880
1036.256 .0251867
1036.839 .0251848
1037.422 .0251823
1038.005 .0251790
1038.588 .0251751
1039.171 .0251704
1039.753 .0251649
1040.335 .0251586
1040.918 .0251514
1041.500 .0251433
1042.081 .0251343
1042.663 .0251245
1043.244 .0251140
1043.826 .0251030
1044.407 .0250916
1044.988 .0250799
1045.569 .0250681
1046.150 .0250564
1046.730 .0250447
1047.311 .0250330
1047.891 .0250215
1048.471 .0250099
1049.052 .0249982
1049.632 .0249864
1050.211 .0249744
1050.791 .0249622
1051.371 .0249496
1051.950 .0249368
1052.530 .0249237
1053.109 .0249103
1053.688 .0248966
1054.268 .0248826
1054.847 .0248683
1055.426 .0248537
1056.005 .0248388
1056.583 .0248235
1057.162 .0248080
1057.741 .0247923
1058.319 .0247764
1058.898 .0247604
1059.476 .0247446
1060.055 .0247288
1060.633 .0247131
1061.211 .0246975
1061.790 .0246819
1062.368 .0246661
1062.946 .0246501
1063.524 .0246339
1064.102 .0246173
1064.680 .0246003
1065.258 .0245832
1065.836 .0245660
1066.414 .0245491
1066.992 .0245324
1067.570 .0245162
1068.148 .0245006
1068.726 .0244856
1069.304 .0244711
1069.882 .0244572
1070.460 .0244437
1071.038 .0244308
1071.616 .0244184
1072.194 .0244065
1072.772 .0243953
1073.350 .0243848
1073.928 .0243752
1074.506 .0243663
1075.084 .0243583
1075.662 .0243508
1076.240 .0243437
1076.819 .0243369
1077.397 .0243302
1077.976 .0243236
1078.554 .0243170
1079.133 .0243106
1079.711 .0243046
1080.290 .0242990
1080.869 .0242939
1081.448 .0242893
1082.027 .0242852
1082.606 .0242813
1083.185 .0242774
1083.764 .0242732
1084.343 .0242686
1084.923 .0242634
1085.502 .0242579
1086.082 .0242521
1086.662 .0242465
1087.242 .0242413
1087.822 .0242367
1088.402 .0242329
1088.983 .0242300
1089.563 .0242279
1090.144 .0242264
1090.725 .0242255
1091.306 .0242249
1091.887 .0242249
1092.469 .0242254
1093.050 .0242268
1093.632 .0242294
1094.214 .0242333
1094.796 .0242386
1095.379 .0242455
1095.961 .0242537
1096.544 .0242632
1097.127 .0242737
1097.710 .0242853
1098.294 .0242979
1098.877 .0243115
1099.461 .0243263
1100.046 .0243425
1100.630 .0243605
1101.215 .0243804
1101.800 .0244023
1102.385 .0244261
1102.970 .0244519
1103.556 .0244793
1104.142 .0245081
1104.728 .0245381
1105.315 .0245689
1105.902 .0246006
1106.489 .0246329
1107.077 .0246658
1107.664 .0246994
1108.253 .0247336
1108.841 .0247685
1109.430 .0248040
1110.019 .0248400
1110.609 .0248763
1111.198 .0249128
1111.789 .0249495
1112.379 .0249860
1112.970 .0250224
1113.561 .0250586
1114.153 .0250946
1114.745 .0251305
1115.338 .0251663
1115.931 .0252022
1116.524 .0252383
1117.117 .0252746
1117.712 .0253113
1118.306 .0253485
1118.901 .0253864
1119.496 .0254250
1120.092 .0254644
1120.689 .0255046
1121.285 .0255459
1121.882 .0255882
1122.480 .0256320
1123.078 .0256774
1123.677 .0257248
1124.276 .0257744
1124.875 .0258266
1125.476 .0258815
1126.076 .0259391
1126.677 .0259996
1127.279 .0260627
1127.881 .0261282
1128.484 .0261959
1129.087 .0262221
1129.691 .0262931
1130.295 .0263666
1130.900 .0264426
1131.505 .0265212
1132.111 .0266025
1132.718 .0266862
1133.325 .0267717
1133.933 .0268595
1134.541 .0269484
1135.150 .0270408
1135.760 .0271318
1136.370 .0272118
1136.981 .0273884
1137.592 .0274834
1138.204 .0275816
1138.817 .0276804
1139.431 .0277765
1140.045 .0278764
1140.660 .0279754
1141.275 .0280596
1141.891 .0281588
1142.508 .0282337
1143.126 .0283843
1143.744 .0284044
1144.363 .0281594
1144.983 .0289037
