Measurement Sequence started on: 15-12-46-377
Integration time: 28
Scans to Average: 2 
>>>>>Begin Spectral Data<<<<<
432.689 .0000100
433.621 .0000100
434.552 .0000100
435.482 .0000100
436.410 .0000100
437.337 .0000100
438.262 .0247335
439.187 .0524726
440.110 .0869362
441.031 .1257870
441.952 .1013806
442.871 .1059739
443.789 .1102589
444.705 .1143003
445.621 .1181402
446.535 .1218129
447.447 .1240438
448.359 .1246945
449.269 .1234278
450.178 .1200249
451.086 .1145510
451.993 .1074360
452.898 .0993890
453.803 .0912155
454.706 .0836024
455.608 .0769754
456.508 .0714784
457.408 .0677488
458.306 .0648728
459.204 .0625218
460.100 .0605328
460.995 .0588195
461.888 .0573189
462.781 .0559905
463.673 .0548017
464.563 .0537277
465.452 .0527501
466.340 .0518544
467.228 .0510304
468.114 .0502712
468.999 .0495716
469.882 .0489275
470.765 .0483353
471.647 .0477914
472.528 .0472932
473.407 .0468372
474.286 .0464204
475.163 .0460406
476.040 .0456946
476.915 .0453810
477.790 .0450978
478.663 .0448446
479.535 .0446207
480.407 .0444254
481.277 .0442577
482.147 .0441158
483.015 .0439979
483.883 .0439019
484.749 .0438255
485.615 .0437675
486.479 .0437265
487.343 .0437016
488.206 .0436932
489.067 .0437014
489.928 .0437271
490.788 .0437711
491.647 .0438344
492.505 .0439178
493.362 .0440218
494.218 .0441473
495.073 .0442947
495.928 .0446009
496.781 .0448103
497.634 .0450447
498.486 .0453054
499.337 .0455941
500.187 .0459126
501.036 .0462632
501.884 .0466477
502.731 .0470681
503.578 .0475266
504.424 .0478352
505.268 .0483549
506.113 .0489169
506.956 .0495235
507.798 .0501780
508.640 .0508855
509.480 .0516525
510.320 .0524870
511.160 .0533999
511.998 .0544029
512.836 .0555111
513.672 .0567414
514.508 .0581141
515.344 .0596516
516.178 .0613769
517.012 .0633133
517.845 .0654830
518.677 .0679081
519.508 .0706053
520.339 .0735820
521.169 .0768391
521.998 .0803570
522.826 .0841058
523.654 .0880395
524.481 .0921014
525.307 .0962249
526.133 .1003339
526.958 .1043453
527.782 .1081746
528.605 .1117392
529.428 .1149665
530.250 .1177873
531.072 .1201505
531.892 .1220141
532.712 .1233499
533.532 .1241430
534.350 .1243898
535.168 .1240941
535.986 .1232627
536.802 .1219040
537.618 .1200327
538.434 .1176640
539.249 .1148347
540.063 .1115890
540.876 .1079834
541.689 .1040849
542.501 .0999683
543.313 .0957137
544.124 .0914072
544.934 .0871324
545.744 .0829672
546.553 .0789780
547.361 .0752236
548.169 .0717408
548.976 .0685547
549.783 .0656731
550.589 .0630889
551.395 .0607822
552.200 .0587267
553.004 .0568914
553.808 .0552492
554.611 .0537754
555.414 .0524512
556.216 .0512565
557.018 .0501748
557.819 .0491918
558.619 .0482941
559.419 .0474694
560.218 .0467073
561.017 .0459966
561.815 .0453291
562.613 .0446971
563.410 .0440939
564.207 .0435135
565.003 .0429519
565.799 .0424055
566.594 .0418713
567.388 .0413477
568.182 .0408339
568.976 .0403295
569.769 .0398351
570.562 .0393513
571.354 .0388791
572.145 .0384195
572.936 .0379736
573.727 .0375420
574.517 .0371258
575.307 .0367251
576.096 .0363400
576.885 .0359712
577.673 .0356195
578.461 .0352852
579.248 .0349688
580.035 .0346705
580.821 .0343903
581.607 .0341282
582.392 .0338838
583.177 .0336567
583.962 .0334464
584.746 .0332524
585.529 .0330737
586.313 .0329094
587.095 .0327590
587.878 .0326215
588.660 .0324961
589.441 .0323820
590.222 .0322781
591.003 .0321835
591.783 .0320972
592.563 .0320181
593.342 .0319454
594.121 .0318783
594.899 .0318158
595.678 .0317574
596.455 .0317025
597.233 .0316504
598.009 .0316008
598.786 .0315533
599.562 .0315077
600.338 .0314636
601.113 .0314209
601.888 .0313606
602.663 .0313208
603.437 .0312821
604.211 .0312442
604.984 .0312071
605.757 .0311707
606.530 .0311350
607.302 .0311000
608.074 .0310658
608.845 .0310325
609.616 .0310000
610.387 .0309861
611.158 .0309554
611.928 .0309257
612.697 .0308970
613.467 .0308694
614.236 .0308428
615.004 .0308171
615.773 .0307921
616.541 .0307676
617.308 .0307437
618.076 .0307201
618.843 .0306967
619.609 .0306737
620.375 .0306507
621.141 .0306279
621.907 .0306052
622.672 .0305825
623.437 .0305597
624.202 .0305368
624.966 .0305137
625.730 .0304903
626.493 .0304666
627.257 .0304426
628.020 .0304182
628.782 .0303936
629.545 .0303688
630.307 .0303438
631.068 .0303188
631.830 .0302939
632.591 .0302693
633.352 .0302452
634.112 .0302217
634.872 .0301989
635.632 .0301769
636.392 .0301558
637.151 .0301355
637.910 .0301161
638.668 .0300977
639.427 .0300801
640.185 .0300634
640.943 .0300477
641.700 .0300330
642.457 .0300193
643.214 .0300067
643.971 .0299950
644.727 .0299840
645.483 .0299738
646.239 .0299639
646.994 .0299542
647.750 .0299447
648.505 .0299350
649.259 .0299252
650.014 .0299151
650.768 .0299047
651.521 .0298938
652.275 .0298824
653.028 .0298704
653.781 .0298575
654.534 .0298438
655.286 .0298291
656.039 .0298134
656.791 .0297967
657.542 .0297791
658.294 .0297605
659.045 .0297411
659.796 .0297209
660.546 .0296999
661.297 .0296783
662.047 .0296561
662.796 .0296334
663.546 .0296102
664.295 .0295865
665.044 .0295626
665.793 .0295385
666.542 .0295142
667.290 .0294899
668.038 .0294655
668.786 .0294413
669.533 .0294172
670.281 .0293933
671.028 .0293697
671.774 .0293465
672.521 .0293236
673.267 .0293011
674.013 .0292789
674.759 .0292570
675.505 .0292354
676.250 .0292139
676.995 .0291926
677.740 .0291714
678.484 .0291503
679.229 .0291293
679.973 .0291085
680.717 .0290878
681.460 .0290673
682.204 .0290468
682.947 .0290263
683.690 .0290057
684.433 .0289851
685.175 .0289642
685.917 .0289432
686.659 .0289219
687.401 .0289006
688.142 .0288792
688.884 .0288579
689.625 .0288368
690.365 .0288160
691.106 .0287957
691.846 .0287758
692.586 .0287564
693.326 .0287376
694.066 .0287192
694.805 .0287014
695.545 .0286842
696.284 .0286676
697.022 .0286516
697.761 .0286364
698.499 .0286220
699.237 .0286084
699.975 .0285957
700.713 .0285840
701.450 .0285731
702.187 .0285629
702.924 .0285535
703.661 .0285447
704.397 .0285364
705.133 .0285286
705.869 .0285211
706.605 .0285139
707.341 .0285070
708.076 .0285002
708.811 .0284936
709.546 .0284869
710.281 .0284803
711.015 .0284736
711.749 .0284666
712.483 .0284593
713.217 .0284516
713.950 .0284434
714.684 .0284346
715.417 .0284250
716.150 .0284148
716.882 .0284037
717.615 .0283917
718.347 .0283790
719.079 .0283655
719.811 .0283512
720.542 .0283362
721.273 .0283206
722.005 .0283043
722.735 .0282874
723.466 .0282700
724.196 .0282522
724.927 .0282339
725.656 .0282153
726.386 .0281963
727.116 .0281769
727.845 .0281572
728.574 .0281373
729.303 .0281173
730.031 .0280971
730.760 .0280768
731.488 .0280566
732.216 .0280364
732.944 .0280163
733.671 .0279964
734.398 .0279766
735.125 .0279569
735.852 .0279372
736.579 .0279177
737.305 .0278982
738.031 .0278787
738.757 .0278593
739.483 .0278400
740.208 .0278208
740.933 .0278015
741.658 .0277823
742.383 .0277632
743.108 .0277441
743.832 .0277251
744.556 .0277062
745.280 .0276873
746.004 .0276684
746.727 .0276495
747.450 .0276305
748.173 .0276115
748.896 .0275923
749.618 .0275730
750.340 .0275537
751.062 .0275345
751.784 .0275152
752.506 .0274961
753.227 .0274770
753.948 .0274581
754.669 .0274392
755.389 .0274203
756.110 .0274014
756.830 .0273825
757.550 .0273635
758.269 .0273446
758.989 .0273257
759.708 .0273068
760.427 .0272879
761.146 .0272691
761.864 .0272504
762.582 .0272319
763.300 .0272135
764.018 .0271954
764.736 .0271776
765.453 .0271602
766.170 .0271433
766.887 .0271268
767.603 .0271108
768.320 .0270954
769.036 .0270806
769.751 .0270665
770.467 .0270531
771.182 .0270405
771.897 .0270288
772.612 .0270180
773.327 .0270082
774.041 .0269993
774.755 .0269915
775.469 .0269846
776.183 .0269787
776.896 .0269737
777.609 .0269696
778.322 .0269664
779.035 .0269640
779.747 .0269624
780.459 .0269615
781.171 .0269612
781.882 .0269615
782.594 .0269623
783.305 .0269636
784.016 .0269652
784.726 .0269672
785.436 .0269694
786.147 .0269729
786.856 .0269753
787.566 .0269778
788.275 .0269802
788.984 .0269825
789.693 .0269846
790.401 .0269865
791.110 .0269880
791.818 .0269892
792.525 .0269900
793.233 .0269904
793.940 .0269905
794.647 .0269896
795.353 .0269889
796.060 .0269877
796.766 .0269860
797.472 .0269837
798.177 .0269809
798.883 .0269773
799.588 .0269731
800.292 .0269682
800.997 .0269627
801.701 .0269566
802.405 .0269498
803.109 .0269424
803.812 .0269345
804.515 .0269261
805.218 .0269170
805.921 .0269074
806.623 .0268972
807.325 .0268863
808.027 .0268748
808.728 .0268626
809.429 .0268498
810.130 .0268364
810.831 .0268224
811.531 .0268077
812.231 .0267924
812.931 .0267766
813.630 .0267601
814.330 .0267432
815.029 .0267258
815.727 .0267079
816.426 .0266898
817.124 .0266712
817.821 .0266524
818.519 .0266333
819.216 .0266139
819.913 .0265943
820.609 .0265744
821.306 .0265543
822.002 .0265341
822.697 .0265137
823.393 .0264934
824.088 .0264731
824.783 .0264530
825.477 .0264330
826.171 .0264132
826.865 .0263935
827.559 .0263739
828.252 .0263545
828.945 .0263352
829.638 .0263161
830.330 .0262972
831.023 .0262785
831.714 .0262600
832.406 .0262418
833.097 .0262237
833.788 .0262058
834.479 .0261880
835.169 .0261702
835.859 .0261525
836.548 .0261347
837.238 .0261168
837.927 .0260989
838.615 .0260808
839.304 .0260625
839.992 .0260440
840.680 .0260251
841.367 .0260060
842.054 .0259865
842.741 .0259667
843.428 .0259467
844.114 .0259266
844.800 .0259064
845.485 .0258862
846.170 .0258661
846.855 .0258460
847.540 .0258260
848.224 .0258061
848.908 .0257864
849.592 .0257667
850.275 .0257472
850.958 .0257279
851.641 .0257090
852.323 .0256904
853.005 .0256722
853.687 .0256546
854.368 .0256375
855.049 .0256210
855.730 .0256051
856.410 .0255897
857.090 .0255749
857.769 .0255607
858.449 .0255471
859.128 .0255341
859.806 .0255218
860.485 .0255101
861.163 .0254990
861.840 .0254886
862.518 .0254789
863.195 .0254698
863.871 .0254612
864.548 .0254533
865.224 .0254460
865.899 .0254392
866.574 .0254329
867.249 .0254272
867.924 .0254220
868.598 .0254174
869.272 .0254133
869.946 .0254097
870.619 .0254067
871.292 .0254042
871.964 .0254023
872.636 .0254010
873.308 .0254003
873.979 .0254003
874.651 .0254009
875.321 .0254022
875.992 .0254042
876.662 .0254067
877.331 .0254099
878.001 .0254137
878.670 .0254179
879.338 .0254227
880.007 .0254279
880.675 .0254337
881.342 .0254399
882.009 .0254467
882.676 .0254540
883.343 .0254618
884.009 .0254701
884.675 .0254788
885.340 .0254879
886.005 .0254972
886.670 .0255068
887.334 .0255164
887.998 .0255262
888.662 .0255360
889.325 .0255459
889.988 .0255557
890.650 .0255655
891.312 .0255752
891.974 .0255847
892.636 .0255941
893.297 .0256031
893.957 .0256119
894.618 .0256202
895.278 .0256281
895.937 .0256354
896.596 .0256422
897.255 .0256484
897.914 .0256539
898.572 .0256588
899.230 .0256630
899.887 .0256666
900.544 .0256694
901.201 .0256715
901.857 .0256716
902.513 .0256717
903.168 .0256710
903.823 .0256696
904.478 .0256672
905.132 .0256640
905.786 .0256599
906.440 .0256549
907.093 .0256490
907.746 .0256422
908.399 .0256346
909.051 .0256261
909.703 .0256168
910.354 .0256100
911.005 .0255996
911.656 .0255885
912.306 .0255765
912.956 .0255639
913.605 .0255505
914.254 .0255365
914.903 .0255216
915.551 .0255061
916.199 .0254899
916.847 .0254729
917.494 .0254552
918.141 .0254367
918.788 .0254177
919.434 .0253980
920.079 .0253777
920.725 .0253569
921.370 .0253356
922.014 .0253138
922.658 .0252915
923.302 .0252687
923.946 .0252455
924.589 .0252218
925.231 .0251977
925.873 .0251732
926.515 .0251483
927.157 .0251231
927.798 .0250977
928.439 .0250721
929.079 .0250463
929.719 .0250203
930.359 .0249941
930.998 .0249677
931.637 .0249412
932.275 .0249145
932.913 .0248878
933.551 .0248611
934.188 .0248345
934.825 .0248079
935.462 .0247814
936.098 .0247550
936.733 .0247286
937.369 .0247024
938.004 .0246761
938.638 .0246499
939.273 .0246238
939.907 .0245978
940.540 .0245720
941.173 .0245464
941.806 .0245211
942.438 .0244962
943.070 .0244715
943.702 .0244472
944.333 .0244231
944.964 .0243994
945.594 .0243760
946.224 .0243529
946.854 .0243302
947.483 .0243080
948.112 .0242862
948.741 .0242649
949.369 .0242441
949.996 .0242237
950.624 .0242037
951.251 .0241841
951.878 .0241646
952.504 .0241453
953.130 .0241262
953.755 .0241072
954.380 .0240883
955.005 .0240694
955.629 .0240506
956.253 .0240317
956.877 .0240129
957.500 .0239940
958.123 .0239750
958.746 .0239560
959.368 .0239370
959.990 .0239180
960.611 .0238991
961.232 .0238803
961.853 .0238616
962.473 .0238431
963.093 .0238248
963.712 .0238068
964.331 .0237890
964.950 .0237715
965.569 .0237542
966.187 .0237373
966.804 .0237208
967.422 .0237046
968.039 .0236889
968.655 .0236737
969.272 .0236591
969.887 .0236451
970.503 .0236317
971.118 .0236190
971.733 .0236070
972.347 .0235957
972.961 .0235850
973.575 .0235750
974.188 .0235657
974.801 .0235570
975.414 .0235489
976.026 .0235414
976.638 .0235344
977.250 .0235281
977.861 .0235222
978.472 .0235168
979.083 .0235117
979.693 .0235070
980.303 .0235026
980.912 .0234969
981.521 .0234931
982.130 .0234897
982.738 .0234865
983.346 .0234837
983.954 .0234811
984.562 .0234790
985.169 .0234772
985.775 .0234757
986.382 .0234747
986.988 .0234741
987.594 .0234740
988.199 .0234744
988.804 .0234754
989.409 .0234776
990.013 .0234796
990.617 .0234823
991.221 .0234856
991.824 .0234896
992.427 .0234942
993.030 .0234994
993.632 .0235054
994.234 .0235119
994.836 .0235192
995.438 .0235272
996.039 .0235359
996.640 .0235455
997.240 .0235557
997.840 .0235667
998.440 .0235784
999.040 .0235907
999.639 .0236035
1000.238 .0236168
1000.836 .0236305
1001.435 .0236447
1002.033 .0236593
1002.630 .0236743
1003.228 .0236897
1003.825 .0237054
1004.422 .0237214
1005.018 .0237376
1005.614 .0237540
1006.210 .0237706
1006.806 .0237874
1007.401 .0238043
1007.996 .0238213
1008.591 .0238386
1009.186 .0238559
1009.780 .0238735
1010.374 .0238911
1010.967 .0239087
1011.561 .0239263
1012.154 .0239438
1012.746 .0239612
1013.339 .0239784
1013.931 .0239955
1014.523 .0240123
1015.115 .0240289
1015.706 .0240454
1016.298 .0240617
1016.888 .0240778
1017.479 .0240938
1018.069 .0241098
1018.660 .0241255
1019.250 .0241412
1019.839 .0241568
1020.429 .0241723
1021.018 .0241879
1021.607 .0242035
1022.195 .0242191
1022.784 .0242348
1023.372 .0242505
1023.960 .0242663
1024.547 .0242821
1025.135 .0242979
1025.722 .0243136
1026.309 .0243292
1026.896 .0243446
1027.483 .0243598
1028.069 .0243748
1028.655 .0243895
1029.241 .0244040
1029.827 .0244181
1030.412 .0244320
1030.997 .0244455
1031.582 .0244588
1032.167 .0244719
1032.752 .0244848
1033.336 .0244975
1033.921 .0245100
1034.505 .0245222
1035.089 .0245342
1035.672 .0245460
1036.256 .0245573
1036.839 .0245683
1037.422 .0245788
1038.005 .0245887
1038.588 .0245981
1039.171 .0246070
1039.753 .0246153
1040.335 .0246230
1040.918 .0246301
1041.500 .0246366
1042.081 .0246424
1042.663 .0246475
1043.244 .0246518
1043.826 .0246554
1044.407 .0246583
1044.988 .0246605
1045.569 .0246619
1046.150 .0246627
1046.730 .0246628
1047.311 .0246623
1047.891 .0246611
1048.471 .0246594
1049.052 .0246572
1049.632 .0246544
1050.211 .0246511
1050.791 .0246475
1051.371 .0246435
1051.950 .0246392
1052.530 .0246348
1053.109 .0246303
1053.688 .0246258
1054.268 .0246212
1054.847 .0246167
1055.426 .0246123
1056.005 .0246079
1056.583 .0246037
1057.162 .0245996
1057.741 .0245954
1058.319 .0245913
1058.898 .0245871
1059.476 .0245829
1060.055 .0245786
1060.633 .0245741
1061.211 .0245695
1061.790 .0245647
1062.368 .0245597
1062.946 .0245545
1063.524 .0245489
1064.102 .0245430
1064.680 .0245367
1065.258 .0245298
1065.836 .0245224
1066.414 .0245144
1066.992 .0245058
1067.570 .0244966
1068.148 .0244868
1068.726 .0244762
1069.304 .0244648
1069.882 .0244527
1070.460 .0244396
1071.038 .0244257
1071.616 .0244109
1072.194 .0243953
1072.772 .0243789
1073.350 .0243619
1073.928 .0243444
1074.506 .0243268
1075.084 .0243092
1075.662 .0242919
1076.240 .0242749
1076.819 .0242585
1077.397 .0242427
1077.976 .0242278
1078.554 .0242136
1079.133 .0242003
1079.711 .0241881
1080.290 .0241767
1080.869 .0241664
1081.448 .0241571
1082.027 .0241485
1082.606 .0241406
1083.185 .0241331
1083.764 .0241257
1084.343 .0241182
1084.923 .0241102
1085.502 .0241016
1086.082 .0240922
1086.662 .0240821
1087.242 .0240712
1087.822 .0240597
1088.402 .0240476
1088.983 .0240351
1089.563 .0240220
1090.144 .0240086
1090.725 .0239950
1091.306 .0239811
1091.887 .0239671
1092.469 .0239531
1093.050 .0239393
1093.632 .0239261
1094.214 .0239135
1094.796 .0239017
1095.379 .0238909
1095.961 .0238811
1096.544 .0238723
1097.127 .0238646
1097.710 .0238579
1098.294 .0238523
1098.877 .0238478
1099.461 .0238447
1100.046 .0238430
1100.630 .0238430
1101.215 .0238449
1101.800 .0238488
1102.385 .0238546
1102.970 .0238625
1103.556 .0238723
1104.142 .0238840
1104.728 .0238977
1105.315 .0239131
1105.902 .0239302
1106.489 .0239490
1107.077 .0239692
1107.664 .0239907
1108.253 .0240133
1108.841 .0240367
1109.430 .0240607
1110.019 .0240850
1110.609 .0241093
1111.198 .0241336
1111.789 .0241577
1112.379 .0241816
1112.970 .0242055
1113.561 .0242295
1114.153 .0242534
1114.745 .0242777
1115.338 .0243026
1115.931 .0243283
1116.524 .0243549
1117.117 .0243828
1117.712 .0244121
1118.306 .0244432
1118.901 .0244764
1119.496 .0245118
1120.092 .0245498
1120.689 .0245903
1121.285 .0246330
1121.882 .0246778
1122.480 .0247244
1123.078 .0247726
1123.677 .0248224
1124.276 .0248739
1124.875 .0249269
1125.476 .0249816
1126.076 .0250382
1126.677 .0250970
1127.279 .0251584
1127.881 .0252222
1128.484 .0252888
1129.087 .0253190
1129.691 .0253895
1130.295 .0254627
1130.900 .0255390
1131.505 .0256189
1132.111 .0257027
1132.718 .0257912
1133.325 .0258847
1133.933 .0259829
1134.541 .0260904
1135.150 .0261999
1135.760 .0263174
1136.370 .0264406
1136.981 .0263423
1137.592 .0264460
1138.204 .0265594
1138.817 .0266845
1139.431 .0268259
1140.045 .0269844
1140.660 .0271649
1141.275 .0273632
1141.891 .0275586
1142.508 .0278826
1143.126 .0280124
1143.744 .0283158
1144.363 .0285581
1144.983 .0282357
