Measurement Sequence started on: 15-12-46-377
Integration time: 28
Scans to Average: 2 
>>>>>Begin Spectral Data<<<<<
432.689 .0000100
433.621 .0000100
434.552 .0000100
435.482 .0000100
436.410 .0000100
437.337 .0000100
438.262 .0264615
439.187 .0562719
440.110 .0933309
441.031 .1351151
441.952 .1082407
442.871 .1130171
443.789 .1174653
444.705 .1216566
445.621 .1256380
446.535 .1294450
447.447 .1317105
448.359 .1322778
449.269 .1307810
450.178 .1269840
451.086 .1209590
451.993 .1131703
452.898 .1043863
453.803 .0954802
454.706 .0871967
455.608 .0799990
456.508 .0740437
457.408 .0700100
458.306 .0669159
459.204 .0643984
460.100 .0622731
460.995 .0604390
461.888 .0588270
462.781 .0573924
463.673 .0561026
464.563 .0549353
465.452 .0538734
466.340 .0529046
467.228 .0520196
468.114 .0512118
468.999 .0504752
469.882 .0498040
470.765 .0491931
471.647 .0486377
472.528 .0481333
473.407 .0476753
474.286 .0472601
475.163 .0468856
476.040 .0465491
476.915 .0462494
477.790 .0459850
478.663 .0457553
479.535 .0455597
480.407 .0453971
481.277 .0452655
482.147 .0451626
483.015 .0450848
483.883 .0450291
484.749 .0449921
485.615 .0449716
486.479 .0449659
487.343 .0449749
488.206 .0449994
489.067 .0450410
489.928 .0451014
490.788 .0451829
491.647 .0452864
492.505 .0454123
493.362 .0455600
494.218 .0457278
495.073 .0459141
495.928 .0462582
496.781 .0464867
497.634 .0467321
498.486 .0469948
499.337 .0472765
500.187 .0475793
501.036 .0479056
501.884 .0482573
502.731 .0486379
503.578 .0490493
504.424 .0493128
505.268 .0497807
506.113 .0502885
506.956 .0508396
507.798 .0514391
508.640 .0520933
509.480 .0528104
510.320 .0536012
511.160 .0544788
511.998 .0554594
512.836 .0565617
513.672 .0578055
514.508 .0592126
515.344 .0608035
516.178 .0626012
517.012 .0646262
517.845 .0668979
518.677 .0694352
519.508 .0722520
520.339 .0753557
521.169 .0787481
521.998 .0824118
522.826 .0863166
523.654 .0904132
524.481 .0946400
525.307 .0989225
526.133 .1031754
526.958 .1073075
527.782 .1112308
528.605 .1148628
529.428 .1181313
530.250 .1209713
531.072 .1233399
531.892 .1252027
532.712 .1265408
533.532 .1273431
534.350 .1276068
535.168 .1273387
535.986 .1265462
536.802 .1252360
537.618 .1234186
538.434 .1211063
539.249 .1183301
540.063 .1151298
540.876 .1115628
541.689 .1076974
542.501 .1036125
543.313 .0993947
544.124 .0951354
544.934 .0909186
545.744 .0868199
546.553 .0829015
547.361 .0792142
548.169 .0757849
548.976 .0726294
549.783 .0697483
550.589 .0671323
551.395 .0647647
552.200 .0626203
553.004 .0606722
553.808 .0588986
554.611 .0572789
555.414 .0557962
556.216 .0544336
557.018 .0531774
557.819 .0520145
558.619 .0509336
559.419 .0499252
560.218 .0489814
561.017 .0480948
561.815 .0472599
562.613 .0464719
563.410 .0457259
564.207 .0450174
565.003 .0443428
565.799 .0436985
566.594 .0430820
567.388 .0424907
568.182 .0419227
568.976 .0413763
569.769 .0408506
570.562 .0403452
571.354 .0398597
572.145 .0393940
572.936 .0389478
573.727 .0385204
574.517 .0381119
575.307 .0377219
576.096 .0373495
576.885 .0369947
577.673 .0366573
578.461 .0363366
579.248 .0360322
580.035 .0357441
580.821 .0354721
581.607 .0352158
582.392 .0349750
583.177 .0347490
583.962 .0345368
584.746 .0343379
585.529 .0341517
586.313 .0339777
587.095 .0338154
587.878 .0336645
588.660 .0335247
589.441 .0333959
590.222 .0332779
591.003 .0331700
591.783 .0330715
592.563 .0329817
593.342 .0328993
594.121 .0328231
594.899 .0327521
595.678 .0326852
596.455 .0326219
597.233 .0325616
598.009 .0325040
598.786 .0324489
599.562 .0323964
600.338 .0323462
601.113 .0322982
601.888 .0322320
602.663 .0321880
603.437 .0321453
604.211 .0321036
604.984 .0320627
605.757 .0320225
606.530 .0319832
607.302 .0319449
608.074 .0319076
608.845 .0318715
609.616 .0318365
610.387 .0318211
611.158 .0317879
611.928 .0317558
612.697 .0317249
613.467 .0316951
614.236 .0316662
615.004 .0316383
615.773 .0316113
616.541 .0315853
617.308 .0315602
618.076 .0315361
618.843 .0315130
619.609 .0314909
620.375 .0314697
621.141 .0314493
621.907 .0314296
622.672 .0314106
623.437 .0313922
624.202 .0313741
624.966 .0313562
625.730 .0313384
626.493 .0313206
627.257 .0313027
628.020 .0312846
628.782 .0312661
629.545 .0312473
630.307 .0312279
631.068 .0312080
631.830 .0311875
632.591 .0311662
633.352 .0311441
634.112 .0311212
634.872 .0310975
635.632 .0310729
636.392 .0310475
637.151 .0310214
637.910 .0309948
638.668 .0309678
639.427 .0309405
640.185 .0309132
640.943 .0308860
641.700 .0308591
642.457 .0308326
643.214 .0308065
643.971 .0307809
644.727 .0307558
645.483 .0307312
646.239 .0307070
646.994 .0306833
647.750 .0306601
648.505 .0306373
649.259 .0306150
650.014 .0305931
650.768 .0305714
651.521 .0305501
652.275 .0305288
653.028 .0305077
653.781 .0304865
654.534 .0304651
655.286 .0304435
656.039 .0304215
656.791 .0303992
657.542 .0303766
658.294 .0303535
659.045 .0303301
659.796 .0303064
660.546 .0302825
661.297 .0302583
662.047 .0302341
662.796 .0302099
663.546 .0301856
664.295 .0301613
665.044 .0301369
665.793 .0301126
666.542 .0300884
667.290 .0300643
668.038 .0300404
668.786 .0300169
669.533 .0299938
670.281 .0299713
671.028 .0299495
671.774 .0299283
672.521 .0299078
673.267 .0298879
674.013 .0298686
674.759 .0298498
675.505 .0298315
676.250 .0298135
676.995 .0297960
677.740 .0297788
678.484 .0297619
679.229 .0297455
679.973 .0297294
680.717 .0297137
681.460 .0296985
682.204 .0296837
682.947 .0296694
683.690 .0296556
684.433 .0296421
685.175 .0296290
685.917 .0296161
686.659 .0296034
687.401 .0295908
688.142 .0295782
688.884 .0295658
689.625 .0295534
690.365 .0295409
691.106 .0295285
691.846 .0295160
692.586 .0295035
693.326 .0294907
694.066 .0294778
694.805 .0294647
695.545 .0294512
696.284 .0294374
697.022 .0294233
697.761 .0294087
698.499 .0293938
699.237 .0293785
699.975 .0293629
700.713 .0293469
701.450 .0293307
702.187 .0293144
702.924 .0292979
703.661 .0292814
704.397 .0292648
705.133 .0292480
705.869 .0292311
706.605 .0292140
707.341 .0291967
708.076 .0291791
708.811 .0291613
709.546 .0291434
710.281 .0291253
711.015 .0291071
711.749 .0290887
712.483 .0290702
713.217 .0290514
713.950 .0290324
714.684 .0290131
715.417 .0289935
716.150 .0289736
716.882 .0289533
717.615 .0289326
718.347 .0289117
719.079 .0288903
719.811 .0288687
720.542 .0288468
721.273 .0288247
722.005 .0288025
722.735 .0287802
723.466 .0287581
724.196 .0287361
724.927 .0287145
725.656 .0286932
726.386 .0286724
727.116 .0286521
727.845 .0286323
728.574 .0286130
729.303 .0285944
730.031 .0285763
730.760 .0285589
731.488 .0285421
732.216 .0285261
732.944 .0285106
733.671 .0284958
734.398 .0284816
735.125 .0284679
735.852 .0284548
736.579 .0284421
737.305 .0284299
738.031 .0284182
738.757 .0284069
739.483 .0283960
740.208 .0283853
740.933 .0283750
741.658 .0283648
742.383 .0283547
743.108 .0283447
743.832 .0283347
744.556 .0283247
745.280 .0283146
746.004 .0283043
746.727 .0282940
747.450 .0282835
748.173 .0282730
748.896 .0282623
749.618 .0282515
750.340 .0282406
751.062 .0282295
751.784 .0282182
752.506 .0282068
753.227 .0281951
753.948 .0281832
754.669 .0281710
755.389 .0281586
756.110 .0281458
756.830 .0281329
757.550 .0281198
758.269 .0281065
758.989 .0280932
759.708 .0280797
760.427 .0280663
761.146 .0280528
761.864 .0280393
762.582 .0280258
763.300 .0280124
764.018 .0279990
764.736 .0279857
765.453 .0279725
766.170 .0279595
766.887 .0279467
767.603 .0279342
768.320 .0279221
769.036 .0279103
769.751 .0278988
770.467 .0278878
771.182 .0278771
771.897 .0278668
772.612 .0278570
773.327 .0278474
774.041 .0278381
774.755 .0278290
775.469 .0278202
776.183 .0278116
776.896 .0278032
777.609 .0277950
778.322 .0277870
779.035 .0277791
779.747 .0277715
780.459 .0277640
781.171 .0277566
781.882 .0277492
782.594 .0277418
783.305 .0277343
784.016 .0277265
784.726 .0277185
785.436 .0277102
786.147 .0276966
786.856 .0276876
787.566 .0276784
788.275 .0276689
788.984 .0276594
789.693 .0276496
790.401 .0276396
791.110 .0276294
791.818 .0276189
792.525 .0276081
793.233 .0275970
793.940 .0275856
794.647 .0275794
795.353 .0275678
796.060 .0275560
796.766 .0275441
797.472 .0275319
798.177 .0275196
798.883 .0275070
799.588 .0274942
800.292 .0274811
800.997 .0274678
801.701 .0274542
802.405 .0274405
803.109 .0274266
803.812 .0274125
804.515 .0273983
805.218 .0273837
805.921 .0273689
806.623 .0273538
807.325 .0273383
808.027 .0273224
808.728 .0273063
809.429 .0272898
810.130 .0272731
810.831 .0272561
811.531 .0272390
812.231 .0272216
812.931 .0272040
813.630 .0271863
814.330 .0271685
815.029 .0271507
815.727 .0271330
816.426 .0271155
817.124 .0270983
817.821 .0270815
818.519 .0270650
819.216 .0270490
819.913 .0270335
820.609 .0270184
821.306 .0270038
822.002 .0269898
822.697 .0269764
823.393 .0269636
824.088 .0269516
824.783 .0269402
825.477 .0269296
826.171 .0269196
826.865 .0269103
827.559 .0269017
828.252 .0268938
828.945 .0268866
829.638 .0268800
830.330 .0268741
831.023 .0268688
831.714 .0268641
832.406 .0268599
833.097 .0268562
833.788 .0268528
834.479 .0268498
835.169 .0268472
835.859 .0268449
836.548 .0268430
837.238 .0268414
837.927 .0268402
838.615 .0268392
839.304 .0268384
839.992 .0268376
840.680 .0268368
841.367 .0268359
842.054 .0268349
842.741 .0268338
843.428 .0268325
844.114 .0268312
844.800 .0268296
845.485 .0268278
846.170 .0268256
846.855 .0268230
847.540 .0268199
848.224 .0268161
848.908 .0268118
849.592 .0268068
850.275 .0268013
850.958 .0267951
851.641 .0267885
852.323 .0267814
853.005 .0267737
853.687 .0267656
854.368 .0267569
855.049 .0267477
855.730 .0267381
856.410 .0267281
857.090 .0267178
857.769 .0267073
858.449 .0266966
859.128 .0266858
859.806 .0266749
860.485 .0266640
861.163 .0266531
861.840 .0266422
862.518 .0266313
863.195 .0266206
863.871 .0266100
864.548 .0265996
865.224 .0265894
865.899 .0265795
866.574 .0265697
867.249 .0265602
867.924 .0265509
868.598 .0265418
869.272 .0265329
869.946 .0265242
870.619 .0265156
871.292 .0265073
871.964 .0264992
872.636 .0264913
873.308 .0264835
873.979 .0264758
874.651 .0264682
875.321 .0264607
875.992 .0264532
876.662 .0264458
877.331 .0264384
878.001 .0264311
878.670 .0264239
879.338 .0264167
880.007 .0264095
880.675 .0264023
881.342 .0263952
882.009 .0263880
882.676 .0263809
883.343 .0263737
884.009 .0263665
884.675 .0263593
885.340 .0263521
886.005 .0263449
886.670 .0263378
887.334 .0263307
887.998 .0263237
888.662 .0263167
889.325 .0263098
889.988 .0263029
890.650 .0262960
891.312 .0262892
891.974 .0262824
892.636 .0262755
893.297 .0262685
893.957 .0262613
894.618 .0262538
895.278 .0262462
895.937 .0262382
896.596 .0262298
897.255 .0262210
897.914 .0262117
898.572 .0262019
899.230 .0261916
899.887 .0261807
900.544 .0261691
901.201 .0261569
901.857 .0261348
902.513 .0261206
903.168 .0261056
903.823 .0260899
904.478 .0260734
905.132 .0260561
905.786 .0260381
906.440 .0260194
907.093 .0260001
907.746 .0259802
908.399 .0259599
909.051 .0259392
909.703 .0259181
910.354 .0259072
911.005 .0258861
911.656 .0258648
912.306 .0258434
912.956 .0258220
913.605 .0258006
914.254 .0257793
914.903 .0257581
915.551 .0257371
916.199 .0257164
916.847 .0256958
917.494 .0256755
918.141 .0256553
918.788 .0256353
919.434 .0256154
920.079 .0255956
920.725 .0255758
921.370 .0255561
922.014 .0255364
922.658 .0255167
923.302 .0254970
923.946 .0254772
924.589 .0254574
925.231 .0254375
925.873 .0254176
926.515 .0253976
927.157 .0253777
927.798 .0253578
928.439 .0253380
929.079 .0253183
929.719 .0252989
930.359 .0252796
930.998 .0252607
931.637 .0252421
932.275 .0252239
932.913 .0252062
933.551 .0251889
934.188 .0251722
934.825 .0251561
935.462 .0251407
936.098 .0251260
936.733 .0251121
937.369 .0250989
938.004 .0250864
938.638 .0250748
939.273 .0250640
939.907 .0250540
940.540 .0250448
941.173 .0250363
941.806 .0250284
942.438 .0250212
943.070 .0250146
943.702 .0250085
944.333 .0250030
944.964 .0249978
945.594 .0249931
946.224 .0249887
946.854 .0249846
947.483 .0249808
948.112 .0249771
948.741 .0249736
949.369 .0249702
949.996 .0249670
950.624 .0249638
951.251 .0249608
951.878 .0249579
952.504 .0249551
953.130 .0249525
953.755 .0249501
954.380 .0249478
955.005 .0249457
955.629 .0249436
956.253 .0249417
956.877 .0249399
957.500 .0249381
958.123 .0249365
958.746 .0249351
959.368 .0249339
959.990 .0249330
960.611 .0249323
961.232 .0249320
961.853 .0249319
962.473 .0249321
963.093 .0249325
963.712 .0249332
964.331 .0249341
964.950 .0249352
965.569 .0249365
966.187 .0249380
966.804 .0249397
967.422 .0249415
968.039 .0249435
968.655 .0249455
969.272 .0249476
969.887 .0249496
970.503 .0249515
971.118 .0249532
971.733 .0249548
972.347 .0249561
972.961 .0249572
973.575 .0249581
974.188 .0249588
974.801 .0249593
975.414 .0249595
976.026 .0249595
976.638 .0249593
977.250 .0249588
977.861 .0249581
978.472 .0249570
979.083 .0249557
979.693 .0249540
980.303 .0249521
980.912 .0249480
981.521 .0249456
982.130 .0249430
982.738 .0249403
983.346 .0249374
983.954 .0249345
984.562 .0249315
985.169 .0249285
985.775 .0249256
986.382 .0249227
986.988 .0249200
987.594 .0249175
988.199 .0249152
988.804 .0249134
989.409 .0249136
990.013 .0249124
990.617 .0249115
991.221 .0249111
991.824 .0249110
992.427 .0249112
993.030 .0249117
993.632 .0249124
994.234 .0249133
994.836 .0249143
995.438 .0249154
996.039 .0249166
996.640 .0249179
997.240 .0249193
997.840 .0249208
998.440 .0249224
999.040 .0249240
999.639 .0249255
1000.238 .0249269
1000.836 .0249280
1001.435 .0249288
1002.033 .0249292
1002.630 .0249293
1003.228 .0249289
1003.825 .0249281
1004.422 .0249268
1005.018 .0249251
1005.614 .0249230
1006.210 .0249203
1006.806 .0249170
1007.401 .0249130
1007.996 .0249085
1008.591 .0249033
1009.186 .0248977
1009.780 .0248915
1010.374 .0248850
1010.967 .0248782
1011.561 .0248714
1012.154 .0248645
1012.746 .0248577
1013.339 .0248510
1013.931 .0248444
1014.523 .0248378
1015.115 .0248313
1015.706 .0248248
1016.298 .0248185
1016.888 .0248124
1017.479 .0248065
1018.069 .0248011
1018.660 .0247961
1019.250 .0247915
1019.839 .0247875
1020.429 .0247840
1021.018 .0247808
1021.607 .0247781
1022.195 .0247757
1022.784 .0247736
1023.372 .0247718
1023.960 .0247704
1024.547 .0247694
1025.135 .0247688
1025.722 .0247684
1026.309 .0247683
1026.896 .0247683
1027.483 .0247683
1028.069 .0247681
1028.655 .0247678
1029.241 .0247671
1029.827 .0247661
1030.412 .0247648
1030.997 .0247632
1031.582 .0247614
1032.167 .0247593
1032.752 .0247569
1033.336 .0247542
1033.921 .0247512
1034.505 .0247479
1035.089 .0247443
1035.672 .0247403
1036.256 .0247361
1036.839 .0247316
1037.422 .0247269
1038.005 .0247221
1038.588 .0247171
1039.171 .0247120
1039.753 .0247068
1040.335 .0247013
1040.918 .0246955
1041.500 .0246895
1042.081 .0246831
1042.663 .0246765
1043.244 .0246696
1043.826 .0246626
1044.407 .0246556
1044.988 .0246486
1045.569 .0246416
1046.150 .0246348
1046.730 .0246280
1047.311 .0246212
1047.891 .0246143
1048.471 .0246073
1049.052 .0246002
1049.632 .0245929
1050.211 .0245856
1050.791 .0245782
1051.371 .0245707
1051.950 .0245631
1052.530 .0245555
1053.109 .0245476
1053.688 .0245395
1054.268 .0245312
1054.847 .0245225
1055.426 .0245135
1056.005 .0245043
1056.583 .0244950
1057.162 .0244856
1057.741 .0244764
1058.319 .0244674
1058.898 .0244588
1059.476 .0244505
1060.055 .0244426
1060.633 .0244350
1061.211 .0244277
1061.790 .0244208
1062.368 .0244142
1062.946 .0244079
1063.524 .0244020
1064.102 .0243966
1064.680 .0243915
1065.258 .0243868
1065.836 .0243825
1066.414 .0243784
1066.992 .0243746
1067.570 .0243710
1068.148 .0243674
1068.726 .0243640
1069.304 .0243610
1069.882 .0243583
1070.460 .0243560
1071.038 .0243543
1071.616 .0243532
1072.194 .0243527
1072.772 .0243527
1073.350 .0243532
1073.928 .0243540
1074.506 .0243550
1075.084 .0243562
1075.662 .0243576
1076.240 .0243593
1076.819 .0243612
1077.397 .0243635
1077.976 .0243660
1078.554 .0243687
1079.133 .0243715
1079.711 .0243743
1080.290 .0243771
1080.869 .0243799
1081.448 .0243827
1082.027 .0243855
1082.606 .0243885
1083.185 .0243918
1083.764 .0243957
1084.343 .0244004
1084.923 .0244058
1085.502 .0244119
1086.082 .0244188
1086.662 .0244265
1087.242 .0244349
1087.822 .0244442
1088.402 .0244543
1088.983 .0244655
1089.563 .0244778
1090.144 .0244913
1090.725 .0245062
1091.306 .0245225
1091.887 .0245400
1092.469 .0245587
1093.050 .0245783
1093.632 .0245987
1094.214 .0246198
1094.796 .0246414
1095.379 .0246635
1095.961 .0246862
1096.544 .0247092
1097.127 .0247326
1097.710 .0247563
1098.294 .0247803
1098.877 .0248046
1099.461 .0248292
1100.046 .0248538
1100.630 .0248786
1101.215 .0249034
1101.800 .0249283
1102.385 .0249535
1102.970 .0249790
1103.556 .0250049
1104.142 .0250313
1104.728 .0250582
1105.315 .0250858
1105.902 .0251140
1106.489 .0251432
1107.077 .0251731
1107.664 .0252039
1108.253 .0252353
1108.841 .0252673
1109.430 .0252997
1110.019 .0253325
1110.609 .0253655
1111.198 .0253988
1111.789 .0254324
1112.379 .0254663
1112.970 .0255008
1113.561 .0255360
1114.153 .0255723
1114.745 .0256098
1115.338 .0256489
1115.931 .0256896
1116.524 .0257322
1117.117 .0257768
1117.712 .0258235
1118.306 .0258725
1118.901 .0259239
1119.496 .0259778
1120.092 .0260343
1120.689 .0260934
1121.285 .0261551
1121.882 .0262193
1122.480 .0262859
1123.078 .0263544
1123.677 .0264247
1124.276 .0264964
1124.875 .0265696
1125.476 .0266441
1126.076 .0267204
1126.677 .0267984
1127.279 .0268785
1127.881 .0269609
1128.484 .0270457
1129.087 .0270825
1129.691 .0271714
1130.295 .0272627
1130.900 .0273561
1131.505 .0274517
1132.111 .0275496
1132.718 .0276497
1133.325 .0277518
1133.933 .0278559
1134.541 .0279646
1135.150 .0280806
1135.760 .0281855
1136.370 .0282892
1136.981 .0284406
1137.592 .0285393
1138.204 .0286386
1138.817 .0287381
1139.431 .0288429
1140.045 .0289588
1140.660 .0290725
1141.275 .0291879
1141.891 .0293108
1142.508 .0295082
1143.126 .0297908
1143.744 .0295619
1144.363 .0296215
1144.983 .0298749
