Measurement Sequence started on: 15-12-46-377
Integration time: 28
Scans to Average: 2 
>>>>>Begin Spectral Data<<<<<
432.689 .0000100
433.621 .0000100
434.552 .0000100
435.482 .0000100
436.410 .0000100
437.337 .0000100
438.262 .0273595
439.187 .0579332
440.110 .0960193
441.031 .1389621
441.952 .1119084
442.871 .1169712
443.789 .1216989
444.705 .1261588
445.621 .1303986
446.535 .1344539
447.447 .1369115
448.359 .1376227
449.269 .1362105
450.178 .1324333
451.086 .1263676
451.993 .1184860
452.898 .1095749
453.803 .1005259
454.706 .0920981
455.608 .0847615
456.508 .0786742
457.408 .0745391
458.306 .0713398
459.204 .0687163
460.100 .0664857
460.995 .0645495
461.888 .0628431
462.781 .0613220
463.673 .0599530
464.563 .0587125
465.452 .0575821
466.340 .0565459
467.228 .0555924
468.114 .0547119
468.999 .0538978
469.882 .0531450
470.765 .0524498
471.647 .0518088
472.528 .0512192
473.407 .0506780
474.286 .0501828
475.163 .0497314
476.040 .0493214
476.915 .0489513
477.790 .0486188
478.663 .0483221
479.535 .0480595
480.407 .0478289
481.277 .0476287
482.147 .0474565
483.015 .0473108
483.883 .0471894
484.749 .0470908
485.615 .0470131
486.479 .0469550
487.343 .0469156
488.206 .0468942
489.067 .0468897
489.928 .0469019
490.788 .0469302
491.647 .0469744
492.505 .0470342
493.362 .0471096
494.218 .0472006
495.073 .0473076
495.928 .0475254
496.781 .0476744
497.634 .0478409
498.486 .0480257
499.337 .0482303
500.187 .0484562
501.036 .0487061
501.884 .0489830
502.731 .0492913
503.578 .0496348
504.424 .0498836
505.268 .0502964
506.113 .0507567
506.956 .0512682
507.798 .0518373
508.640 .0524708
509.480 .0531769
510.320 .0539655
511.160 .0548475
511.998 .0558351
512.836 .0569447
513.672 .0581928
514.508 .0595994
515.344 .0611842
516.178 .0629683
517.012 .0649728
517.845 .0672193
518.677 .0697244
519.508 .0725024
520.339 .0755595
521.169 .0788992
521.998 .0825010
522.826 .0863368
523.654 .0903607
524.481 .0945151
525.307 .0987312
526.133 .1029285
526.958 .1070188
527.782 .1109186
528.605 .1145465
529.428 .1178312
530.250 .1207062
531.072 .1231275
531.892 .1250559
532.712 .1264681
533.532 .1273488
534.350 .1276918
535.168 .1274967
535.986 .1267723
536.802 .1255237
537.618 .1237631
538.434 .1215032
539.249 .1187778
540.063 .1156280
540.876 .1121093
541.689 .1082873
542.501 .1042365
543.313 .1000390
544.124 .0957838
544.934 .0915511
545.744 .0874176
546.553 .0834473
547.361 .0796957
548.169 .0761942
548.976 .0729666
549.783 .0700189
550.589 .0673472
551.395 .0649365
552.200 .0627652
553.004 .0608064
553.808 .0590379
554.611 .0574373
555.414 .0559845
556.216 .0546614
557.018 .0534523
557.819 .0523423
558.619 .0513195
559.419 .0503725
560.218 .0494928
561.017 .0486711
561.815 .0479002
562.613 .0471735
563.410 .0464852
564.207 .0458297
565.003 .0452024
565.799 .0445987
566.594 .0440158
567.388 .0434515
568.182 .0429046
568.976 .0423741
569.769 .0418597
570.562 .0413615
571.354 .0408796
572.145 .0404148
572.936 .0399670
573.727 .0395357
574.517 .0391210
575.307 .0387230
576.096 .0383408
576.885 .0379744
577.673 .0376238
578.461 .0372890
579.248 .0369700
580.035 .0366671
580.821 .0363801
581.607 .0361090
582.392 .0358536
583.177 .0356132
583.962 .0353873
584.746 .0351753
585.529 .0349765
586.313 .0347903
587.095 .0346159
587.878 .0344527
588.660 .0342999
589.441 .0341570
590.222 .0340233
591.003 .0338984
591.783 .0337818
592.563 .0336732
593.342 .0335721
594.121 .0334779
594.899 .0333903
595.678 .0333087
596.455 .0332327
597.233 .0331618
598.009 .0330957
598.786 .0330340
599.562 .0329763
600.338 .0329225
601.113 .0328723
601.888 .0328092
602.663 .0327670
603.437 .0327277
604.211 .0326911
604.984 .0326568
605.757 .0326247
606.530 .0325944
607.302 .0325657
608.074 .0325383
608.845 .0325122
609.616 .0324870
610.387 .0324761
611.158 .0324516
611.928 .0324278
612.697 .0324044
613.467 .0323812
614.236 .0323581
615.004 .0323349
615.773 .0323115
616.541 .0322879
617.308 .0322641
618.076 .0322400
618.843 .0322156
619.609 .0321911
620.375 .0321663
621.141 .0321413
621.907 .0321162
622.672 .0320910
623.437 .0320657
624.202 .0320404
624.966 .0320152
625.730 .0319901
626.493 .0319650
627.257 .0319402
628.020 .0319156
628.782 .0318912
629.545 .0318671
630.307 .0318433
631.068 .0318197
631.830 .0317965
632.591 .0317736
633.352 .0317509
634.112 .0317284
634.872 .0317061
635.632 .0316837
636.392 .0316612
637.151 .0316384
637.910 .0316152
638.668 .0315917
639.427 .0315676
640.185 .0315429
640.943 .0315176
641.700 .0314918
642.457 .0314653
643.214 .0314382
643.971 .0314106
644.727 .0313823
645.483 .0313535
646.239 .0313242
646.994 .0312945
647.750 .0312643
648.505 .0312339
649.259 .0312033
650.014 .0311726
650.768 .0311420
651.521 .0311116
652.275 .0310815
653.028 .0310519
653.781 .0310229
654.534 .0309946
655.286 .0309671
656.039 .0309405
656.791 .0309149
657.542 .0308903
658.294 .0308667
659.045 .0308443
659.796 .0308230
660.546 .0308029
661.297 .0307838
662.047 .0307659
662.796 .0307490
663.546 .0307330
664.295 .0307180
665.044 .0307039
665.793 .0306904
666.542 .0306777
667.290 .0306655
668.038 .0306536
668.786 .0306421
669.533 .0306307
670.281 .0306194
671.028 .0306080
671.774 .0305967
672.521 .0305853
673.267 .0305737
674.013 .0305622
674.759 .0305504
675.505 .0305385
676.250 .0305264
676.995 .0305140
677.740 .0305013
678.484 .0304884
679.229 .0304752
679.973 .0304619
680.717 .0304484
681.460 .0304350
682.204 .0304215
682.947 .0304081
683.690 .0303948
684.433 .0303814
685.175 .0303680
685.917 .0303545
686.659 .0303409
687.401 .0303273
688.142 .0303135
688.884 .0302995
689.625 .0302854
690.365 .0302712
691.106 .0302568
691.846 .0302421
692.586 .0302272
693.326 .0302119
694.066 .0301962
694.805 .0301801
695.545 .0301636
696.284 .0301466
697.022 .0301291
697.761 .0301110
698.499 .0300924
699.237 .0300731
699.975 .0300533
700.713 .0300330
701.450 .0300121
702.187 .0299908
702.924 .0299690
703.661 .0299468
704.397 .0299242
705.133 .0299013
705.869 .0298780
706.605 .0298543
707.341 .0298303
708.076 .0298058
708.811 .0297810
709.546 .0297559
710.281 .0297306
711.015 .0297051
711.749 .0296796
712.483 .0296541
713.217 .0296287
713.950 .0296035
714.684 .0295784
715.417 .0295534
716.150 .0295286
716.882 .0295037
717.615 .0294789
718.347 .0294540
719.079 .0294291
719.811 .0294041
720.542 .0293791
721.273 .0293542
722.005 .0293293
722.735 .0293045
723.466 .0292800
724.196 .0292559
724.927 .0292321
725.656 .0292089
726.386 .0291861
727.116 .0291639
727.845 .0291423
728.574 .0291213
729.303 .0291009
730.031 .0290812
730.760 .0290622
731.488 .0290440
732.216 .0290266
732.944 .0290102
733.671 .0289948
734.398 .0289803
735.125 .0289669
735.852 .0289543
736.579 .0289427
737.305 .0289318
738.031 .0289216
738.757 .0289121
739.483 .0289030
740.208 .0288945
740.933 .0288863
741.658 .0288785
742.383 .0288711
743.108 .0288641
743.832 .0288575
744.556 .0288513
745.280 .0288455
746.004 .0288401
746.727 .0288350
747.450 .0288301
748.173 .0288255
748.896 .0288211
749.618 .0288168
750.340 .0288127
751.062 .0288087
751.784 .0288050
752.506 .0288016
753.227 .0287984
753.948 .0287955
754.669 .0287931
755.389 .0287909
756.110 .0287891
756.830 .0287876
757.550 .0287864
758.269 .0287853
758.989 .0287843
759.708 .0287833
760.427 .0287822
761.146 .0287810
761.864 .0287795
762.582 .0287776
763.300 .0287755
764.018 .0287729
764.736 .0287700
765.453 .0287667
766.170 .0287630
766.887 .0287590
767.603 .0287545
768.320 .0287496
769.036 .0287443
769.751 .0287385
770.467 .0287321
771.182 .0287253
771.897 .0287180
772.612 .0287101
773.327 .0287017
774.041 .0286928
774.755 .0286835
775.469 .0286737
776.183 .0286635
776.896 .0286530
777.609 .0286420
778.322 .0286306
779.035 .0286188
779.747 .0286065
780.459 .0285936
781.171 .0285802
781.882 .0285660
782.594 .0285513
783.305 .0285359
784.016 .0285199
784.726 .0285033
785.436 .0284862
786.147 .0284588
786.856 .0284404
787.566 .0284214
788.275 .0284019
788.984 .0283817
789.693 .0283610
790.401 .0283396
791.110 .0283178
791.818 .0282954
792.525 .0282725
793.233 .0282494
793.940 .0282258
794.647 .0282131
795.353 .0281893
796.060 .0281652
796.766 .0281407
797.472 .0281160
798.177 .0280909
798.883 .0280657
799.588 .0280401
800.292 .0280144
800.997 .0279885
801.701 .0279624
802.405 .0279363
803.109 .0279100
803.812 .0278836
804.515 .0278571
805.218 .0278306
805.921 .0278040
806.623 .0277774
807.325 .0277508
808.027 .0277243
808.728 .0276978
809.429 .0276715
810.130 .0276453
810.831 .0276193
811.531 .0275935
812.231 .0275680
812.931 .0275429
813.630 .0275183
814.330 .0274943
815.029 .0274710
815.727 .0274485
816.426 .0274269
817.124 .0274061
817.821 .0273862
818.519 .0273672
819.216 .0273491
819.913 .0273320
820.609 .0273158
821.306 .0273005
822.002 .0272863
822.697 .0272731
823.393 .0272610
824.088 .0272500
824.783 .0272400
825.477 .0272309
826.171 .0272226
826.865 .0272151
827.559 .0272081
828.252 .0272017
828.945 .0271956
829.638 .0271900
830.330 .0271848
831.023 .0271799
831.714 .0271755
832.406 .0271715
833.097 .0271680
833.788 .0271649
834.479 .0271623
835.169 .0271600
835.859 .0271582
836.548 .0271568
837.238 .0271558
837.927 .0271553
838.615 .0271553
839.304 .0271558
839.992 .0271569
840.680 .0271585
841.367 .0271609
842.054 .0271639
842.741 .0271677
843.428 .0271722
844.114 .0271775
844.800 .0271834
845.485 .0271900
846.170 .0271972
846.855 .0272050
847.540 .0272132
848.224 .0272218
848.908 .0272307
849.592 .0272398
850.275 .0272491
850.958 .0272583
851.641 .0272676
852.323 .0272767
853.005 .0272857
853.687 .0272946
854.368 .0273032
855.049 .0273116
855.730 .0273197
856.410 .0273276
857.090 .0273352
857.769 .0273425
858.449 .0273494
859.128 .0273560
859.806 .0273623
860.485 .0273682
861.163 .0273738
861.840 .0273791
862.518 .0273842
863.195 .0273890
863.871 .0273935
864.548 .0273977
865.224 .0274015
865.899 .0274049
866.574 .0274078
867.249 .0274102
867.924 .0274120
868.598 .0274132
869.272 .0274139
869.946 .0274139
870.619 .0274132
871.292 .0274117
871.964 .0274095
872.636 .0274063
873.308 .0274021
873.979 .0273970
874.651 .0273907
875.321 .0273834
875.992 .0273751
876.662 .0273656
877.331 .0273550
878.001 .0273433
878.670 .0273304
879.338 .0273165
880.007 .0273015
880.675 .0272855
881.342 .0272685
882.009 .0272507
882.676 .0272321
883.343 .0272128
884.009 .0271928
884.675 .0271721
885.340 .0271509
886.005 .0271291
886.670 .0271067
887.334 .0270839
887.998 .0270607
888.662 .0270371
889.325 .0270132
889.988 .0269891
890.650 .0269647
891.312 .0269400
891.974 .0269151
892.636 .0268899
893.297 .0268643
893.957 .0268384
894.618 .0268121
895.278 .0267854
895.937 .0267584
896.596 .0267310
897.255 .0267033
897.914 .0266753
898.572 .0266470
899.230 .0266183
899.887 .0265893
900.544 .0265599
901.201 .0265302
901.857 .0264842
902.513 .0264537
903.168 .0264228
903.823 .0263917
904.478 .0263604
905.132 .0263288
905.786 .0262971
906.440 .0262652
907.093 .0262333
907.746 .0262014
908.399 .0261695
909.051 .0261378
909.703 .0261064
910.354 .0260915
911.005 .0260607
911.656 .0260302
912.306 .0260002
912.956 .0259706
913.605 .0259414
914.254 .0259127
914.903 .0258844
915.551 .0258565
916.199 .0258291
916.847 .0258022
917.494 .0257757
918.141 .0257496
918.788 .0257240
919.434 .0256987
920.079 .0256738
920.725 .0256491
921.370 .0256247
922.014 .0256005
922.658 .0255763
923.302 .0255523
923.946 .0255284
924.589 .0255045
925.231 .0254807
925.873 .0254571
926.515 .0254336
927.157 .0254103
927.798 .0253872
928.439 .0253643
929.079 .0253417
929.719 .0253194
930.359 .0252975
930.998 .0252760
931.637 .0252550
932.275 .0252346
932.913 .0252147
933.551 .0251955
934.188 .0251770
934.825 .0251592
935.462 .0251423
936.098 .0251262
936.733 .0251109
937.369 .0250966
938.004 .0250832
938.638 .0250707
939.273 .0250593
939.907 .0250488
940.540 .0250394
941.173 .0250310
941.806 .0250236
942.438 .0250171
943.070 .0250116
943.702 .0250070
944.333 .0250032
944.964 .0250002
945.594 .0249980
946.224 .0249965
946.854 .0249959
947.483 .0249959
948.112 .0249966
948.741 .0249980
949.369 .0249999
949.996 .0250024
950.624 .0250053
951.251 .0250087
951.878 .0250124
952.504 .0250165
953.130 .0250211
953.755 .0250261
954.380 .0250316
955.005 .0250377
955.629 .0250443
956.253 .0250515
956.877 .0250593
957.500 .0250675
958.123 .0250762
958.746 .0250855
959.368 .0250953
959.990 .0251056
960.611 .0251165
961.232 .0251279
961.853 .0251399
962.473 .0251524
963.093 .0251653
963.712 .0251787
964.331 .0251923
964.950 .0252063
965.569 .0252206
966.187 .0252352
966.804 .0252500
967.422 .0252650
968.039 .0252802
968.655 .0252956
969.272 .0253110
969.887 .0253264
970.503 .0253417
971.118 .0253568
971.733 .0253718
972.347 .0253866
972.961 .0254012
973.575 .0254155
974.188 .0254295
974.801 .0254432
975.414 .0254565
976.026 .0254694
976.638 .0254819
977.250 .0254939
977.861 .0255053
978.472 .0255163
979.083 .0255268
979.693 .0255368
980.303 .0255464
980.912 .0255587
981.521 .0255673
982.130 .0255755
982.738 .0255833
983.346 .0255908
983.954 .0255979
984.562 .0256048
985.169 .0256116
985.775 .0256182
986.382 .0256249
986.988 .0256315
987.594 .0256382
988.199 .0256448
988.804 .0256515
989.409 .0256554
990.013 .0256621
990.617 .0256688
991.221 .0256754
991.824 .0256821
992.427 .0256887
993.030 .0256953
993.632 .0257017
994.234 .0257080
994.836 .0257140
995.438 .0257196
996.039 .0257249
996.640 .0257298
997.240 .0257342
997.840 .0257382
998.440 .0257416
999.040 .0257447
999.639 .0257472
1000.238 .0257492
1000.836 .0257507
1001.435 .0257515
1002.033 .0257517
1002.630 .0257513
1003.228 .0257501
1003.825 .0257482
1004.422 .0257455
1005.018 .0257420
1005.614 .0257378
1006.210 .0257327
1006.806 .0257269
1007.401 .0257202
1007.996 .0257127
1008.591 .0257044
1009.186 .0256953
1009.780 .0256856
1010.374 .0256753
1010.967 .0256643
1011.561 .0256529
1012.154 .0256411
1012.746 .0256288
1013.339 .0256163
1013.931 .0256035
1014.523 .0255905
1015.115 .0255773
1015.706 .0255639
1016.298 .0255504
1016.888 .0255367
1017.479 .0255229
1018.069 .0255091
1018.660 .0254951
1019.250 .0254810
1019.839 .0254669
1020.429 .0254527
1021.018 .0254384
1021.607 .0254240
1022.195 .0254096
1022.784 .0253951
1023.372 .0253805
1023.960 .0253659
1024.547 .0253512
1025.135 .0253367
1025.722 .0253221
1026.309 .0253076
1026.896 .0252930
1027.483 .0252783
1028.069 .0252633
1028.655 .0252481
1029.241 .0252326
1029.827 .0252166
1030.412 .0252003
1030.997 .0251834
1031.582 .0251661
1032.167 .0251485
1032.752 .0251304
1033.336 .0251119
1033.921 .0250931
1034.505 .0250738
1035.089 .0250542
1035.672 .0250341
1036.256 .0250137
1036.839 .0249929
1037.422 .0249718
1038.005 .0249504
1038.588 .0249290
1039.171 .0249074
1039.753 .0248859
1040.335 .0248645
1040.918 .0248431
1041.500 .0248217
1042.081 .0248004
1042.663 .0247792
1043.244 .0247579
1043.826 .0247368
1044.407 .0247158
1044.988 .0246952
1045.569 .0246750
1046.150 .0246554
1046.730 .0246364
1047.311 .0246180
1047.891 .0246003
1048.471 .0245831
1049.052 .0245664
1049.632 .0245501
1050.211 .0245342
1050.791 .0245187
1051.371 .0245037
1051.950 .0244891
1052.530 .0244751
1053.109 .0244615
1053.688 .0244482
1054.268 .0244353
1054.847 .0244225
1055.426 .0244098
1056.005 .0243972
1056.583 .0243845
1057.162 .0243719
1057.741 .0243594
1058.319 .0243471
1058.898 .0243352
1059.476 .0243237
1060.055 .0243126
1060.633 .0243021
1061.211 .0242920
1061.790 .0242821
1062.368 .0242726
1062.946 .0242634
1063.524 .0242543
1064.102 .0242453
1064.680 .0242366
1065.258 .0242282
1065.836 .0242200
1066.414 .0242120
1066.992 .0242044
1067.570 .0241971
1068.148 .0241900
1068.726 .0241831
1069.304 .0241764
1069.882 .0241698
1070.460 .0241635
1071.038 .0241575
1071.616 .0241520
1072.194 .0241471
1072.772 .0241430
1073.350 .0241397
1073.928 .0241372
1074.506 .0241356
1075.084 .0241348
1075.662 .0241348
1076.240 .0241353
1076.819 .0241363
1077.397 .0241378
1077.976 .0241399
1078.554 .0241424
1079.133 .0241456
1079.711 .0241493
1080.290 .0241537
1080.869 .0241588
1081.448 .0241647
1082.027 .0241713
1082.606 .0241785
1083.185 .0241864
1083.764 .0241951
1084.343 .0242045
1084.923 .0242148
1085.502 .0242261
1086.082 .0242385
1086.662 .0242520
1087.242 .0242669
1087.822 .0242830
1088.402 .0243003
1088.983 .0243188
1089.563 .0243384
1090.144 .0243591
1090.725 .0243809
1091.306 .0244038
1091.887 .0244279
1092.469 .0244531
1093.050 .0244794
1093.632 .0245065
1094.214 .0245343
1094.796 .0245626
1095.379 .0245912
1095.961 .0246199
1096.544 .0246488
1097.127 .0246779
1097.710 .0247072
1098.294 .0247370
1098.877 .0247675
1099.461 .0247986
1100.046 .0248305
1100.630 .0248630
1101.215 .0248961
1101.800 .0249297
1102.385 .0249638
1102.970 .0249983
1103.556 .0250334
1104.142 .0250690
1104.728 .0251053
1105.315 .0251425
1105.902 .0251806
1106.489 .0252195
1107.077 .0252593
1107.664 .0252997
1108.253 .0253405
1108.841 .0253815
1109.430 .0254227
1110.019 .0254642
1110.609 .0255060
1111.198 .0255483
1111.789 .0255913
1112.379 .0256352
1112.970 .0256799
1113.561 .0257258
1114.153 .0257726
1114.745 .0258205
1115.338 .0258694
1115.931 .0259193
1116.524 .0259703
1117.117 .0260224
1117.712 .0260758
1118.306 .0261307
1118.901 .0261870
1119.496 .0262447
1120.092 .0263038
1120.689 .0263640
1121.285 .0264252
1121.882 .0264874
1122.480 .0265507
1123.078 .0266151
1123.677 .0266811
1124.276 .0267491
1124.875 .0268195
1125.476 .0268928
1126.076 .0269693
1126.677 .0270490
1127.279 .0271319
1127.881 .0272177
1128.484 .0273063
1129.087 .0273425
1129.691 .0274353
1130.295 .0275306
1130.900 .0276284
1131.505 .0277288
1132.111 .0278313
1132.718 .0279354
1133.325 .0280406
1133.933 .0281473
1134.541 .0282607
1135.150 .0283653
1135.760 .0284585
1136.370 .0285628
1136.981 .0288143
1137.592 .0289347
1138.204 .0290536
1138.817 .0291709
1139.431 .0292930
1140.045 .0294087
1140.660 .0295102
1141.275 .0296070
1141.891 .0297147
1142.508 .0299704
1143.126 .0297982
1143.744 .0295593
1144.363 .0299460
1144.983 .0307038
