Measurement Sequence started on: 15-12-46-377
Integration time: 28
Scans to Average: 2 
>>>>>Begin Spectral Data<<<<<
432.689 .0000100
433.621 .0000100
434.552 .0000100
435.482 .0000100
436.410 .0000100
437.337 .0000100
438.262 .0265307
439.187 .0562587
440.110 .0931209
441.031 .1346792
441.952 .1073418
442.871 .1120461
443.789 .1164277
444.705 .1205540
445.621 .1244717
446.535 .1282155
447.447 .1304141
448.359 .1309187
449.269 .1293705
450.178 .1255354
451.086 .1194930
451.993 .1117090
452.898 .1029525
453.803 .0940939
454.706 .0858706
455.608 .0787396
456.508 .0728498
457.408 .0688774
458.306 .0658324
459.204 .0633512
460.100 .0612552
460.995 .0594440
461.888 .0578525
462.781 .0564372
463.673 .0551672
464.563 .0540210
465.452 .0529819
466.340 .0520369
467.228 .0511755
468.114 .0503893
468.999 .0496702
469.882 .0490119
470.765 .0484083
471.647 .0478553
472.528 .0473490
473.407 .0468861
474.286 .0464645
475.163 .0460829
476.040 .0457402
476.915 .0454356
477.790 .0451675
478.663 .0449347
479.535 .0447350
480.407 .0445655
481.277 .0444233
482.147 .0443051
483.015 .0442075
483.883 .0441283
484.749 .0440650
485.615 .0440169
486.479 .0439838
487.343 .0439661
488.206 .0439649
489.067 .0439812
489.928 .0440162
490.788 .0440704
491.647 .0441441
492.505 .0442366
493.362 .0443472
494.218 .0444754
495.073 .0446209
495.928 .0449048
496.781 .0450954
497.634 .0453056
498.486 .0455375
499.337 .0457939
500.187 .0460770
501.036 .0463901
501.884 .0467362
502.731 .0471182
503.578 .0475384
504.424 .0478278
505.268 .0483170
506.113 .0488537
506.956 .0494423
507.798 .0500886
508.640 .0507996
509.480 .0515848
510.320 .0524558
511.160 .0534257
511.998 .0545095
512.836 .0557242
513.672 .0570853
514.508 .0586107
515.344 .0603183
516.178 .0622244
517.012 .0643483
517.845 .0667095
518.677 .0693249
519.508 .0722078
520.339 .0753660
521.169 .0788011
521.998 .0824929
522.826 .0864110
523.654 .0905060
524.481 .0947147
525.307 .0989646
526.133 .1031736
526.958 .1072564
527.782 .1111290
528.605 .1147131
529.428 .1179382
530.250 .1207433
531.072 .1230866
531.892 .1249318
532.712 .1262581
533.532 .1270547
534.350 .1273153
535.168 .1270384
535.986 .1262276
536.802 .1248894
537.618 .1230329
538.434 .1206726
539.249 .1178433
540.063 .1145891
540.876 .1109695
541.689 .1070557
542.501 .1029253
543.313 .0986622
544.124 .0943503
544.934 .0900691
545.744 .0858904
546.553 .0818761
547.361 .0780768
548.169 .0745237
548.976 .0712405
549.783 .0682342
550.589 .0655010
551.395 .0630288
552.200 .0607995
553.004 .0587903
553.808 .0569793
554.611 .0553459
555.414 .0538715
556.216 .0525378
557.018 .0513271
557.819 .0502238
558.619 .0492142
559.419 .0482866
560.218 .0474314
561.017 .0466395
561.815 .0459038
562.613 .0452171
563.410 .0445728
564.207 .0439644
565.003 .0433859
565.799 .0428311
566.594 .0422952
567.388 .0417749
568.182 .0412669
568.976 .0407694
569.769 .0402819
570.562 .0398040
571.354 .0393363
572.145 .0388793
572.936 .0384338
573.727 .0380006
574.517 .0375806
575.307 .0371748
576.096 .0367834
576.885 .0364074
577.673 .0360473
578.461 .0357037
579.248 .0353770
580.035 .0350675
580.821 .0347750
581.607 .0345001
582.392 .0342429
583.177 .0340032
583.962 .0337808
584.746 .0335755
585.529 .0333868
586.313 .0332139
587.095 .0330561
587.878 .0329121
588.660 .0327809
589.441 .0326614
590.222 .0325523
591.003 .0324526
591.783 .0323612
592.563 .0322772
593.342 .0321997
594.121 .0321280
594.899 .0320615
595.678 .0319992
596.455 .0319408
597.233 .0318854
598.009 .0318325
598.786 .0317814
599.562 .0317319
600.338 .0316835
601.113 .0316364
601.888 .0315704
602.663 .0315263
603.437 .0314837
604.211 .0314424
604.984 .0314027
605.757 .0313644
606.530 .0313276
607.302 .0312921
608.074 .0312579
608.845 .0312250
609.616 .0311932
610.387 .0311804
611.158 .0311505
611.928 .0311217
612.697 .0310941
613.467 .0310675
614.236 .0310419
615.004 .0310172
615.773 .0309933
616.541 .0309701
617.308 .0309474
618.076 .0309252
618.843 .0309034
619.609 .0308819
620.375 .0308607
621.141 .0308397
621.907 .0308186
622.672 .0307975
623.437 .0307762
624.202 .0307546
624.966 .0307327
625.730 .0307105
626.493 .0306879
627.257 .0306650
628.020 .0306417
628.782 .0306181
629.545 .0305942
630.307 .0305701
631.068 .0305458
631.830 .0305213
632.591 .0304966
633.352 .0304716
634.112 .0304466
634.872 .0304215
635.632 .0303964
636.392 .0303713
637.151 .0303463
637.910 .0303215
638.668 .0302970
639.427 .0302727
640.185 .0302489
640.943 .0302254
641.700 .0302024
642.457 .0301798
643.214 .0301577
643.971 .0301359
644.727 .0301145
645.483 .0300934
646.239 .0300728
646.994 .0300526
647.750 .0300328
648.505 .0300135
649.259 .0299948
650.014 .0299766
650.768 .0299590
651.521 .0299417
652.275 .0299249
653.028 .0299083
653.781 .0298920
654.534 .0298758
655.286 .0298597
656.039 .0298438
656.791 .0298279
657.542 .0298121
658.294 .0297964
659.045 .0297808
659.796 .0297652
660.546 .0297496
661.297 .0297339
662.047 .0297182
662.796 .0297022
663.546 .0296862
664.295 .0296700
665.044 .0296536
665.793 .0296371
666.542 .0296206
667.290 .0296040
668.038 .0295874
668.786 .0295708
669.533 .0295542
670.281 .0295376
671.028 .0295210
671.774 .0295045
672.521 .0294881
673.267 .0294717
674.013 .0294553
674.759 .0294391
675.505 .0294229
676.250 .0294068
676.995 .0293909
677.740 .0293752
678.484 .0293597
679.229 .0293445
679.973 .0293294
680.717 .0293146
681.460 .0292999
682.204 .0292853
682.947 .0292707
683.690 .0292560
684.433 .0292413
685.175 .0292265
685.917 .0292116
686.659 .0291966
687.401 .0291814
688.142 .0291661
688.884 .0291506
689.625 .0291349
690.365 .0291188
691.106 .0291025
691.846 .0290860
692.586 .0290691
693.326 .0290520
694.066 .0290347
694.805 .0290171
695.545 .0289993
696.284 .0289814
697.022 .0289633
697.761 .0289451
698.499 .0289269
699.237 .0289087
699.975 .0288906
700.713 .0288726
701.450 .0288549
702.187 .0288374
702.924 .0288201
703.661 .0288030
704.397 .0287862
705.133 .0287696
705.869 .0287532
706.605 .0287370
707.341 .0287211
708.076 .0287053
708.811 .0286898
709.546 .0286745
710.281 .0286594
711.015 .0286444
711.749 .0286297
712.483 .0286151
713.217 .0286005
713.950 .0285859
714.684 .0285712
715.417 .0285564
716.150 .0285415
716.882 .0285262
717.615 .0285106
718.347 .0284947
719.079 .0284784
719.811 .0284618
720.542 .0284449
721.273 .0284278
722.005 .0284104
722.735 .0283928
723.466 .0283751
724.196 .0283573
724.927 .0283395
725.656 .0283218
726.386 .0283042
727.116 .0282868
727.845 .0282697
728.574 .0282530
729.303 .0282367
730.031 .0282210
730.760 .0282060
731.488 .0281917
732.216 .0281782
732.944 .0281655
733.671 .0281537
734.398 .0281426
735.125 .0281324
735.852 .0281228
736.579 .0281138
737.305 .0281054
738.031 .0280975
738.757 .0280901
739.483 .0280831
740.208 .0280765
740.933 .0280703
741.658 .0280642
742.383 .0280583
743.108 .0280524
743.832 .0280464
744.556 .0280402
745.280 .0280336
746.004 .0280267
746.727 .0280193
747.450 .0280115
748.173 .0280032
748.896 .0279943
749.618 .0279850
750.340 .0279751
751.062 .0279647
751.784 .0279537
752.506 .0279422
753.227 .0279303
753.948 .0279180
754.669 .0279054
755.389 .0278924
756.110 .0278793
756.830 .0278660
757.550 .0278526
758.269 .0278391
758.989 .0278256
759.708 .0278121
760.427 .0277988
761.146 .0277855
761.864 .0277723
762.582 .0277593
763.300 .0277463
764.018 .0277334
764.736 .0277205
765.453 .0277076
766.170 .0276946
766.887 .0276816
767.603 .0276687
768.320 .0276558
769.036 .0276431
769.751 .0276305
770.467 .0276182
771.182 .0276060
771.897 .0275941
772.612 .0275824
773.327 .0275709
774.041 .0275597
774.755 .0275487
775.469 .0275381
776.183 .0275278
776.896 .0275180
777.609 .0275085
778.322 .0274995
779.035 .0274910
779.747 .0274828
780.459 .0274748
781.171 .0274672
781.882 .0274597
782.594 .0274524
783.305 .0274452
784.016 .0274380
784.726 .0274308
785.436 .0274236
786.147 .0274123
786.856 .0274047
787.566 .0273969
788.275 .0273889
788.984 .0273806
789.693 .0273720
790.401 .0273630
791.110 .0273537
791.818 .0273441
792.525 .0273340
793.233 .0273234
793.940 .0273123
794.647 .0273054
795.353 .0272936
796.060 .0272813
796.766 .0272685
797.472 .0272552
798.177 .0272414
798.883 .0272273
799.588 .0272128
800.292 .0271980
800.997 .0271830
801.701 .0271679
802.405 .0271525
803.109 .0271370
803.812 .0271213
804.515 .0271056
805.218 .0270897
805.921 .0270739
806.623 .0270579
807.325 .0270420
808.027 .0270261
808.728 .0270102
809.429 .0269943
810.130 .0269784
810.831 .0269626
811.531 .0269469
812.231 .0269313
812.931 .0269158
813.630 .0269005
814.330 .0268854
815.029 .0268706
815.727 .0268561
816.426 .0268419
817.124 .0268281
817.821 .0268149
818.519 .0268021
819.216 .0267899
819.913 .0267782
820.609 .0267671
821.306 .0267566
822.002 .0267467
822.697 .0267373
823.393 .0267285
824.088 .0267202
824.783 .0267126
825.477 .0267055
826.171 .0266990
826.865 .0266930
827.559 .0266875
828.252 .0266823
828.945 .0266774
829.638 .0266729
830.330 .0266686
831.023 .0266646
831.714 .0266608
832.406 .0266574
833.097 .0266541
833.788 .0266511
834.479 .0266482
835.169 .0266453
835.859 .0266424
836.548 .0266395
837.238 .0266363
837.927 .0266331
838.615 .0266296
839.304 .0266261
839.992 .0266223
840.680 .0266184
841.367 .0266142
842.054 .0266098
842.741 .0266049
843.428 .0265997
844.114 .0265940
844.800 .0265879
845.485 .0265814
846.170 .0265745
846.855 .0265672
847.540 .0265596
848.224 .0265516
848.908 .0265432
849.592 .0265345
850.275 .0265253
850.958 .0265157
851.641 .0265056
852.323 .0264951
853.005 .0264843
853.687 .0264731
854.368 .0264616
855.049 .0264497
855.730 .0264376
856.410 .0264252
857.090 .0264126
857.769 .0263997
858.449 .0263866
859.128 .0263734
859.806 .0263601
860.485 .0263467
861.163 .0263335
861.840 .0263203
862.518 .0263073
863.195 .0262946
863.871 .0262821
864.548 .0262698
865.224 .0262578
865.899 .0262461
866.574 .0262347
867.249 .0262237
867.924 .0262131
868.598 .0262030
869.272 .0261933
869.946 .0261840
870.619 .0261752
871.292 .0261668
871.964 .0261588
872.636 .0261512
873.308 .0261439
873.979 .0261370
874.651 .0261305
875.321 .0261243
875.992 .0261184
876.662 .0261129
877.331 .0261076
878.001 .0261026
878.670 .0260978
879.338 .0260931
880.007 .0260886
880.675 .0260843
881.342 .0260802
882.009 .0260762
882.676 .0260724
883.343 .0260687
884.009 .0260651
884.675 .0260615
885.340 .0260579
886.005 .0260542
886.670 .0260505
887.334 .0260467
887.998 .0260429
888.662 .0260391
889.325 .0260353
889.988 .0260316
890.650 .0260279
891.312 .0260242
891.974 .0260204
892.636 .0260165
893.297 .0260124
893.957 .0260083
894.618 .0260040
895.278 .0259995
895.937 .0259948
896.596 .0259898
897.255 .0259845
897.914 .0259788
898.572 .0259725
899.230 .0259657
899.887 .0259582
900.544 .0259500
901.201 .0259410
901.857 .0259243
902.513 .0259134
903.168 .0259017
903.823 .0258894
904.478 .0258763
905.132 .0258625
905.786 .0258481
906.440 .0258329
907.093 .0258171
907.746 .0258007
908.399 .0257838
909.051 .0257665
909.703 .0257487
910.354 .0257389
911.005 .0257209
911.656 .0257026
912.306 .0256841
912.956 .0256654
913.605 .0256465
914.254 .0256274
914.903 .0256082
915.551 .0255887
916.199 .0255692
916.847 .0255496
917.494 .0255299
918.141 .0255103
918.788 .0254907
919.434 .0254712
920.079 .0254518
920.725 .0254325
921.370 .0254133
922.014 .0253941
922.658 .0253749
923.302 .0253557
923.946 .0253365
924.589 .0253173
925.231 .0252979
925.873 .0252785
926.515 .0252590
927.157 .0252394
927.798 .0252198
928.439 .0252001
929.079 .0251805
929.719 .0251610
930.359 .0251417
930.998 .0251227
931.637 .0251039
932.275 .0250854
932.913 .0250674
933.551 .0250499
934.188 .0250329
934.825 .0250166
935.462 .0250010
936.098 .0249861
936.733 .0249719
937.369 .0249585
938.004 .0249458
938.638 .0249337
939.273 .0249223
939.907 .0249114
940.540 .0249011
941.173 .0248914
941.806 .0248822
942.438 .0248737
943.070 .0248657
943.702 .0248583
944.333 .0248514
944.964 .0248449
945.594 .0248387
946.224 .0248327
946.854 .0248268
947.483 .0248210
948.112 .0248152
948.741 .0248094
949.369 .0248037
949.996 .0247979
950.624 .0247922
951.251 .0247863
951.878 .0247803
952.504 .0247741
953.130 .0247677
953.755 .0247609
954.380 .0247539
955.005 .0247467
955.629 .0247393
956.253 .0247318
956.877 .0247241
957.500 .0247164
958.123 .0247087
958.746 .0247010
959.368 .0246933
959.990 .0246856
960.611 .0246780
961.232 .0246706
961.853 .0246633
962.473 .0246563
963.093 .0246496
963.712 .0246433
964.331 .0246374
964.950 .0246319
965.569 .0246270
966.187 .0246225
966.804 .0246186
967.422 .0246151
968.039 .0246121
968.655 .0246096
969.272 .0246075
969.887 .0246058
970.503 .0246045
971.118 .0246035
971.733 .0246028
972.347 .0246024
972.961 .0246022
973.575 .0246021
974.188 .0246022
974.801 .0246022
975.414 .0246022
976.026 .0246020
976.638 .0246016
977.250 .0246008
977.861 .0245995
978.472 .0245979
979.083 .0245957
979.693 .0245931
980.303 .0245900
980.912 .0245822
981.521 .0245777
982.130 .0245726
982.738 .0245670
983.346 .0245608
983.954 .0245542
984.562 .0245472
985.169 .0245399
985.775 .0245324
986.382 .0245250
986.988 .0245176
987.594 .0245104
988.199 .0245034
988.804 .0244967
989.409 .0244948
990.013 .0244890
990.617 .0244836
991.221 .0244787
991.824 .0244744
992.427 .0244707
993.030 .0244676
993.632 .0244653
994.234 .0244636
994.836 .0244625
995.438 .0244620
996.039 .0244621
996.640 .0244628
997.240 .0244639
997.840 .0244655
998.440 .0244677
999.040 .0244703
999.639 .0244733
1000.238 .0244768
1000.836 .0244805
1001.435 .0244846
1002.033 .0244887
1002.630 .0244929
1003.228 .0244971
1003.825 .0245012
1004.422 .0245052
1005.018 .0245090
1005.614 .0245127
1006.210 .0245163
1006.806 .0245197
1007.401 .0245230
1007.996 .0245260
1008.591 .0245289
1009.186 .0245316
1009.780 .0245342
1010.374 .0245368
1010.967 .0245394
1011.561 .0245423
1012.154 .0245455
1012.746 .0245491
1013.339 .0245530
1013.931 .0245574
1014.523 .0245621
1015.115 .0245671
1015.706 .0245722
1016.298 .0245776
1016.888 .0245831
1017.479 .0245888
1018.069 .0245948
1018.660 .0246011
1019.250 .0246079
1019.839 .0246151
1020.429 .0246228
1021.018 .0246309
1021.607 .0246393
1022.195 .0246478
1022.784 .0246564
1023.372 .0246651
1023.960 .0246737
1024.547 .0246823
1025.135 .0246909
1025.722 .0246994
1026.309 .0247078
1026.896 .0247161
1027.483 .0247242
1028.069 .0247319
1028.655 .0247392
1029.241 .0247459
1029.827 .0247520
1030.412 .0247575
1030.997 .0247625
1031.582 .0247672
1032.167 .0247715
1032.752 .0247756
1033.336 .0247796
1033.921 .0247835
1034.505 .0247873
1035.089 .0247910
1035.672 .0247946
1036.256 .0247981
1036.839 .0248013
1037.422 .0248042
1038.005 .0248069
1038.588 .0248094
1039.171 .0248116
1039.753 .0248134
1040.335 .0248151
1040.918 .0248163
1041.500 .0248172
1042.081 .0248178
1042.663 .0248181
1043.244 .0248181
1043.826 .0248180
1044.407 .0248178
1044.988 .0248175
1045.569 .0248172
1046.150 .0248171
1046.730 .0248171
1047.311 .0248172
1047.891 .0248175
1048.471 .0248179
1049.052 .0248184
1049.632 .0248190
1050.211 .0248195
1050.791 .0248200
1051.371 .0248202
1051.950 .0248201
1052.530 .0248196
1053.109 .0248186
1053.688 .0248170
1054.268 .0248150
1054.847 .0248126
1055.426 .0248098
1056.005 .0248067
1056.583 .0248034
1057.162 .0248000
1057.741 .0247965
1058.319 .0247929
1058.898 .0247890
1059.476 .0247850
1060.055 .0247808
1060.633 .0247764
1061.211 .0247717
1061.790 .0247670
1062.368 .0247622
1062.946 .0247574
1063.524 .0247526
1064.102 .0247476
1064.680 .0247425
1065.258 .0247372
1065.836 .0247317
1066.414 .0247258
1066.992 .0247196
1067.570 .0247132
1068.148 .0247067
1068.726 .0247003
1069.304 .0246942
1069.882 .0246884
1070.460 .0246832
1071.038 .0246784
1071.616 .0246741
1072.194 .0246702
1072.772 .0246666
1073.350 .0246632
1073.928 .0246600
1074.506 .0246570
1075.084 .0246542
1075.662 .0246519
1076.240 .0246500
1076.819 .0246486
1077.397 .0246477
1077.976 .0246472
1078.554 .0246468
1079.133 .0246465
1079.711 .0246462
1080.290 .0246458
1080.869 .0246454
1081.448 .0246452
1082.027 .0246454
1082.606 .0246463
1083.185 .0246479
1083.764 .0246504
1084.343 .0246537
1084.923 .0246576
1085.502 .0246620
1086.082 .0246666
1086.662 .0246713
1087.242 .0246762
1087.822 .0246810
1088.402 .0246861
1088.983 .0246913
1089.563 .0246969
1090.144 .0247027
1090.725 .0247088
1091.306 .0247152
1091.887 .0247218
1092.469 .0247284
1093.050 .0247351
1093.632 .0247420
1094.214 .0247491
1094.796 .0247565
1095.379 .0247642
1095.961 .0247726
1096.544 .0247815
1097.127 .0247910
1097.710 .0248010
1098.294 .0248115
1098.877 .0248223
1099.461 .0248335
1100.046 .0248448
1100.630 .0248563
1101.215 .0248679
1101.800 .0248795
1102.385 .0248912
1102.970 .0249029
1103.556 .0249146
1104.142 .0249265
1104.728 .0249385
1105.315 .0249509
1105.902 .0249639
1106.489 .0249775
1107.077 .0249920
1107.664 .0250074
1108.253 .0250240
1108.841 .0250416
1109.430 .0250604
1110.019 .0250804
1110.609 .0251016
1111.198 .0251242
1111.789 .0251482
1112.379 .0251737
1112.970 .0252008
1113.561 .0252295
1114.153 .0252598
1114.745 .0252916
1115.338 .0253248
1115.931 .0253591
1116.524 .0253945
1117.117 .0254308
1117.712 .0254681
1118.306 .0255063
1118.901 .0255456
1119.496 .0255860
1120.092 .0256278
1120.689 .0256709
1121.285 .0257155
1121.882 .0257620
1122.480 .0258107
1123.078 .0258615
1123.677 .0259149
1124.276 .0259711
1124.875 .0260302
1125.476 .0260921
1126.076 .0261568
1126.677 .0262242
1127.279 .0262942
1127.881 .0263665
1128.484 .0264408
1129.087 .0264722
1129.691 .0265492
1130.295 .0266279
1130.900 .0267078
1131.505 .0267886
1132.111 .0268697
1132.718 .0269503
1133.325 .0270299
1133.933 .0271079
1134.541 .0271840
1135.150 .0272564
1135.760 .0273243
1136.370 .0273911
1136.981 .0276644
1137.592 .0277739
1138.204 .0278833
1138.817 .0279804
1139.431 .0280654
1140.045 .0281338
1140.660 .0281790
1141.275 .0282025
1141.891 .0282120
1142.508 .0282101
1143.126 .0281575
1143.744 .0280743
1144.363 .0280938
1144.983 .0282875
