Measurement Sequence started on: 15-12-46-377
Integration time: 28
Scans to Average: 2 
>>>>>Begin Spectral Data<<<<<
432.689 .0000100
433.621 .0000100
434.552 .0000100
435.482 .0000100
436.410 .0000100
437.337 .0000100
438.262 .0274319
439.187 .0581677
440.110 .0963722
441.031 .1394833
441.952 .1120050
442.871 .1170007
443.789 .1216544
444.705 .1260371
445.621 .1301985
446.535 .1341747
447.447 .1365490
448.359 .1371698
449.269 .1356622
450.178 .1317826
451.086 .1256081
451.993 .1176156
452.898 .1085975
453.803 .0994513
454.706 .0909399
455.608 .0835382
456.508 .0774046
457.408 .0732443
458.306 .0700389
459.204 .0674205
460.100 .0652063
460.995 .0632954
461.888 .0616203
462.781 .0601352
463.673 .0588076
464.563 .0576134
465.452 .0565326
466.340 .0555495
467.228 .0546518
468.114 .0538296
468.999 .0530758
469.882 .0523846
470.765 .0517516
471.647 .0511739
472.528 .0506496
473.407 .0501763
474.286 .0497520
475.163 .0493739
476.040 .0490382
476.915 .0487412
477.790 .0484789
478.663 .0482476
479.535 .0480442
480.407 .0478656
481.277 .0477102
482.147 .0475763
483.015 .0474626
483.883 .0473676
484.749 .0472900
485.615 .0472285
486.479 .0471815
487.343 .0471473
488.206 .0471253
489.067 .0471146
489.928 .0471166
490.788 .0471332
491.647 .0471668
492.505 .0472205
493.362 .0472974
494.218 .0474000
495.073 .0475306
495.928 .0478315
496.781 .0480353
497.634 .0482675
498.486 .0485278
499.337 .0488171
500.187 .0491379
501.036 .0494933
501.884 .0498865
502.731 .0503225
503.578 .0508049
504.424 .0511408
505.268 .0517018
506.113 .0523164
506.956 .0529861
507.798 .0537139
508.640 .0545047
509.480 .0553646
510.320 .0563029
511.160 .0573312
511.998 .0584622
512.836 .0597128
513.672 .0610996
514.508 .0626397
515.344 .0643503
516.178 .0662492
517.012 .0683542
517.845 .0706814
518.677 .0732465
519.508 .0760644
520.339 .0791420
521.169 .0824834
521.998 .0860685
522.826 .0898663
523.654 .0938291
524.481 .0978983
525.307 .1020049
526.133 .1060702
526.958 .1100118
527.782 .1137503
528.605 .1172074
529.428 .1203172
530.250 .1230159
531.072 .1252586
531.892 .1270093
532.712 .1282433
533.532 .1289453
534.350 .1291119
535.168 .1287489
535.986 .1278674
536.802 .1264757
537.618 .1245888
538.434 .1222198
539.249 .1194058
540.063 .1161916
540.876 .1126328
541.689 .1087946
542.501 .1047501
543.313 .1005779
544.124 .0963597
544.934 .0921706
545.744 .0880826
546.553 .0841558
547.361 .0804436
548.169 .0769795
548.976 .0737873
549.783 .0708770
550.589 .0682474
551.395 .0658843
552.200 .0637640
553.004 .0618567
553.808 .0601360
554.611 .0585759
555.414 .0571559
556.216 .0558566
557.018 .0546609
557.819 .0535579
558.619 .0525382
559.419 .0515924
560.218 .0507133
561.017 .0498925
561.815 .0491223
562.613 .0483953
563.410 .0477029
564.207 .0470372
565.003 .0463928
565.799 .0457652
566.594 .0451518
567.388 .0445513
568.182 .0439634
568.976 .0433880
569.769 .0428259
570.562 .0422785
571.354 .0417461
572.145 .0412295
572.936 .0407292
573.727 .0402448
574.517 .0397761
575.307 .0393230
576.096 .0388856
576.885 .0384648
577.673 .0380618
578.461 .0376772
579.248 .0373120
580.035 .0369671
580.821 .0366429
581.607 .0363398
582.392 .0360573
583.177 .0357950
583.962 .0355517
584.746 .0353263
585.529 .0351173
586.313 .0349233
587.095 .0347431
587.878 .0345753
588.660 .0344189
589.441 .0342730
590.222 .0341368
591.003 .0340098
591.783 .0338917
592.563 .0337818
593.342 .0336795
594.121 .0335841
594.899 .0334950
595.678 .0334115
596.455 .0333329
597.233 .0332588
598.009 .0331888
598.786 .0331225
599.562 .0330597
600.338 .0330003
601.113 .0329443
601.888 .0328711
602.663 .0328226
603.437 .0327767
604.211 .0327332
604.984 .0326918
605.757 .0326524
606.530 .0326148
607.302 .0325790
608.074 .0325447
608.845 .0325122
609.616 .0324811
610.387 .0324686
611.158 .0324395
611.928 .0324118
612.697 .0323853
613.467 .0323599
614.236 .0323353
615.004 .0323116
615.773 .0322886
616.541 .0322662
617.308 .0322443
618.076 .0322229
618.843 .0322020
619.609 .0321815
620.375 .0321612
621.141 .0321412
621.907 .0321214
622.672 .0321015
623.437 .0320817
624.202 .0320617
624.966 .0320414
625.730 .0320208
626.493 .0319998
627.257 .0319783
628.020 .0319564
628.782 .0319338
629.545 .0319107
630.307 .0318871
631.068 .0318628
631.830 .0318380
632.591 .0318125
633.352 .0317865
634.112 .0317599
634.872 .0317328
635.632 .0317051
636.392 .0316770
637.151 .0316484
637.910 .0316194
638.668 .0315901
639.427 .0315607
640.185 .0315311
640.943 .0315017
641.700 .0314724
642.457 .0314435
643.214 .0314149
643.971 .0313868
644.727 .0313592
645.483 .0313321
646.239 .0313055
646.994 .0312793
647.750 .0312535
648.505 .0312281
649.259 .0312031
650.014 .0311784
650.768 .0311541
651.521 .0311300
652.275 .0311060
653.028 .0310821
653.781 .0310582
654.534 .0310343
655.286 .0310102
656.039 .0309861
656.791 .0309620
657.542 .0309379
658.294 .0309138
659.045 .0308898
659.796 .0308656
660.546 .0308414
661.297 .0308170
662.047 .0307924
662.796 .0307675
663.546 .0307424
664.295 .0307172
665.044 .0306920
665.793 .0306668
666.542 .0306419
667.290 .0306172
668.038 .0305928
668.786 .0305688
669.533 .0305452
670.281 .0305219
671.028 .0304989
671.774 .0304762
672.521 .0304539
673.267 .0304319
674.013 .0304103
674.759 .0303889
675.505 .0303679
676.250 .0303473
676.995 .0303270
677.740 .0303070
678.484 .0302874
679.229 .0302681
679.973 .0302492
680.717 .0302307
681.460 .0302125
682.204 .0301946
682.947 .0301768
683.690 .0301591
684.433 .0301414
685.175 .0301238
685.917 .0301063
686.659 .0300888
687.401 .0300715
688.142 .0300543
688.884 .0300373
689.625 .0300205
690.365 .0300038
691.106 .0299871
691.846 .0299705
692.586 .0299538
693.326 .0299371
694.066 .0299204
694.805 .0299037
695.545 .0298870
696.284 .0298705
697.022 .0298541
697.761 .0298379
698.499 .0298219
699.237 .0298060
699.975 .0297904
700.713 .0297749
701.450 .0297596
702.187 .0297444
702.924 .0297294
703.661 .0297146
704.397 .0296998
705.133 .0296851
705.869 .0296704
706.605 .0296556
707.341 .0296408
708.076 .0296258
708.811 .0296108
709.546 .0295958
710.281 .0295806
711.015 .0295654
711.749 .0295500
712.483 .0295345
713.217 .0295188
713.950 .0295028
714.684 .0294866
715.417 .0294701
716.150 .0294533
716.882 .0294364
717.615 .0294193
718.347 .0294019
719.079 .0293844
719.811 .0293666
720.542 .0293486
721.273 .0293304
722.005 .0293120
722.735 .0292935
723.466 .0292749
724.196 .0292564
724.927 .0292379
725.656 .0292196
726.386 .0292015
727.116 .0291836
727.845 .0291659
728.574 .0291485
729.303 .0291314
730.031 .0291147
730.760 .0290983
731.488 .0290822
732.216 .0290665
732.944 .0290511
733.671 .0290361
734.398 .0290214
735.125 .0290070
735.852 .0289929
736.579 .0289791
737.305 .0289655
738.031 .0289521
738.757 .0289389
739.483 .0289257
740.208 .0289124
740.933 .0288989
741.658 .0288852
742.383 .0288711
743.108 .0288567
743.832 .0288420
744.556 .0288270
745.280 .0288117
746.004 .0287962
746.727 .0287804
747.450 .0287643
748.173 .0287479
748.896 .0287311
749.618 .0287138
750.340 .0286962
751.062 .0286781
751.784 .0286598
752.506 .0286413
753.227 .0286227
753.948 .0286041
754.669 .0285855
755.389 .0285671
756.110 .0285489
756.830 .0285308
757.550 .0285129
758.269 .0284952
758.989 .0284778
759.708 .0284607
760.427 .0284438
761.146 .0284272
761.864 .0284109
762.582 .0283948
763.300 .0283790
764.018 .0283636
764.736 .0283485
765.453 .0283337
766.170 .0283193
766.887 .0283051
767.603 .0282912
768.320 .0282774
769.036 .0282637
769.751 .0282501
770.467 .0282364
771.182 .0282228
771.897 .0282093
772.612 .0281958
773.327 .0281826
774.041 .0281695
774.755 .0281568
775.469 .0281443
776.183 .0281322
776.896 .0281203
777.609 .0281088
778.322 .0280975
779.035 .0280866
779.747 .0280760
780.459 .0280658
781.171 .0280560
781.882 .0280467
782.594 .0280377
783.305 .0280292
784.016 .0280212
784.726 .0280135
785.436 .0280062
786.147 .0279963
786.856 .0279894
787.566 .0279826
788.275 .0279760
788.984 .0279694
789.693 .0279630
790.401 .0279565
791.110 .0279501
791.818 .0279437
792.525 .0279372
793.233 .0279307
793.940 .0279240
794.647 .0279200
795.353 .0279132
796.060 .0279063
796.766 .0278993
797.472 .0278922
798.177 .0278848
798.883 .0278773
799.588 .0278696
800.292 .0278617
800.997 .0278536
801.701 .0278454
802.405 .0278370
803.109 .0278286
803.812 .0278201
804.515 .0278116
805.218 .0278031
805.921 .0277944
806.623 .0277856
807.325 .0277766
808.027 .0277675
808.728 .0277582
809.429 .0277488
810.130 .0277393
810.831 .0277298
811.531 .0277202
812.231 .0277105
812.931 .0277008
813.630 .0276910
814.330 .0276812
815.029 .0276714
815.727 .0276617
816.426 .0276521
817.124 .0276427
817.821 .0276336
818.519 .0276248
819.216 .0276163
819.913 .0276082
820.609 .0276005
821.306 .0275932
822.002 .0275862
822.697 .0275797
823.393 .0275737
824.088 .0275681
824.783 .0275630
825.477 .0275582
826.171 .0275538
826.865 .0275495
827.559 .0275454
828.252 .0275413
828.945 .0275373
829.638 .0275334
830.330 .0275296
831.023 .0275258
831.714 .0275220
832.406 .0275183
833.097 .0275145
833.788 .0275107
834.479 .0275067
835.169 .0275026
835.859 .0274982
836.548 .0274937
837.238 .0274889
837.927 .0274838
838.615 .0274784
839.304 .0274726
839.992 .0274664
840.680 .0274598
841.367 .0274527
842.054 .0274451
842.741 .0274372
843.428 .0274289
844.114 .0274202
844.800 .0274112
845.485 .0274019
846.170 .0273921
846.855 .0273820
847.540 .0273714
848.224 .0273604
848.908 .0273490
849.592 .0273372
850.275 .0273252
850.958 .0273128
851.641 .0273001
852.323 .0272871
853.005 .0272737
853.687 .0272598
854.368 .0272455
855.049 .0272307
855.730 .0272155
856.410 .0271998
857.090 .0271838
857.769 .0271674
858.449 .0271508
859.128 .0271339
859.806 .0271169
860.485 .0270996
861.163 .0270823
861.840 .0270648
862.518 .0270473
863.195 .0270297
863.871 .0270123
864.548 .0269949
865.224 .0269777
865.899 .0269607
866.574 .0269438
867.249 .0269270
867.924 .0269104
868.598 .0268939
869.272 .0268776
869.946 .0268615
870.619 .0268457
871.292 .0268302
871.964 .0268152
872.636 .0268007
873.308 .0267866
873.979 .0267731
874.651 .0267600
875.321 .0267474
875.992 .0267351
876.662 .0267233
877.331 .0267117
878.001 .0267006
878.670 .0266897
879.338 .0266790
880.007 .0266686
880.675 .0266584
881.342 .0266483
882.009 .0266383
882.676 .0266282
883.343 .0266181
884.009 .0266078
884.675 .0265975
885.340 .0265872
886.005 .0265768
886.670 .0265665
887.334 .0265562
887.998 .0265459
888.662 .0265357
889.325 .0265254
889.988 .0265153
890.650 .0265051
891.312 .0264951
891.974 .0264851
892.636 .0264753
893.297 .0264656
893.957 .0264562
894.618 .0264469
895.278 .0264378
895.937 .0264287
896.596 .0264197
897.255 .0264106
897.914 .0264014
898.572 .0263920
899.230 .0263825
899.887 .0263727
900.544 .0263626
901.201 .0263521
901.857 .0263342
902.513 .0263224
903.168 .0263101
903.823 .0262972
904.478 .0262838
905.132 .0262699
905.786 .0262556
906.440 .0262409
907.093 .0262258
907.746 .0262104
908.399 .0261947
909.051 .0261788
909.703 .0261626
910.354 .0261541
911.005 .0261380
911.656 .0261217
912.306 .0261053
912.956 .0260889
913.605 .0260725
914.254 .0260562
914.903 .0260401
915.551 .0260240
916.199 .0260081
916.847 .0259923
917.494 .0259766
918.141 .0259611
918.788 .0259457
919.434 .0259305
920.079 .0259154
920.725 .0259006
921.370 .0258859
922.014 .0258713
922.658 .0258569
923.302 .0258425
923.946 .0258281
924.589 .0258137
925.231 .0257993
925.873 .0257848
926.515 .0257703
927.157 .0257556
927.798 .0257410
928.439 .0257263
929.079 .0257116
929.719 .0256969
930.359 .0256823
930.998 .0256679
931.637 .0256536
932.275 .0256395
932.913 .0256257
933.551 .0256122
934.188 .0255992
934.825 .0255867
935.462 .0255749
936.098 .0255636
936.733 .0255530
937.369 .0255430
938.004 .0255337
938.638 .0255250
939.273 .0255169
939.907 .0255095
940.540 .0255026
941.173 .0254963
941.806 .0254906
942.438 .0254855
943.070 .0254809
943.702 .0254768
944.333 .0254731
944.964 .0254696
945.594 .0254665
946.224 .0254635
946.854 .0254606
947.483 .0254578
948.112 .0254551
948.741 .0254524
949.369 .0254496
949.996 .0254467
950.624 .0254437
951.251 .0254403
951.878 .0254366
952.504 .0254325
953.130 .0254281
953.755 .0254233
954.380 .0254182
955.005 .0254129
955.629 .0254076
956.253 .0254021
956.877 .0253966
957.500 .0253910
958.123 .0253854
958.746 .0253798
959.368 .0253741
959.990 .0253685
960.611 .0253631
961.232 .0253578
961.853 .0253529
962.473 .0253482
963.093 .0253439
963.712 .0253399
964.331 .0253362
964.950 .0253327
965.569 .0253295
966.187 .0253265
966.804 .0253238
967.422 .0253214
968.039 .0253194
968.655 .0253176
969.272 .0253162
969.887 .0253150
970.503 .0253140
971.118 .0253131
971.733 .0253122
972.347 .0253113
972.961 .0253102
973.575 .0253090
974.188 .0253076
974.801 .0253059
975.414 .0253040
976.026 .0253017
976.638 .0252990
977.250 .0252958
977.861 .0252921
978.472 .0252879
979.083 .0252832
979.693 .0252780
980.303 .0252724
980.912 .0252625
981.521 .0252563
982.130 .0252499
982.738 .0252432
983.346 .0252365
983.954 .0252297
984.562 .0252228
985.169 .0252161
985.775 .0252094
986.382 .0252030
986.988 .0251968
987.594 .0251909
988.199 .0251854
988.804 .0251802
989.409 .0251790
990.013 .0251744
990.617 .0251702
991.221 .0251663
991.824 .0251627
992.427 .0251595
993.030 .0251566
993.632 .0251541
994.234 .0251520
994.836 .0251502
995.438 .0251489
996.039 .0251479
996.640 .0251472
997.240 .0251468
997.840 .0251466
998.440 .0251467
999.040 .0251470
999.639 .0251474
1000.238 .0251481
1000.836 .0251490
1001.435 .0251500
1002.033 .0251513
1002.630 .0251526
1003.228 .0251540
1003.825 .0251554
1004.422 .0251567
1005.018 .0251578
1005.614 .0251587
1006.210 .0251595
1006.806 .0251600
1007.401 .0251604
1007.996 .0251607
1008.591 .0251608
1009.186 .0251608
1009.780 .0251607
1010.374 .0251605
1010.967 .0251602
1011.561 .0251599
1012.154 .0251595
1012.746 .0251592
1013.339 .0251590
1013.931 .0251591
1014.523 .0251594
1015.115 .0251601
1015.706 .0251611
1016.298 .0251625
1016.888 .0251642
1017.479 .0251662
1018.069 .0251685
1018.660 .0251710
1019.250 .0251738
1019.839 .0251769
1020.429 .0251802
1021.018 .0251838
1021.607 .0251875
1022.195 .0251915
1022.784 .0251956
1023.372 .0251999
1023.960 .0252044
1024.547 .0252090
1025.135 .0252139
1025.722 .0252189
1026.309 .0252242
1026.896 .0252298
1027.483 .0252355
1028.069 .0252414
1028.655 .0252474
1029.241 .0252535
1029.827 .0252596
1030.412 .0252657
1030.997 .0252717
1031.582 .0252777
1032.167 .0252836
1032.752 .0252895
1033.336 .0252953
1033.921 .0253009
1034.505 .0253063
1035.089 .0253113
1035.672 .0253159
1036.256 .0253200
1036.839 .0253236
1037.422 .0253268
1038.005 .0253294
1038.588 .0253317
1039.171 .0253336
1039.753 .0253351
1040.335 .0253363
1040.918 .0253369
1041.500 .0253371
1042.081 .0253369
1042.663 .0253362
1043.244 .0253351
1043.826 .0253338
1044.407 .0253325
1044.988 .0253311
1045.569 .0253299
1046.150 .0253287
1046.730 .0253275
1047.311 .0253264
1047.891 .0253250
1048.471 .0253234
1049.052 .0253215
1049.632 .0253192
1050.211 .0253167
1050.791 .0253140
1051.371 .0253111
1051.950 .0253082
1052.530 .0253053
1053.109 .0253023
1053.688 .0252992
1054.268 .0252960
1054.847 .0252927
1055.426 .0252892
1056.005 .0252857
1056.583 .0252820
1057.162 .0252784
1057.741 .0252748
1058.319 .0252714
1058.898 .0252682
1059.476 .0252650
1060.055 .0252620
1060.633 .0252588
1061.211 .0252555
1061.790 .0252520
1062.368 .0252482
1062.946 .0252440
1063.524 .0252395
1064.102 .0252346
1064.680 .0252295
1065.258 .0252242
1065.836 .0252187
1066.414 .0252129
1066.992 .0252071
1067.570 .0252010
1068.148 .0251948
1068.726 .0251886
1069.304 .0251825
1069.882 .0251766
1070.460 .0251709
1071.038 .0251655
1071.616 .0251605
1072.194 .0251560
1072.772 .0251518
1073.350 .0251480
1073.928 .0251445
1074.506 .0251412
1075.084 .0251381
1075.662 .0251353
1076.240 .0251328
1076.819 .0251305
1077.397 .0251284
1077.976 .0251265
1078.554 .0251247
1079.133 .0251230
1079.711 .0251214
1080.290 .0251197
1080.869 .0251179
1081.448 .0251160
1082.027 .0251140
1082.606 .0251119
1083.185 .0251097
1083.764 .0251075
1084.343 .0251056
1084.923 .0251039
1085.502 .0251027
1086.082 .0251022
1086.662 .0251025
1087.242 .0251038
1087.822 .0251061
1088.402 .0251095
1088.983 .0251140
1089.563 .0251196
1090.144 .0251262
1090.725 .0251338
1091.306 .0251424
1091.887 .0251520
1092.469 .0251624
1093.050 .0251736
1093.632 .0251857
1094.214 .0251985
1094.796 .0252119
1095.379 .0252261
1095.961 .0252410
1096.544 .0252568
1097.127 .0252735
1097.710 .0252912
1098.294 .0253099
1098.877 .0253296
1099.461 .0253503
1100.046 .0253717
1100.630 .0253938
1101.215 .0254164
1101.800 .0254393
1102.385 .0254622
1102.970 .0254849
1103.556 .0255075
1104.142 .0255298
1104.728 .0255517
1105.315 .0255731
1105.902 .0255937
1106.489 .0256135
1107.077 .0256324
1107.664 .0256504
1108.253 .0256679
1108.841 .0256849
1109.430 .0257019
1110.019 .0257193
1110.609 .0257374
1111.198 .0257564
1111.789 .0257766
1112.379 .0257979
1112.970 .0258204
1113.561 .0258436
1114.153 .0258676
1114.745 .0258925
1115.338 .0259184
1115.931 .0259456
1116.524 .0259744
1117.117 .0260051
1117.712 .0260380
1118.306 .0260731
1118.901 .0261102
1119.496 .0261491
1120.092 .0261896
1120.689 .0262313
1121.285 .0262740
1121.882 .0263178
1122.480 .0263628
1123.078 .0264094
1123.677 .0264579
1124.276 .0265086
1124.875 .0265612
1125.476 .0266157
1126.076 .0266718
1126.677 .0267292
1127.279 .0267876
1127.881 .0268468
1128.484 .0269070
1129.087 .0269358
1129.691 .0269977
1130.295 .0270617
1130.900 .0271284
1131.505 .0271983
1132.111 .0272720
1132.718 .0273499
1133.325 .0274331
1133.933 .0275219
1134.541 .0276110
1135.150 .0277087
1135.760 .0278178
1136.370 .0279449
1136.981 .0277956
1137.592 .0278915
1138.204 .0279986
1138.817 .0281191
1139.431 .0282510
1140.045 .0284010
1140.660 .0285710
1141.275 .0287707
1141.891 .0289937
1142.508 .0290729
1143.126 .0293893
1143.744 .0297854
1144.363 .0303613
1144.983 .0304449
