Measurement Sequence started on: 15-12-46-377
Integration time: 28
Scans to Average: 2 
>>>>>Begin Spectral Data<<<<<
432.689 .0000100
433.621 .0000100
434.552 .0000100
435.482 .0000100
436.410 .0000100
437.337 .0000100
438.262 .0259886
439.187 .0550183
440.110 .0910431
441.031 .1316984
441.952 .1053252
442.871 .1099663
443.789 .1142806
444.705 .1183345
445.621 .1221743
446.535 .1258371
447.447 .1279808
448.359 .1284657
449.269 .1269414
450.178 .1231775
451.086 .1172513
451.993 .1096154
452.898 .1010182
453.803 .0923093
454.706 .0842089
455.608 .0771648
456.508 .0713263
457.408 .0673613
458.306 .0643040
459.204 .0618073
460.100 .0597025
460.995 .0578923
461.888 .0563128
462.781 .0549204
463.673 .0536804
464.563 .0525698
465.452 .0515698
466.340 .0506645
467.228 .0498428
468.114 .0490953
468.999 .0484149
469.882 .0477954
470.765 .0472316
471.647 .0467200
472.528 .0462566
473.407 .0458378
474.286 .0454607
475.163 .0451225
476.040 .0448206
476.915 .0445523
477.790 .0443149
478.663 .0441068
479.535 .0439258
480.407 .0437703
481.277 .0436385
482.147 .0435282
483.015 .0434378
483.883 .0433660
484.749 .0433113
485.615 .0432729
486.479 .0432498
487.343 .0432424
488.206 .0432506
489.067 .0432748
489.928 .0433151
490.788 .0433720
491.647 .0434457
492.505 .0435364
493.362 .0436441
494.218 .0437691
495.073 .0439119
495.928 .0441965
496.781 .0443893
497.634 .0446028
498.486 .0448377
499.337 .0450952
500.187 .0453765
501.036 .0456823
501.884 .0460143
502.731 .0463750
503.578 .0467671
504.424 .0470288
505.268 .0474815
506.113 .0479783
506.956 .0485250
507.798 .0491281
508.640 .0497955
509.480 .0505372
510.320 .0513648
511.160 .0522911
511.998 .0533314
512.836 .0545030
513.672 .0558235
514.508 .0573133
515.344 .0589949
516.178 .0608902
517.012 .0630210
517.845 .0654065
518.677 .0680644
519.508 .0710076
520.339 .0742393
521.169 .0777567
521.998 .0815337
522.826 .0855345
523.654 .0897028
524.481 .0939725
525.307 .0982707
526.133 .1025146
526.958 .1066166
527.782 .1104934
528.605 .1140670
529.428 .1172684
530.250 .1200338
531.072 .1223213
531.892 .1240947
532.712 .1253317
533.532 .1260168
534.350 .1261450
535.168 .1257213
535.986 .1247557
536.802 .1232560
537.618 .1212390
538.434 .1187243
539.249 .1157530
540.063 .1123733
540.876 .1086503
541.689 .1046566
542.501 .1004706
543.313 .0961756
544.124 .0918561
544.934 .0875899
545.744 .0834481
546.553 .0794892
547.361 .0757639
548.169 .0723011
548.976 .0691205
549.783 .0662252
550.589 .0636120
551.395 .0612651
552.200 .0591602
553.004 .0572692
553.808 .0555687
554.611 .0540360
555.414 .0526501
556.216 .0513917
557.018 .0502431
557.819 .0491901
558.619 .0482197
559.419 .0473200
560.218 .0464825
561.017 .0457003
561.815 .0449676
562.613 .0442786
563.410 .0436281
564.207 .0430114
565.003 .0424235
565.799 .0418600
566.594 .0413171
567.388 .0407920
568.182 .0402825
568.976 .0397875
569.769 .0393063
570.562 .0388394
571.354 .0383871
572.145 .0379502
572.936 .0375290
573.727 .0371242
574.517 .0367356
575.307 .0363631
576.096 .0360067
576.885 .0356663
577.673 .0353419
578.461 .0350332
579.248 .0347400
580.035 .0344623
580.821 .0341991
581.607 .0339502
582.392 .0337153
583.177 .0334941
583.962 .0332861
584.746 .0330913
585.529 .0329096
586.313 .0327408
587.095 .0325850
587.878 .0324417
588.660 .0323105
589.441 .0321907
590.222 .0320814
591.003 .0319815
591.783 .0318902
592.563 .0318063
593.342 .0317289
594.121 .0316570
594.899 .0315897
595.678 .0315262
596.455 .0314659
597.233 .0314084
598.009 .0313534
598.786 .0313004
599.562 .0312490
600.338 .0311990
601.113 .0311498
601.888 .0310764
602.663 .0310285
603.437 .0309810
604.211 .0309338
604.984 .0308868
605.757 .0308404
606.530 .0307946
607.302 .0307498
608.074 .0307063
608.845 .0306644
609.616 .0306245
610.387 .0306098
611.158 .0305735
611.928 .0305393
612.697 .0305073
613.467 .0304775
614.236 .0304498
615.004 .0304242
615.773 .0304007
616.541 .0303792
617.308 .0303598
618.076 .0303425
618.843 .0303273
619.609 .0303139
620.375 .0303023
621.141 .0302922
621.907 .0302834
622.672 .0302756
623.437 .0302685
624.202 .0302619
624.966 .0302556
625.730 .0302494
626.493 .0302430
627.257 .0302362
628.020 .0302290
628.782 .0302211
629.545 .0302125
630.307 .0302030
631.068 .0301926
631.830 .0301812
632.591 .0301687
633.352 .0301551
634.112 .0301403
634.872 .0301242
635.632 .0301069
636.392 .0300882
637.151 .0300684
637.910 .0300475
638.668 .0300256
639.427 .0300031
640.185 .0299798
640.943 .0299559
641.700 .0299315
642.457 .0299066
643.214 .0298812
643.971 .0298553
644.727 .0298288
645.483 .0298018
646.239 .0297744
646.994 .0297467
647.750 .0297187
648.505 .0296905
649.259 .0296621
650.014 .0296336
650.768 .0296050
651.521 .0295763
652.275 .0295476
653.028 .0295188
653.781 .0294900
654.534 .0294611
655.286 .0294322
656.039 .0294032
656.791 .0293741
657.542 .0293450
658.294 .0293159
659.045 .0292869
659.796 .0292582
660.546 .0292298
661.297 .0292019
662.047 .0291745
662.796 .0291477
663.546 .0291216
664.295 .0290961
665.044 .0290714
665.793 .0290474
666.542 .0290243
667.290 .0290021
668.038 .0289810
668.786 .0289611
669.533 .0289423
670.281 .0289247
671.028 .0289082
671.774 .0288928
672.521 .0288784
673.267 .0288650
674.013 .0288524
674.759 .0288407
675.505 .0288298
676.250 .0288196
676.995 .0288100
677.740 .0288011
678.484 .0287927
679.229 .0287849
679.973 .0287775
680.717 .0287705
681.460 .0287640
682.204 .0287578
682.947 .0287520
683.690 .0287465
684.433 .0287414
685.175 .0287365
685.917 .0287318
686.659 .0287273
687.401 .0287230
688.142 .0287189
688.884 .0287148
689.625 .0287108
690.365 .0287068
691.106 .0287029
691.846 .0286988
692.586 .0286946
693.326 .0286902
694.066 .0286856
694.805 .0286807
695.545 .0286756
696.284 .0286701
697.022 .0286642
697.761 .0286579
698.499 .0286511
699.237 .0286438
699.975 .0286359
700.713 .0286274
701.450 .0286182
702.187 .0286082
702.924 .0285974
703.661 .0285857
704.397 .0285731
705.133 .0285596
705.869 .0285450
706.605 .0285294
707.341 .0285128
708.076 .0284952
708.811 .0284766
709.546 .0284571
710.281 .0284366
711.015 .0284152
711.749 .0283928
712.483 .0283696
713.217 .0283454
713.950 .0283205
714.684 .0282948
715.417 .0282685
716.150 .0282415
716.882 .0282140
717.615 .0281861
718.347 .0281578
719.079 .0281292
719.811 .0281004
720.542 .0280714
721.273 .0280422
722.005 .0280131
722.735 .0279842
723.466 .0279554
724.196 .0279270
724.927 .0278990
725.656 .0278715
726.386 .0278445
727.116 .0278182
727.845 .0277924
728.574 .0277674
729.303 .0277431
730.031 .0277196
730.760 .0276969
731.488 .0276752
732.216 .0276544
732.944 .0276346
733.671 .0276158
734.398 .0275979
735.125 .0275809
735.852 .0275649
736.579 .0275497
737.305 .0275353
738.031 .0275218
738.757 .0275090
739.483 .0274970
740.208 .0274856
740.933 .0274749
741.658 .0274648
742.383 .0274551
743.108 .0274460
743.832 .0274373
744.556 .0274292
745.280 .0274215
746.004 .0274142
746.727 .0274072
747.450 .0274006
748.173 .0273943
748.896 .0273883
749.618 .0273825
750.340 .0273769
751.062 .0273717
751.784 .0273667
752.506 .0273622
753.227 .0273579
753.948 .0273541
754.669 .0273505
755.389 .0273473
756.110 .0273444
756.830 .0273417
757.550 .0273391
758.269 .0273368
758.989 .0273347
759.708 .0273329
760.427 .0273313
761.146 .0273299
761.864 .0273287
762.582 .0273278
763.300 .0273269
764.018 .0273263
764.736 .0273256
765.453 .0273251
766.170 .0273244
766.887 .0273238
767.603 .0273230
768.320 .0273223
769.036 .0273214
769.751 .0273204
770.467 .0273194
771.182 .0273183
771.897 .0273171
772.612 .0273159
773.327 .0273147
774.041 .0273136
774.755 .0273124
775.469 .0273113
776.183 .0273101
776.896 .0273089
777.609 .0273075
778.322 .0273060
779.035 .0273043
779.747 .0273023
780.459 .0273002
781.171 .0272977
781.882 .0272949
782.594 .0272917
783.305 .0272880
784.016 .0272839
784.726 .0272790
785.436 .0272735
786.147 .0272620
786.856 .0272544
787.566 .0272459
788.275 .0272366
788.984 .0272265
789.693 .0272157
790.401 .0272039
791.110 .0271913
791.818 .0271779
792.525 .0271635
793.233 .0271481
793.940 .0271318
794.647 .0271214
795.353 .0271038
796.060 .0270852
796.766 .0270658
797.472 .0270454
798.177 .0270242
798.883 .0270022
799.588 .0269793
800.292 .0269557
800.997 .0269312
801.701 .0269061
802.405 .0268803
803.109 .0268539
803.812 .0268269
804.515 .0267994
805.218 .0267714
805.921 .0267430
806.623 .0267142
807.325 .0266849
808.027 .0266553
808.728 .0266255
809.429 .0265954
810.130 .0265652
810.831 .0265349
811.531 .0265046
812.231 .0264745
812.931 .0264445
813.630 .0264147
814.330 .0263853
815.029 .0263563
815.727 .0263278
816.426 .0262998
817.124 .0262725
817.821 .0262458
818.519 .0262199
819.216 .0261949
819.913 .0261707
820.609 .0261475
821.306 .0261253
822.002 .0261041
822.697 .0260839
823.393 .0260647
824.088 .0260465
824.783 .0260293
825.477 .0260130
826.171 .0259977
826.865 .0259833
827.559 .0259699
828.252 .0259575
828.945 .0259461
829.638 .0259358
830.330 .0259264
831.023 .0259181
831.714 .0259106
832.406 .0259040
833.097 .0258982
833.788 .0258932
834.479 .0258890
835.169 .0258855
835.859 .0258827
836.548 .0258807
837.238 .0258794
837.927 .0258787
838.615 .0258785
839.304 .0258789
839.992 .0258797
840.680 .0258809
841.367 .0258824
842.054 .0258843
842.741 .0258865
843.428 .0258890
844.114 .0258918
844.800 .0258947
845.485 .0258979
846.170 .0259010
846.855 .0259041
847.540 .0259072
848.224 .0259100
848.908 .0259127
849.592 .0259152
850.275 .0259174
850.958 .0259195
851.641 .0259214
852.323 .0259232
853.005 .0259248
853.687 .0259263
854.368 .0259278
855.049 .0259292
855.730 .0259306
856.410 .0259320
857.090 .0259335
857.769 .0259350
858.449 .0259366
859.128 .0259383
859.806 .0259402
860.485 .0259422
861.163 .0259443
861.840 .0259467
862.518 .0259493
863.195 .0259521
863.871 .0259550
864.548 .0259582
865.224 .0259615
865.899 .0259648
866.574 .0259683
867.249 .0259718
867.924 .0259754
868.598 .0259790
869.272 .0259827
869.946 .0259865
870.619 .0259903
871.292 .0259942
871.964 .0259980
872.636 .0260018
873.308 .0260055
873.979 .0260091
874.651 .0260125
875.321 .0260158
875.992 .0260190
876.662 .0260220
877.331 .0260248
878.001 .0260274
878.670 .0260298
879.338 .0260319
880.007 .0260337
880.675 .0260352
881.342 .0260365
882.009 .0260376
882.676 .0260385
883.343 .0260391
884.009 .0260395
884.675 .0260397
885.340 .0260395
886.005 .0260390
886.670 .0260379
887.334 .0260363
887.998 .0260341
888.662 .0260313
889.325 .0260277
889.988 .0260235
890.650 .0260184
891.312 .0260125
891.974 .0260058
892.636 .0259981
893.297 .0259895
893.957 .0259799
894.618 .0259693
895.278 .0259578
895.937 .0259453
896.596 .0259319
897.255 .0259175
897.914 .0259020
898.572 .0258856
899.230 .0258681
899.887 .0258495
900.544 .0258298
901.201 .0258090
901.857 .0257735
902.513 .0257502
903.168 .0257258
903.823 .0257005
904.478 .0256742
905.132 .0256470
905.786 .0256188
906.440 .0255897
907.093 .0255598
907.746 .0255291
908.399 .0254979
909.051 .0254661
909.703 .0254340
910.354 .0254167
911.005 .0253843
911.656 .0253517
912.306 .0253188
912.956 .0252856
913.605 .0252522
914.254 .0252187
914.903 .0251850
915.551 .0251512
916.199 .0251175
916.847 .0250839
917.494 .0250505
918.141 .0250172
918.788 .0249840
919.434 .0249509
920.079 .0249179
920.725 .0248849
921.370 .0248518
922.014 .0248188
922.658 .0247858
923.302 .0247530
923.946 .0247205
924.589 .0246882
925.231 .0246562
925.873 .0246246
926.515 .0245933
927.157 .0245623
927.798 .0245316
928.439 .0245013
929.079 .0244714
929.719 .0244420
930.359 .0244132
930.998 .0243850
931.637 .0243576
932.275 .0243309
932.913 .0243049
933.551 .0242797
934.188 .0242552
934.825 .0242314
935.462 .0242084
936.098 .0241862
936.733 .0241649
937.369 .0241444
938.004 .0241248
938.638 .0241062
939.273 .0240887
939.907 .0240721
940.540 .0240565
941.173 .0240418
941.806 .0240281
942.438 .0240152
943.070 .0240031
943.702 .0239919
944.333 .0239814
944.964 .0239718
945.594 .0239629
946.224 .0239547
946.854 .0239473
947.483 .0239406
948.112 .0239346
948.741 .0239292
949.369 .0239245
949.996 .0239204
950.624 .0239169
951.251 .0239139
951.878 .0239115
952.504 .0239097
953.130 .0239086
953.755 .0239082
954.380 .0239084
955.005 .0239095
955.629 .0239114
956.253 .0239140
956.877 .0239175
957.500 .0239217
958.123 .0239265
958.746 .0239321
959.368 .0239384
959.990 .0239455
960.611 .0239533
961.232 .0239618
961.853 .0239711
962.473 .0239813
963.093 .0239921
963.712 .0240035
964.331 .0240156
964.950 .0240282
965.569 .0240412
966.187 .0240545
966.804 .0240682
967.422 .0240821
968.039 .0240963
968.655 .0241107
969.272 .0241251
969.887 .0241396
970.503 .0241540
971.118 .0241682
971.733 .0241821
972.347 .0241957
972.961 .0242088
973.575 .0242215
974.188 .0242337
974.801 .0242455
975.414 .0242569
976.026 .0242680
976.638 .0242786
977.250 .0242889
977.861 .0242987
978.472 .0243080
979.083 .0243168
979.693 .0243250
980.303 .0243327
980.912 .0243424
981.521 .0243490
982.130 .0243553
982.738 .0243612
983.346 .0243669
983.954 .0243724
984.562 .0243779
985.169 .0243834
985.775 .0243891
986.382 .0243950
986.988 .0244012
987.594 .0244079
988.199 .0244152
988.804 .0244230
989.409 .0244288
990.013 .0244377
990.617 .0244474
991.221 .0244577
991.824 .0244688
992.427 .0244804
993.030 .0244926
993.632 .0245051
994.234 .0245180
994.836 .0245312
995.438 .0245444
996.039 .0245576
996.640 .0245707
997.240 .0245837
997.840 .0245965
998.440 .0246091
999.040 .0246214
999.639 .0246334
1000.238 .0246450
1000.836 .0246561
1001.435 .0246668
1002.033 .0246770
1002.630 .0246866
1003.228 .0246956
1003.825 .0247039
1004.422 .0247116
1005.018 .0247185
1005.614 .0247247
1006.210 .0247302
1006.806 .0247349
1007.401 .0247389
1007.996 .0247422
1008.591 .0247448
1009.186 .0247466
1009.780 .0247478
1010.374 .0247483
1010.967 .0247482
1011.561 .0247475
1012.154 .0247465
1012.746 .0247453
1013.339 .0247439
1013.931 .0247426
1014.523 .0247414
1015.115 .0247403
1015.706 .0247396
1016.298 .0247391
1016.888 .0247388
1017.479 .0247388
1018.069 .0247391
1018.660 .0247396
1019.250 .0247403
1019.839 .0247414
1020.429 .0247427
1021.018 .0247444
1021.607 .0247462
1022.195 .0247482
1022.784 .0247503
1023.372 .0247522
1023.960 .0247540
1024.547 .0247555
1025.135 .0247566
1025.722 .0247574
1026.309 .0247578
1026.896 .0247579
1027.483 .0247576
1028.069 .0247568
1028.655 .0247557
1029.241 .0247541
1029.827 .0247518
1030.412 .0247489
1030.997 .0247453
1031.582 .0247410
1032.167 .0247359
1032.752 .0247300
1033.336 .0247235
1033.921 .0247163
1034.505 .0247084
1035.089 .0246998
1035.672 .0246904
1036.256 .0246802
1036.839 .0246691
1037.422 .0246571
1038.005 .0246441
1038.588 .0246301
1039.171 .0246153
1039.753 .0245997
1040.335 .0245834
1040.918 .0245666
1041.500 .0245493
1042.081 .0245315
1042.663 .0245134
1043.244 .0244949
1043.826 .0244760
1044.407 .0244570
1044.988 .0244378
1045.569 .0244186
1046.150 .0243995
1046.730 .0243806
1047.311 .0243620
1047.891 .0243438
1048.471 .0243259
1049.052 .0243082
1049.632 .0242908
1050.211 .0242737
1050.791 .0242567
1051.371 .0242399
1051.950 .0242234
1052.530 .0242072
1053.109 .0241913
1053.688 .0241758
1054.268 .0241605
1054.847 .0241457
1055.426 .0241311
1056.005 .0241169
1056.583 .0241029
1057.162 .0240892
1057.741 .0240759
1058.319 .0240628
1058.898 .0240500
1059.476 .0240375
1060.055 .0240253
1060.633 .0240131
1061.211 .0240010
1061.790 .0239887
1062.368 .0239763
1062.946 .0239635
1063.524 .0239504
1064.102 .0239369
1064.680 .0239231
1065.258 .0239089
1065.836 .0238945
1066.414 .0238798
1066.992 .0238648
1067.570 .0238496
1068.148 .0238341
1068.726 .0238183
1069.304 .0238023
1069.882 .0237861
1070.460 .0237698
1071.038 .0237535
1071.616 .0237374
1072.194 .0237215
1072.772 .0237059
1073.350 .0236907
1073.928 .0236757
1074.506 .0236610
1075.084 .0236464
1075.662 .0236321
1076.240 .0236179
1076.819 .0236040
1077.397 .0235904
1077.976 .0235773
1078.554 .0235648
1079.133 .0235530
1079.711 .0235421
1080.290 .0235320
1080.869 .0235228
1081.448 .0235144
1082.027 .0235068
1082.606 .0235000
1083.185 .0234940
1083.764 .0234888
1084.343 .0234846
1084.923 .0234814
1085.502 .0234794
1086.082 .0234786
1086.662 .0234790
1087.242 .0234808
1087.822 .0234838
1088.402 .0234879
1088.983 .0234931
1089.563 .0234993
1090.144 .0235064
1090.725 .0235146
1091.306 .0235239
1091.887 .0235344
1092.469 .0235462
1093.050 .0235594
1093.632 .0235739
1094.214 .0235897
1094.796 .0236067
1095.379 .0236248
1095.961 .0236438
1096.544 .0236635
1097.127 .0236838
1097.710 .0237046
1098.294 .0237260
1098.877 .0237478
1099.461 .0237700
1100.046 .0237927
1100.630 .0238157
1101.215 .0238390
1101.800 .0238625
1102.385 .0238860
1102.970 .0239095
1103.556 .0239329
1104.142 .0239561
1104.728 .0239790
1105.315 .0240019
1105.902 .0240249
1106.489 .0240480
1107.077 .0240716
1107.664 .0240956
1108.253 .0241202
1108.841 .0241455
1109.430 .0241713
1110.019 .0241975
1110.609 .0242241
1111.198 .0242512
1111.789 .0242788
1112.379 .0243071
1112.970 .0243361
1113.561 .0243661
1114.153 .0243973
1114.745 .0244296
1115.338 .0244632
1115.931 .0244980
1116.524 .0245340
1117.117 .0245712
1117.712 .0246095
1118.306 .0246490
1118.901 .0246899
1119.496 .0247324
1120.092 .0247768
1120.689 .0248233
1121.285 .0248722
1121.882 .0249236
1122.480 .0249777
1123.078 .0250345
1123.677 .0250938
1124.276 .0251558
1124.875 .0252204
1125.476 .0252876
1126.076 .0253571
1126.677 .0254292
1127.279 .0255042
1127.881 .0255818
1128.484 .0256625
1129.087 .0256959
1129.691 .0257809
1130.295 .0258693
1130.900 .0259608
1131.505 .0260557
1132.111 .0261540
1132.718 .0262556
1133.325 .0263614
1133.933 .0264708
1134.541 .0265845
1135.150 .0267015
1135.760 .0268200
1136.370 .0269615
1136.981 .0270226
1137.592 .0271579
1138.204 .0272994
1138.817 .0274428
1139.431 .0275912
1140.045 .0277441
1140.660 .0278975
1141.275 .0280683
1141.891 .0282249
1142.508 .0283963
1143.126 .0285393
1143.744 .0286381
1144.363 .0293365
1144.983 .0287849
