Measurement Sequence started on: 15-12-46-377
Integration time: 28
Scans to Average: 2 
>>>>>Begin Spectral Data<<<<<
432.689 .0000100
433.621 .0000100
434.552 .0000100
435.482 .0000100
436.410 .0000100
437.337 .0000100
438.262 .0284945
439.187 .0603868
440.110 .1000636
441.031 .1447732
441.952 .1162381
442.871 .1214254
443.789 .1262545
444.705 .1307972
445.621 .1351057
446.535 .1392203
447.447 .1416710
448.359 .1423021
449.269 .1407234
450.178 .1366840
451.086 .1302646
451.993 .1219584
452.898 .1125852
453.803 .1030755
454.706 .0942205
455.608 .0865110
456.508 .0801119
457.408 .0757563
458.306 .0723874
459.204 .0696268
460.100 .0672845
460.995 .0652576
461.888 .0634778
462.781 .0618971
463.673 .0604792
464.563 .0591988
465.452 .0580359
466.340 .0569737
467.228 .0560009
468.114 .0551083
468.999 .0542887
469.882 .0535366
470.765 .0528468
471.647 .0522158
472.528 .0516411
473.407 .0511196
474.286 .0506492
475.163 .0502286
476.040 .0498554
476.915 .0495268
477.790 .0492394
478.663 .0489901
479.535 .0487752
480.407 .0485914
481.277 .0484356
482.147 .0483049
483.015 .0481973
483.883 .0481115
484.749 .0480461
485.615 .0480010
486.479 .0479758
487.343 .0479708
488.206 .0479861
489.067 .0480223
489.928 .0480794
490.788 .0481579
491.647 .0482584
492.505 .0483810
493.362 .0485259
494.218 .0486935
495.073 .0488832
495.928 .0492523
496.781 .0494987
497.634 .0497688
498.486 .0500639
499.337 .0503853
500.187 .0507343
501.036 .0511125
501.884 .0515217
502.731 .0519639
503.578 .0524420
504.424 .0527534
505.268 .0532971
506.113 .0538874
506.956 .0545297
507.798 .0552307
508.640 .0559988
509.480 .0568442
510.320 .0577786
511.160 .0588149
511.998 .0599681
512.836 .0612547
513.672 .0626929
514.508 .0643039
515.344 .0661109
516.178 .0681370
517.012 .0704078
517.845 .0729468
518.677 .0757770
519.508 .0789188
520.339 .0823803
521.169 .0861630
521.998 .0902396
522.826 .0945705
523.654 .0990971
524.481 .1037457
525.307 .1084349
526.133 .1130724
526.958 .1175660
527.782 .1218249
528.605 .1257654
529.428 .1293153
530.250 .1324084
531.072 .1350003
531.892 .1370483
532.712 .1385230
533.532 .1394076
534.350 .1396933
535.168 .1393821
535.986 .1384794
536.802 .1369905
537.618 .1349299
538.434 .1323153
539.249 .1291903
540.063 .1256080
540.876 .1216362
541.689 .1173554
542.501 .1128510
543.313 .1082141
544.124 .1035346
544.934 .0988987
545.744 .0943836
546.553 .0900524
547.361 .0859605
548.169 .0821385
548.976 .0786112
549.783 .0753879
550.589 .0724638
551.395 .0698227
552.200 .0674393
553.004 .0652849
553.808 .0633315
554.611 .0615555
555.414 .0599342
556.216 .0584482
557.018 .0570800
557.819 .0558155
558.619 .0546416
559.419 .0535471
560.218 .0525238
561.017 .0515633
561.815 .0506589
562.613 .0498044
563.410 .0489941
564.207 .0482226
565.003 .0474853
565.799 .0467787
566.594 .0460988
567.388 .0454437
568.182 .0448115
568.976 .0442005
569.769 .0436101
570.562 .0430404
571.354 .0424908
572.145 .0419620
572.936 .0414542
573.727 .0409671
574.517 .0405002
575.307 .0400534
576.096 .0396260
576.885 .0392183
577.673 .0388306
578.461 .0384630
579.248 .0381152
580.035 .0377876
580.821 .0374802
581.607 .0371927
582.392 .0369250
583.177 .0366765
583.962 .0364466
584.746 .0362345
585.529 .0360389
586.313 .0358588
587.095 .0356929
587.878 .0355403
588.660 .0353997
589.441 .0352700
590.222 .0351504
591.003 .0350400
591.783 .0349382
592.563 .0348443
593.342 .0347573
594.121 .0346763
594.899 .0346003
595.678 .0345287
596.455 .0344606
597.233 .0343955
598.009 .0343327
598.786 .0342720
599.562 .0342130
600.338 .0341553
601.113 .0340987
601.888 .0340172
602.663 .0339628
603.437 .0339091
604.211 .0338561
604.984 .0338039
605.757 .0337525
606.530 .0337019
607.302 .0336521
608.074 .0336032
608.845 .0335551
609.616 .0335078
610.387 .0334861
611.158 .0334401
611.928 .0333951
612.697 .0333510
613.467 .0333079
614.236 .0332657
615.004 .0332243
615.773 .0331836
616.541 .0331435
617.308 .0331040
618.076 .0330650
618.843 .0330264
619.609 .0329883
620.375 .0329506
621.141 .0329133
621.907 .0328762
622.672 .0328393
623.437 .0328023
624.202 .0327651
624.966 .0327276
625.730 .0326897
626.493 .0326515
627.257 .0326130
628.020 .0325743
628.782 .0325356
629.545 .0324970
630.307 .0324585
631.068 .0324202
631.830 .0323821
632.591 .0323443
633.352 .0323069
634.112 .0322701
634.872 .0322339
635.632 .0321986
636.392 .0321644
637.151 .0321315
637.910 .0320998
638.668 .0320696
639.427 .0320409
640.185 .0320136
640.943 .0319880
641.700 .0319639
642.457 .0319414
643.214 .0319205
643.971 .0319011
644.727 .0318832
645.483 .0318666
646.239 .0318512
646.994 .0318367
647.750 .0318229
648.505 .0318097
649.259 .0317969
650.014 .0317845
650.768 .0317723
651.521 .0317602
652.275 .0317481
653.028 .0317360
653.781 .0317237
654.534 .0317109
655.286 .0316976
656.039 .0316836
656.791 .0316690
657.542 .0316535
658.294 .0316374
659.045 .0316205
659.796 .0316030
660.546 .0315849
661.297 .0315663
662.047 .0315470
662.796 .0315273
663.546 .0315069
664.295 .0314860
665.044 .0314646
665.793 .0314427
666.542 .0314203
667.290 .0313975
668.038 .0313741
668.786 .0313502
669.533 .0313258
670.281 .0313009
671.028 .0312754
671.774 .0312496
672.521 .0312235
673.267 .0311971
674.013 .0311705
674.759 .0311438
675.505 .0311170
676.250 .0310900
676.995 .0310629
677.740 .0310355
678.484 .0310080
679.229 .0309804
679.973 .0309526
680.717 .0309249
681.460 .0308973
682.204 .0308698
682.947 .0308424
683.690 .0308150
684.433 .0307876
685.175 .0307602
685.917 .0307328
686.659 .0307052
687.401 .0306775
688.142 .0306496
688.884 .0306216
689.625 .0305935
690.365 .0305652
691.106 .0305366
691.846 .0305078
692.586 .0304788
693.326 .0304495
694.066 .0304200
694.805 .0303904
695.545 .0303607
696.284 .0303309
697.022 .0303012
697.761 .0302715
698.499 .0302418
699.237 .0302122
699.975 .0301828
700.713 .0301536
701.450 .0301247
702.187 .0300963
702.924 .0300684
703.661 .0300410
704.397 .0300144
705.133 .0299885
705.869 .0299633
706.605 .0299387
707.341 .0299149
708.076 .0298917
708.811 .0298691
709.546 .0298470
710.281 .0298256
711.015 .0298046
711.749 .0297841
712.483 .0297640
713.217 .0297443
713.950 .0297248
714.684 .0297055
715.417 .0296864
716.150 .0296675
716.882 .0296486
717.615 .0296299
718.347 .0296113
719.079 .0295928
719.811 .0295744
720.542 .0295563
721.273 .0295382
722.005 .0295205
722.735 .0295030
723.466 .0294858
724.196 .0294692
724.927 .0294531
725.656 .0294377
726.386 .0294231
727.116 .0294094
727.845 .0293966
728.574 .0293847
729.303 .0293737
730.031 .0293635
730.760 .0293541
731.488 .0293456
732.216 .0293378
732.944 .0293308
733.671 .0293247
734.398 .0293194
735.125 .0293149
735.852 .0293111
736.579 .0293079
737.305 .0293053
738.031 .0293030
738.757 .0293010
739.483 .0292992
740.208 .0292976
740.933 .0292959
741.658 .0292942
742.383 .0292924
743.108 .0292904
743.832 .0292880
744.556 .0292854
745.280 .0292823
746.004 .0292788
746.727 .0292749
747.450 .0292706
748.173 .0292658
748.896 .0292605
749.618 .0292547
750.340 .0292483
751.062 .0292411
751.784 .0292333
752.506 .0292247
753.227 .0292154
753.948 .0292055
754.669 .0291951
755.389 .0291841
756.110 .0291727
756.830 .0291608
757.550 .0291485
758.269 .0291357
758.989 .0291223
759.708 .0291084
760.427 .0290938
761.146 .0290787
761.864 .0290629
762.582 .0290467
763.300 .0290299
764.018 .0290126
764.736 .0289950
765.453 .0289771
766.170 .0289588
766.887 .0289404
767.603 .0289219
768.320 .0289033
769.036 .0288846
769.751 .0288659
770.467 .0288472
771.182 .0288284
771.897 .0288096
772.612 .0287908
773.327 .0287720
774.041 .0287533
774.755 .0287349
775.469 .0287167
776.183 .0286988
776.896 .0286814
777.609 .0286644
778.322 .0286479
779.035 .0286317
779.747 .0286160
780.459 .0286005
781.171 .0285854
781.882 .0285705
782.594 .0285559
783.305 .0285415
784.016 .0285273
784.726 .0285133
785.436 .0284993
786.147 .0284783
786.856 .0284641
787.566 .0284496
788.275 .0284350
788.984 .0284201
789.693 .0284049
790.401 .0283894
791.110 .0283735
791.818 .0283572
792.525 .0283404
793.233 .0283231
793.940 .0283053
794.647 .0282950
795.353 .0282765
796.060 .0282576
796.766 .0282383
797.472 .0282187
798.177 .0281987
798.883 .0281784
799.588 .0281577
800.292 .0281366
800.997 .0281152
801.701 .0280935
802.405 .0280716
803.109 .0280495
803.812 .0280274
804.515 .0280053
805.218 .0279833
805.921 .0279613
806.623 .0279395
807.325 .0279177
808.027 .0278961
808.728 .0278747
809.429 .0278535
810.130 .0278326
810.831 .0278122
811.531 .0277923
812.231 .0277729
812.931 .0277541
813.630 .0277358
814.330 .0277181
815.029 .0277009
815.727 .0276844
816.426 .0276686
817.124 .0276535
817.821 .0276392
818.519 .0276258
819.216 .0276133
819.913 .0276018
820.609 .0275912
821.306 .0275817
822.002 .0275731
822.697 .0275656
823.393 .0275591
824.088 .0275537
824.783 .0275493
825.477 .0275460
826.171 .0275438
826.865 .0275424
827.559 .0275420
828.252 .0275425
828.945 .0275437
829.638 .0275456
830.330 .0275482
831.023 .0275515
831.714 .0275554
832.406 .0275599
833.097 .0275648
833.788 .0275703
834.479 .0275762
835.169 .0275824
835.859 .0275890
836.548 .0275958
837.238 .0276028
837.927 .0276100
838.615 .0276172
839.304 .0276244
839.992 .0276316
840.680 .0276386
841.367 .0276455
842.054 .0276523
842.741 .0276589
843.428 .0276653
844.114 .0276714
844.800 .0276773
845.485 .0276828
846.170 .0276879
846.855 .0276925
847.540 .0276965
848.224 .0276999
848.908 .0277027
849.592 .0277048
850.275 .0277064
850.958 .0277073
851.641 .0277077
852.323 .0277075
853.005 .0277066
853.687 .0277051
854.368 .0277029
855.049 .0277001
855.730 .0276966
856.410 .0276926
857.090 .0276879
857.769 .0276827
858.449 .0276770
859.128 .0276707
859.806 .0276640
860.485 .0276568
861.163 .0276491
861.840 .0276411
862.518 .0276328
863.195 .0276242
863.871 .0276154
864.548 .0276064
865.224 .0275971
865.899 .0275876
866.574 .0275778
867.249 .0275676
867.924 .0275572
868.598 .0275465
869.272 .0275356
869.946 .0275245
870.619 .0275134
871.292 .0275021
871.964 .0274908
872.636 .0274796
873.308 .0274683
873.979 .0274571
874.651 .0274459
875.321 .0274349
875.992 .0274240
876.662 .0274133
877.331 .0274028
878.001 .0273924
878.670 .0273821
879.338 .0273720
880.007 .0273619
880.675 .0273520
881.342 .0273422
882.009 .0273326
882.676 .0273233
883.343 .0273143
884.009 .0273057
884.675 .0272975
885.340 .0272896
886.005 .0272820
886.670 .0272746
887.334 .0272672
887.998 .0272600
888.662 .0272527
889.325 .0272455
889.988 .0272384
890.650 .0272314
891.312 .0272244
891.974 .0272173
892.636 .0272101
893.297 .0272026
893.957 .0271947
894.618 .0271863
895.278 .0271773
895.937 .0271676
896.596 .0271571
897.255 .0271458
897.914 .0271337
898.572 .0271206
899.230 .0271065
899.887 .0270913
900.544 .0270750
901.201 .0270574
901.857 .0270253
902.513 .0270045
903.168 .0269824
903.823 .0269591
904.478 .0269347
905.132 .0269091
905.786 .0268823
906.440 .0268545
907.093 .0268255
907.746 .0267956
908.399 .0267647
909.051 .0267330
909.703 .0267007
910.354 .0266834
911.005 .0266508
911.656 .0266179
912.306 .0265848
912.956 .0265517
913.605 .0265186
914.254 .0264856
914.903 .0264527
915.551 .0264202
916.199 .0263879
916.847 .0263559
917.494 .0263242
918.141 .0262929
918.788 .0262619
919.434 .0262311
920.079 .0262006
920.725 .0261703
921.370 .0261403
922.014 .0261104
922.658 .0260809
923.302 .0260515
923.946 .0260224
924.589 .0259935
925.231 .0259648
925.873 .0259363
926.515 .0259079
927.157 .0258796
927.798 .0258515
928.439 .0258234
929.079 .0257955
929.719 .0257678
930.359 .0257404
930.998 .0257133
931.637 .0256866
932.275 .0256604
932.913 .0256346
933.551 .0256094
934.188 .0255848
934.825 .0255609
935.462 .0255378
936.098 .0255155
936.733 .0254941
937.369 .0254737
938.004 .0254543
938.638 .0254359
939.273 .0254184
939.907 .0254020
940.540 .0253865
941.173 .0253719
941.806 .0253583
942.438 .0253456
943.070 .0253338
943.702 .0253230
944.333 .0253130
944.964 .0253038
945.594 .0252954
946.224 .0252877
946.854 .0252806
947.483 .0252741
948.112 .0252682
948.741 .0252628
949.369 .0252581
949.996 .0252539
950.624 .0252502
951.251 .0252470
951.878 .0252443
952.504 .0252419
953.130 .0252398
953.755 .0252380
954.380 .0252364
955.005 .0252351
955.629 .0252341
956.253 .0252332
956.877 .0252326
957.500 .0252322
958.123 .0252320
958.746 .0252320
959.368 .0252320
959.990 .0252322
960.611 .0252326
961.232 .0252331
961.853 .0252339
962.473 .0252351
963.093 .0252366
963.712 .0252386
964.331 .0252409
964.950 .0252436
965.569 .0252465
966.187 .0252497
966.804 .0252531
967.422 .0252566
968.039 .0252603
968.655 .0252642
969.272 .0252684
969.887 .0252727
970.503 .0252774
971.118 .0252823
971.733 .0252875
972.347 .0252929
972.961 .0252985
973.575 .0253042
974.188 .0253101
974.801 .0253161
975.414 .0253223
976.026 .0253286
976.638 .0253351
977.250 .0253417
977.861 .0253483
978.472 .0253550
979.083 .0253616
979.693 .0253682
980.303 .0253746
980.912 .0253835
981.521 .0253895
982.130 .0253955
982.738 .0254013
983.346 .0254071
983.954 .0254128
984.562 .0254185
985.169 .0254243
985.775 .0254302
986.382 .0254362
986.988 .0254424
987.594 .0254488
988.199 .0254554
988.804 .0254622
989.409 .0254664
990.013 .0254735
990.617 .0254807
991.221 .0254881
991.824 .0254958
992.427 .0255038
993.030 .0255120
993.632 .0255206
994.234 .0255294
994.836 .0255383
995.438 .0255473
996.039 .0255564
996.640 .0255655
997.240 .0255746
997.840 .0255839
998.440 .0255932
999.040 .0256028
999.639 .0256127
1000.238 .0256228
1000.836 .0256333
1001.435 .0256440
1002.033 .0256548
1002.630 .0256656
1003.228 .0256765
1003.825 .0256872
1004.422 .0256978
1005.018 .0257084
1005.614 .0257189
1006.210 .0257295
1006.806 .0257401
1007.401 .0257508
1007.996 .0257616
1008.591 .0257725
1009.186 .0257833
1009.780 .0257940
1010.374 .0258045
1010.967 .0258149
1011.561 .0258252
1012.154 .0258354
1012.746 .0258456
1013.339 .0258558
1013.931 .0258661
1014.523 .0258765
1015.115 .0258869
1015.706 .0258973
1016.298 .0259076
1016.888 .0259177
1017.479 .0259277
1018.069 .0259375
1018.660 .0259471
1019.250 .0259567
1019.839 .0259663
1020.429 .0259759
1021.018 .0259854
1021.607 .0259949
1022.195 .0260042
1022.784 .0260132
1023.372 .0260218
1023.960 .0260300
1024.547 .0260377
1025.135 .0260449
1025.722 .0260516
1026.309 .0260578
1026.896 .0260636
1027.483 .0260689
1028.069 .0260739
1028.655 .0260783
1029.241 .0260823
1029.827 .0260857
1030.412 .0260885
1030.997 .0260909
1031.582 .0260928
1032.167 .0260944
1032.752 .0260957
1033.336 .0260967
1033.921 .0260977
1034.505 .0260984
1035.089 .0260989
1035.672 .0260991
1036.256 .0260987
1036.839 .0260978
1037.422 .0260963
1038.005 .0260940
1038.588 .0260911
1039.171 .0260874
1039.753 .0260830
1040.335 .0260780
1040.918 .0260724
1041.500 .0260661
1042.081 .0260592
1042.663 .0260516
1043.244 .0260433
1043.826 .0260344
1044.407 .0260249
1044.988 .0260150
1045.569 .0260047
1046.150 .0259941
1046.730 .0259834
1047.311 .0259724
1047.891 .0259612
1048.471 .0259498
1049.052 .0259380
1049.632 .0259257
1050.211 .0259129
1050.791 .0258997
1051.371 .0258860
1051.950 .0258719
1052.530 .0258576
1053.109 .0258431
1053.688 .0258285
1054.268 .0258140
1054.847 .0257995
1055.426 .0257852
1056.005 .0257712
1056.583 .0257575
1057.162 .0257441
1057.741 .0257311
1058.319 .0257184
1058.898 .0257060
1059.476 .0256938
1060.055 .0256818
1060.633 .0256698
1061.211 .0256578
1061.790 .0256456
1062.368 .0256330
1062.946 .0256201
1063.524 .0256067
1064.102 .0255928
1064.680 .0255784
1065.258 .0255634
1065.836 .0255477
1066.414 .0255317
1066.992 .0255151
1067.570 .0254983
1068.148 .0254813
1068.726 .0254641
1069.304 .0254468
1069.882 .0254297
1070.460 .0254126
1071.038 .0253957
1071.616 .0253789
1072.194 .0253625
1072.772 .0253464
1073.350 .0253307
1073.928 .0253157
1074.506 .0253013
1075.084 .0252877
1075.662 .0252749
1076.240 .0252628
1076.819 .0252516
1077.397 .0252411
1077.976 .0252313
1078.554 .0252221
1079.133 .0252136
1079.711 .0252057
1080.290 .0251986
1080.869 .0251921
1081.448 .0251863
1082.027 .0251812
1082.606 .0251766
1083.185 .0251724
1083.764 .0251684
1084.343 .0251646
1084.923 .0251606
1085.502 .0251565
1086.082 .0251522
1086.662 .0251477
1087.242 .0251430
1087.822 .0251383
1088.402 .0251336
1088.983 .0251290
1089.563 .0251244
1090.144 .0251199
1090.725 .0251152
1091.306 .0251106
1091.887 .0251061
1092.469 .0251018
1093.050 .0250977
1093.632 .0250940
1094.214 .0250910
1094.796 .0250888
1095.379 .0250876
1095.961 .0250875
1096.544 .0250885
1097.127 .0250906
1097.710 .0250935
1098.294 .0250972
1098.877 .0251017
1099.461 .0251068
1100.046 .0251129
1100.630 .0251198
1101.215 .0251277
1101.800 .0251366
1102.385 .0251466
1102.970 .0251576
1103.556 .0251694
1104.142 .0251817
1104.728 .0251945
1105.315 .0252076
1105.902 .0252209
1106.489 .0252348
1107.077 .0252492
1107.664 .0252644
1108.253 .0252803
1108.841 .0252969
1109.430 .0253142
1110.019 .0253319
1110.609 .0253499
1111.198 .0253681
1111.789 .0253864
1112.379 .0254049
1112.970 .0254237
1113.561 .0254432
1114.153 .0254638
1114.745 .0254857
1115.338 .0255091
1115.931 .0255341
1116.524 .0255607
1117.117 .0255890
1117.712 .0256190
1118.306 .0256510
1118.901 .0256850
1119.496 .0257214
1120.092 .0257603
1120.689 .0258019
1121.285 .0258462
1121.882 .0258932
1122.480 .0259424
1123.078 .0259935
1123.677 .0260463
1124.276 .0261005
1124.875 .0261561
1125.476 .0262137
1126.076 .0262734
1126.677 .0263359
1127.279 .0264018
1127.881 .0264717
1128.484 .0265460
1129.087 .0265772
1129.691 .0266581
1130.295 .0267441
1130.900 .0268356
1131.505 .0269331
1132.111 .0270374
1132.718 .0271488
1133.325 .0272682
1133.933 .0273950
1134.541 .0275408
1135.150 .0276878
1135.760 .0278380
1136.370 .0279962
1136.981 .0278022
1137.592 .0279669
1138.204 .0281432
1138.817 .0283395
1139.431 .0285643
1140.045 .0288063
1140.660 .0290654
1141.275 .0293426
1141.891 .0296108
1142.508 .0301970
1143.126 .0302919
1143.744 .0304513
1144.363 .0307453
1144.983 .0304184
