Measurement Sequence started on: 15-12-46-377
Integration time: 28
Scans to Average: 2 
>>>>>Begin Spectral Data<<<<<
432.689 .0000100
433.621 .0000100
434.552 .0000100
435.482 .0000100
436.410 .0000100
437.337 .0000100
438.262 .0270893
439.187 .0573524
440.110 .0949196
441.031 .1372805
441.952 .1097888
442.871 .1146508
443.789 .1191801
444.705 .1234478
445.621 .1275012
446.535 .1313774
447.447 .1336771
448.359 .1342543
449.269 .1327424
450.178 .1289029
451.086 .1228124
451.993 .1149432
452.898 .1060740
453.803 .0970883
454.706 .0887349
455.608 .0814774
456.508 .0754694
457.408 .0714052
458.306 .0682759
459.204 .0657195
460.100 .0635581
460.995 .0616930
461.888 .0600567
462.781 .0586047
463.673 .0573028
464.563 .0561266
465.452 .0550570
466.340 .0540790
467.228 .0531811
468.114 .0523560
468.999 .0515986
469.882 .0509053
470.765 .0502736
471.647 .0497007
472.528 .0491841
473.407 .0487196
474.286 .0483039
475.163 .0479329
476.040 .0476020
476.915 .0473076
477.790 .0470465
478.663 .0468162
479.535 .0466146
480.407 .0464397
481.277 .0462904
482.147 .0461645
483.015 .0460596
483.883 .0459736
484.749 .0459041
485.615 .0458489
486.479 .0458065
487.343 .0457755
488.206 .0457559
489.067 .0457477
489.928 .0457516
490.788 .0457683
491.647 .0457987
492.505 .0458435
493.362 .0459030
494.218 .0459776
495.073 .0460681
495.928 .0462633
496.781 .0463980
497.634 .0465512
498.486 .0467239
499.337 .0469179
500.187 .0471341
501.036 .0473751
501.884 .0476437
502.731 .0479436
503.578 .0482793
504.424 .0485239
505.268 .0489301
506.113 .0493861
506.956 .0498972
507.798 .0504703
508.640 .0511131
509.480 .0518353
510.320 .0526478
511.160 .0535633
511.998 .0545957
512.836 .0557619
513.672 .0570776
514.508 .0585615
515.344 .0602312
516.178 .0621043
517.012 .0641982
517.845 .0665317
518.677 .0691224
519.508 .0719879
520.339 .0751364
521.169 .0785751
521.998 .0822874
522.826 .0862495
523.654 .0904143
524.481 .0947226
525.307 .0991052
526.133 .1034809
526.958 .1077626
527.782 .1118648
528.605 .1157038
529.428 .1192092
530.250 .1223115
531.072 .1249635
531.892 .1271196
532.712 .1287547
533.532 .1298514
534.350 .1304009
535.168 .1304033
535.986 .1298625
536.802 .1287807
537.618 .1271683
538.434 .1250316
539.249 .1224007
540.063 .1193116
540.876 .1158207
541.689 .1119938
542.501 .1079069
543.313 .1036442
544.124 .0992943
544.934 .0949415
545.744 .0906649
546.553 .0865273
547.361 .0825876
548.169 .0788815
548.976 .0754392
549.783 .0722702
550.589 .0693754
551.395 .0667456
552.200 .0643637
553.004 .0622066
553.808 .0602534
554.611 .0584829
555.414 .0568789
556.216 .0554232
557.018 .0540993
557.819 .0528916
558.619 .0517873
559.419 .0507725
560.218 .0498362
561.017 .0489661
561.815 .0481523
562.613 .0473859
563.410 .0466597
564.207 .0459667
565.003 .0453015
565.799 .0446601
566.594 .0440398
567.388 .0434394
568.182 .0428580
568.976 .0422938
569.769 .0417469
570.562 .0412170
571.354 .0407033
572.145 .0402051
572.936 .0397225
573.727 .0392553
574.517 .0388040
575.307 .0383693
576.096 .0379512
576.885 .0375507
577.673 .0371685
578.461 .0368051
579.248 .0364609
580.035 .0361362
580.821 .0358310
581.607 .0355451
582.392 .0352785
583.177 .0350305
583.962 .0348005
584.746 .0345878
585.529 .0343914
586.313 .0342100
587.095 .0340423
587.878 .0338873
588.660 .0337437
589.441 .0336108
590.222 .0334878
591.003 .0333739
591.783 .0332685
592.563 .0331708
593.342 .0330798
594.121 .0329946
594.899 .0329145
595.678 .0328388
596.455 .0327667
597.233 .0326981
598.009 .0326324
598.786 .0325698
599.562 .0325100
600.338 .0324532
601.113 .0323995
601.888 .0323300
602.663 .0322834
603.437 .0322394
604.211 .0321978
604.984 .0321583
605.757 .0321208
606.530 .0320850
607.302 .0320507
608.074 .0320178
608.845 .0319864
609.616 .0319563
610.387 .0319440
611.158 .0319163
611.928 .0318903
612.697 .0318659
613.467 .0318430
614.236 .0318215
615.004 .0318011
615.773 .0317818
616.541 .0317633
617.308 .0317455
618.076 .0317282
618.843 .0317114
619.609 .0316951
620.375 .0316791
621.141 .0316636
621.907 .0316484
622.672 .0316334
623.437 .0316185
624.202 .0316034
624.966 .0315880
625.730 .0315721
626.493 .0315555
627.257 .0315380
628.020 .0315196
628.782 .0315002
629.545 .0314797
630.307 .0314582
631.068 .0314357
631.830 .0314124
632.591 .0313883
633.352 .0313635
634.112 .0313380
634.872 .0313120
635.632 .0312856
636.392 .0312587
637.151 .0312314
637.910 .0312038
638.668 .0311760
639.427 .0311481
640.185 .0311201
640.943 .0310923
641.700 .0310648
642.457 .0310376
643.214 .0310110
643.971 .0309848
644.727 .0309591
645.483 .0309338
646.239 .0309088
646.994 .0308841
647.750 .0308595
648.505 .0308349
649.259 .0308102
650.014 .0307854
650.768 .0307604
651.521 .0307351
652.275 .0307096
653.028 .0306839
653.781 .0306578
654.534 .0306314
655.286 .0306046
656.039 .0305775
656.791 .0305502
657.542 .0305228
658.294 .0304953
659.045 .0304678
659.796 .0304405
660.546 .0304134
661.297 .0303867
662.047 .0303603
662.796 .0303344
663.546 .0303090
664.295 .0302842
665.044 .0302600
665.793 .0302365
666.542 .0302138
667.290 .0301920
668.038 .0301710
668.786 .0301508
669.533 .0301315
670.281 .0301130
671.028 .0300952
671.774 .0300783
672.521 .0300622
673.267 .0300469
674.013 .0300324
674.759 .0300186
675.505 .0300055
676.250 .0299930
676.995 .0299810
677.740 .0299695
678.484 .0299583
679.229 .0299475
679.973 .0299369
680.717 .0299266
681.460 .0299165
682.204 .0299065
682.947 .0298965
683.690 .0298864
684.433 .0298761
685.175 .0298655
685.917 .0298546
686.659 .0298433
687.401 .0298317
688.142 .0298198
688.884 .0298075
689.625 .0297947
690.365 .0297816
691.106 .0297680
691.846 .0297540
692.586 .0297394
693.326 .0297244
694.066 .0297089
694.805 .0296929
695.545 .0296765
696.284 .0296596
697.022 .0296423
697.761 .0296246
698.499 .0296065
699.237 .0295881
699.975 .0295695
700.713 .0295507
701.450 .0295318
702.187 .0295129
702.924 .0294940
703.661 .0294750
704.397 .0294559
705.133 .0294366
705.869 .0294171
706.605 .0293973
707.341 .0293772
708.076 .0293567
708.811 .0293359
709.546 .0293147
710.281 .0292932
711.015 .0292714
711.749 .0292491
712.483 .0292263
713.217 .0292029
713.950 .0291790
714.684 .0291546
715.417 .0291296
716.150 .0291041
716.882 .0290782
717.615 .0290519
718.347 .0290254
719.079 .0289986
719.811 .0289717
720.542 .0289448
721.273 .0289179
722.005 .0288912
722.735 .0288647
723.466 .0288385
724.196 .0288128
724.927 .0287876
725.656 .0287629
726.386 .0287388
727.116 .0287153
727.845 .0286924
728.574 .0286701
729.303 .0286486
730.031 .0286277
730.760 .0286076
731.488 .0285883
732.216 .0285698
732.944 .0285520
733.671 .0285349
734.398 .0285184
735.125 .0285024
735.852 .0284869
736.579 .0284718
737.305 .0284571
738.031 .0284428
738.757 .0284288
739.483 .0284152
740.208 .0284020
740.933 .0283891
741.658 .0283766
742.383 .0283644
743.108 .0283525
743.832 .0283409
744.556 .0283297
745.280 .0283188
746.004 .0283084
746.727 .0282984
747.450 .0282889
748.173 .0282799
748.896 .0282713
749.618 .0282632
750.340 .0282554
751.062 .0282480
751.784 .0282410
752.506 .0282342
753.227 .0282277
753.948 .0282214
754.669 .0282154
755.389 .0282095
756.110 .0282038
756.830 .0281981
757.550 .0281924
758.269 .0281867
758.989 .0281810
759.708 .0281753
760.427 .0281697
761.146 .0281639
761.864 .0281581
762.582 .0281523
763.300 .0281463
764.018 .0281402
764.736 .0281339
765.453 .0281274
766.170 .0281207
766.887 .0281139
767.603 .0281070
768.320 .0281000
769.036 .0280930
769.751 .0280859
770.467 .0280788
771.182 .0280716
771.897 .0280645
772.612 .0280573
773.327 .0280501
774.041 .0280429
774.755 .0280358
775.469 .0280286
776.183 .0280215
776.896 .0280145
777.609 .0280073
778.322 .0280001
779.035 .0279927
779.747 .0279850
780.459 .0279771
781.171 .0279690
781.882 .0279605
782.594 .0279518
783.305 .0279428
784.016 .0279335
784.726 .0279239
785.436 .0279140
786.147 .0278977
786.856 .0278869
787.566 .0278758
788.275 .0278643
788.984 .0278525
789.693 .0278403
790.401 .0278278
791.110 .0278149
791.818 .0278015
792.525 .0277877
793.233 .0277734
793.940 .0277585
794.647 .0277499
795.353 .0277342
796.060 .0277178
796.766 .0277009
797.472 .0276835
798.177 .0276654
798.883 .0276468
799.588 .0276277
800.292 .0276081
800.997 .0275881
801.701 .0275676
802.405 .0275467
803.109 .0275255
803.812 .0275039
804.515 .0274819
805.218 .0274595
805.921 .0274366
806.623 .0274133
807.325 .0273895
808.027 .0273652
808.728 .0273406
809.429 .0273156
810.130 .0272904
810.831 .0272651
811.531 .0272397
812.231 .0272142
812.931 .0271888
813.630 .0271635
814.330 .0271385
815.029 .0271137
815.727 .0270894
816.426 .0270657
817.124 .0270426
817.821 .0270201
818.519 .0269985
819.216 .0269775
819.913 .0269574
820.609 .0269381
821.306 .0269196
822.002 .0269019
822.697 .0268852
823.393 .0268695
824.088 .0268547
824.783 .0268411
825.477 .0268285
826.171 .0268168
826.865 .0268062
827.559 .0267964
828.252 .0267876
828.945 .0267796
829.638 .0267725
830.330 .0267663
831.023 .0267610
831.714 .0267564
832.406 .0267525
833.097 .0267492
833.788 .0267463
834.479 .0267437
835.169 .0267414
835.859 .0267393
836.548 .0267374
837.238 .0267358
837.927 .0267344
838.615 .0267332
839.304 .0267321
839.992 .0267312
840.680 .0267303
841.367 .0267294
842.054 .0267285
842.741 .0267277
843.428 .0267270
844.114 .0267263
844.800 .0267258
845.485 .0267255
846.170 .0267252
846.855 .0267251
847.540 .0267249
848.224 .0267247
848.908 .0267244
849.592 .0267239
850.275 .0267233
850.958 .0267225
851.641 .0267215
852.323 .0267204
853.005 .0267190
853.687 .0267175
854.368 .0267157
855.049 .0267136
855.730 .0267113
856.410 .0267088
857.090 .0267061
857.769 .0267032
858.449 .0267002
859.128 .0266971
859.806 .0266939
860.485 .0266906
861.163 .0266871
861.840 .0266836
862.518 .0266801
863.195 .0266764
863.871 .0266728
864.548 .0266691
865.224 .0266655
865.899 .0266619
866.574 .0266584
867.249 .0266550
867.924 .0266518
868.598 .0266488
869.272 .0266458
869.946 .0266431
870.619 .0266405
871.292 .0266380
871.964 .0266356
872.636 .0266333
873.308 .0266311
873.979 .0266289
874.651 .0266266
875.321 .0266244
875.992 .0266220
876.662 .0266196
877.331 .0266170
878.001 .0266142
878.670 .0266111
879.338 .0266078
880.007 .0266041
880.675 .0266001
881.342 .0265958
882.009 .0265912
882.676 .0265862
883.343 .0265809
884.009 .0265752
884.675 .0265692
885.340 .0265629
886.005 .0265563
886.670 .0265493
887.334 .0265421
887.998 .0265346
888.662 .0265268
889.325 .0265188
889.988 .0265104
890.650 .0265018
891.312 .0264929
891.974 .0264837
892.636 .0264740
893.297 .0264640
893.957 .0264536
894.618 .0264427
895.278 .0264314
895.937 .0264196
896.596 .0264072
897.255 .0263942
897.914 .0263806
898.572 .0263663
899.230 .0263512
899.887 .0263354
900.544 .0263188
901.201 .0263013
901.857 .0262710
902.513 .0262512
903.168 .0262305
903.823 .0262088
904.478 .0261861
905.132 .0261624
905.786 .0261378
906.440 .0261124
907.093 .0260861
907.746 .0260592
908.399 .0260316
909.051 .0260035
909.703 .0259748
910.354 .0259595
911.005 .0259305
911.656 .0259011
912.306 .0258714
912.956 .0258415
913.605 .0258113
914.254 .0257811
914.903 .0257507
915.551 .0257205
916.199 .0256904
916.847 .0256605
917.494 .0256307
918.141 .0256012
918.788 .0255720
919.434 .0255429
920.079 .0255140
920.725 .0254854
921.370 .0254569
922.014 .0254286
922.658 .0254006
923.302 .0253728
923.946 .0253452
924.589 .0253178
925.231 .0252907
925.873 .0252637
926.515 .0252369
927.157 .0252103
927.798 .0251839
928.439 .0251578
929.079 .0251318
929.719 .0251062
930.359 .0250809
930.998 .0250560
931.637 .0250315
932.275 .0250074
932.913 .0249837
933.551 .0249605
934.188 .0249377
934.825 .0249154
935.462 .0248936
936.098 .0248725
936.733 .0248521
937.369 .0248325
938.004 .0248138
938.638 .0247960
939.273 .0247793
939.907 .0247635
940.540 .0247488
941.173 .0247352
941.806 .0247226
942.438 .0247110
943.070 .0247005
943.702 .0246910
944.333 .0246825
944.964 .0246750
945.594 .0246684
946.224 .0246628
946.854 .0246581
947.483 .0246541
948.112 .0246509
948.741 .0246483
949.369 .0246463
949.996 .0246448
950.624 .0246439
951.251 .0246434
951.878 .0246432
952.504 .0246435
953.130 .0246440
953.755 .0246448
954.380 .0246458
955.005 .0246470
955.629 .0246484
956.253 .0246500
956.877 .0246517
957.500 .0246536
958.123 .0246556
958.746 .0246576
959.368 .0246597
959.990 .0246619
960.611 .0246640
961.232 .0246662
961.853 .0246685
962.473 .0246707
963.093 .0246730
963.712 .0246755
964.331 .0246780
964.950 .0246806
965.569 .0246834
966.187 .0246863
966.804 .0246893
967.422 .0246925
968.039 .0246959
968.655 .0246995
969.272 .0247032
969.887 .0247071
970.503 .0247112
971.118 .0247155
971.733 .0247199
972.347 .0247245
972.961 .0247291
973.575 .0247339
974.188 .0247387
974.801 .0247437
975.414 .0247487
976.026 .0247539
976.638 .0247592
977.250 .0247646
977.861 .0247701
978.472 .0247756
979.083 .0247811
979.693 .0247865
980.303 .0247920
980.912 .0248002
981.521 .0248055
982.130 .0248109
982.738 .0248163
983.346 .0248217
983.954 .0248272
984.562 .0248327
985.169 .0248384
985.775 .0248441
986.382 .0248499
986.988 .0248559
987.594 .0248619
988.199 .0248680
988.804 .0248742
989.409 .0248774
990.013 .0248838
990.617 .0248903
991.221 .0248968
991.824 .0249033
992.427 .0249099
993.030 .0249165
993.632 .0249231
994.234 .0249297
994.836 .0249363
995.438 .0249428
996.039 .0249494
996.640 .0249559
997.240 .0249625
997.840 .0249691
998.440 .0249757
999.040 .0249822
999.639 .0249887
1000.238 .0249950
1000.836 .0250012
1001.435 .0250072
1002.033 .0250130
1002.630 .0250186
1003.228 .0250240
1003.825 .0250292
1004.422 .0250342
1005.018 .0250390
1005.614 .0250435
1006.210 .0250478
1006.806 .0250517
1007.401 .0250553
1007.996 .0250584
1008.591 .0250612
1009.186 .0250637
1009.780 .0250658
1010.374 .0250676
1010.967 .0250693
1011.561 .0250709
1012.154 .0250723
1012.746 .0250735
1013.339 .0250747
1013.931 .0250756
1014.523 .0250763
1015.115 .0250768
1015.706 .0250770
1016.298 .0250771
1016.888 .0250770
1017.479 .0250768
1018.069 .0250765
1018.660 .0250762
1019.250 .0250759
1019.839 .0250755
1020.429 .0250751
1021.018 .0250744
1021.607 .0250735
1022.195 .0250723
1022.784 .0250708
1023.372 .0250690
1023.960 .0250669
1024.547 .0250646
1025.135 .0250619
1025.722 .0250590
1026.309 .0250558
1026.896 .0250523
1027.483 .0250485
1028.069 .0250442
1028.655 .0250395
1029.241 .0250343
1029.827 .0250286
1030.412 .0250223
1030.997 .0250155
1031.582 .0250083
1032.167 .0250006
1032.752 .0249927
1033.336 .0249844
1033.921 .0249758
1034.505 .0249670
1035.089 .0249579
1035.672 .0249485
1036.256 .0249389
1036.839 .0249290
1037.422 .0249188
1038.005 .0249082
1038.588 .0248974
1039.171 .0248864
1039.753 .0248751
1040.335 .0248638
1040.918 .0248523
1041.500 .0248407
1042.081 .0248291
1042.663 .0248174
1043.244 .0248056
1043.826 .0247938
1044.407 .0247818
1044.988 .0247697
1045.569 .0247576
1046.150 .0247454
1046.730 .0247331
1047.311 .0247208
1047.891 .0247086
1048.471 .0246962
1049.052 .0246837
1049.632 .0246711
1050.211 .0246583
1050.791 .0246452
1051.371 .0246318
1051.950 .0246181
1052.530 .0246040
1053.109 .0245897
1053.688 .0245749
1054.268 .0245599
1054.847 .0245446
1055.426 .0245290
1056.005 .0245132
1056.583 .0244973
1057.162 .0244813
1057.741 .0244653
1058.319 .0244494
1058.898 .0244338
1059.476 .0244184
1060.055 .0244033
1060.633 .0243884
1061.211 .0243738
1061.790 .0243594
1062.368 .0243452
1062.946 .0243313
1063.524 .0243177
1064.102 .0243042
1064.680 .0242910
1065.258 .0242780
1065.836 .0242651
1066.414 .0242525
1066.992 .0242399
1067.570 .0242273
1068.148 .0242147
1068.726 .0242020
1069.304 .0241893
1069.882 .0241768
1070.460 .0241644
1071.038 .0241523
1071.616 .0241407
1072.194 .0241294
1072.772 .0241188
1073.350 .0241088
1073.928 .0240995
1074.506 .0240908
1075.084 .0240827
1075.662 .0240753
1076.240 .0240685
1076.819 .0240624
1077.397 .0240572
1077.976 .0240528
1078.554 .0240493
1079.133 .0240468
1079.711 .0240453
1080.290 .0240448
1080.869 .0240452
1081.448 .0240465
1082.027 .0240486
1082.606 .0240513
1083.185 .0240546
1083.764 .0240585
1084.343 .0240630
1084.923 .0240682
1085.502 .0240742
1086.082 .0240810
1086.662 .0240886
1087.242 .0240971
1087.822 .0241064
1088.402 .0241165
1088.983 .0241273
1089.563 .0241387
1090.144 .0241504
1090.725 .0241625
1091.306 .0241750
1091.887 .0241879
1092.469 .0242011
1093.050 .0242150
1093.632 .0242295
1094.214 .0242446
1094.796 .0242604
1095.379 .0242769
1095.961 .0242939
1096.544 .0243113
1097.127 .0243289
1097.710 .0243467
1098.294 .0243646
1098.877 .0243828
1099.461 .0244012
1100.046 .0244200
1100.630 .0244393
1101.215 .0244592
1101.800 .0244796
1102.385 .0245004
1102.970 .0245214
1103.556 .0245423
1104.142 .0245630
1104.728 .0245833
1105.315 .0246031
1105.902 .0246227
1106.489 .0246421
1107.077 .0246618
1107.664 .0246818
1108.253 .0247024
1108.841 .0247237
1109.430 .0247457
1110.019 .0247684
1110.609 .0247918
1111.198 .0248159
1111.789 .0248410
1112.379 .0248672
1112.970 .0248950
1113.561 .0249247
1114.153 .0249567
1114.745 .0249912
1115.338 .0250286
1115.931 .0250687
1116.524 .0251119
1117.117 .0251579
1117.712 .0252069
1118.306 .0252586
1118.901 .0253131
1119.496 .0253704
1120.092 .0254306
1120.689 .0254935
1121.285 .0255590
1121.882 .0256271
1122.480 .0256976
1123.078 .0257702
1123.677 .0258450
1124.276 .0259219
1124.875 .0260008
1125.476 .0260818
1126.076 .0261648
1126.677 .0262498
1127.279 .0263369
1127.881 .0264256
1128.484 .0265161
1129.087 .0265615
1129.691 .0266541
1130.295 .0267480
1130.900 .0268433
1131.505 .0269405
1132.111 .0270395
1132.718 .0271407
1133.325 .0272441
1133.933 .0273493
1134.541 .0274611
1135.150 .0275698
1135.760 .0276819
1136.370 .0277903
1136.981 .0278050
1137.592 .0279147
1138.204 .0280315
1138.817 .0281605
1139.431 .0283044
1140.045 .0284568
1140.660 .0286186
1141.275 .0287796
1141.891 .0289325
1142.508 .0292181
1143.126 .0292306
1143.744 .0294244
1144.363 .0294185
1144.983 .0293990
