Measurement Sequence started on: 15-12-46-377
Integration time: 28
Scans to Average: 2 
>>>>>Begin Spectral Data<<<<<
432.689 .0000100
433.621 .0000100
434.552 .0000100
435.482 .0000100
436.410 .0000100
437.337 .0000100
438.262 .0273741
439.187 .0577644
440.110 .0955030
441.031 .1380072
441.952 .1100847
442.871 .1149839
443.789 .1195579
444.705 .1238708
445.621 .1279678
446.535 .1318864
447.447 .1342117
448.359 .1348077
449.269 .1333055
450.178 .1294673
451.086 .1233787
451.993 .1155159
452.898 .1066619
453.803 .0977027
454.706 .0893861
455.608 .0821726
456.508 .0762103
457.408 .0721965
458.306 .0691058
459.204 .0665801
460.100 .0644432
460.995 .0625959
461.888 .0609762
462.781 .0595416
463.673 .0582557
464.563 .0570952
465.452 .0560391
466.340 .0550717
467.228 .0541826
468.114 .0533627
468.999 .0526066
469.882 .0519104
470.765 .0512706
471.647 .0506843
472.528 .0501482
473.407 .0496596
474.286 .0492144
475.163 .0488095
476.040 .0484418
476.915 .0481084
477.790 .0478069
478.663 .0475363
479.535 .0472949
480.407 .0470825
481.277 .0468977
482.147 .0467391
483.015 .0466054
483.883 .0464945
484.749 .0464045
485.615 .0463335
486.479 .0462798
487.343 .0462424
488.206 .0462202
489.067 .0462132
489.928 .0462218
490.788 .0462472
491.647 .0462906
492.505 .0463532
493.362 .0464362
494.218 .0465407
495.073 .0466671
495.928 .0469380
496.781 .0471226
497.634 .0473294
498.486 .0475580
499.337 .0478087
500.187 .0480821
501.036 .0483799
501.884 .0487042
502.731 .0490575
503.578 .0494424
504.424 .0496996
505.268 .0501400
506.113 .0506205
506.956 .0511448
507.798 .0517177
508.640 .0523448
509.480 .0530336
510.320 .0537938
511.160 .0546359
511.998 .0555733
512.836 .0566229
513.672 .0578026
514.508 .0591351
515.344 .0606436
516.178 .0623547
517.012 .0642981
517.845 .0665036
518.677 .0689979
519.508 .0718014
520.339 .0749276
521.169 .0783833
521.998 .0821496
522.826 .0861965
523.654 .0904722
524.481 .0949145
525.307 .0994492
526.133 .1039885
526.958 .1084369
527.782 .1127028
528.605 .1166981
529.428 .1203427
530.250 .1235635
531.072 .1263099
531.892 .1285382
532.712 .1302224
533.532 .1313444
534.350 .1318936
535.168 .1318676
535.986 .1312688
536.802 .1301003
537.618 .1283698
538.434 .1260885
539.249 .1232905
540.063 .1200212
540.876 .1163429
541.689 .1123254
542.501 .1080487
543.313 .1036038
544.124 .0990869
544.934 .0945881
545.744 .0901902
546.553 .0859661
547.361 .0819761
548.169 .0782575
548.976 .0748347
549.783 .0717135
550.589 .0688882
551.395 .0663417
552.200 .0640480
553.004 .0619793
553.808 .0601108
554.611 .0584203
555.414 .0568883
556.216 .0554971
557.018 .0542278
557.819 .0530654
558.619 .0519959
559.419 .0510070
560.218 .0500881
561.017 .0492290
561.815 .0484204
562.613 .0476563
563.410 .0469306
564.207 .0462386
565.003 .0455760
565.799 .0449397
566.594 .0443265
567.388 .0437341
568.182 .0431602
568.976 .0426027
569.769 .0420596
570.562 .0415306
571.354 .0410150
572.145 .0405127
572.936 .0400242
573.727 .0395499
574.517 .0390908
575.307 .0386483
576.096 .0382235
576.885 .0378171
577.673 .0374300
578.461 .0370628
579.248 .0367152
580.035 .0363869
580.821 .0360775
581.607 .0357866
582.392 .0355139
583.177 .0352593
583.962 .0350222
584.746 .0348025
585.529 .0345998
586.313 .0344132
587.095 .0342418
587.878 .0340844
588.660 .0339398
589.441 .0338069
590.222 .0336848
591.003 .0335727
591.783 .0334700
592.563 .0333757
593.342 .0332891
594.121 .0332092
594.899 .0331351
595.678 .0330659
596.455 .0330005
597.233 .0329383
598.009 .0328784
598.786 .0328204
599.562 .0327638
600.338 .0327086
601.113 .0326544
601.888 .0325754
602.663 .0325239
603.437 .0324734
604.211 .0324238
604.984 .0323750
605.757 .0323270
606.530 .0322799
607.302 .0322338
608.074 .0321887
608.845 .0321448
609.616 .0321024
610.387 .0320858
611.158 .0320461
611.928 .0320083
612.697 .0319724
613.467 .0319383
614.236 .0319062
615.004 .0318760
615.773 .0318475
616.541 .0318206
617.308 .0317951
618.076 .0317707
618.843 .0317474
619.609 .0317250
620.375 .0317032
621.141 .0316821
621.907 .0316614
622.672 .0316411
623.437 .0316211
624.202 .0316013
624.966 .0315814
625.730 .0315613
626.493 .0315408
627.257 .0315197
628.020 .0314978
628.782 .0314751
629.545 .0314515
630.307 .0314270
631.068 .0314017
631.830 .0313756
632.591 .0313489
633.352 .0313216
634.112 .0312939
634.872 .0312659
635.632 .0312377
636.392 .0312093
637.151 .0311808
637.910 .0311523
638.668 .0311238
639.427 .0310955
640.185 .0310673
640.943 .0310394
641.700 .0310120
642.457 .0309852
643.214 .0309593
643.971 .0309342
644.727 .0309102
645.483 .0308872
646.239 .0308651
646.994 .0308440
647.750 .0308235
648.505 .0308038
649.259 .0307846
650.014 .0307660
650.768 .0307479
651.521 .0307302
652.275 .0307129
653.028 .0306960
653.781 .0306793
654.534 .0306627
655.286 .0306462
656.039 .0306297
656.791 .0306130
657.542 .0305961
658.294 .0305788
659.045 .0305611
659.796 .0305430
660.546 .0305244
661.297 .0305054
662.047 .0304858
662.796 .0304659
663.546 .0304457
664.295 .0304252
665.044 .0304047
665.793 .0303841
666.542 .0303636
667.290 .0303432
668.038 .0303228
668.786 .0303026
669.533 .0302823
670.281 .0302621
671.028 .0302421
671.774 .0302220
672.521 .0302021
673.267 .0301824
674.013 .0301627
674.759 .0301431
675.505 .0301237
676.250 .0301043
676.995 .0300850
677.740 .0300657
678.484 .0300463
679.229 .0300267
679.973 .0300071
680.717 .0299874
681.460 .0299675
682.204 .0299475
682.947 .0299274
683.690 .0299073
684.433 .0298871
685.175 .0298669
685.917 .0298466
686.659 .0298264
687.401 .0298062
688.142 .0297859
688.884 .0297656
689.625 .0297454
690.365 .0297252
691.106 .0297050
691.846 .0296849
692.586 .0296650
693.326 .0296451
694.066 .0296253
694.805 .0296056
695.545 .0295860
696.284 .0295666
697.022 .0295472
697.761 .0295280
698.499 .0295090
699.237 .0294900
699.975 .0294711
700.713 .0294524
701.450 .0294337
702.187 .0294149
702.924 .0293962
703.661 .0293773
704.397 .0293583
705.133 .0293391
705.869 .0293197
706.605 .0293000
707.341 .0292801
708.076 .0292599
708.811 .0292393
709.546 .0292185
710.281 .0291974
711.015 .0291759
711.749 .0291541
712.483 .0291321
713.217 .0291097
713.950 .0290871
714.684 .0290643
715.417 .0290412
716.150 .0290180
716.882 .0289946
717.615 .0289712
718.347 .0289478
719.079 .0289245
719.811 .0289012
720.542 .0288781
721.273 .0288552
722.005 .0288326
722.735 .0288103
723.466 .0287884
724.196 .0287671
724.927 .0287463
725.656 .0287261
726.386 .0287066
727.116 .0286879
727.845 .0286700
728.574 .0286529
729.303 .0286366
730.031 .0286211
730.760 .0286065
731.488 .0285927
732.216 .0285795
732.944 .0285670
733.671 .0285551
734.398 .0285437
735.125 .0285328
735.852 .0285223
736.579 .0285122
737.305 .0285025
738.031 .0284930
738.757 .0284837
739.483 .0284746
740.208 .0284656
740.933 .0284567
741.658 .0284477
742.383 .0284386
743.108 .0284295
743.832 .0284204
744.556 .0284112
745.280 .0284020
746.004 .0283928
746.727 .0283837
747.450 .0283745
748.173 .0283652
748.896 .0283559
749.618 .0283465
750.340 .0283370
751.062 .0283274
751.784 .0283176
752.506 .0283077
753.227 .0282976
753.948 .0282875
754.669 .0282772
755.389 .0282668
756.110 .0282562
756.830 .0282456
757.550 .0282348
758.269 .0282239
758.989 .0282129
759.708 .0282018
760.427 .0281906
761.146 .0281792
761.864 .0281676
762.582 .0281559
763.300 .0281441
764.018 .0281322
764.736 .0281201
765.453 .0281081
766.170 .0280962
766.887 .0280844
767.603 .0280727
768.320 .0280614
769.036 .0280503
769.751 .0280397
770.467 .0280294
771.182 .0280197
771.897 .0280105
772.612 .0280019
773.327 .0279939
774.041 .0279865
774.755 .0279797
775.469 .0279735
776.183 .0279679
776.896 .0279628
777.609 .0279582
778.322 .0279541
779.035 .0279502
779.747 .0279466
780.459 .0279433
781.171 .0279400
781.882 .0279368
782.594 .0279336
783.305 .0279303
784.016 .0279268
784.726 .0279231
785.436 .0279190
786.147 .0279111
786.856 .0279058
787.566 .0279000
788.275 .0278935
788.984 .0278865
789.693 .0278790
790.401 .0278708
791.110 .0278620
791.818 .0278526
792.525 .0278426
793.233 .0278318
793.940 .0278205
794.647 .0278132
795.353 .0278011
796.060 .0277884
796.766 .0277753
797.472 .0277618
798.177 .0277478
798.883 .0277333
799.588 .0277184
800.292 .0277029
800.997 .0276869
801.701 .0276704
802.405 .0276533
803.109 .0276358
803.812 .0276179
804.515 .0275997
805.218 .0275810
805.921 .0275620
806.623 .0275426
807.325 .0275228
808.027 .0275025
808.728 .0274819
809.429 .0274609
810.130 .0274397
810.831 .0274182
811.531 .0273967
812.231 .0273751
812.931 .0273535
813.630 .0273319
814.330 .0273103
815.029 .0272888
815.727 .0272675
816.426 .0272466
817.124 .0272260
817.821 .0272060
818.519 .0271866
819.216 .0271678
819.913 .0271498
820.609 .0271324
821.306 .0271156
822.002 .0270996
822.697 .0270841
823.393 .0270694
824.088 .0270553
824.783 .0270420
825.477 .0270294
826.171 .0270174
826.865 .0270060
827.559 .0269951
828.252 .0269845
828.945 .0269742
829.638 .0269640
830.330 .0269540
831.023 .0269441
831.714 .0269343
832.406 .0269246
833.097 .0269150
833.788 .0269053
834.479 .0268957
835.169 .0268859
835.859 .0268760
836.548 .0268660
837.238 .0268558
837.927 .0268456
838.615 .0268352
839.304 .0268248
839.992 .0268142
840.680 .0268036
841.367 .0267928
842.054 .0267819
842.741 .0267709
843.428 .0267598
844.114 .0267485
844.800 .0267373
845.485 .0267260
846.170 .0267146
846.855 .0267032
847.540 .0266918
848.224 .0266803
848.908 .0266686
849.592 .0266568
850.275 .0266447
850.958 .0266324
851.641 .0266199
852.323 .0266071
853.005 .0265941
853.687 .0265809
854.368 .0265674
855.049 .0265538
855.730 .0265399
856.410 .0265257
857.090 .0265114
857.769 .0264969
858.449 .0264822
859.128 .0264676
859.806 .0264530
860.485 .0264385
861.163 .0264243
861.840 .0264104
862.518 .0263969
863.195 .0263838
863.871 .0263712
864.548 .0263591
865.224 .0263476
865.899 .0263367
866.574 .0263263
867.249 .0263165
867.924 .0263073
868.598 .0262986
869.272 .0262906
869.946 .0262832
870.619 .0262763
871.292 .0262700
871.964 .0262642
872.636 .0262590
873.308 .0262543
873.979 .0262501
874.651 .0262465
875.321 .0262434
875.992 .0262407
876.662 .0262385
877.331 .0262367
878.001 .0262352
878.670 .0262341
879.338 .0262334
880.007 .0262329
880.675 .0262329
881.342 .0262333
882.009 .0262340
882.676 .0262353
883.343 .0262370
884.009 .0262391
884.675 .0262416
885.340 .0262446
886.005 .0262480
886.670 .0262519
887.334 .0262563
887.998 .0262611
888.662 .0262665
889.325 .0262723
889.988 .0262787
890.650 .0262855
891.312 .0262927
891.974 .0263002
892.636 .0263079
893.297 .0263157
893.957 .0263235
894.618 .0263314
895.278 .0263390
895.937 .0263465
896.596 .0263535
897.255 .0263601
897.914 .0263661
898.572 .0263714
899.230 .0263758
899.887 .0263793
900.544 .0263818
901.201 .0263833
901.857 .0263807
902.513 .0263795
903.168 .0263773
903.823 .0263740
904.478 .0263697
905.132 .0263642
905.786 .0263577
906.440 .0263501
907.093 .0263414
907.746 .0263319
908.399 .0263215
909.051 .0263104
909.703 .0262986
910.354 .0262914
911.005 .0262792
911.656 .0262665
912.306 .0262536
912.956 .0262404
913.605 .0262270
914.254 .0262135
914.903 .0261998
915.551 .0261862
916.199 .0261725
916.847 .0261589
917.494 .0261454
918.141 .0261319
918.788 .0261184
919.434 .0261049
920.079 .0260914
920.725 .0260777
921.370 .0260640
922.014 .0260501
922.658 .0260361
923.302 .0260219
923.946 .0260074
924.589 .0259926
925.231 .0259775
925.873 .0259621
926.515 .0259462
927.157 .0259299
927.798 .0259131
928.439 .0258959
929.079 .0258783
929.719 .0258604
930.359 .0258420
930.998 .0258234
931.637 .0258046
932.275 .0257856
932.913 .0257666
933.551 .0257476
934.188 .0257287
934.825 .0257100
935.462 .0256917
936.098 .0256737
936.733 .0256563
937.369 .0256393
938.004 .0256228
938.638 .0256069
939.273 .0255915
939.907 .0255766
940.540 .0255623
941.173 .0255485
941.806 .0255352
942.438 .0255225
943.070 .0255103
943.702 .0254986
944.333 .0254872
944.964 .0254762
945.594 .0254654
946.224 .0254547
946.854 .0254440
947.483 .0254335
948.112 .0254228
948.741 .0254122
949.369 .0254014
949.996 .0253904
950.624 .0253792
951.251 .0253676
951.878 .0253555
952.504 .0253430
953.130 .0253298
953.755 .0253162
954.380 .0253020
955.005 .0252873
955.629 .0252721
956.253 .0252566
956.877 .0252408
957.500 .0252246
958.123 .0252082
958.746 .0251915
959.368 .0251746
959.990 .0251577
960.611 .0251407
961.232 .0251237
961.853 .0251070
962.473 .0250905
963.093 .0250742
963.712 .0250582
964.331 .0250424
964.950 .0250267
965.569 .0250112
966.187 .0249958
966.804 .0249804
967.422 .0249650
968.039 .0249497
968.655 .0249345
969.272 .0249192
969.887 .0249041
970.503 .0248888
971.118 .0248735
971.733 .0248581
972.347 .0248425
972.961 .0248267
973.575 .0248106
974.188 .0247944
974.801 .0247780
975.414 .0247614
976.026 .0247447
976.638 .0247279
977.250 .0247108
977.861 .0246935
978.472 .0246759
979.083 .0246579
979.693 .0246396
980.303 .0246209
980.912 .0245921
981.521 .0245730
982.130 .0245537
982.738 .0245344
983.346 .0245151
983.954 .0244959
984.562 .0244768
985.169 .0244578
985.775 .0244391
986.382 .0244206
986.988 .0244026
987.594 .0243850
988.199 .0243679
988.804 .0243515
989.409 .0243449
990.013 .0243295
990.617 .0243148
991.221 .0243009
991.824 .0242876
992.427 .0242750
993.030 .0242631
993.632 .0242517
994.234 .0242408
994.836 .0242305
995.438 .0242207
996.039 .0242114
996.640 .0242025
997.240 .0241942
997.840 .0241864
998.440 .0241791
999.040 .0241723
999.639 .0241661
1000.238 .0241603
1000.836 .0241551
1001.435 .0241504
1002.033 .0241461
1002.630 .0241423
1003.228 .0241390
1003.825 .0241360
1004.422 .0241335
1005.018 .0241312
1005.614 .0241291
1006.210 .0241273
1006.806 .0241254
1007.401 .0241236
1007.996 .0241218
1008.591 .0241199
1009.186 .0241179
1009.780 .0241158
1010.374 .0241137
1010.967 .0241116
1011.561 .0241096
1012.154 .0241077
1012.746 .0241060
1013.339 .0241044
1013.931 .0241031
1014.523 .0241020
1015.115 .0241013
1015.706 .0241008
1016.298 .0241007
1016.888 .0241010
1017.479 .0241016
1018.069 .0241028
1018.660 .0241043
1019.250 .0241064
1019.839 .0241089
1020.429 .0241119
1021.018 .0241153
1021.607 .0241192
1022.195 .0241236
1022.784 .0241285
1023.372 .0241341
1023.960 .0241405
1024.547 .0241476
1025.135 .0241555
1025.722 .0241643
1026.309 .0241738
1026.896 .0241841
1027.483 .0241950
1028.069 .0242065
1028.655 .0242186
1029.241 .0242311
1029.827 .0242441
1030.412 .0242574
1030.997 .0242712
1031.582 .0242852
1032.167 .0242994
1032.752 .0243138
1033.336 .0243282
1033.921 .0243425
1034.505 .0243568
1035.089 .0243708
1035.672 .0243848
1036.256 .0243987
1036.839 .0244125
1037.422 .0244262
1038.005 .0244399
1038.588 .0244535
1039.171 .0244669
1039.753 .0244801
1040.335 .0244929
1040.918 .0245054
1041.500 .0245174
1042.081 .0245290
1042.663 .0245403
1043.244 .0245512
1043.826 .0245620
1044.407 .0245725
1044.988 .0245829
1045.569 .0245929
1046.150 .0246028
1046.730 .0246122
1047.311 .0246214
1047.891 .0246302
1048.471 .0246389
1049.052 .0246474
1049.632 .0246560
1050.211 .0246647
1050.791 .0246737
1051.371 .0246830
1051.950 .0246925
1052.530 .0247021
1053.109 .0247118
1053.688 .0247213
1054.268 .0247305
1054.847 .0247395
1055.426 .0247482
1056.005 .0247567
1056.583 .0247650
1057.162 .0247733
1057.741 .0247815
1058.319 .0247897
1058.898 .0247977
1059.476 .0248057
1060.055 .0248135
1060.633 .0248211
1061.211 .0248285
1061.790 .0248359
1062.368 .0248434
1062.946 .0248511
1063.524 .0248592
1064.102 .0248677
1064.680 .0248768
1065.258 .0248864
1065.836 .0248966
1066.414 .0249072
1066.992 .0249183
1067.570 .0249296
1068.148 .0249411
1068.726 .0249528
1069.304 .0249647
1069.882 .0249766
1070.460 .0249886
1071.038 .0250007
1071.616 .0250130
1072.194 .0250253
1072.772 .0250377
1073.350 .0250501
1073.928 .0250626
1074.506 .0250751
1075.084 .0250876
1075.662 .0251001
1076.240 .0251124
1076.819 .0251248
1077.397 .0251372
1077.976 .0251497
1078.554 .0251624
1079.133 .0251752
1079.711 .0251883
1080.290 .0252015
1080.869 .0252148
1081.448 .0252281
1082.027 .0252413
1082.606 .0252543
1083.185 .0252670
1083.764 .0252795
1084.343 .0252918
1084.923 .0253042
1085.502 .0253166
1086.082 .0253294
1086.662 .0253425
1087.242 .0253561
1087.822 .0253702
1088.402 .0253849
1088.983 .0254003
1089.563 .0254164
1090.144 .0254331
1090.725 .0254508
1091.306 .0254694
1091.887 .0254889
1092.469 .0255094
1093.050 .0255307
1093.632 .0255528
1094.214 .0255756
1094.796 .0255989
1095.379 .0256225
1095.961 .0256464
1096.544 .0256705
1097.127 .0256946
1097.710 .0257189
1098.294 .0257434
1098.877 .0257682
1099.461 .0257932
1100.046 .0258184
1100.630 .0258439
1101.215 .0258696
1101.800 .0258955
1102.385 .0259218
1102.970 .0259484
1103.556 .0259756
1104.142 .0260033
1104.728 .0260315
1105.315 .0260602
1105.902 .0260894
1106.489 .0261192
1107.077 .0261495
1107.664 .0261801
1108.253 .0262111
1108.841 .0262426
1109.430 .0262745
1110.019 .0263070
1110.609 .0263400
1111.198 .0263734
1111.789 .0264072
1112.379 .0264413
1112.970 .0264756
1113.561 .0265100
1114.153 .0265446
1114.745 .0265795
1115.338 .0266147
1115.931 .0266503
1116.524 .0266866
1117.117 .0267235
1117.712 .0267615
1118.306 .0268004
1118.901 .0268404
1119.496 .0268816
1120.092 .0269241
1120.689 .0269679
1121.285 .0270130
1121.882 .0270595
1122.480 .0271075
1123.078 .0271568
1123.677 .0272076
1124.276 .0272599
1124.875 .0273139
1125.476 .0273695
1126.076 .0274269
1126.677 .0274860
1127.279 .0275468
1127.881 .0276091
1128.484 .0276729
1129.087 .0276988
1129.691 .0277653
1130.295 .0278335
1130.900 .0279034
1131.505 .0279749
1132.111 .0280480
1132.718 .0281226
1133.325 .0281988
1133.933 .0282768
1134.541 .0283562
1135.150 .0284338
1135.760 .0285161
1136.370 .0285963
1136.981 .0287660
1137.592 .0288422
1138.204 .0289182
1138.817 .0289919
1139.431 .0290651
1140.045 .0291384
1140.660 .0292166
1141.275 .0292938
1141.891 .0293884
1142.508 .0294698
1143.126 .0294705
1143.744 .0296562
1144.363 .0296591
1144.983 .0301582
