Measurement Sequence started on: 15-12-46-377
Integration time: 28
Scans to Average: 2 
>>>>>Begin Spectral Data<<<<<
432.689 .0000100
433.621 .0000100
434.552 .0000100
435.482 .0000100
436.410 .0000100
437.337 .0000100
438.262 .0276910
439.187 .0586244
440.110 .0970718
441.031 .1404679
441.952 .1126579
442.871 .1176494
443.789 .1222910
444.705 .1266547
445.621 .1307907
446.535 .1347385
447.447 .1370683
448.359 .1376302
449.269 .1360465
450.178 .1320691
451.086 .1257772
451.993 .1176528
452.898 .1084933
453.803 .0992040
454.706 .0905558
455.608 .0830288
456.508 .0767854
457.408 .0725395
458.306 .0692633
459.204 .0665893
460.100 .0643350
460.995 .0623960
461.888 .0607027
462.781 .0592081
463.673 .0578755
464.563 .0566795
465.452 .0556007
466.340 .0546221
467.228 .0537319
468.114 .0529192
468.999 .0521745
469.882 .0514893
470.765 .0508571
471.647 .0502723
472.528 .0497308
473.407 .0492301
474.286 .0487677
475.163 .0483416
476.040 .0479506
476.915 .0475927
477.790 .0472652
478.663 .0469670
479.535 .0466967
480.407 .0464527
481.277 .0462350
482.147 .0460431
483.015 .0458778
483.883 .0457399
484.749 .0456299
485.615 .0455483
486.479 .0454956
487.343 .0454717
488.206 .0454759
489.067 .0455075
489.928 .0455659
490.788 .0456499
491.647 .0457586
492.505 .0458906
493.362 .0460450
494.218 .0462214
495.073 .0464193
495.928 .0467867
496.781 .0470352
497.634 .0473045
498.486 .0475951
499.337 .0479070
500.187 .0482405
501.036 .0485963
501.884 .0489759
502.731 .0493814
503.578 .0498151
504.424 .0500922
505.268 .0505827
506.113 .0511138
506.956 .0516907
507.798 .0523198
508.640 .0530091
509.480 .0537672
510.320 .0546045
511.160 .0555316
511.998 .0565612
512.836 .0577086
513.672 .0589892
514.508 .0604210
515.344 .0620225
516.178 .0638121
517.012 .0658113
517.845 .0680411
518.677 .0705208
519.508 .0732627
520.339 .0762773
521.169 .0795688
521.998 .0831191
522.826 .0868984
523.654 .0908616
524.481 .0949514
525.307 .0990992
526.133 .1032210
526.958 .1072288
527.782 .1110377
528.605 .1145699
529.428 .1177530
530.250 .1205252
531.072 .1228475
531.892 .1246874
532.712 .1260265
533.532 .1268552
534.350 .1271668
535.168 .1269615
535.986 .1262404
536.802 .1250087
537.618 .1232708
538.434 .1210361
539.249 .1183375
540.063 .1152175
540.876 .1117318
541.689 .1079451
542.501 .1039330
543.313 .0997819
544.124 .0955793
544.934 .0914066
545.744 .0873354
546.553 .0834297
547.361 .0797405
548.169 .0762941
548.976 .0731089
549.783 .0701876
550.589 .0675235
551.395 .0651035
552.200 .0629079
553.004 .0609166
553.808 .0591105
554.611 .0574720
555.414 .0559845
556.216 .0546288
557.018 .0533869
557.819 .0522425
558.619 .0511827
559.419 .0501950
560.218 .0492689
561.017 .0483965
561.815 .0475721
562.613 .0467919
563.410 .0460519
564.207 .0453481
565.003 .0446775
565.799 .0440365
566.594 .0434219
567.388 .0428311
568.182 .0422618
568.976 .0417115
569.769 .0411791
570.562 .0406643
571.354 .0401671
572.145 .0396875
572.936 .0392268
573.727 .0387852
574.517 .0383627
575.307 .0379595
576.096 .0375751
576.885 .0372100
577.673 .0368640
578.461 .0365370
579.248 .0362283
580.035 .0359375
580.821 .0356637
581.607 .0354062
582.392 .0351641
583.177 .0349368
583.962 .0347235
584.746 .0345238
585.529 .0343370
586.313 .0341625
587.095 .0339997
587.878 .0338484
588.660 .0337079
589.441 .0335776
590.222 .0334568
591.003 .0333448
591.783 .0332410
592.563 .0331447
593.342 .0330550
594.121 .0329711
594.899 .0328922
595.678 .0328177
596.455 .0327471
597.233 .0326797
598.009 .0326154
598.786 .0325538
599.562 .0324947
600.338 .0324380
601.113 .0323833
601.888 .0323074
602.663 .0322575
603.437 .0322092
604.211 .0321625
604.984 .0321172
605.757 .0320733
606.530 .0320308
607.302 .0319897
608.074 .0319502
608.845 .0319123
609.616 .0318762
610.387 .0318623
611.158 .0318289
611.928 .0317974
612.697 .0317675
613.467 .0317393
614.236 .0317127
615.004 .0316874
615.773 .0316634
616.541 .0316404
617.308 .0316183
618.076 .0315971
618.843 .0315766
619.609 .0315568
620.375 .0315376
621.141 .0315190
621.907 .0315008
622.672 .0314832
623.437 .0314659
624.202 .0314489
624.966 .0314321
625.730 .0314155
626.493 .0313988
627.257 .0313821
628.020 .0313653
628.782 .0313483
629.545 .0313312
630.307 .0313138
631.068 .0312963
631.830 .0312786
632.591 .0312606
633.352 .0312425
634.112 .0312243
634.872 .0312059
635.632 .0311872
636.392 .0311684
637.151 .0311493
637.910 .0311300
638.668 .0311103
639.427 .0310903
640.185 .0310700
640.943 .0310493
641.700 .0310283
642.457 .0310072
643.214 .0309860
643.971 .0309648
644.727 .0309437
645.483 .0309225
646.239 .0309015
646.994 .0308804
647.750 .0308592
648.505 .0308378
649.259 .0308162
650.014 .0307943
650.768 .0307720
651.521 .0307494
652.275 .0307264
653.028 .0307032
653.781 .0306795
654.534 .0306554
655.286 .0306308
656.039 .0306057
656.791 .0305801
657.542 .0305539
658.294 .0305273
659.045 .0305000
659.796 .0304722
660.546 .0304438
661.297 .0304148
662.047 .0303852
662.796 .0303549
663.546 .0303241
664.295 .0302928
665.044 .0302613
665.793 .0302298
666.542 .0301985
667.290 .0301678
668.038 .0301376
668.786 .0301081
669.533 .0300792
670.281 .0300510
671.028 .0300235
671.774 .0299966
672.521 .0299706
673.267 .0299454
674.013 .0299212
674.759 .0298981
675.505 .0298762
676.250 .0298554
676.995 .0298357
677.740 .0298170
678.484 .0297993
679.229 .0297823
679.973 .0297660
680.717 .0297505
681.460 .0297356
682.204 .0297213
682.947 .0297075
683.690 .0296942
684.433 .0296812
685.175 .0296685
685.917 .0296561
686.659 .0296440
687.401 .0296321
688.142 .0296206
688.884 .0296094
689.625 .0295985
690.365 .0295879
691.106 .0295775
691.846 .0295672
692.586 .0295571
693.326 .0295471
694.066 .0295372
694.805 .0295274
695.545 .0295177
696.284 .0295082
697.022 .0294988
697.761 .0294897
698.499 .0294806
699.237 .0294715
699.975 .0294623
700.713 .0294531
701.450 .0294437
702.187 .0294341
702.924 .0294244
703.661 .0294144
704.397 .0294041
705.133 .0293935
705.869 .0293825
706.605 .0293712
707.341 .0293594
708.076 .0293471
708.811 .0293344
709.546 .0293211
710.281 .0293074
711.015 .0292933
711.749 .0292787
712.483 .0292637
713.217 .0292482
713.950 .0292323
714.684 .0292159
715.417 .0291990
716.150 .0291816
716.882 .0291636
717.615 .0291449
718.347 .0291256
719.079 .0291056
719.811 .0290850
720.542 .0290637
721.273 .0290418
722.005 .0290194
722.735 .0289964
723.466 .0289730
724.196 .0289492
724.927 .0289249
725.656 .0289003
726.386 .0288754
727.116 .0288502
727.845 .0288247
728.574 .0287991
729.303 .0287735
730.031 .0287479
730.760 .0287226
731.488 .0286975
732.216 .0286728
732.944 .0286486
733.671 .0286248
734.398 .0286016
735.125 .0285788
735.852 .0285567
736.579 .0285350
737.305 .0285139
738.031 .0284934
738.757 .0284734
739.483 .0284540
740.208 .0284353
740.933 .0284171
741.658 .0283995
742.383 .0283823
743.108 .0283657
743.832 .0283493
744.556 .0283333
745.280 .0283175
746.004 .0283018
746.727 .0282862
747.450 .0282706
748.173 .0282550
748.896 .0282394
749.618 .0282239
750.340 .0282085
751.062 .0281931
751.784 .0281780
752.506 .0281630
753.227 .0281482
753.948 .0281336
754.669 .0281193
755.389 .0281051
756.110 .0280911
756.830 .0280773
757.550 .0280637
758.269 .0280504
758.989 .0280374
759.708 .0280248
760.427 .0280127
761.146 .0280010
761.864 .0279899
762.582 .0279792
763.300 .0279689
764.018 .0279591
764.736 .0279495
765.453 .0279404
766.170 .0279316
766.887 .0279232
767.603 .0279152
768.320 .0279078
769.036 .0279010
769.751 .0278947
770.467 .0278891
771.182 .0278842
771.897 .0278799
772.612 .0278762
773.327 .0278731
774.041 .0278706
774.755 .0278685
775.469 .0278670
776.183 .0278660
776.896 .0278655
777.609 .0278655
778.322 .0278661
779.035 .0278673
779.747 .0278689
780.459 .0278711
781.171 .0278738
781.882 .0278769
782.594 .0278802
783.305 .0278837
784.016 .0278873
784.726 .0278908
785.436 .0278942
786.147 .0278985
786.856 .0279011
787.566 .0279032
788.275 .0279049
788.984 .0279060
789.693 .0279066
790.401 .0279065
791.110 .0279057
791.818 .0279040
792.525 .0279015
793.233 .0278979
793.940 .0278932
794.647 .0278878
795.353 .0278814
796.060 .0278740
796.766 .0278654
797.472 .0278557
798.177 .0278449
798.883 .0278329
799.588 .0278198
800.292 .0278057
800.997 .0277905
801.701 .0277743
802.405 .0277571
803.109 .0277389
803.812 .0277197
804.515 .0276995
805.218 .0276785
805.921 .0276566
806.623 .0276340
807.325 .0276108
808.027 .0275869
808.728 .0275626
809.429 .0275378
810.130 .0275125
810.831 .0274869
811.531 .0274609
812.231 .0274346
812.931 .0274080
813.630 .0273813
814.330 .0273545
815.029 .0273276
815.727 .0273008
816.426 .0272742
817.124 .0272476
817.821 .0272212
818.519 .0271950
819.216 .0271691
819.913 .0271435
820.609 .0271183
821.306 .0270934
822.002 .0270691
822.697 .0270453
823.393 .0270220
824.088 .0269992
824.783 .0269769
825.477 .0269550
826.171 .0269335
826.865 .0269125
827.559 .0268919
828.252 .0268718
828.945 .0268521
829.638 .0268329
830.330 .0268141
831.023 .0267959
831.714 .0267781
832.406 .0267607
833.097 .0267437
833.788 .0267270
834.479 .0267108
835.169 .0266949
835.859 .0266795
836.548 .0266645
837.238 .0266501
837.927 .0266361
838.615 .0266226
839.304 .0266097
839.992 .0265972
840.680 .0265852
841.367 .0265736
842.054 .0265625
842.741 .0265519
843.428 .0265417
844.114 .0265319
844.800 .0265225
845.485 .0265136
846.170 .0265050
846.855 .0264967
847.540 .0264887
848.224 .0264810
848.908 .0264734
849.592 .0264659
850.275 .0264585
850.958 .0264512
851.641 .0264440
852.323 .0264368
853.005 .0264296
853.687 .0264224
854.368 .0264152
855.049 .0264081
855.730 .0264010
856.410 .0263941
857.090 .0263873
857.769 .0263807
858.449 .0263745
859.128 .0263687
859.806 .0263633
860.485 .0263584
861.163 .0263542
861.840 .0263505
862.518 .0263476
863.195 .0263454
863.871 .0263439
864.548 .0263431
865.224 .0263431
865.899 .0263439
866.574 .0263455
867.249 .0263478
867.924 .0263508
868.598 .0263544
869.272 .0263587
869.946 .0263635
870.619 .0263689
871.292 .0263747
871.964 .0263810
872.636 .0263876
873.308 .0263945
873.979 .0264017
874.651 .0264091
875.321 .0264166
875.992 .0264242
876.662 .0264319
877.331 .0264395
878.001 .0264471
878.670 .0264545
879.338 .0264619
880.007 .0264692
880.675 .0264764
881.342 .0264835
882.009 .0264906
882.676 .0264976
883.343 .0265045
884.009 .0265115
884.675 .0265184
885.340 .0265254
886.005 .0265324
886.670 .0265395
887.334 .0265468
887.998 .0265541
888.662 .0265615
889.325 .0265690
889.988 .0265765
890.650 .0265838
891.312 .0265910
891.974 .0265979
892.636 .0266045
893.297 .0266106
893.957 .0266161
894.618 .0266211
895.278 .0266254
895.937 .0266288
896.596 .0266313
897.255 .0266327
897.914 .0266329
898.572 .0266317
899.230 .0266292
899.887 .0266251
900.544 .0266196
901.201 .0266126
901.857 .0265953
902.513 .0265844
903.168 .0265720
903.823 .0265580
904.478 .0265425
905.132 .0265254
905.786 .0265067
906.440 .0264865
907.093 .0264650
907.746 .0264421
908.399 .0264181
909.051 .0263930
909.703 .0263670
910.354 .0263518
911.005 .0263247
911.656 .0262967
912.306 .0262680
912.956 .0262385
913.605 .0262084
914.254 .0261777
914.903 .0261465
915.551 .0261150
916.199 .0260832
916.847 .0260511
917.494 .0260189
918.141 .0259864
918.788 .0259537
919.434 .0259207
920.079 .0258876
920.725 .0258544
921.370 .0258209
922.014 .0257874
922.658 .0257538
923.302 .0257201
923.946 .0256863
924.589 .0256524
925.231 .0256183
925.873 .0255841
926.515 .0255498
927.157 .0255154
927.798 .0254809
928.439 .0254464
929.079 .0254119
929.719 .0253776
930.359 .0253433
930.998 .0253092
931.637 .0252753
932.275 .0252417
932.913 .0252083
933.551 .0251753
934.188 .0251427
934.825 .0251106
935.462 .0250791
936.098 .0250482
936.733 .0250180
937.369 .0249886
938.004 .0249598
938.638 .0249318
939.273 .0249046
939.907 .0248781
940.540 .0248524
941.173 .0248275
941.806 .0248034
942.438 .0247803
943.070 .0247580
943.702 .0247366
944.333 .0247161
944.964 .0246965
945.594 .0246776
946.224 .0246594
946.854 .0246418
947.483 .0246248
948.112 .0246084
948.741 .0245926
949.369 .0245772
949.996 .0245625
950.624 .0245482
951.251 .0245345
951.878 .0245212
952.504 .0245084
953.130 .0244960
953.755 .0244839
954.380 .0244721
955.005 .0244607
955.629 .0244495
956.253 .0244388
956.877 .0244284
957.500 .0244184
958.123 .0244088
958.746 .0243997
959.368 .0243910
959.990 .0243827
960.611 .0243749
961.232 .0243675
961.853 .0243606
962.473 .0243542
963.093 .0243483
963.712 .0243431
964.331 .0243385
964.950 .0243346
965.569 .0243313
966.187 .0243287
966.804 .0243267
967.422 .0243252
968.039 .0243243
968.655 .0243238
969.272 .0243238
969.887 .0243243
970.503 .0243252
971.118 .0243266
971.733 .0243285
972.347 .0243307
972.961 .0243332
973.575 .0243361
974.188 .0243391
974.801 .0243423
975.414 .0243457
976.026 .0243492
976.638 .0243527
977.250 .0243564
977.861 .0243601
978.472 .0243640
979.083 .0243680
979.693 .0243722
980.303 .0243765
980.912 .0243836
981.521 .0243884
982.130 .0243936
982.738 .0243989
983.346 .0244046
983.954 .0244106
984.562 .0244170
985.169 .0244239
985.775 .0244312
986.382 .0244392
986.988 .0244477
987.594 .0244569
988.199 .0244667
988.804 .0244771
989.409 .0244846
990.013 .0244959
990.617 .0245077
991.221 .0245201
991.824 .0245329
992.427 .0245461
993.030 .0245598
993.632 .0245739
994.234 .0245882
994.836 .0246028
995.438 .0246176
996.039 .0246325
996.640 .0246476
997.240 .0246628
997.840 .0246782
998.440 .0246938
999.040 .0247095
999.639 .0247253
1000.238 .0247412
1000.836 .0247572
1001.435 .0247733
1002.033 .0247893
1002.630 .0248053
1003.228 .0248211
1003.825 .0248368
1004.422 .0248522
1005.018 .0248673
1005.614 .0248822
1006.210 .0248968
1006.806 .0249111
1007.401 .0249250
1007.996 .0249386
1008.591 .0249518
1009.186 .0249648
1009.780 .0249775
1010.374 .0249901
1010.967 .0250025
1011.561 .0250149
1012.154 .0250272
1012.746 .0250395
1013.339 .0250518
1013.931 .0250642
1014.523 .0250767
1015.115 .0250890
1015.706 .0251014
1016.298 .0251137
1016.888 .0251260
1017.479 .0251382
1018.069 .0251503
1018.660 .0251624
1019.250 .0251745
1019.839 .0251865
1020.429 .0251984
1021.018 .0252103
1021.607 .0252221
1022.195 .0252338
1022.784 .0252454
1023.372 .0252569
1023.960 .0252683
1024.547 .0252796
1025.135 .0252909
1025.722 .0253022
1026.309 .0253134
1026.896 .0253245
1027.483 .0253354
1028.069 .0253461
1028.655 .0253564
1029.241 .0253663
1029.827 .0253755
1030.412 .0253839
1030.997 .0253916
1031.582 .0253984
1032.167 .0254044
1032.752 .0254096
1033.336 .0254140
1033.921 .0254176
1034.505 .0254204
1035.089 .0254226
1035.672 .0254239
1036.256 .0254245
1036.839 .0254241
1037.422 .0254228
1038.005 .0254206
1038.588 .0254175
1039.171 .0254134
1039.753 .0254086
1040.335 .0254030
1040.918 .0253968
1041.500 .0253899
1042.081 .0253824
1042.663 .0253742
1043.244 .0253653
1043.826 .0253557
1044.407 .0253453
1044.988 .0253342
1045.569 .0253226
1046.150 .0253106
1046.730 .0252982
1047.311 .0252858
1047.891 .0252732
1048.471 .0252606
1049.052 .0252479
1049.632 .0252349
1050.211 .0252217
1050.791 .0252083
1051.371 .0251946
1051.950 .0251806
1052.530 .0251665
1053.109 .0251522
1053.688 .0251379
1054.268 .0251236
1054.847 .0251093
1055.426 .0250950
1056.005 .0250807
1056.583 .0250663
1057.162 .0250517
1057.741 .0250371
1058.319 .0250223
1058.898 .0250074
1059.476 .0249925
1060.055 .0249776
1060.633 .0249626
1061.211 .0249474
1061.790 .0249320
1062.368 .0249162
1062.946 .0249000
1063.524 .0248831
1064.102 .0248657
1064.680 .0248476
1065.258 .0248290
1065.836 .0248100
1066.414 .0247907
1066.992 .0247712
1067.570 .0247516
1068.148 .0247320
1068.726 .0247123
1069.304 .0246926
1069.882 .0246729
1070.460 .0246533
1071.038 .0246338
1071.616 .0246146
1072.194 .0245957
1072.772 .0245773
1073.350 .0245594
1073.928 .0245421
1074.506 .0245254
1075.084 .0245091
1075.662 .0244931
1076.240 .0244775
1076.819 .0244621
1077.397 .0244472
1077.976 .0244327
1078.554 .0244188
1079.133 .0244056
1079.711 .0243931
1080.290 .0243814
1080.869 .0243704
1081.448 .0243601
1082.027 .0243504
1082.606 .0243411
1083.185 .0243323
1083.764 .0243238
1084.343 .0243156
1084.923 .0243077
1085.502 .0243002
1086.082 .0242929
1086.662 .0242860
1087.242 .0242794
1087.822 .0242730
1088.402 .0242670
1088.983 .0242615
1089.563 .0242564
1090.144 .0242519
1090.725 .0242480
1091.306 .0242447
1091.887 .0242421
1092.469 .0242402
1093.050 .0242390
1093.632 .0242386
1094.214 .0242389
1094.796 .0242400
1095.379 .0242421
1095.961 .0242451
1096.544 .0242492
1097.127 .0242544
1097.710 .0242607
1098.294 .0242680
1098.877 .0242763
1099.461 .0242855
1100.046 .0242956
1100.630 .0243066
1101.215 .0243186
1101.800 .0243315
1102.385 .0243455
1102.970 .0243605
1103.556 .0243764
1104.142 .0243931
1104.728 .0244103
1105.315 .0244277
1105.902 .0244450
1106.489 .0244618
1107.077 .0244781
1107.664 .0244939
1108.253 .0245094
1108.841 .0245247
1109.430 .0245402
1110.019 .0245562
1110.609 .0245728
1111.198 .0245903
1111.789 .0246086
1112.379 .0246278
1112.970 .0246481
1113.561 .0246694
1114.153 .0246921
1114.745 .0247164
1115.338 .0247426
1115.931 .0247712
1116.524 .0248021
1117.117 .0248355
1117.712 .0248712
1118.306 .0249090
1118.901 .0249485
1119.496 .0249896
1120.092 .0250322
1120.689 .0250763
1121.285 .0251221
1121.882 .0251699
1122.480 .0252204
1123.078 .0252740
1123.677 .0253312
1124.276 .0253921
1124.875 .0254571
1125.476 .0255260
1126.076 .0255989
1126.677 .0256754
1127.279 .0257557
1127.881 .0258396
1128.484 .0259271
1129.087 .0259646
1129.691 .0260572
1130.295 .0261533
1130.900 .0262526
1131.505 .0263548
1132.111 .0264594
1132.718 .0265659
1133.325 .0266739
1133.933 .0267840
1134.541 .0268932
1135.150 .0270054
1135.760 .0271153
1136.370 .0272273
1136.981 .0273716
1137.592 .0275154
1138.204 .0276625
1138.817 .0278086
1139.431 .0279514
1140.045 .0280882
1140.660 .0282152
1141.275 .0283356
1141.891 .0284793
1142.508 .0285400
1143.126 .0287044
1143.744 .0287149
1144.363 .0288503
1144.983 .0297898
