Measurement Sequence started on: 15-12-46-377
Integration time: 28
Scans to Average: 2 
>>>>>Begin Spectral Data<<<<<
432.689 .0000100
433.621 .0000100
434.552 .0000100
435.482 .0000100
436.410 .0000100
437.337 .0000100
438.262 .0291528
439.187 .0617764
440.110 .1022835
441.031 .1478977
441.952 .1177844
442.871 .1229131
443.789 .1276800
444.705 .1321621
445.621 .1364118
446.535 .1404692
447.447 .1428304
448.359 .1433363
449.269 .1415911
450.178 .1373410
451.086 .1306720
451.993 .1220976
452.898 .1124617
453.803 .1027187
454.706 .0936797
455.608 .0858468
456.508 .0793837
457.408 .0750353
458.306 .0717122
459.204 .0690195
460.100 .0667578
460.995 .0648170
461.888 .0631221
462.781 .0616229
463.673 .0602815
464.563 .0590705
465.452 .0579678
466.340 .0569570
467.228 .0560251
468.114 .0551631
468.999 .0543632
469.882 .0536200
470.765 .0529297
471.647 .0522905
472.528 .0517008
473.407 .0511603
474.286 .0506679
475.163 .0502236
476.040 .0498259
476.915 .0494733
477.790 .0491633
478.663 .0488939
479.535 .0486633
480.407 .0484699
481.277 .0483116
482.147 .0481874
483.015 .0480952
483.883 .0480335
484.749 .0480000
485.615 .0479919
486.479 .0480057
487.343 .0480380
488.206 .0480849
489.067 .0481437
489.928 .0482119
490.788 .0482892
491.647 .0483761
492.505 .0484748
493.362 .0485877
494.218 .0487179
495.073 .0488683
495.928 .0491736
496.781 .0493876
497.634 .0496266
498.486 .0498911
499.337 .0501821
500.187 .0505011
501.036 .0508512
501.884 .0512364
502.731 .0516618
503.578 .0521328
504.424 .0524728
505.268 .0530287
506.113 .0536437
506.956 .0543231
507.798 .0550719
508.640 .0558959
509.480 .0568026
510.320 .0578008
511.160 .0589024
511.998 .0601215
512.836 .0614745
513.672 .0629800
514.508 .0646619
515.344 .0665441
516.178 .0686508
517.012 .0710107
517.845 .0736513
518.677 .0765956
519.508 .0798646
520.339 .0834711
521.169 .0874207
521.998 .0916914
522.826 .0962488
523.654 .1010349
524.481 .1059773
525.307 .1109865
526.133 .1159587
526.958 .1207873
527.782 .1253686
528.605 .1296023
529.428 .1334026
530.250 .1366980
531.072 .1394408
531.892 .1415897
532.712 .1431212
533.532 .1440229
534.350 .1442885
535.168 .1439176
535.986 .1429150
536.802 .1412845
537.618 .1390363
538.434 .1361839
539.249 .1327686
540.063 .1288447
540.876 .1244848
541.689 .1197744
542.501 .1148127
543.313 .1097088
544.124 .1045702
544.934 .0994968
545.744 .0945810
546.553 .0898981
547.361 .0855069
548.169 .0814393
548.976 .0777166
549.783 .0743421
550.589 .0713062
551.395 .0685879
552.200 .0661599
553.004 .0639922
553.808 .0620553
554.611 .0603220
555.414 .0587666
556.216 .0573639
557.018 .0560896
557.819 .0549236
558.619 .0538481
559.419 .0528481
560.218 .0519118
561.017 .0510300
561.815 .0501967
562.613 .0494065
563.410 .0486541
564.207 .0479344
565.003 .0472433
565.799 .0465764
566.594 .0459298
567.388 .0453007
568.182 .0446869
568.976 .0440876
569.769 .0435026
570.562 .0429329
571.354 .0423796
572.145 .0418448
572.936 .0413299
573.727 .0408357
574.517 .0403628
575.307 .0399111
576.096 .0394802
576.885 .0390695
577.673 .0386785
578.461 .0383065
579.248 .0379530
580.035 .0376179
580.821 .0373011
581.607 .0370023
582.392 .0367216
583.177 .0364588
583.962 .0362134
584.746 .0359850
585.529 .0357729
586.313 .0355764
587.095 .0353949
587.878 .0352274
588.660 .0350731
589.441 .0349312
590.222 .0348009
591.003 .0346813
591.783 .0345717
592.563 .0344712
593.342 .0343790
594.121 .0342942
594.899 .0342158
595.678 .0341431
596.455 .0340752
597.233 .0340114
598.009 .0339510
598.786 .0338935
599.562 .0338384
600.338 .0337854
601.113 .0337342
601.888 .0336639
602.663 .0336173
603.437 .0335722
604.211 .0335288
604.984 .0334870
605.757 .0334467
606.530 .0334080
607.302 .0333708
608.074 .0333352
608.845 .0333010
609.616 .0332683
610.387 .0332550
611.158 .0332242
611.928 .0331948
612.697 .0331667
613.467 .0331397
614.236 .0331139
615.004 .0330889
615.773 .0330646
616.541 .0330410
617.308 .0330177
618.076 .0329944
618.843 .0329710
619.609 .0329473
620.375 .0329230
621.141 .0328982
621.907 .0328727
622.672 .0328465
623.437 .0328196
624.202 .0327918
624.966 .0327632
625.730 .0327336
626.493 .0327030
627.257 .0326713
628.020 .0326384
628.782 .0326043
629.545 .0325690
630.307 .0325325
631.068 .0324950
631.830 .0324567
632.591 .0324177
633.352 .0323781
634.112 .0323382
634.872 .0322980
635.632 .0322576
636.392 .0322172
637.151 .0321768
637.910 .0321366
638.668 .0320966
639.427 .0320570
640.185 .0320179
640.943 .0319795
641.700 .0319419
642.457 .0319055
643.214 .0318701
643.971 .0318360
644.727 .0318030
645.483 .0317712
646.239 .0317404
646.994 .0317105
647.750 .0316813
648.505 .0316527
649.259 .0316245
650.014 .0315966
650.768 .0315690
651.521 .0315416
652.275 .0315144
653.028 .0314874
653.781 .0314605
654.534 .0314337
655.286 .0314069
656.039 .0313802
656.791 .0313533
657.542 .0313265
658.294 .0312995
659.045 .0312725
659.796 .0312455
660.546 .0312186
661.297 .0311919
662.047 .0311655
662.796 .0311396
663.546 .0311142
664.295 .0310896
665.044 .0310659
665.793 .0310430
666.542 .0310211
667.290 .0310001
668.038 .0309801
668.786 .0309611
669.533 .0309429
670.281 .0309257
671.028 .0309094
671.774 .0308940
672.521 .0308796
673.267 .0308661
674.013 .0308534
674.759 .0308415
675.505 .0308302
676.250 .0308193
676.995 .0308086
677.740 .0307979
678.484 .0307871
679.229 .0307760
679.973 .0307646
680.717 .0307528
681.460 .0307407
682.204 .0307281
682.947 .0307151
683.690 .0307016
684.433 .0306875
685.175 .0306729
685.917 .0306576
686.659 .0306417
687.401 .0306251
688.142 .0306079
688.884 .0305901
689.625 .0305717
690.365 .0305528
691.106 .0305334
691.846 .0305135
692.586 .0304932
693.326 .0304724
694.066 .0304513
694.805 .0304298
695.545 .0304080
696.284 .0303859
697.022 .0303634
697.761 .0303407
698.499 .0303176
699.237 .0302941
699.975 .0302704
700.713 .0302465
701.450 .0302223
702.187 .0301980
702.924 .0301736
703.661 .0301491
704.397 .0301245
705.133 .0300999
705.869 .0300751
706.605 .0300502
707.341 .0300251
708.076 .0299999
708.811 .0299746
709.546 .0299491
710.281 .0299236
711.015 .0298981
711.749 .0298725
712.483 .0298468
713.217 .0298210
713.950 .0297951
714.684 .0297690
715.417 .0297428
716.150 .0297165
716.882 .0296901
717.615 .0296635
718.347 .0296368
719.079 .0296100
719.811 .0295832
720.542 .0295564
721.273 .0295296
722.005 .0295028
722.735 .0294760
723.466 .0294494
724.196 .0294230
724.927 .0293967
725.656 .0293707
726.386 .0293450
727.116 .0293197
727.845 .0292949
728.574 .0292707
729.303 .0292472
730.031 .0292245
730.760 .0292025
731.488 .0291815
732.216 .0291613
732.944 .0291420
733.671 .0291236
734.398 .0291061
735.125 .0290894
735.852 .0290735
736.579 .0290586
737.305 .0290445
738.031 .0290314
738.757 .0290191
739.483 .0290077
740.208 .0289972
740.933 .0289875
741.658 .0289784
742.383 .0289699
743.108 .0289620
743.832 .0289546
744.556 .0289477
745.280 .0289412
746.004 .0289351
746.727 .0289294
747.450 .0289238
748.173 .0289185
748.896 .0289133
749.618 .0289081
750.340 .0289029
751.062 .0288976
751.784 .0288922
752.506 .0288866
753.227 .0288810
753.948 .0288751
754.669 .0288692
755.389 .0288631
756.110 .0288568
756.830 .0288504
757.550 .0288439
758.269 .0288373
758.989 .0288307
759.708 .0288239
760.427 .0288172
761.146 .0288104
761.864 .0288036
762.582 .0287968
763.300 .0287900
764.018 .0287833
764.736 .0287765
765.453 .0287698
766.170 .0287632
766.887 .0287567
767.603 .0287503
768.320 .0287441
769.036 .0287381
769.751 .0287323
770.467 .0287266
771.182 .0287210
771.897 .0287156
772.612 .0287103
773.327 .0287051
774.041 .0287000
774.755 .0286950
775.469 .0286901
776.183 .0286852
776.896 .0286804
777.609 .0286757
778.322 .0286710
779.035 .0286663
779.747 .0286616
780.459 .0286569
781.171 .0286522
781.882 .0286474
782.594 .0286425
783.305 .0286374
784.016 .0286322
784.726 .0286268
785.436 .0286210
786.147 .0286108
786.856 .0286037
787.566 .0285961
788.275 .0285879
788.984 .0285790
789.693 .0285694
790.401 .0285590
791.110 .0285479
791.818 .0285359
792.525 .0285230
793.233 .0285093
793.940 .0284946
794.647 .0284845
795.353 .0284686
796.060 .0284518
796.766 .0284341
797.472 .0284156
798.177 .0283962
798.883 .0283760
799.588 .0283550
800.292 .0283331
800.997 .0283107
801.701 .0282876
802.405 .0282639
803.109 .0282397
803.812 .0282151
804.515 .0281900
805.218 .0281645
805.921 .0281385
806.623 .0281122
807.325 .0280855
808.027 .0280585
808.728 .0280314
809.429 .0280041
810.130 .0279767
810.831 .0279494
811.531 .0279222
812.231 .0278950
812.931 .0278679
813.630 .0278408
814.330 .0278138
815.029 .0277869
815.727 .0277602
816.426 .0277338
817.124 .0277078
817.821 .0276822
818.519 .0276571
819.216 .0276327
819.913 .0276089
820.609 .0275858
821.306 .0275634
822.002 .0275418
822.697 .0275210
823.393 .0275011
824.088 .0274821
824.783 .0274640
825.477 .0274469
826.171 .0274307
826.865 .0274154
827.559 .0274009
828.252 .0273871
828.945 .0273740
829.638 .0273616
830.330 .0273498
831.023 .0273387
831.714 .0273281
832.406 .0273182
833.097 .0273088
833.788 .0273000
834.479 .0272917
835.169 .0272839
835.859 .0272766
836.548 .0272698
837.238 .0272634
837.927 .0272574
838.615 .0272519
839.304 .0272468
839.992 .0272420
840.680 .0272376
841.367 .0272334
842.054 .0272294
842.741 .0272256
843.428 .0272219
844.114 .0272182
844.800 .0272146
845.485 .0272109
846.170 .0272071
846.855 .0272032
847.540 .0271991
848.224 .0271948
848.908 .0271904
849.592 .0271857
850.275 .0271808
850.958 .0271757
851.641 .0271705
852.323 .0271650
853.005 .0271594
853.687 .0271537
854.368 .0271478
855.049 .0271417
855.730 .0271356
856.410 .0271293
857.090 .0271230
857.769 .0271167
858.449 .0271104
859.128 .0271042
859.806 .0270980
860.485 .0270920
861.163 .0270862
861.840 .0270807
862.518 .0270756
863.195 .0270707
863.871 .0270664
864.548 .0270624
865.224 .0270590
865.899 .0270560
866.574 .0270536
867.249 .0270516
867.924 .0270501
868.598 .0270491
869.272 .0270485
869.946 .0270482
870.619 .0270483
871.292 .0270487
871.964 .0270492
872.636 .0270500
873.308 .0270510
873.979 .0270521
874.651 .0270534
875.321 .0270548
875.992 .0270565
876.662 .0270584
877.331 .0270604
878.001 .0270627
878.670 .0270652
879.338 .0270678
880.007 .0270707
880.675 .0270737
881.342 .0270770
882.009 .0270804
882.676 .0270840
883.343 .0270877
884.009 .0270916
884.675 .0270956
885.340 .0270996
886.005 .0271038
886.670 .0271079
887.334 .0271121
887.998 .0271164
888.662 .0271207
889.325 .0271249
889.988 .0271292
890.650 .0271334
891.312 .0271374
891.974 .0271413
892.636 .0271450
893.297 .0271484
893.957 .0271516
894.618 .0271544
895.278 .0271568
895.937 .0271588
896.596 .0271602
897.255 .0271610
897.914 .0271611
898.572 .0271603
899.230 .0271585
899.887 .0271558
900.544 .0271521
901.201 .0271472
901.857 .0271347
902.513 .0271267
903.168 .0271173
903.823 .0271067
904.478 .0270947
905.132 .0270813
905.786 .0270667
906.440 .0270507
907.093 .0270334
907.746 .0270150
908.399 .0269954
909.051 .0269747
909.703 .0269530
910.354 .0269394
911.005 .0269165
911.656 .0268928
912.306 .0268682
912.956 .0268430
913.605 .0268171
914.254 .0267907
914.903 .0267639
915.551 .0267367
916.199 .0267091
916.847 .0266813
917.494 .0266532
918.141 .0266248
918.788 .0265961
919.434 .0265671
920.079 .0265379
920.725 .0265085
921.370 .0264789
922.014 .0264492
922.658 .0264194
923.302 .0263894
923.946 .0263593
924.589 .0263289
925.231 .0262984
925.873 .0262675
926.515 .0262364
927.157 .0262051
927.798 .0261736
928.439 .0261420
929.079 .0261102
929.719 .0260784
930.359 .0260466
930.998 .0260148
931.637 .0259830
932.275 .0259512
932.913 .0259196
933.551 .0258881
934.188 .0258570
934.825 .0258264
935.462 .0257964
936.098 .0257670
936.733 .0257383
937.369 .0257103
938.004 .0256829
938.638 .0256562
939.273 .0256302
939.907 .0256048
940.540 .0255801
941.173 .0255562
941.806 .0255329
942.438 .0255105
943.070 .0254887
943.702 .0254677
944.333 .0254472
944.964 .0254272
945.594 .0254076
946.224 .0253882
946.854 .0253691
947.483 .0253502
948.112 .0253315
948.741 .0253130
949.369 .0252947
949.996 .0252766
950.624 .0252587
951.251 .0252409
951.878 .0252232
952.504 .0252056
953.130 .0251881
953.755 .0251707
954.380 .0251534
955.005 .0251363
955.629 .0251194
956.253 .0251029
956.877 .0250866
957.500 .0250706
958.123 .0250548
958.746 .0250393
959.368 .0250242
959.990 .0250093
960.611 .0249949
961.232 .0249808
961.853 .0249672
962.473 .0249540
963.093 .0249412
963.712 .0249288
964.331 .0249166
964.950 .0249048
965.569 .0248933
966.187 .0248821
966.804 .0248711
967.422 .0248605
968.039 .0248501
968.655 .0248400
969.272 .0248301
969.887 .0248204
970.503 .0248108
971.118 .0248014
971.733 .0247921
972.347 .0247830
972.961 .0247740
973.575 .0247653
974.188 .0247568
974.801 .0247485
975.414 .0247404
976.026 .0247324
976.638 .0247245
977.250 .0247168
977.861 .0247092
978.472 .0247018
979.083 .0246947
979.693 .0246881
980.303 .0246819
980.912 .0246747
981.521 .0246697
982.130 .0246652
982.738 .0246611
983.346 .0246575
983.954 .0246542
984.562 .0246514
985.169 .0246491
985.775 .0246475
986.382 .0246466
986.988 .0246464
987.594 .0246470
988.199 .0246482
988.804 .0246501
989.409 .0246529
990.013 .0246557
990.617 .0246590
991.221 .0246628
991.824 .0246671
992.427 .0246720
993.030 .0246776
993.632 .0246838
994.234 .0246907
994.836 .0246982
995.438 .0247063
996.039 .0247148
996.640 .0247237
997.240 .0247330
997.840 .0247425
998.440 .0247523
999.040 .0247625
999.639 .0247730
1000.238 .0247837
1000.836 .0247949
1001.435 .0248063
1002.033 .0248181
1002.630 .0248300
1003.228 .0248421
1003.825 .0248544
1004.422 .0248666
1005.018 .0248790
1005.614 .0248915
1006.210 .0249042
1006.806 .0249171
1007.401 .0249303
1007.996 .0249438
1008.591 .0249576
1009.186 .0249717
1009.780 .0249862
1010.374 .0250009
1010.967 .0250159
1011.561 .0250311
1012.154 .0250467
1012.746 .0250625
1013.339 .0250786
1013.931 .0250951
1014.523 .0251119
1015.115 .0251291
1015.706 .0251466
1016.298 .0251645
1016.888 .0251828
1017.479 .0252015
1018.069 .0252206
1018.660 .0252399
1019.250 .0252596
1019.839 .0252796
1020.429 .0252998
1021.018 .0253203
1021.607 .0253409
1022.195 .0253617
1022.784 .0253827
1023.372 .0254036
1023.960 .0254246
1024.547 .0254454
1025.135 .0254661
1025.722 .0254866
1026.309 .0255069
1026.896 .0255268
1027.483 .0255464
1028.069 .0255658
1028.655 .0255848
1029.241 .0256036
1029.827 .0256222
1030.412 .0256406
1030.997 .0256590
1031.582 .0256772
1032.167 .0256953
1032.752 .0257133
1033.336 .0257311
1033.921 .0257487
1034.505 .0257660
1035.089 .0257830
1035.672 .0257997
1036.256 .0258159
1036.839 .0258316
1037.422 .0258469
1038.005 .0258616
1038.588 .0258758
1039.171 .0258894
1039.753 .0259025
1040.335 .0259150
1040.918 .0259268
1041.500 .0259380
1042.081 .0259486
1042.663 .0259586
1043.244 .0259681
1043.826 .0259772
1044.407 .0259857
1044.988 .0259940
1045.569 .0260018
1046.150 .0260092
1046.730 .0260161
1047.311 .0260225
1047.891 .0260281
1048.471 .0260330
1049.052 .0260371
1049.632 .0260403
1050.211 .0260427
1050.791 .0260442
1051.371 .0260449
1051.950 .0260449
1052.530 .0260442
1053.109 .0260427
1053.688 .0260404
1054.268 .0260376
1054.847 .0260341
1055.426 .0260301
1056.005 .0260257
1056.583 .0260209
1057.162 .0260159
1057.741 .0260107
1058.319 .0260054
1058.898 .0260001
1059.476 .0259948
1060.055 .0259895
1060.633 .0259841
1061.211 .0259787
1061.790 .0259732
1062.368 .0259676
1062.946 .0259619
1063.524 .0259561
1064.102 .0259500
1064.680 .0259436
1065.258 .0259369
1065.836 .0259299
1066.414 .0259225
1066.992 .0259147
1067.570 .0259067
1068.148 .0258983
1068.726 .0258897
1069.304 .0258809
1069.882 .0258719
1070.460 .0258629
1071.038 .0258537
1071.616 .0258445
1072.194 .0258352
1072.772 .0258259
1073.350 .0258165
1073.928 .0258071
1074.506 .0257978
1075.084 .0257884
1075.662 .0257791
1076.240 .0257698
1076.819 .0257605
1077.397 .0257513
1077.976 .0257421
1078.554 .0257330
1079.133 .0257239
1079.711 .0257150
1080.290 .0257063
1080.869 .0256979
1081.448 .0256898
1082.027 .0256823
1082.606 .0256754
1083.185 .0256690
1083.764 .0256630
1084.343 .0256575
1084.923 .0256523
1085.502 .0256475
1086.082 .0256428
1086.662 .0256384
1087.242 .0256344
1087.822 .0256305
1088.402 .0256267
1088.983 .0256230
1089.563 .0256192
1090.144 .0256153
1090.725 .0256112
1091.306 .0256068
1091.887 .0256022
1092.469 .0255974
1093.050 .0255924
1093.632 .0255876
1094.214 .0255829
1094.796 .0255786
1095.379 .0255744
1095.961 .0255706
1096.544 .0255669
1097.127 .0255632
1097.710 .0255596
1098.294 .0255561
1098.877 .0255527
1099.461 .0255497
1100.046 .0255471
1100.630 .0255452
1101.215 .0255442
1101.800 .0255441
1102.385 .0255450
1102.970 .0255469
1103.556 .0255498
1104.142 .0255535
1104.728 .0255582
1105.315 .0255638
1105.902 .0255706
1106.489 .0255786
1107.077 .0255883
1107.664 .0255995
1108.253 .0256125
1108.841 .0256273
1109.430 .0256438
1110.019 .0256619
1110.609 .0256812
1111.198 .0257014
1111.789 .0257223
1112.379 .0257436
1112.970 .0257653
1113.561 .0257873
1114.153 .0258097
1114.745 .0258326
1115.338 .0258563
1115.931 .0258806
1116.524 .0259057
1117.117 .0259317
1117.712 .0259584
1118.306 .0259858
1118.901 .0260139
1119.496 .0260426
1120.092 .0260722
1120.689 .0261025
1121.285 .0261339
1121.882 .0261665
1122.480 .0262008
1123.078 .0262364
1123.677 .0262737
1124.276 .0263125
1124.875 .0263527
1125.476 .0263942
1126.076 .0264371
1126.677 .0264812
1127.279 .0265269
1127.881 .0265744
1128.484 .0266242
1129.087 .0266426
1129.691 .0266961
1130.295 .0267528
1130.900 .0268132
1131.505 .0268775
1132.111 .0269463
1132.718 .0270202
1133.325 .0271000
1133.933 .0271865
1134.541 .0272748
1135.150 .0273788
1135.760 .0274902
1136.370 .0276078
1136.981 .0275238
1137.592 .0276274
1138.204 .0277382
1138.817 .0278559
1139.431 .0279823
1140.045 .0281286
1140.660 .0282942
1141.275 .0284830
1141.891 .0287023
1142.508 .0287900
1143.126 .0292669
1143.744 .0295120
1144.363 .0297258
1144.983 .0301709
