Measurement Sequence started on: 15-12-46-377
Integration time: 28
Scans to Average: 2 
>>>>>Begin Spectral Data<<<<<
432.689 .0000100
433.621 .0000100
434.552 .0000100
435.482 .0000100
436.410 .0000100
437.337 .0000100
438.262 .0256989
439.187 .0545620
440.110 .0904720
441.031 .1310135
441.952 .1053766
442.871 .1100345
443.789 .1143557
444.705 .1184110
445.621 .1222511
446.535 .1259151
447.447 .1280795
448.359 .1286005
449.269 .1271246
450.178 .1234217
451.086 .1175615
451.993 .1099890
452.898 .1014452
453.803 .0927745
454.706 .0846978
455.608 .0776670
456.508 .0718380
457.408 .0678771
458.306 .0648360
459.204 .0623707
460.100 .0603067
460.995 .0585454
461.888 .0570177
462.781 .0556751
463.673 .0544802
464.563 .0534060
465.452 .0524316
466.340 .0515410
467.228 .0507228
468.114 .0499682
468.999 .0492713
469.882 .0486275
470.765 .0480323
471.647 .0474829
472.528 .0469767
473.407 .0465112
474.286 .0460850
475.163 .0456974
476.040 .0453470
476.915 .0450329
477.790 .0447541
478.663 .0445094
479.535 .0442979
480.407 .0441181
481.277 .0439681
482.147 .0438461
483.015 .0437501
483.883 .0436780
484.749 .0436281
485.615 .0435991
486.479 .0435894
487.343 .0435980
488.206 .0436239
489.067 .0436659
489.928 .0437229
490.788 .0437943
491.647 .0438799
492.505 .0439795
493.362 .0440932
494.218 .0442221
495.073 .0443672
495.928 .0446521
496.781 .0448487
497.634 .0450674
498.486 .0453102
499.337 .0455802
500.187 .0458802
501.036 .0462134
501.884 .0465825
502.731 .0469912
503.578 .0474430
504.424 .0477646
505.268 .0482927
506.113 .0488715
506.956 .0495042
507.798 .0501948
508.640 .0509490
509.480 .0517752
510.320 .0526837
511.160 .0536866
511.998 .0547962
512.836 .0560265
513.672 .0573914
514.508 .0589081
515.344 .0605964
516.178 .0624762
517.012 .0645684
517.845 .0668930
518.677 .0694687
519.508 .0723092
520.339 .0754200
521.169 .0788028
521.998 .0824372
522.826 .0862931
523.654 .0903237
524.481 .0944714
525.307 .0986705
526.133 .1028452
526.958 .1069123
527.782 .1107867
528.605 .1143848
529.428 .1176322
530.250 .1204595
531.072 .1228209
531.892 .1246786
532.712 .1260077
533.532 .1267955
534.350 .1270392
535.168 .1267433
535.986 .1259167
536.802 .1245694
537.618 .1227160
538.434 .1203689
539.249 .1175612
540.063 .1143336
540.876 .1107417
541.689 .1068518
542.501 .1027378
543.313 .0984796
544.124 .0941624
544.934 .0898692
545.744 .0856776
546.553 .0816548
547.361 .0778605
548.169 .0743287
548.976 .0710825
549.783 .0681282
550.589 .0654599
551.395 .0630589
552.200 .0609009
553.004 .0589568
553.808 .0572010
554.611 .0556106
555.414 .0541676
556.216 .0528554
557.018 .0516599
557.819 .0505688
558.619 .0495692
559.419 .0486487
560.218 .0477972
561.017 .0470036
561.815 .0462598
562.613 .0455582
563.410 .0448928
564.207 .0442578
565.003 .0436494
565.799 .0430637
566.594 .0424979
567.388 .0419493
568.182 .0414165
568.976 .0408970
569.769 .0403900
570.562 .0398951
571.354 .0394121
572.145 .0389418
572.936 .0384854
573.727 .0380437
574.517 .0376172
575.307 .0372065
576.096 .0368117
576.885 .0364329
577.673 .0360704
578.461 .0357240
579.248 .0353938
580.035 .0350799
580.821 .0347823
581.607 .0345011
582.392 .0342366
583.177 .0339888
583.962 .0337580
584.746 .0335437
585.529 .0333456
586.313 .0331629
587.095 .0329950
587.878 .0328410
588.660 .0327001
589.441 .0325715
590.222 .0324541
591.003 .0323470
591.783 .0322495
592.563 .0321606
593.342 .0320793
594.121 .0320050
594.899 .0319367
595.678 .0318737
596.455 .0318151
597.233 .0317605
598.009 .0317094
598.786 .0316615
599.562 .0316163
600.338 .0315733
601.113 .0315323
601.888 .0314750
602.663 .0314371
603.437 .0314003
604.211 .0313644
604.984 .0313295
605.757 .0312954
606.530 .0312621
607.302 .0312298
608.074 .0311984
608.845 .0311680
609.616 .0311387
610.387 .0311266
611.158 .0310988
611.928 .0310719
612.697 .0310459
613.467 .0310205
614.236 .0309958
615.004 .0309716
615.773 .0309478
616.541 .0309245
617.308 .0309016
618.076 .0308792
618.843 .0308574
619.609 .0308360
620.375 .0308150
621.141 .0307943
621.907 .0307738
622.672 .0307532
623.437 .0307325
624.202 .0307115
624.966 .0306902
625.730 .0306686
626.493 .0306467
627.257 .0306245
628.020 .0306022
628.782 .0305796
629.545 .0305568
630.307 .0305338
631.068 .0305105
631.830 .0304870
632.591 .0304631
633.352 .0304390
634.112 .0304147
634.872 .0303903
635.632 .0303657
636.392 .0303410
637.151 .0303164
637.910 .0302919
638.668 .0302675
639.427 .0302435
640.185 .0302199
640.943 .0301967
641.700 .0301739
642.457 .0301516
643.214 .0301298
643.971 .0301083
644.727 .0300873
645.483 .0300666
646.239 .0300463
646.994 .0300264
647.750 .0300070
648.505 .0299881
649.259 .0299696
650.014 .0299518
650.768 .0299345
651.521 .0299176
652.275 .0299011
653.028 .0298848
653.781 .0298687
654.534 .0298527
655.286 .0298367
656.039 .0298206
656.791 .0298045
657.542 .0297883
658.294 .0297720
659.045 .0297556
659.796 .0297390
660.546 .0297221
661.297 .0297050
662.047 .0296876
662.796 .0296698
663.546 .0296516
664.295 .0296332
665.044 .0296145
665.793 .0295957
666.542 .0295768
667.290 .0295580
668.038 .0295392
668.786 .0295205
669.533 .0295019
670.281 .0294834
671.028 .0294649
671.774 .0294463
672.521 .0294278
673.267 .0294092
674.013 .0293906
674.759 .0293720
675.505 .0293535
676.250 .0293350
676.995 .0293166
677.740 .0292983
678.484 .0292801
679.229 .0292620
679.973 .0292441
680.717 .0292263
681.460 .0292086
682.204 .0291910
682.947 .0291735
683.690 .0291560
684.433 .0291385
685.175 .0291211
685.917 .0291038
686.659 .0290865
687.401 .0290695
688.142 .0290525
688.884 .0290358
689.625 .0290193
690.365 .0290030
691.106 .0289867
691.846 .0289704
692.586 .0289542
693.326 .0289379
694.066 .0289215
694.805 .0289051
695.545 .0288887
696.284 .0288725
697.022 .0288564
697.761 .0288405
698.499 .0288247
699.237 .0288092
699.975 .0287939
700.713 .0287787
701.450 .0287637
702.187 .0287487
702.924 .0287338
703.661 .0287190
704.397 .0287043
705.133 .0286897
705.869 .0286752
706.605 .0286608
707.341 .0286464
708.076 .0286321
708.811 .0286179
709.546 .0286038
710.281 .0285897
711.015 .0285756
711.749 .0285615
712.483 .0285475
713.217 .0285333
713.950 .0285190
714.684 .0285046
715.417 .0284899
716.150 .0284751
716.882 .0284602
717.615 .0284450
718.347 .0284298
719.079 .0284144
719.811 .0283988
720.542 .0283830
721.273 .0283671
722.005 .0283511
722.735 .0283349
723.466 .0283186
724.196 .0283022
724.927 .0282858
725.656 .0282695
726.386 .0282533
727.116 .0282373
727.845 .0282215
728.574 .0282061
729.303 .0281909
730.031 .0281761
730.760 .0281617
731.488 .0281478
732.216 .0281344
732.944 .0281215
733.671 .0281092
734.398 .0280975
735.125 .0280863
735.852 .0280756
736.579 .0280654
737.305 .0280557
738.031 .0280463
738.757 .0280373
739.483 .0280286
740.208 .0280202
740.933 .0280120
741.658 .0280040
742.383 .0279962
743.108 .0279884
743.832 .0279806
744.556 .0279728
745.280 .0279649
746.004 .0279568
746.727 .0279486
747.450 .0279401
748.173 .0279313
748.896 .0279222
749.618 .0279128
750.340 .0279029
751.062 .0278927
751.784 .0278820
752.506 .0278709
753.227 .0278593
753.948 .0278474
754.669 .0278352
755.389 .0278227
756.110 .0278099
756.830 .0277968
757.550 .0277834
758.269 .0277697
758.989 .0277557
759.708 .0277413
760.427 .0277266
761.146 .0277115
761.864 .0276961
762.582 .0276804
763.300 .0276644
764.018 .0276482
764.736 .0276318
765.453 .0276152
766.170 .0275984
766.887 .0275814
767.603 .0275643
768.320 .0275470
769.036 .0275297
769.751 .0275125
770.467 .0274955
771.182 .0274787
771.897 .0274622
772.612 .0274462
773.327 .0274307
774.041 .0274158
774.755 .0274015
775.469 .0273879
776.183 .0273751
776.896 .0273630
777.609 .0273517
778.322 .0273411
779.035 .0273313
779.747 .0273220
780.459 .0273133
781.171 .0273049
781.882 .0272969
782.594 .0272891
783.305 .0272815
784.016 .0272740
784.726 .0272666
785.436 .0272592
786.147 .0272475
786.856 .0272401
787.566 .0272326
788.275 .0272250
788.984 .0272172
789.693 .0272092
790.401 .0272010
791.110 .0271925
791.818 .0271838
792.525 .0271749
793.233 .0271658
793.940 .0271564
794.647 .0271516
795.353 .0271420
796.060 .0271322
796.766 .0271220
797.472 .0271115
798.177 .0271006
798.883 .0270895
799.588 .0270780
800.292 .0270663
800.997 .0270542
801.701 .0270419
802.405 .0270293
803.109 .0270163
803.812 .0270030
804.515 .0269893
805.218 .0269753
805.921 .0269609
806.623 .0269463
807.325 .0269314
808.027 .0269163
808.728 .0269009
809.429 .0268854
810.130 .0268698
810.831 .0268540
811.531 .0268381
812.231 .0268222
812.931 .0268065
813.630 .0267909
814.330 .0267758
815.029 .0267611
815.727 .0267471
816.426 .0267339
817.124 .0267215
817.821 .0267100
818.519 .0266993
819.216 .0266894
819.913 .0266804
820.609 .0266721
821.306 .0266646
822.002 .0266579
822.697 .0266519
823.393 .0266467
824.088 .0266420
824.783 .0266380
825.477 .0266343
826.171 .0266311
826.865 .0266281
827.559 .0266254
828.252 .0266229
828.945 .0266205
829.638 .0266184
830.330 .0266165
831.023 .0266147
831.714 .0266131
832.406 .0266116
833.097 .0266102
833.788 .0266087
834.479 .0266072
835.169 .0266057
835.859 .0266042
836.548 .0266025
837.238 .0266008
837.927 .0265989
838.615 .0265968
839.304 .0265946
839.992 .0265921
840.680 .0265893
841.367 .0265862
842.054 .0265828
842.741 .0265791
843.428 .0265752
844.114 .0265710
844.800 .0265665
845.485 .0265617
846.170 .0265566
846.855 .0265510
847.540 .0265449
848.224 .0265382
848.908 .0265309
849.592 .0265230
850.275 .0265143
850.958 .0265049
851.641 .0264948
852.323 .0264842
853.005 .0264729
853.687 .0264610
854.368 .0264486
855.049 .0264357
855.730 .0264223
856.410 .0264085
857.090 .0263944
857.769 .0263800
858.449 .0263653
859.128 .0263504
859.806 .0263353
860.485 .0263201
861.163 .0263049
861.840 .0262896
862.518 .0262744
863.195 .0262593
863.871 .0262442
864.548 .0262293
865.224 .0262145
865.899 .0261998
866.574 .0261852
867.249 .0261708
867.924 .0261564
868.598 .0261423
869.272 .0261284
869.946 .0261147
870.619 .0261013
871.292 .0260883
871.964 .0260756
872.636 .0260634
873.308 .0260515
873.979 .0260401
874.651 .0260290
875.321 .0260184
875.992 .0260081
876.662 .0259981
877.331 .0259884
878.001 .0259791
878.670 .0259699
879.338 .0259610
880.007 .0259523
880.675 .0259438
881.342 .0259355
882.009 .0259274
882.676 .0259196
883.343 .0259122
884.009 .0259051
884.675 .0258982
885.340 .0258916
886.005 .0258853
886.670 .0258791
887.334 .0258731
887.998 .0258672
888.662 .0258613
889.325 .0258555
889.988 .0258498
890.650 .0258441
891.312 .0258384
891.974 .0258327
892.636 .0258270
893.297 .0258213
893.957 .0258155
894.618 .0258095
895.278 .0258035
895.937 .0257972
896.596 .0257908
897.255 .0257840
897.914 .0257770
898.572 .0257695
899.230 .0257615
899.887 .0257530
900.544 .0257440
901.201 .0257343
901.857 .0257167
902.513 .0257053
903.168 .0256933
903.823 .0256805
904.478 .0256671
905.132 .0256531
905.786 .0256384
906.440 .0256230
907.093 .0256071
907.746 .0255907
908.399 .0255738
909.051 .0255565
909.703 .0255390
910.354 .0255298
911.005 .0255124
911.656 .0254949
912.306 .0254776
912.956 .0254603
913.605 .0254432
914.254 .0254263
914.903 .0254095
915.551 .0253930
916.199 .0253766
916.847 .0253604
917.494 .0253443
918.141 .0253283
918.788 .0253124
919.434 .0252966
920.079 .0252807
920.725 .0252649
921.370 .0252491
922.014 .0252333
922.658 .0252174
923.302 .0252015
923.946 .0251855
924.589 .0251694
925.231 .0251533
925.873 .0251370
926.515 .0251207
927.157 .0251043
927.798 .0250878
928.439 .0250712
929.079 .0250547
929.719 .0250381
930.359 .0250216
930.998 .0250052
931.637 .0249890
932.275 .0249731
932.913 .0249575
933.551 .0249423
934.188 .0249277
934.825 .0249137
935.462 .0249003
936.098 .0248876
936.733 .0248756
937.369 .0248644
938.004 .0248538
938.638 .0248439
939.273 .0248347
939.907 .0248262
940.540 .0248182
941.173 .0248109
941.806 .0248041
942.438 .0247978
943.070 .0247920
943.702 .0247865
944.333 .0247813
944.964 .0247764
945.594 .0247716
946.224 .0247670
946.854 .0247625
947.483 .0247580
948.112 .0247536
948.741 .0247493
949.369 .0247449
949.996 .0247407
950.624 .0247364
951.251 .0247323
951.878 .0247281
952.504 .0247240
953.130 .0247200
953.755 .0247160
954.380 .0247120
955.005 .0247082
955.629 .0247043
956.253 .0247005
956.877 .0246968
957.500 .0246931
958.123 .0246895
958.746 .0246861
959.368 .0246830
959.990 .0246801
960.611 .0246777
961.232 .0246757
961.853 .0246741
962.473 .0246730
963.093 .0246724
963.712 .0246721
964.331 .0246721
964.950 .0246725
965.569 .0246730
966.187 .0246738
966.804 .0246749
967.422 .0246760
968.039 .0246773
968.655 .0246787
969.272 .0246800
969.887 .0246812
970.503 .0246822
971.118 .0246830
971.733 .0246836
972.347 .0246839
972.961 .0246839
973.575 .0246836
974.188 .0246832
974.801 .0246824
975.414 .0246813
976.026 .0246797
976.638 .0246776
977.250 .0246750
977.861 .0246717
978.472 .0246677
979.083 .0246631
979.693 .0246579
980.303 .0246522
980.912 .0246408
981.521 .0246338
982.130 .0246262
982.738 .0246180
983.346 .0246093
983.954 .0246001
984.562 .0245904
985.169 .0245804
985.775 .0245702
986.382 .0245601
986.988 .0245502
987.594 .0245406
988.199 .0245313
988.804 .0245225
989.409 .0245197
990.013 .0245119
990.617 .0245048
991.221 .0244982
991.824 .0244923
992.427 .0244870
993.030 .0244825
993.632 .0244786
994.234 .0244754
994.836 .0244728
995.438 .0244708
996.039 .0244693
996.640 .0244682
997.240 .0244676
997.840 .0244673
998.440 .0244672
999.040 .0244674
999.639 .0244677
1000.238 .0244682
1000.836 .0244688
1001.435 .0244695
1002.033 .0244702
1002.630 .0244710
1003.228 .0244719
1003.825 .0244727
1004.422 .0244734
1005.018 .0244741
1005.614 .0244746
1006.210 .0244749
1006.806 .0244749
1007.401 .0244746
1007.996 .0244740
1008.591 .0244732
1009.186 .0244721
1009.780 .0244707
1010.374 .0244692
1010.967 .0244675
1011.561 .0244656
1012.154 .0244635
1012.746 .0244614
1013.339 .0244592
1013.931 .0244569
1014.523 .0244548
1015.115 .0244527
1015.706 .0244510
1016.298 .0244496
1016.888 .0244487
1017.479 .0244483
1018.069 .0244486
1018.660 .0244493
1019.250 .0244506
1019.839 .0244523
1020.429 .0244544
1021.018 .0244568
1021.607 .0244596
1022.195 .0244627
1022.784 .0244661
1023.372 .0244697
1023.960 .0244737
1024.547 .0244780
1025.135 .0244825
1025.722 .0244871
1026.309 .0244918
1026.896 .0244964
1027.483 .0245009
1028.069 .0245053
1028.655 .0245096
1029.241 .0245137
1029.827 .0245178
1030.412 .0245217
1030.997 .0245255
1031.582 .0245291
1032.167 .0245326
1032.752 .0245358
1033.336 .0245388
1033.921 .0245414
1034.505 .0245436
1035.089 .0245454
1035.672 .0245468
1036.256 .0245478
1036.839 .0245483
1037.422 .0245483
1038.005 .0245479
1038.588 .0245470
1039.171 .0245456
1039.753 .0245437
1040.335 .0245413
1040.918 .0245384
1041.500 .0245351
1042.081 .0245313
1042.663 .0245272
1043.244 .0245228
1043.826 .0245181
1044.407 .0245132
1044.988 .0245081
1045.569 .0245029
1046.150 .0244976
1046.730 .0244921
1047.311 .0244866
1047.891 .0244811
1048.471 .0244757
1049.052 .0244704
1049.632 .0244653
1050.211 .0244604
1050.791 .0244559
1051.371 .0244516
1051.950 .0244475
1052.530 .0244437
1053.109 .0244400
1053.688 .0244365
1054.268 .0244333
1054.847 .0244305
1055.426 .0244280
1056.005 .0244259
1056.583 .0244243
1057.162 .0244231
1057.741 .0244224
1058.319 .0244220
1058.898 .0244219
1059.476 .0244220
1060.055 .0244220
1060.633 .0244221
1061.211 .0244222
1061.790 .0244222
1062.368 .0244222
1062.946 .0244222
1063.524 .0244223
1064.102 .0244223
1064.680 .0244221
1065.258 .0244216
1065.836 .0244209
1066.414 .0244197
1066.992 .0244181
1067.570 .0244160
1068.148 .0244136
1068.726 .0244109
1069.304 .0244082
1069.882 .0244054
1070.460 .0244029
1071.038 .0244007
1071.616 .0243987
1072.194 .0243969
1072.772 .0243953
1073.350 .0243936
1073.928 .0243920
1074.506 .0243902
1075.084 .0243885
1075.662 .0243867
1076.240 .0243850
1076.819 .0243835
1077.397 .0243824
1077.976 .0243817
1078.554 .0243814
1079.133 .0243815
1079.711 .0243821
1080.290 .0243829
1080.869 .0243839
1081.448 .0243851
1082.027 .0243865
1082.606 .0243882
1083.185 .0243902
1083.764 .0243926
1084.343 .0243956
1084.923 .0243994
1085.502 .0244038
1086.082 .0244089
1086.662 .0244145
1087.242 .0244205
1087.822 .0244266
1088.402 .0244329
1088.983 .0244391
1089.563 .0244455
1090.144 .0244522
1090.725 .0244593
1091.306 .0244670
1091.887 .0244755
1092.469 .0244849
1093.050 .0244953
1093.632 .0245068
1094.214 .0245194
1094.796 .0245329
1095.379 .0245473
1095.961 .0245626
1096.544 .0245789
1097.127 .0245961
1097.710 .0246144
1098.294 .0246338
1098.877 .0246542
1099.461 .0246757
1100.046 .0246983
1100.630 .0247218
1101.215 .0247462
1101.800 .0247713
1102.385 .0247970
1102.970 .0248232
1103.556 .0248498
1104.142 .0248768
1104.728 .0249042
1105.315 .0249319
1105.902 .0249600
1106.489 .0249885
1107.077 .0250172
1107.664 .0250461
1108.253 .0250754
1108.841 .0251050
1109.430 .0251346
1110.019 .0251642
1110.609 .0251936
1111.198 .0252224
1111.789 .0252507
1112.379 .0252783
1112.970 .0253052
1113.561 .0253315
1114.153 .0253573
1114.745 .0253830
1115.338 .0254090
1115.931 .0254357
1116.524 .0254633
1117.117 .0254921
1117.712 .0255220
1118.306 .0255531
1118.901 .0255853
1119.496 .0256189
1120.092 .0256537
1120.689 .0256902
1121.285 .0257286
1121.882 .0257690
1122.480 .0258119
1123.078 .0258574
1123.677 .0259054
1124.276 .0259558
1124.875 .0260084
1125.476 .0260628
1126.076 .0261189
1126.677 .0261765
1127.279 .0262359
1127.881 .0262973
1128.484 .0263611
1129.087 .0263876
1129.691 .0264561
1130.295 .0265277
1130.900 .0266022
1131.505 .0266793
1132.111 .0267589
1132.718 .0268404
1133.325 .0269236
1133.933 .0270087
1134.541 .0270908
1135.150 .0271852
1135.760 .0272723
1136.370 .0273652
1136.981 .0274564
1137.592 .0275508
1138.204 .0276488
1138.817 .0277426
1139.431 .0278349
1140.045 .0279304
1140.660 .0280211
1141.275 .0281166
1141.891 .0282289
1142.508 .0282068
1143.126 .0286189
1143.744 .0284824
1144.363 .0287160
1144.983 .0291405
