Measurement Sequence started on: 15-12-46-377
Integration time: 28
Scans to Average: 2 
>>>>>Begin Spectral Data<<<<<
432.689 .0000100
433.621 .0000100
434.552 .0000100
435.482 .0000100
436.410 .0000100
437.337 .0000100
438.262 .0251325
439.187 .0532950
440.110 .0882995
441.031 .1278276
441.952 .1028907
442.871 .1075333
443.789 .1118720
444.705 .1159706
445.621 .1198749
446.535 .1236180
447.447 .1259019
448.359 .1265857
449.269 .1253244
450.178 .1218921
451.086 .1163590
451.993 .1091601
452.898 .1010202
453.803 .0927605
454.706 .0850807
455.608 .0784160
456.508 .0729123
457.408 .0692150
458.306 .0663904
459.204 .0640994
460.100 .0621730
460.995 .0605138
461.888 .0590592
462.781 .0577643
463.673 .0565981
464.563 .0555384
465.452 .0545690
466.340 .0536773
467.228 .0528544
468.114 .0520929
468.999 .0513867
469.882 .0507301
470.765 .0501184
471.647 .0495476
472.528 .0490152
473.407 .0485187
474.286 .0480576
475.163 .0476318
476.040 .0472419
476.915 .0468884
477.790 .0465716
478.663 .0462912
479.535 .0460471
480.407 .0458377
481.277 .0456610
482.147 .0455151
483.015 .0453978
483.883 .0453077
484.749 .0452434
485.615 .0452042
486.479 .0451894
487.343 .0451983
488.206 .0452304
489.067 .0452842
489.928 .0453586
490.788 .0454520
491.647 .0455632
492.505 .0456916
493.362 .0458365
494.218 .0459983
495.073 .0461778
495.928 .0465126
496.781 .0467393
497.634 .0469847
498.486 .0472486
499.337 .0475310
500.187 .0478314
501.036 .0481505
501.884 .0484901
502.731 .0488537
503.578 .0492458
504.424 .0495036
505.268 .0499594
506.113 .0504615
506.956 .0510159
507.798 .0516289
508.640 .0523067
509.480 .0530570
510.320 .0538887
511.160 .0548131
511.998 .0558420
512.836 .0569930
513.672 .0582840
514.508 .0597384
515.344 .0613808
516.178 .0632342
517.012 .0653216
517.845 .0676636
518.677 .0702759
519.508 .0731690
520.339 .0763459
521.169 .0798065
521.998 .0835277
522.826 .0874811
523.654 .0916188
524.481 .0958825
525.307 .1002037
526.133 .1045029
526.958 .1086893
527.782 .1126740
528.605 .1163699
529.428 .1197009
530.250 .1225978
531.072 .1250140
531.892 .1269091
532.712 .1282600
533.532 .1290554
534.350 .1292923
535.168 .1289734
535.986 .1281117
536.802 .1267180
537.618 .1248077
538.434 .1223942
539.249 .1195129
540.063 .1162039
540.876 .1125236
541.689 .1085377
542.501 .1043200
543.313 .0999532
544.124 .0955290
544.934 .0911335
545.744 .0868476
546.553 .0827404
547.361 .0788687
548.169 .0752651
548.976 .0719525
549.783 .0689336
550.589 .0662007
551.395 .0637370
552.200 .0615215
553.004 .0595257
553.808 .0577266
554.611 .0561026
555.414 .0546364
556.216 .0533100
557.018 .0521055
557.819 .0510075
558.619 .0500030
559.419 .0490807
560.218 .0482311
561.017 .0474444
561.815 .0467140
562.613 .0460337
563.410 .0453971
564.207 .0447974
565.003 .0442293
565.799 .0436872
566.594 .0431666
567.388 .0426635
568.182 .0421751
568.976 .0416983
569.769 .0412328
570.562 .0407782
571.354 .0403340
572.145 .0399000
572.936 .0394764
573.727 .0390634
574.517 .0386617
575.307 .0382712
576.096 .0378919
576.885 .0375244
577.673 .0371697
578.461 .0368278
579.248 .0364996
580.035 .0361855
580.821 .0358865
581.607 .0356028
582.392 .0353347
583.177 .0350822
583.962 .0348451
584.746 .0346233
585.529 .0344163
586.313 .0342236
587.095 .0340441
587.878 .0338772
588.660 .0337219
589.441 .0335772
590.222 .0334425
591.003 .0333168
591.783 .0331993
592.563 .0330891
593.342 .0329857
594.121 .0328883
594.899 .0327964
595.678 .0327097
596.455 .0326278
597.233 .0325503
598.009 .0324769
598.786 .0324072
599.562 .0323410
600.338 .0322779
601.113 .0322176
601.888 .0321360
602.663 .0320820
603.437 .0320305
604.211 .0319814
604.984 .0319347
605.757 .0318906
606.530 .0318489
607.302 .0318096
608.074 .0317727
608.845 .0317380
609.616 .0317055
610.387 .0316936
611.158 .0316637
611.928 .0316357
612.697 .0316093
613.467 .0315844
614.236 .0315608
615.004 .0315384
615.773 .0315170
616.541 .0314967
617.308 .0314774
618.076 .0314589
618.843 .0314412
619.609 .0314242
620.375 .0314077
621.141 .0313915
621.907 .0313756
622.672 .0313597
623.437 .0313438
624.202 .0313278
624.966 .0313116
625.730 .0312953
626.493 .0312787
627.257 .0312619
628.020 .0312446
628.782 .0312268
629.545 .0312084
630.307 .0311892
631.068 .0311692
631.830 .0311484
632.591 .0311269
633.352 .0311045
634.112 .0310815
634.872 .0310577
635.632 .0310333
636.392 .0310081
637.151 .0309821
637.910 .0309554
638.668 .0309278
639.427 .0308996
640.185 .0308708
640.943 .0308416
641.700 .0308122
642.457 .0307828
643.214 .0307536
643.971 .0307245
644.727 .0306957
645.483 .0306672
646.239 .0306390
646.994 .0306110
647.750 .0305832
648.505 .0305557
649.259 .0305285
650.014 .0305016
650.768 .0304750
651.521 .0304488
652.275 .0304229
653.028 .0303973
653.781 .0303721
654.534 .0303470
655.286 .0303222
656.039 .0302975
656.791 .0302729
657.542 .0302483
658.294 .0302237
659.045 .0301990
659.796 .0301744
660.546 .0301498
661.297 .0301252
662.047 .0301007
662.796 .0300765
663.546 .0300526
664.295 .0300290
665.044 .0300060
665.793 .0299835
666.542 .0299616
667.290 .0299403
668.038 .0299197
668.786 .0298998
669.533 .0298805
670.281 .0298619
671.028 .0298440
671.774 .0298268
672.521 .0298101
673.267 .0297940
674.013 .0297785
674.759 .0297633
675.505 .0297485
676.250 .0297340
676.995 .0297196
677.740 .0297053
678.484 .0296910
679.229 .0296765
679.973 .0296619
680.717 .0296471
681.460 .0296320
682.204 .0296166
682.947 .0296010
683.690 .0295851
684.433 .0295690
685.175 .0295527
685.917 .0295362
686.659 .0295196
687.401 .0295029
688.142 .0294861
688.884 .0294693
689.625 .0294524
690.365 .0294356
691.106 .0294189
691.846 .0294024
692.586 .0293859
693.326 .0293697
694.066 .0293536
694.805 .0293377
695.545 .0293220
696.284 .0293064
697.022 .0292910
697.761 .0292758
698.499 .0292608
699.237 .0292460
699.975 .0292314
700.713 .0292171
701.450 .0292030
702.187 .0291890
702.924 .0291749
703.661 .0291608
704.397 .0291465
705.133 .0291320
705.869 .0291170
706.605 .0291018
707.341 .0290861
708.076 .0290700
708.811 .0290534
709.546 .0290366
710.281 .0290193
711.015 .0290017
711.749 .0289837
712.483 .0289653
713.217 .0289465
713.950 .0289272
714.684 .0289074
715.417 .0288872
716.150 .0288665
716.882 .0288453
717.615 .0288237
718.347 .0288018
719.079 .0287798
719.811 .0287575
720.542 .0287352
721.273 .0287129
722.005 .0286907
722.735 .0286686
723.466 .0286466
724.196 .0286249
724.927 .0286034
725.656 .0285823
726.386 .0285616
727.116 .0285414
727.845 .0285216
728.574 .0285025
729.303 .0284840
730.031 .0284662
730.760 .0284491
731.488 .0284328
732.216 .0284173
732.944 .0284026
733.671 .0283885
734.398 .0283752
735.125 .0283623
735.852 .0283500
736.579 .0283382
737.305 .0283269
738.031 .0283159
738.757 .0283054
739.483 .0282953
740.208 .0282855
740.933 .0282760
741.658 .0282667
742.383 .0282575
743.108 .0282483
743.832 .0282391
744.556 .0282299
745.280 .0282205
746.004 .0282111
746.727 .0282015
747.450 .0281918
748.173 .0281818
748.896 .0281717
749.618 .0281612
750.340 .0281505
751.062 .0281394
751.784 .0281279
752.506 .0281161
753.227 .0281040
753.948 .0280916
754.669 .0280790
755.389 .0280662
756.110 .0280532
756.830 .0280401
757.550 .0280269
758.269 .0280137
758.989 .0280003
759.708 .0279869
760.427 .0279734
761.146 .0279598
761.864 .0279462
762.582 .0279326
763.300 .0279190
764.018 .0279054
764.736 .0278921
765.453 .0278790
766.170 .0278662
766.887 .0278536
767.603 .0278414
768.320 .0278295
769.036 .0278179
769.751 .0278065
770.467 .0277953
771.182 .0277843
771.897 .0277735
772.612 .0277629
773.327 .0277525
774.041 .0277424
774.755 .0277326
775.469 .0277231
776.183 .0277140
776.896 .0277053
777.609 .0276968
778.322 .0276886
779.035 .0276806
779.747 .0276727
780.459 .0276650
781.171 .0276572
781.882 .0276495
782.594 .0276418
783.305 .0276342
784.016 .0276265
784.726 .0276187
785.436 .0276109
786.147 .0275988
786.856 .0275905
787.566 .0275820
788.275 .0275733
788.984 .0275645
789.693 .0275553
790.401 .0275459
791.110 .0275362
791.818 .0275262
792.525 .0275160
793.233 .0275055
793.940 .0274947
794.647 .0274886
795.353 .0274775
796.060 .0274664
796.766 .0274551
797.472 .0274436
798.177 .0274319
798.883 .0274200
799.588 .0274078
800.292 .0273954
800.997 .0273826
801.701 .0273695
802.405 .0273561
803.109 .0273425
803.812 .0273287
804.515 .0273147
805.218 .0273005
805.921 .0272862
806.623 .0272716
807.325 .0272569
808.027 .0272418
808.728 .0272266
809.429 .0272111
810.130 .0271953
810.831 .0271794
811.531 .0271633
812.231 .0271472
812.931 .0271309
813.630 .0271147
814.330 .0270986
815.029 .0270826
815.727 .0270669
816.426 .0270515
817.124 .0270365
817.821 .0270220
818.519 .0270080
819.216 .0269947
819.913 .0269820
820.609 .0269699
821.306 .0269586
822.002 .0269480
822.697 .0269381
823.393 .0269289
824.088 .0269205
824.783 .0269128
825.477 .0269058
826.171 .0268995
826.865 .0268939
827.559 .0268888
828.252 .0268842
828.945 .0268802
829.638 .0268765
830.330 .0268732
831.023 .0268701
831.714 .0268673
832.406 .0268646
833.097 .0268621
833.788 .0268596
834.479 .0268571
835.169 .0268546
835.859 .0268521
836.548 .0268495
837.238 .0268469
837.927 .0268442
838.615 .0268413
839.304 .0268383
839.992 .0268350
840.680 .0268315
841.367 .0268277
842.054 .0268237
842.741 .0268193
843.428 .0268146
844.114 .0268097
844.800 .0268045
845.485 .0267990
846.170 .0267933
846.855 .0267873
847.540 .0267810
848.224 .0267744
848.908 .0267674
849.592 .0267599
850.275 .0267521
850.958 .0267437
851.641 .0267350
852.323 .0267259
853.005 .0267164
853.687 .0267066
854.368 .0266965
855.049 .0266860
855.730 .0266753
856.410 .0266643
857.090 .0266531
857.769 .0266418
858.449 .0266304
859.128 .0266189
859.806 .0266074
860.485 .0265959
861.163 .0265845
861.840 .0265731
862.518 .0265616
863.195 .0265502
863.871 .0265388
864.548 .0265274
865.224 .0265160
865.899 .0265047
866.574 .0264934
867.249 .0264822
867.924 .0264712
868.598 .0264602
869.272 .0264493
869.946 .0264383
870.619 .0264274
871.292 .0264164
871.964 .0264054
872.636 .0263943
873.308 .0263831
873.979 .0263720
874.651 .0263608
875.321 .0263495
875.992 .0263382
876.662 .0263267
877.331 .0263151
878.001 .0263034
878.670 .0262917
879.338 .0262799
880.007 .0262681
880.675 .0262565
881.342 .0262451
882.009 .0262339
882.676 .0262231
883.343 .0262125
884.009 .0262021
884.675 .0261921
885.340 .0261823
886.005 .0261729
886.670 .0261637
887.334 .0261550
887.998 .0261467
888.662 .0261389
889.325 .0261315
889.988 .0261245
890.650 .0261180
891.312 .0261117
891.974 .0261056
892.636 .0260996
893.297 .0260936
893.957 .0260877
894.618 .0260817
895.278 .0260755
895.937 .0260692
896.596 .0260626
897.255 .0260556
897.914 .0260482
898.572 .0260402
899.230 .0260316
899.887 .0260222
900.544 .0260121
901.201 .0260011
901.857 .0259803
902.513 .0259671
903.168 .0259529
903.823 .0259379
904.478 .0259220
905.132 .0259051
905.786 .0258873
906.440 .0258686
907.093 .0258491
907.746 .0258288
908.399 .0258079
909.051 .0257865
909.703 .0257649
910.354 .0257535
911.005 .0257320
911.656 .0257105
912.306 .0256891
912.956 .0256678
913.605 .0256468
914.254 .0256260
914.903 .0256055
915.551 .0255852
916.199 .0255653
916.847 .0255458
917.494 .0255267
918.141 .0255079
918.788 .0254896
919.434 .0254716
920.079 .0254538
920.725 .0254362
921.370 .0254188
922.014 .0254014
922.658 .0253842
923.302 .0253672
923.946 .0253503
924.589 .0253337
925.231 .0253172
925.873 .0253010
926.515 .0252851
927.157 .0252693
927.798 .0252536
928.439 .0252382
929.079 .0252230
929.719 .0252080
930.359 .0251934
930.998 .0251792
931.637 .0251655
932.275 .0251522
932.913 .0251393
933.551 .0251268
934.188 .0251148
934.825 .0251033
935.462 .0250922
936.098 .0250817
936.733 .0250718
937.369 .0250626
938.004 .0250542
938.638 .0250465
939.273 .0250396
939.907 .0250334
940.540 .0250279
941.173 .0250229
941.806 .0250186
942.438 .0250148
943.070 .0250115
943.702 .0250086
944.333 .0250062
944.964 .0250041
945.594 .0250024
946.224 .0250008
946.854 .0249993
947.483 .0249979
948.112 .0249965
948.741 .0249950
949.369 .0249936
949.996 .0249921
950.624 .0249908
951.251 .0249895
951.878 .0249882
952.504 .0249870
953.130 .0249858
953.755 .0249847
954.380 .0249835
955.005 .0249822
955.629 .0249809
956.253 .0249796
956.877 .0249783
957.500 .0249770
958.123 .0249758
958.746 .0249745
959.368 .0249733
959.990 .0249722
960.611 .0249711
961.232 .0249700
961.853 .0249689
962.473 .0249680
963.093 .0249670
963.712 .0249661
964.331 .0249653
964.950 .0249645
965.569 .0249637
966.187 .0249628
966.804 .0249618
967.422 .0249607
968.039 .0249594
968.655 .0249580
969.272 .0249564
969.887 .0249546
970.503 .0249527
971.118 .0249506
971.733 .0249483
972.347 .0249459
972.961 .0249433
973.575 .0249406
974.188 .0249378
974.801 .0249348
975.414 .0249316
976.026 .0249283
976.638 .0249248
977.250 .0249212
977.861 .0249174
978.472 .0249133
979.083 .0249090
979.693 .0249045
980.303 .0248998
980.912 .0248922
981.521 .0248872
982.130 .0248822
982.738 .0248770
983.346 .0248719
983.954 .0248667
984.562 .0248615
985.169 .0248563
985.775 .0248513
986.382 .0248464
986.988 .0248417
987.594 .0248372
988.199 .0248330
988.804 .0248290
989.409 .0248278
990.013 .0248241
990.617 .0248206
991.221 .0248172
991.824 .0248138
992.427 .0248105
993.030 .0248072
993.632 .0248039
994.234 .0248006
994.836 .0247973
995.438 .0247941
996.039 .0247908
996.640 .0247874
997.240 .0247841
997.840 .0247807
998.440 .0247773
999.040 .0247739
999.639 .0247704
1000.238 .0247669
1000.836 .0247634
1001.435 .0247597
1002.033 .0247560
1002.630 .0247520
1003.228 .0247478
1003.825 .0247433
1004.422 .0247384
1005.018 .0247332
1005.614 .0247275
1006.210 .0247214
1006.806 .0247149
1007.401 .0247081
1007.996 .0247009
1008.591 .0246935
1009.186 .0246858
1009.780 .0246780
1010.374 .0246702
1010.967 .0246624
1011.561 .0246546
1012.154 .0246470
1012.746 .0246396
1013.339 .0246325
1013.931 .0246256
1014.523 .0246191
1015.115 .0246128
1015.706 .0246068
1016.298 .0246011
1016.888 .0245955
1017.479 .0245901
1018.069 .0245848
1018.660 .0245797
1019.250 .0245747
1019.839 .0245698
1020.429 .0245651
1021.018 .0245605
1021.607 .0245561
1022.195 .0245520
1022.784 .0245480
1023.372 .0245444
1023.960 .0245410
1024.547 .0245379
1025.135 .0245351
1025.722 .0245325
1026.309 .0245301
1026.896 .0245280
1027.483 .0245260
1028.069 .0245241
1028.655 .0245223
1029.241 .0245206
1029.827 .0245188
1030.412 .0245169
1030.997 .0245148
1031.582 .0245125
1032.167 .0245099
1032.752 .0245071
1033.336 .0245040
1033.921 .0245007
1034.505 .0244974
1035.089 .0244940
1035.672 .0244907
1036.256 .0244874
1036.839 .0244843
1037.422 .0244813
1038.005 .0244783
1038.588 .0244753
1039.171 .0244724
1039.753 .0244695
1040.335 .0244666
1040.918 .0244635
1041.500 .0244604
1042.081 .0244571
1042.663 .0244537
1043.244 .0244501
1043.826 .0244463
1044.407 .0244423
1044.988 .0244380
1045.569 .0244337
1046.150 .0244292
1046.730 .0244247
1047.311 .0244202
1047.891 .0244157
1048.471 .0244112
1049.052 .0244068
1049.632 .0244025
1050.211 .0243983
1050.791 .0243943
1051.371 .0243904
1051.950 .0243866
1052.530 .0243831
1053.109 .0243797
1053.688 .0243765
1054.268 .0243735
1054.847 .0243706
1055.426 .0243678
1056.005 .0243651
1056.583 .0243625
1057.162 .0243601
1057.741 .0243580
1058.319 .0243562
1058.898 .0243549
1059.476 .0243541
1060.055 .0243538
1060.633 .0243541
1061.211 .0243549
1061.790 .0243560
1062.368 .0243575
1062.946 .0243592
1063.524 .0243609
1064.102 .0243628
1064.680 .0243649
1065.258 .0243670
1065.836 .0243691
1066.414 .0243714
1066.992 .0243737
1067.570 .0243760
1068.148 .0243783
1068.726 .0243805
1069.304 .0243827
1069.882 .0243850
1070.460 .0243873
1071.038 .0243897
1071.616 .0243924
1072.194 .0243954
1072.772 .0243987
1073.350 .0244022
1073.928 .0244059
1074.506 .0244096
1075.084 .0244133
1075.662 .0244169
1076.240 .0244205
1076.819 .0244240
1077.397 .0244275
1077.976 .0244308
1078.554 .0244342
1079.133 .0244376
1079.711 .0244408
1080.290 .0244439
1080.869 .0244469
1081.448 .0244496
1082.027 .0244521
1082.606 .0244544
1083.185 .0244567
1083.764 .0244590
1084.343 .0244614
1084.923 .0244640
1085.502 .0244671
1086.082 .0244706
1086.662 .0244746
1087.242 .0244791
1087.822 .0244841
1088.402 .0244894
1088.983 .0244951
1089.563 .0245011
1090.144 .0245077
1090.725 .0245148
1091.306 .0245227
1091.887 .0245315
1092.469 .0245415
1093.050 .0245527
1093.632 .0245651
1094.214 .0245788
1094.796 .0245937
1095.379 .0246097
1095.961 .0246268
1096.544 .0246451
1097.127 .0246648
1097.710 .0246860
1098.294 .0247090
1098.877 .0247341
1099.461 .0247614
1100.046 .0247911
1100.630 .0248232
1101.215 .0248575
1101.800 .0248939
1102.385 .0249320
1102.970 .0249716
1103.556 .0250126
1104.142 .0250548
1104.728 .0250980
1105.315 .0251423
1105.902 .0251876
1106.489 .0252339
1107.077 .0252811
1107.664 .0253291
1108.253 .0253776
1108.841 .0254262
1109.430 .0254749
1110.019 .0255233
1110.609 .0255714
1111.198 .0256193
1111.789 .0256672
1112.379 .0257153
1112.970 .0257639
1113.561 .0258131
1114.153 .0258632
1114.745 .0259139
1115.338 .0259651
1115.931 .0260165
1116.524 .0260678
1117.117 .0261187
1117.712 .0261691
1118.306 .0262192
1118.901 .0262689
1119.496 .0263185
1120.092 .0263681
1120.689 .0264180
1121.285 .0264683
1121.882 .0265192
1122.480 .0265707
1123.078 .0266228
1123.677 .0266758
1124.276 .0267298
1124.875 .0267850
1125.476 .0268418
1126.076 .0269006
1126.677 .0269615
1127.279 .0270249
1127.881 .0270910
1128.484 .0271598
1129.087 .0271901
1129.691 .0272629
1130.295 .0273384
1130.900 .0274166
1131.505 .0274974
1132.111 .0275810
1132.718 .0276676
1133.325 .0277577
1133.933 .0278522
1134.541 .0279472
1135.150 .0280475
1135.760 .0281523
1136.370 .0282705
1136.981 .0282702
1137.592 .0283920
1138.204 .0285164
1138.817 .0286459
1139.431 .0287795
1140.045 .0289162
1140.660 .0290586
1141.275 .0292160
1141.891 .0293968
1142.508 .0294645
1143.126 .0296685
1143.744 .0298524
1144.363 .0302887
1144.983 .0308161
