Measurement Sequence started on: 15-12-46-377
Integration time: 28
Scans to Average: 2 
>>>>>Begin Spectral Data<<<<<
432.689 .0000100
433.621 .0000100
434.552 .0000100
435.482 .0000100
436.410 .0000100
437.337 .0000100
438.262 .0280941
439.187 .0593893
440.110 .0981565
441.031 .1418562
441.952 .1132259
442.871 .1182734
443.789 .1229851
444.705 .1274285
445.621 .1316493
446.535 .1356823
447.447 .1380753
448.359 .1386809
449.269 .1371263
450.178 .1331675
451.086 .1268890
451.993 .1187830
452.898 .1096571
453.803 .1004225
454.706 .0918490
455.608 .0844080
456.508 .0782513
457.408 .0740947
458.306 .0708866
459.204 .0682517
460.100 .0660110
460.995 .0640652
461.888 .0623498
462.781 .0608219
463.673 .0594489
464.563 .0582074
465.452 .0570787
466.340 .0560456
467.228 .0550955
468.114 .0542200
468.999 .0534126
469.882 .0526682
470.765 .0519827
471.647 .0513527
472.528 .0507760
473.407 .0502503
474.286 .0497731
475.163 .0493420
476.040 .0489548
476.915 .0486095
477.790 .0483040
478.663 .0480365
479.535 .0478056
480.407 .0476099
481.277 .0474480
482.147 .0473180
483.015 .0472172
483.883 .0471435
484.749 .0470945
485.615 .0470685
486.479 .0470639
487.343 .0470794
488.206 .0471146
489.067 .0471689
489.928 .0472421
490.788 .0473347
491.647 .0474471
492.505 .0475802
493.362 .0477346
494.218 .0479102
495.073 .0481066
495.928 .0484704
496.781 .0487120
497.634 .0489690
498.486 .0492408
499.337 .0495279
500.187 .0498319
501.036 .0501555
501.884 .0505018
502.731 .0508747
503.578 .0512779
504.424 .0515380
505.268 .0519989
506.113 .0524977
506.956 .0530370
507.798 .0536206
508.640 .0542545
509.480 .0549482
510.320 .0557137
511.160 .0565666
511.998 .0575277
512.836 .0586201
513.672 .0598654
514.508 .0612866
515.344 .0629078
516.178 .0647509
517.012 .0668403
517.845 .0691980
518.677 .0718441
519.508 .0747945
520.339 .0780589
521.169 .0816404
521.998 .0855166
522.826 .0896535
523.654 .0939966
524.481 .0984769
525.307 .1030160
526.133 .1075197
526.958 .1118932
527.782 .1160454
528.605 .1198907
529.428 .1233503
530.250 .1263545
531.072 .1288594
531.892 .1308280
532.712 .1322366
533.532 .1330737
534.350 .1333336
535.168 .1330214
535.986 .1321435
536.802 .1307084
537.618 .1287286
538.434 .1262203
539.249 .1232219
540.063 .1197815
540.876 .1159636
541.689 .1118447
542.501 .1075073
543.313 .1030456
544.124 .0985523
544.934 .0941125
545.744 .0898011
546.553 .0856828
547.361 .0818107
548.169 .0782133
548.976 .0749100
549.783 .0719056
550.589 .0691935
551.395 .0667561
552.200 .0645673
553.004 .0625994
553.808 .0608245
554.611 .0592169
555.414 .0577529
556.216 .0564126
557.018 .0551786
557.819 .0540381
558.619 .0529805
559.419 .0519980
560.218 .0510843
561.017 .0502317
561.815 .0494336
562.613 .0486845
563.410 .0479776
564.207 .0473068
565.003 .0466659
565.799 .0460493
566.594 .0454525
567.388 .0448721
568.182 .0443058
568.976 .0437515
569.769 .0432084
570.562 .0426770
571.354 .0421576
572.145 .0416514
572.936 .0411594
573.727 .0406819
574.517 .0402196
575.307 .0397730
576.096 .0393411
576.885 .0389240
577.673 .0385218
578.461 .0381349
579.248 .0377637
580.035 .0374091
580.821 .0370720
581.607 .0367530
582.392 .0364533
583.177 .0361730
583.962 .0359123
584.746 .0356710
585.529 .0354485
586.313 .0352437
587.095 .0350558
587.878 .0348836
588.660 .0347261
589.441 .0345824
590.222 .0344518
591.003 .0343334
591.783 .0342263
592.563 .0341294
593.342 .0340415
594.121 .0339613
594.899 .0338875
595.678 .0338188
596.455 .0337539
597.233 .0336919
598.009 .0336318
598.786 .0335732
599.562 .0335156
600.338 .0334588
601.113 .0334026
601.888 .0333189
602.663 .0332643
603.437 .0332103
604.211 .0331570
604.984 .0331042
605.757 .0330518
606.530 .0330000
607.302 .0329488
608.074 .0328984
608.845 .0328489
609.616 .0328006
610.387 .0327804
611.158 .0327347
611.928 .0326906
612.697 .0326483
613.467 .0326076
614.236 .0325688
615.004 .0325317
615.773 .0324963
616.541 .0324625
617.308 .0324304
618.076 .0323997
618.843 .0323704
619.609 .0323423
620.375 .0323153
621.141 .0322891
621.907 .0322636
622.672 .0322388
623.437 .0322145
624.202 .0321908
624.966 .0321674
625.730 .0321444
626.493 .0321214
627.257 .0320983
628.020 .0320749
628.782 .0320512
629.545 .0320271
630.307 .0320025
631.068 .0319776
631.830 .0319525
632.591 .0319272
633.352 .0319020
634.112 .0318767
634.872 .0318515
635.632 .0318262
636.392 .0318007
637.151 .0317749
637.910 .0317488
638.668 .0317224
639.427 .0316960
640.185 .0316695
640.943 .0316432
641.700 .0316171
642.457 .0315914
643.214 .0315661
643.971 .0315412
644.727 .0315167
645.483 .0314925
646.239 .0314684
646.994 .0314446
647.750 .0314209
648.505 .0313974
649.259 .0313741
650.014 .0313508
650.768 .0313276
651.521 .0313045
652.275 .0312814
653.028 .0312582
653.781 .0312350
654.534 .0312116
655.286 .0311880
656.039 .0311642
656.791 .0311399
657.542 .0311150
658.294 .0310896
659.045 .0310636
659.796 .0310370
660.546 .0310098
661.297 .0309822
662.047 .0309542
662.796 .0309259
663.546 .0308974
664.295 .0308688
665.044 .0308402
665.793 .0308114
666.542 .0307826
667.290 .0307536
668.038 .0307245
668.786 .0306954
669.533 .0306663
670.281 .0306373
671.028 .0306085
671.774 .0305800
672.521 .0305520
673.267 .0305244
674.013 .0304974
674.759 .0304711
675.505 .0304454
676.250 .0304205
676.995 .0303962
677.740 .0303726
678.484 .0303497
679.229 .0303273
679.973 .0303056
680.717 .0302844
681.460 .0302637
682.204 .0302437
682.947 .0302241
683.690 .0302051
684.433 .0301867
685.175 .0301687
685.917 .0301512
686.659 .0301341
687.401 .0301174
688.142 .0301011
688.884 .0300850
689.625 .0300691
690.365 .0300534
691.106 .0300379
691.846 .0300224
692.586 .0300070
693.326 .0299916
694.066 .0299762
694.805 .0299608
695.545 .0299454
696.284 .0299300
697.022 .0299148
697.761 .0298995
698.499 .0298844
699.237 .0298694
699.975 .0298544
700.713 .0298395
701.450 .0298248
702.187 .0298101
702.924 .0297955
703.661 .0297811
704.397 .0297669
705.133 .0297530
705.869 .0297393
706.605 .0297260
707.341 .0297131
708.076 .0297006
708.811 .0296885
709.546 .0296767
710.281 .0296650
711.015 .0296536
711.749 .0296421
712.483 .0296306
713.217 .0296190
713.950 .0296071
714.684 .0295951
715.417 .0295828
716.150 .0295703
716.882 .0295576
717.615 .0295444
718.347 .0295309
719.079 .0295168
719.811 .0295021
720.542 .0294867
721.273 .0294706
722.005 .0294537
722.735 .0294361
723.466 .0294179
724.196 .0293990
724.927 .0293798
725.656 .0293601
726.386 .0293402
727.116 .0293202
727.845 .0293001
728.574 .0292801
729.303 .0292601
730.031 .0292404
730.760 .0292208
731.488 .0292014
732.216 .0291823
732.944 .0291633
733.671 .0291446
734.398 .0291261
735.125 .0291079
735.852 .0290901
736.579 .0290727
737.305 .0290558
738.031 .0290394
738.757 .0290236
739.483 .0290083
740.208 .0289933
740.933 .0289785
741.658 .0289638
742.383 .0289490
743.108 .0289341
743.832 .0289190
744.556 .0289038
745.280 .0288883
746.004 .0288728
746.727 .0288571
747.450 .0288414
748.173 .0288255
748.896 .0288095
749.618 .0287933
750.340 .0287767
751.062 .0287598
751.784 .0287424
752.506 .0287245
753.227 .0287061
753.948 .0286872
754.669 .0286679
755.389 .0286482
756.110 .0286282
756.830 .0286080
757.550 .0285877
758.269 .0285674
758.989 .0285470
759.708 .0285266
760.427 .0285062
761.146 .0284858
761.864 .0284654
762.582 .0284448
763.300 .0284242
764.018 .0284036
764.736 .0283830
765.453 .0283624
766.170 .0283421
766.887 .0283221
767.603 .0283026
768.320 .0282837
769.036 .0282655
769.751 .0282479
770.467 .0282310
771.182 .0282147
771.897 .0281990
772.612 .0281838
773.327 .0281692
774.041 .0281552
774.755 .0281418
775.469 .0281290
776.183 .0281170
776.896 .0281058
777.609 .0280955
778.322 .0280859
779.035 .0280771
779.747 .0280691
780.459 .0280617
781.171 .0280550
781.882 .0280488
782.594 .0280431
783.305 .0280380
784.016 .0280333
784.726 .0280290
785.436 .0280250
786.147 .0280205
786.856 .0280171
787.566 .0280140
788.275 .0280111
788.984 .0280084
789.693 .0280058
790.401 .0280035
791.110 .0280012
791.818 .0279990
792.525 .0279968
793.233 .0279946
793.940 .0279924
794.647 .0279910
795.353 .0279887
796.060 .0279864
796.766 .0279839
797.472 .0279812
798.177 .0279783
798.883 .0279753
799.588 .0279719
800.292 .0279682
800.997 .0279642
801.701 .0279598
802.405 .0279551
803.109 .0279502
803.812 .0279449
804.515 .0279394
805.218 .0279337
805.921 .0279277
806.623 .0279214
807.325 .0279148
808.027 .0279079
808.728 .0279008
809.429 .0278934
810.130 .0278858
810.831 .0278781
811.531 .0278702
812.231 .0278623
812.931 .0278543
813.630 .0278464
814.330 .0278385
815.029 .0278307
815.727 .0278231
816.426 .0278158
817.124 .0278088
817.821 .0278020
818.519 .0277955
819.216 .0277893
819.913 .0277835
820.609 .0277779
821.306 .0277727
822.002 .0277678
822.697 .0277634
823.393 .0277594
824.088 .0277558
824.783 .0277527
825.477 .0277499
826.171 .0277474
826.865 .0277450
827.559 .0277427
828.252 .0277404
828.945 .0277380
829.638 .0277356
830.330 .0277331
831.023 .0277306
831.714 .0277280
832.406 .0277253
833.097 .0277225
833.788 .0277195
834.479 .0277162
835.169 .0277128
835.859 .0277091
836.548 .0277050
837.238 .0277007
837.927 .0276960
838.615 .0276910
839.304 .0276854
839.992 .0276793
840.680 .0276727
841.367 .0276654
842.054 .0276575
842.741 .0276490
843.428 .0276398
844.114 .0276300
844.800 .0276196
845.485 .0276085
846.170 .0275967
846.855 .0275842
847.540 .0275708
848.224 .0275566
848.908 .0275414
849.592 .0275253
850.275 .0275081
850.958 .0274899
851.641 .0274707
852.323 .0274506
853.005 .0274296
853.687 .0274078
854.368 .0273852
855.049 .0273619
855.730 .0273379
856.410 .0273134
857.090 .0272882
857.769 .0272626
858.449 .0272365
859.128 .0272099
859.806 .0271831
860.485 .0271560
861.163 .0271288
861.840 .0271016
862.518 .0270744
863.195 .0270472
863.871 .0270203
864.548 .0269935
865.224 .0269670
865.899 .0269409
866.574 .0269150
867.249 .0268894
867.924 .0268642
868.598 .0268394
869.272 .0268150
869.946 .0267909
870.619 .0267672
871.292 .0267440
871.964 .0267212
872.636 .0266988
873.308 .0266770
873.979 .0266556
874.651 .0266349
875.321 .0266147
875.992 .0265950
876.662 .0265760
877.331 .0265575
878.001 .0265395
878.670 .0265220
879.338 .0265050
880.007 .0264886
880.675 .0264728
881.342 .0264576
882.009 .0264431
882.676 .0264294
883.343 .0264164
884.009 .0264042
884.675 .0263927
885.340 .0263821
886.005 .0263722
886.670 .0263630
887.334 .0263546
887.998 .0263468
888.662 .0263397
889.325 .0263333
889.988 .0263274
890.650 .0263220
891.312 .0263170
891.974 .0263124
892.636 .0263082
893.297 .0263042
893.957 .0263003
894.618 .0262966
895.278 .0262929
895.937 .0262891
896.596 .0262851
897.255 .0262808
897.914 .0262761
898.572 .0262709
899.230 .0262650
899.887 .0262585
900.544 .0262513
901.201 .0262434
901.857 .0262282
902.513 .0262185
903.168 .0262081
903.823 .0261970
904.478 .0261854
905.132 .0261731
905.786 .0261602
906.440 .0261467
907.093 .0261328
907.746 .0261185
908.399 .0261040
909.051 .0260892
909.703 .0260745
910.354 .0260674
911.005 .0260531
911.656 .0260390
912.306 .0260252
912.956 .0260117
913.605 .0259987
914.254 .0259861
914.903 .0259741
915.551 .0259626
916.199 .0259518
916.847 .0259415
917.494 .0259318
918.141 .0259227
918.788 .0259140
919.434 .0259059
920.079 .0258982
920.725 .0258909
921.370 .0258840
922.014 .0258774
922.658 .0258712
923.302 .0258653
923.946 .0258597
924.589 .0258542
925.231 .0258488
925.873 .0258436
926.515 .0258384
927.157 .0258332
927.798 .0258280
928.439 .0258229
929.079 .0258178
929.719 .0258129
930.359 .0258082
930.998 .0258036
931.637 .0257992
932.275 .0257951
932.913 .0257913
933.551 .0257877
934.188 .0257844
934.825 .0257815
935.462 .0257790
936.098 .0257769
936.733 .0257754
937.369 .0257744
938.004 .0257739
938.638 .0257741
939.273 .0257748
939.907 .0257761
940.540 .0257779
941.173 .0257803
941.806 .0257832
942.438 .0257866
943.070 .0257905
943.702 .0257948
944.333 .0257996
944.964 .0258048
945.594 .0258103
946.224 .0258160
946.854 .0258220
947.483 .0258280
948.112 .0258341
948.741 .0258402
949.369 .0258462
949.996 .0258521
950.624 .0258580
951.251 .0258637
951.878 .0258693
952.504 .0258747
953.130 .0258799
953.755 .0258848
954.380 .0258893
955.005 .0258934
955.629 .0258970
956.253 .0259001
956.877 .0259028
957.500 .0259049
958.123 .0259066
958.746 .0259078
959.368 .0259086
959.990 .0259089
960.611 .0259087
961.232 .0259081
961.853 .0259071
962.473 .0259055
963.093 .0259034
963.712 .0259009
964.331 .0258978
964.950 .0258943
965.569 .0258903
966.187 .0258859
966.804 .0258809
967.422 .0258755
968.039 .0258695
968.655 .0258630
969.272 .0258560
969.887 .0258486
970.503 .0258407
971.118 .0258326
971.733 .0258242
972.347 .0258155
972.961 .0258066
973.575 .0257975
974.188 .0257881
974.801 .0257785
975.414 .0257686
976.026 .0257585
976.638 .0257482
977.250 .0257377
977.861 .0257269
978.472 .0257160
979.083 .0257048
979.693 .0256934
980.303 .0256817
980.912 .0256627
981.521 .0256498
982.130 .0256365
982.738 .0256227
983.346 .0256086
983.954 .0255942
984.562 .0255795
985.169 .0255648
985.775 .0255501
986.382 .0255353
986.988 .0255206
987.594 .0255059
988.199 .0254912
988.804 .0254766
989.409 .0254695
990.013 .0254552
990.617 .0254412
991.221 .0254274
991.824 .0254139
992.427 .0254006
993.030 .0253876
993.632 .0253747
994.234 .0253619
994.836 .0253491
995.438 .0253364
996.039 .0253236
996.640 .0253108
997.240 .0252982
997.840 .0252856
998.440 .0252732
999.040 .0252610
999.639 .0252489
1000.238 .0252369
1000.836 .0252249
1001.435 .0252129
1002.033 .0252008
1002.630 .0251886
1003.228 .0251763
1003.825 .0251638
1004.422 .0251511
1005.018 .0251382
1005.614 .0251251
1006.210 .0251118
1006.806 .0250981
1007.401 .0250841
1007.996 .0250698
1008.591 .0250553
1009.186 .0250405
1009.780 .0250255
1010.374 .0250106
1010.967 .0249956
1011.561 .0249809
1012.154 .0249664
1012.746 .0249522
1013.339 .0249383
1013.931 .0249250
1014.523 .0249121
1015.115 .0248999
1015.706 .0248882
1016.298 .0248773
1016.888 .0248671
1017.479 .0248576
1018.069 .0248488
1018.660 .0248409
1019.250 .0248336
1019.839 .0248271
1020.429 .0248211
1021.018 .0248158
1021.607 .0248110
1022.195 .0248067
1022.784 .0248030
1023.372 .0247998
1023.960 .0247970
1024.547 .0247947
1025.135 .0247927
1025.722 .0247910
1026.309 .0247895
1026.896 .0247883
1027.483 .0247871
1028.069 .0247861
1028.655 .0247851
1029.241 .0247842
1029.827 .0247833
1030.412 .0247822
1030.997 .0247809
1031.582 .0247793
1032.167 .0247774
1032.752 .0247749
1033.336 .0247720
1033.921 .0247686
1034.505 .0247648
1035.089 .0247608
1035.672 .0247566
1036.256 .0247522
1036.839 .0247478
1037.422 .0247433
1038.005 .0247386
1038.588 .0247337
1039.171 .0247285
1039.753 .0247230
1040.335 .0247173
1040.918 .0247112
1041.500 .0247050
1042.081 .0246987
1042.663 .0246924
1043.244 .0246861
1043.826 .0246798
1044.407 .0246734
1044.988 .0246668
1045.569 .0246598
1046.150 .0246523
1046.730 .0246443
1047.311 .0246357
1047.891 .0246268
1048.471 .0246177
1049.052 .0246087
1049.632 .0245998
1050.211 .0245913
1050.791 .0245831
1051.371 .0245753
1051.950 .0245678
1052.530 .0245603
1053.109 .0245529
1053.688 .0245456
1054.268 .0245383
1054.847 .0245312
1055.426 .0245244
1056.005 .0245181
1056.583 .0245123
1057.162 .0245070
1057.741 .0245021
1058.319 .0244974
1058.898 .0244927
1059.476 .0244881
1060.055 .0244833
1060.633 .0244784
1061.211 .0244736
1061.790 .0244690
1062.368 .0244648
1062.946 .0244611
1063.524 .0244580
1064.102 .0244557
1064.680 .0244540
1065.258 .0244528
1065.836 .0244522
1066.414 .0244521
1066.992 .0244525
1067.570 .0244534
1068.148 .0244548
1068.726 .0244569
1069.304 .0244597
1069.882 .0244633
1070.460 .0244675
1071.038 .0244722
1071.616 .0244775
1072.194 .0244833
1072.772 .0244895
1073.350 .0244961
1073.928 .0245032
1074.506 .0245109
1075.084 .0245192
1075.662 .0245281
1076.240 .0245377
1076.819 .0245480
1077.397 .0245589
1077.976 .0245704
1078.554 .0245825
1079.133 .0245951
1079.711 .0246082
1080.290 .0246219
1080.869 .0246360
1081.448 .0246506
1082.027 .0246656
1082.606 .0246808
1083.185 .0246961
1083.764 .0247115
1084.343 .0247268
1084.923 .0247421
1085.502 .0247572
1086.082 .0247722
1086.662 .0247871
1087.242 .0248020
1087.822 .0248170
1088.402 .0248322
1088.983 .0248477
1089.563 .0248635
1090.144 .0248798
1090.725 .0248966
1091.306 .0249139
1091.887 .0249318
1092.469 .0249504
1093.050 .0249695
1093.632 .0249891
1094.214 .0250091
1094.796 .0250296
1095.379 .0250503
1095.961 .0250713
1096.544 .0250926
1097.127 .0251142
1097.710 .0251361
1098.294 .0251584
1098.877 .0251812
1099.461 .0252048
1100.046 .0252292
1100.630 .0252547
1101.215 .0252814
1101.800 .0253091
1102.385 .0253382
1102.970 .0253684
1103.556 .0253998
1104.142 .0254325
1104.728 .0254664
1105.315 .0255015
1105.902 .0255379
1106.489 .0255758
1107.077 .0256151
1107.664 .0256560
1108.253 .0256985
1108.841 .0257424
1109.430 .0257874
1110.019 .0258334
1110.609 .0258802
1111.198 .0259279
1111.789 .0259763
1112.379 .0260257
1112.970 .0260761
1113.561 .0261279
1114.153 .0261812
1114.745 .0262361
1115.338 .0262929
1115.931 .0263512
1116.524 .0264109
1117.117 .0264717
1117.712 .0265334
1118.306 .0265956
1118.901 .0266583
1119.496 .0267211
1120.092 .0267841
1120.689 .0268472
1121.285 .0269103
1121.882 .0269737
1122.480 .0270375
1123.078 .0271018
1123.677 .0271669
1124.276 .0272327
1124.875 .0272993
1125.476 .0273668
1126.076 .0274352
1126.677 .0275048
1127.279 .0275756
1127.881 .0276477
1128.484 .0277213
1129.087 .0277553
1129.691 .0278317
1130.295 .0279100
1130.900 .0279903
1131.505 .0280727
1132.111 .0281571
1132.718 .0282433
1133.325 .0283309
1133.933 .0284202
1134.541 .0285114
1135.150 .0286058
1135.760 .0286937
1136.370 .0287808
1136.981 .0288586
1137.592 .0289555
1138.204 .0290606
1138.817 .0291772
1139.431 .0292991
1140.045 .0294297
1140.660 .0295567
1141.275 .0296723
1141.891 .0297978
1142.508 .0299203
1143.126 .0300811
1143.744 .0299621
1144.363 .0300032
1144.983 .0306675
