Measurement Sequence started on: 15-12-46-377
Integration time: 28
Scans to Average: 2 
>>>>>Begin Spectral Data<<<<<
432.689 .0000100
433.621 .0000100
434.552 .0000100
435.482 .0000100
436.410 .0000100
437.337 .0000100
438.262 .0276168
439.187 .0585213
440.110 .0970124
441.031 .1403879
441.952 .1124571
442.871 .1174243
443.789 .1220490
444.705 .1264043
445.621 .1305390
446.535 .1344895
447.447 .1368283
448.359 .1374012
449.269 .1358257
450.178 .1318578
451.086 .1255758
451.993 .1174637
452.898 .1083206
453.803 .0990540
454.706 .0904371
455.608 .0829494
456.508 .0767524
457.408 .0725544
458.306 .0693259
459.204 .0666967
460.100 .0644755
460.995 .0625582
461.888 .0608755
462.781 .0593825
463.673 .0580468
464.563 .0568457
465.452 .0557629
466.340 .0547838
467.228 .0538966
468.114 .0530905
468.999 .0523550
469.882 .0516816
470.765 .0510628
471.647 .0504937
472.528 .0499722
473.407 .0494964
474.286 .0490661
475.163 .0486816
476.040 .0483415
476.915 .0480446
477.790 .0477877
478.663 .0475679
479.535 .0473815
480.407 .0472255
481.277 .0470972
482.147 .0469939
483.015 .0469141
483.883 .0468572
484.749 .0468228
485.615 .0468108
486.479 .0468201
487.343 .0468499
488.206 .0468990
489.067 .0469653
489.928 .0470475
490.788 .0471443
491.647 .0472550
492.505 .0473790
493.362 .0475165
494.218 .0476680
495.073 .0478339
495.928 .0481384
496.781 .0483456
497.634 .0485700
498.486 .0488132
499.337 .0490764
500.187 .0493616
501.036 .0496713
501.884 .0500083
502.731 .0503768
503.578 .0507813
504.424 .0510618
505.268 .0515358
506.113 .0520577
506.956 .0526324
507.798 .0532661
508.640 .0539667
509.480 .0547445
510.320 .0556119
511.160 .0565831
511.998 .0576741
512.836 .0589030
513.672 .0602880
514.508 .0618504
515.344 .0636108
516.178 .0655884
517.012 .0678029
517.845 .0702741
518.677 .0730197
519.508 .0760539
520.339 .0793846
521.169 .0830138
521.998 .0869220
522.826 .0910756
523.654 .0954238
524.481 .0999015
525.307 .1044316
526.133 .1089225
526.958 .1132780
527.782 .1174043
528.605 .1212144
529.428 .1246317
530.250 .1275919
531.072 .1300505
531.892 .1319732
532.712 .1333394
533.532 .1341413
534.350 .1343791
535.168 .1340582
535.986 .1331844
536.802 .1317653
537.618 .1298093
538.434 .1273286
539.249 .1243549
540.063 .1209345
540.876 .1171267
541.689 .1130043
542.501 .1086500
543.313 .1041575
544.124 .0996228
544.934 .0951344
545.744 .0907702
546.553 .0865966
547.361 .0826636
548.169 .0790001
548.976 .0756230
549.783 .0725354
550.589 .0697281
551.395 .0671826
552.200 .0648742
553.004 .0627785
553.808 .0608721
554.611 .0591351
555.414 .0575493
556.216 .0560993
557.018 .0547681
557.819 .0535425
558.619 .0524104
559.419 .0513607
560.218 .0503840
561.017 .0494704
561.815 .0486124
562.613 .0478051
563.410 .0470422
564.207 .0463195
565.003 .0456332
565.799 .0449796
566.594 .0443549
567.388 .0437564
568.182 .0431813
568.976 .0426274
569.769 .0420928
570.562 .0415768
571.354 .0410783
572.145 .0405974
572.936 .0401337
573.727 .0396870
574.517 .0392573
575.307 .0388442
576.096 .0384469
576.885 .0380653
577.673 .0376994
578.461 .0373493
579.248 .0370152
580.035 .0366971
580.821 .0363950
581.607 .0361091
582.392 .0358392
583.177 .0355853
583.962 .0353470
584.746 .0351240
585.529 .0349160
586.313 .0347227
587.095 .0345435
587.878 .0343785
588.660 .0342270
589.441 .0340886
590.222 .0339626
591.003 .0338482
591.783 .0337444
592.563 .0336503
593.342 .0335649
594.121 .0334873
594.899 .0334163
595.678 .0333511
596.455 .0332909
597.233 .0332352
598.009 .0331833
598.786 .0331345
599.562 .0330882
600.338 .0330440
601.113 .0330012
601.888 .0329403
602.663 .0328999
603.437 .0328604
604.211 .0328218
604.984 .0327839
605.757 .0327469
606.530 .0327108
607.302 .0326756
608.074 .0326413
608.845 .0326079
609.616 .0325753
610.387 .0325608
611.158 .0325291
611.928 .0324981
612.697 .0324679
613.467 .0324385
614.236 .0324099
615.004 .0323822
615.773 .0323552
616.541 .0323290
617.308 .0323034
618.076 .0322785
618.843 .0322541
619.609 .0322302
620.375 .0322067
621.141 .0321835
621.907 .0321605
622.672 .0321378
623.437 .0321151
624.202 .0320923
624.966 .0320693
625.730 .0320458
626.493 .0320220
627.257 .0319977
628.020 .0319729
628.782 .0319476
629.545 .0319217
630.307 .0318952
631.068 .0318681
631.830 .0318403
632.591 .0318119
633.352 .0317828
634.112 .0317532
634.872 .0317231
635.632 .0316927
636.392 .0316621
637.151 .0316315
637.910 .0316009
638.668 .0315703
639.427 .0315398
640.185 .0315095
640.943 .0314793
641.700 .0314496
642.457 .0314203
643.214 .0313916
643.971 .0313637
644.727 .0313367
645.483 .0313103
646.239 .0312847
646.994 .0312597
647.750 .0312350
648.505 .0312107
649.259 .0311866
650.014 .0311626
650.768 .0311388
651.521 .0311153
652.275 .0310919
653.028 .0310688
653.781 .0310458
654.534 .0310227
655.286 .0309995
656.039 .0309761
656.791 .0309523
657.542 .0309281
658.294 .0309034
659.045 .0308782
659.796 .0308526
660.546 .0308266
661.297 .0308003
662.047 .0307738
662.796 .0307471
663.546 .0307203
664.295 .0306937
665.044 .0306672
665.793 .0306411
666.542 .0306154
667.290 .0305904
668.038 .0305659
668.786 .0305420
669.533 .0305186
670.281 .0304959
671.028 .0304736
671.774 .0304519
672.521 .0304308
673.267 .0304103
674.013 .0303903
674.759 .0303711
675.505 .0303523
676.250 .0303341
676.995 .0303162
677.740 .0302985
678.484 .0302810
679.229 .0302634
679.973 .0302458
680.717 .0302281
681.460 .0302103
682.204 .0301923
682.947 .0301741
683.690 .0301558
684.433 .0301372
685.175 .0301183
685.917 .0300992
686.659 .0300797
687.401 .0300598
688.142 .0300395
688.884 .0300189
689.625 .0299978
690.365 .0299763
691.106 .0299544
691.846 .0299323
692.586 .0299100
693.326 .0298877
694.066 .0298654
694.805 .0298434
695.545 .0298217
696.284 .0298004
697.022 .0297797
697.761 .0297594
698.499 .0297396
699.237 .0297203
699.975 .0297014
700.713 .0296829
701.450 .0296649
702.187 .0296473
702.924 .0296301
703.661 .0296134
704.397 .0295971
705.133 .0295813
705.869 .0295659
706.605 .0295507
707.341 .0295358
708.076 .0295209
708.811 .0295061
709.546 .0294911
710.281 .0294759
711.015 .0294605
711.749 .0294449
712.483 .0294290
713.217 .0294130
713.950 .0293968
714.684 .0293806
715.417 .0293644
716.150 .0293480
716.882 .0293316
717.615 .0293150
718.347 .0292982
719.079 .0292810
719.811 .0292635
720.542 .0292455
721.273 .0292272
722.005 .0292086
722.735 .0291897
723.466 .0291706
724.196 .0291514
724.927 .0291323
725.656 .0291133
726.386 .0290945
727.116 .0290758
727.845 .0290574
728.574 .0290392
729.303 .0290211
730.031 .0290033
730.760 .0289857
731.488 .0289684
732.216 .0289513
732.944 .0289345
733.671 .0289181
734.398 .0289021
735.125 .0288866
735.852 .0288716
736.579 .0288572
737.305 .0288432
738.031 .0288296
738.757 .0288165
739.483 .0288038
740.208 .0287914
740.933 .0287793
741.658 .0287674
742.383 .0287557
743.108 .0287442
743.832 .0287327
744.556 .0287213
745.280 .0287099
746.004 .0286985
746.727 .0286869
747.450 .0286752
748.173 .0286634
748.896 .0286515
749.618 .0286393
750.340 .0286269
751.062 .0286142
751.784 .0286012
752.506 .0285879
753.227 .0285741
753.948 .0285598
754.669 .0285451
755.389 .0285300
756.110 .0285144
756.830 .0284986
757.550 .0284826
758.269 .0284665
758.989 .0284503
759.708 .0284341
760.427 .0284179
761.146 .0284017
761.864 .0283854
762.582 .0283691
763.300 .0283526
764.018 .0283360
764.736 .0283193
765.453 .0283025
766.170 .0282857
766.887 .0282689
767.603 .0282523
768.320 .0282359
769.036 .0282198
769.751 .0282040
770.467 .0281887
771.182 .0281738
771.897 .0281593
772.612 .0281452
773.327 .0281315
774.041 .0281183
774.755 .0281054
775.469 .0280931
776.183 .0280813
776.896 .0280701
777.609 .0280596
778.322 .0280497
779.035 .0280405
779.747 .0280319
780.459 .0280238
781.171 .0280162
781.882 .0280091
782.594 .0280023
783.305 .0279958
784.016 .0279895
784.726 .0279833
785.436 .0279773
786.147 .0279687
786.856 .0279623
787.566 .0279559
788.275 .0279492
788.984 .0279422
789.693 .0279349
790.401 .0279273
791.110 .0279193
791.818 .0279108
792.525 .0279018
793.233 .0278921
793.940 .0278818
794.647 .0278747
795.353 .0278635
796.060 .0278517
796.766 .0278394
797.472 .0278266
798.177 .0278133
798.883 .0277995
799.588 .0277852
800.292 .0277705
800.997 .0277552
801.701 .0277395
802.405 .0277233
803.109 .0277067
803.812 .0276897
804.515 .0276724
805.218 .0276549
805.921 .0276371
806.623 .0276191
807.325 .0276008
808.027 .0275823
808.728 .0275636
809.429 .0275447
810.130 .0275257
810.831 .0275066
811.531 .0274876
812.231 .0274687
812.931 .0274500
813.630 .0274315
814.330 .0274132
815.029 .0273952
815.727 .0273776
816.426 .0273604
817.124 .0273436
817.821 .0273273
818.519 .0273116
819.216 .0272965
819.913 .0272820
820.609 .0272682
821.306 .0272552
822.002 .0272430
822.697 .0272316
823.393 .0272211
824.088 .0272114
824.783 .0272025
825.477 .0271943
826.171 .0271867
826.865 .0271797
827.559 .0271733
828.252 .0271674
828.945 .0271619
829.638 .0271568
830.330 .0271521
831.023 .0271478
831.714 .0271437
832.406 .0271399
833.097 .0271361
833.788 .0271323
834.479 .0271285
835.169 .0271247
835.859 .0271208
836.548 .0271169
837.238 .0271129
837.927 .0271090
838.615 .0271049
839.304 .0271008
839.992 .0270965
840.680 .0270920
841.367 .0270872
842.054 .0270823
842.741 .0270772
843.428 .0270720
844.114 .0270665
844.800 .0270609
845.485 .0270549
846.170 .0270487
846.855 .0270420
847.540 .0270349
848.224 .0270272
848.908 .0270189
849.592 .0270102
850.275 .0270009
850.958 .0269911
851.641 .0269809
852.323 .0269701
853.005 .0269589
853.687 .0269471
854.368 .0269347
855.049 .0269217
855.730 .0269082
856.410 .0268942
857.090 .0268798
857.769 .0268652
858.449 .0268503
859.128 .0268354
859.806 .0268204
860.485 .0268055
861.163 .0267906
861.840 .0267759
862.518 .0267614
863.195 .0267473
863.871 .0267335
864.548 .0267201
865.224 .0267073
865.899 .0266950
866.574 .0266833
867.249 .0266721
867.924 .0266614
868.598 .0266514
869.272 .0266418
869.946 .0266328
870.619 .0266245
871.292 .0266167
871.964 .0266095
872.636 .0266030
873.308 .0265971
873.979 .0265918
874.651 .0265870
875.321 .0265827
875.992 .0265788
876.662 .0265753
877.331 .0265720
878.001 .0265690
878.670 .0265661
879.338 .0265634
880.007 .0265608
880.675 .0265583
881.342 .0265560
882.009 .0265537
882.676 .0265516
883.343 .0265496
884.009 .0265476
884.675 .0265458
885.340 .0265442
886.005 .0265426
886.670 .0265411
887.334 .0265398
887.998 .0265385
888.662 .0265372
889.325 .0265360
889.988 .0265348
890.650 .0265336
891.312 .0265322
891.974 .0265307
892.636 .0265291
893.297 .0265274
893.957 .0265255
894.618 .0265233
895.278 .0265209
895.937 .0265181
896.596 .0265149
897.255 .0265112
897.914 .0265069
898.572 .0265019
899.230 .0264964
899.887 .0264901
900.544 .0264832
901.201 .0264756
901.857 .0264608
902.513 .0264514
903.168 .0264413
903.823 .0264303
904.478 .0264185
905.132 .0264057
905.786 .0263919
906.440 .0263773
907.093 .0263617
907.746 .0263454
908.399 .0263284
909.051 .0263109
909.703 .0262929
910.354 .0262828
911.005 .0262644
911.656 .0262458
912.306 .0262270
912.956 .0262079
913.605 .0261888
914.254 .0261695
914.903 .0261502
915.551 .0261309
916.199 .0261118
916.847 .0260927
917.494 .0260737
918.141 .0260547
918.788 .0260357
919.434 .0260166
920.079 .0259973
920.725 .0259779
921.370 .0259583
922.014 .0259385
922.658 .0259186
923.302 .0258985
923.946 .0258783
924.589 .0258580
925.231 .0258375
925.873 .0258168
926.515 .0257958
927.157 .0257746
927.798 .0257531
928.439 .0257314
929.079 .0257095
929.719 .0256874
930.359 .0256653
930.998 .0256431
931.637 .0256209
932.275 .0255988
932.913 .0255767
933.551 .0255547
934.188 .0255329
934.825 .0255113
935.462 .0254899
936.098 .0254689
936.733 .0254483
937.369 .0254283
938.004 .0254089
938.638 .0253902
939.273 .0253721
939.907 .0253549
940.540 .0253384
941.173 .0253227
941.806 .0253078
942.438 .0252936
943.070 .0252800
943.702 .0252672
944.333 .0252549
944.964 .0252433
945.594 .0252322
946.224 .0252215
946.854 .0252112
947.483 .0252013
948.112 .0251917
948.741 .0251823
949.369 .0251729
949.996 .0251637
950.624 .0251544
951.251 .0251451
951.878 .0251357
952.504 .0251262
953.130 .0251165
953.755 .0251068
954.380 .0250969
955.005 .0250869
955.629 .0250768
956.253 .0250667
956.877 .0250563
957.500 .0250458
958.123 .0250351
958.746 .0250243
959.368 .0250133
959.990 .0250023
960.611 .0249911
961.232 .0249799
961.853 .0249687
962.473 .0249576
963.093 .0249465
963.712 .0249355
964.331 .0249245
964.950 .0249137
965.569 .0249030
966.187 .0248924
966.804 .0248819
967.422 .0248715
968.039 .0248613
968.655 .0248511
969.272 .0248410
969.887 .0248309
970.503 .0248209
971.118 .0248110
971.733 .0248011
972.347 .0247912
972.961 .0247813
973.575 .0247714
974.188 .0247615
974.801 .0247515
975.414 .0247415
976.026 .0247313
976.638 .0247210
977.250 .0247107
977.861 .0247003
978.472 .0246898
979.083 .0246794
979.693 .0246689
980.303 .0246585
980.912 .0246428
981.521 .0246325
982.130 .0246222
982.738 .0246119
983.346 .0246017
983.954 .0245917
984.562 .0245819
985.169 .0245724
985.775 .0245632
986.382 .0245545
986.988 .0245462
987.594 .0245383
988.199 .0245309
988.804 .0245239
989.409 .0245220
990.013 .0245159
990.617 .0245102
991.221 .0245050
991.824 .0245005
992.427 .0244966
993.030 .0244933
993.632 .0244906
994.234 .0244885
994.836 .0244869
995.438 .0244858
996.039 .0244850
996.640 .0244847
997.240 .0244847
997.840 .0244852
998.440 .0244861
999.040 .0244874
999.639 .0244893
1000.238 .0244916
1000.836 .0244944
1001.435 .0244977
1002.033 .0245013
1002.630 .0245053
1003.228 .0245096
1003.825 .0245141
1004.422 .0245189
1005.018 .0245237
1005.614 .0245286
1006.210 .0245336
1006.806 .0245387
1007.401 .0245438
1007.996 .0245489
1008.591 .0245540
1009.186 .0245592
1009.780 .0245643
1010.374 .0245694
1010.967 .0245745
1011.561 .0245795
1012.154 .0245845
1012.746 .0245896
1013.339 .0245947
1013.931 .0245999
1014.523 .0246053
1015.115 .0246108
1015.706 .0246166
1016.298 .0246226
1016.888 .0246290
1017.479 .0246357
1018.069 .0246428
1018.660 .0246501
1019.250 .0246579
1019.839 .0246659
1020.429 .0246743
1021.018 .0246829
1021.607 .0246917
1022.195 .0247008
1022.784 .0247101
1023.372 .0247197
1023.960 .0247297
1024.547 .0247400
1025.135 .0247507
1025.722 .0247618
1026.309 .0247731
1026.896 .0247847
1027.483 .0247966
1028.069 .0248086
1028.655 .0248207
1029.241 .0248329
1029.827 .0248452
1030.412 .0248576
1030.997 .0248702
1031.582 .0248829
1032.167 .0248957
1032.752 .0249085
1033.336 .0249213
1033.921 .0249340
1034.505 .0249464
1035.089 .0249584
1035.672 .0249702
1036.256 .0249815
1036.839 .0249926
1037.422 .0250033
1038.005 .0250139
1038.588 .0250243
1039.171 .0250345
1039.753 .0250444
1040.335 .0250540
1040.918 .0250633
1041.500 .0250722
1042.081 .0250805
1042.663 .0250885
1043.244 .0250961
1043.826 .0251033
1044.407 .0251102
1044.988 .0251170
1045.569 .0251237
1046.150 .0251303
1046.730 .0251369
1047.311 .0251433
1047.891 .0251494
1048.471 .0251553
1049.052 .0251608
1049.632 .0251661
1050.211 .0251711
1050.791 .0251758
1051.371 .0251803
1051.950 .0251847
1052.530 .0251890
1053.109 .0251933
1053.688 .0251976
1054.268 .0252019
1054.847 .0252061
1055.426 .0252103
1056.005 .0252143
1056.583 .0252180
1057.162 .0252216
1057.741 .0252249
1058.319 .0252280
1058.898 .0252309
1059.476 .0252337
1060.055 .0252366
1060.633 .0252398
1061.211 .0252431
1061.790 .0252467
1062.368 .0252506
1062.946 .0252548
1063.524 .0252590
1064.102 .0252633
1064.680 .0252676
1065.258 .0252719
1065.836 .0252764
1066.414 .0252811
1066.992 .0252861
1067.570 .0252915
1068.148 .0252973
1068.726 .0253036
1069.304 .0253103
1069.882 .0253173
1070.460 .0253245
1071.038 .0253316
1071.616 .0253387
1072.194 .0253456
1072.772 .0253524
1073.350 .0253592
1073.928 .0253660
1074.506 .0253729
1075.084 .0253797
1075.662 .0253866
1076.240 .0253933
1076.819 .0253997
1077.397 .0254058
1077.976 .0254114
1078.554 .0254165
1079.133 .0254210
1079.711 .0254251
1080.290 .0254287
1080.869 .0254322
1081.448 .0254355
1082.027 .0254388
1082.606 .0254419
1083.185 .0254450
1083.764 .0254479
1084.343 .0254507
1084.923 .0254534
1085.502 .0254561
1086.082 .0254587
1086.662 .0254616
1087.242 .0254648
1087.822 .0254684
1088.402 .0254725
1088.983 .0254773
1089.563 .0254828
1090.144 .0254889
1090.725 .0254959
1091.306 .0255039
1091.887 .0255130
1092.469 .0255233
1093.050 .0255348
1093.632 .0255476
1094.214 .0255615
1094.796 .0255763
1095.379 .0255917
1095.961 .0256076
1096.544 .0256237
1097.127 .0256398
1097.710 .0256560
1098.294 .0256723
1098.877 .0256887
1099.461 .0257054
1100.046 .0257222
1100.630 .0257391
1101.215 .0257558
1101.800 .0257720
1102.385 .0257873
1102.970 .0258016
1103.556 .0258147
1104.142 .0258267
1104.728 .0258378
1105.315 .0258482
1105.902 .0258584
1106.489 .0258685
1107.077 .0258786
1107.664 .0258887
1108.253 .0258985
1108.841 .0259078
1109.430 .0259163
1110.019 .0259239
1110.609 .0259305
1111.198 .0259365
1111.789 .0259424
1112.379 .0259486
1112.970 .0259557
1113.561 .0259642
1114.153 .0259743
1114.745 .0259859
1115.338 .0259990
1115.931 .0260133
1116.524 .0260287
1117.117 .0260451
1117.712 .0260627
1118.306 .0260819
1118.901 .0261030
1119.496 .0261266
1120.092 .0261529
1120.689 .0261820
1121.285 .0262141
1121.882 .0262488
1122.480 .0262861
1123.078 .0263256
1123.677 .0263674
1124.276 .0264117
1124.875 .0264586
1125.476 .0265085
1126.076 .0265620
1126.677 .0266194
1127.279 .0266810
1127.881 .0267468
1128.484 .0268169
1129.087 .0268445
1129.691 .0269205
1130.295 .0270001
1130.900 .0270833
1131.505 .0271700
1132.111 .0272602
1132.718 .0273539
1133.325 .0274514
1133.933 .0275528
1134.541 .0276598
1135.150 .0277654
1135.760 .0278784
1136.370 .0279955
1136.981 .0280610
1137.592 .0281957
1138.204 .0283346
1138.817 .0284747
1139.431 .0286184
1140.045 .0287609
1140.660 .0289076
1141.275 .0290554
1141.891 .0292078
1142.508 .0294031
1143.126 .0294148
1143.744 .0296715
1144.363 .0298399
1144.983 .0300562
