Measurement Sequence started on: 15-12-46-377
Integration time: 28
Scans to Average: 2 
>>>>>Begin Spectral Data<<<<<
432.689 .0000100
433.621 .0000100
434.552 .0000100
435.482 .0000100
436.410 .0000100
437.337 .0000100
438.262 .0286874
439.187 .0608345
440.110 .1007762
441.031 .1458411
441.952 .1165657
442.871 .1216471
443.789 .1263603
444.705 .1307840
445.621 .1349733
446.535 .1389688
447.447 .1412914
448.359 .1417825
449.269 .1400505
450.178 .1358403
451.086 .1292325
451.993 .1207271
452.898 .1111556
453.803 .1014597
454.706 .0924429
455.608 .0846065
456.508 .0781212
457.408 .0737275
458.306 .0703610
459.204 .0676347
460.100 .0653550
460.995 .0634107
461.888 .0617247
462.781 .0602434
463.673 .0589277
464.563 .0577491
465.452 .0566858
466.340 .0557214
467.228 .0548444
468.114 .0540459
468.999 .0533206
469.882 .0526614
470.765 .0520630
471.647 .0515200
472.528 .0510271
473.407 .0505783
474.286 .0501698
475.163 .0497990
476.040 .0494638
476.915 .0491631
477.790 .0488967
478.663 .0486641
479.535 .0484654
480.407 .0482999
481.277 .0481664
482.147 .0480631
483.015 .0479878
483.883 .0479375
484.749 .0479104
485.615 .0479041
486.479 .0479176
487.343 .0479497
488.206 .0480005
489.067 .0480693
489.928 .0481564
490.788 .0482615
491.647 .0483845
492.505 .0485249
493.362 .0486825
494.218 .0488568
495.073 .0490487
495.928 .0494031
496.781 .0496465
497.634 .0499121
498.486 .0502016
499.337 .0505174
500.187 .0508628
501.036 .0512406
501.884 .0516535
502.731 .0521052
503.578 .0525987
504.424 .0529381
505.268 .0535051
506.113 .0541228
506.956 .0547959
507.798 .0555305
508.640 .0563345
509.480 .0572173
510.320 .0581899
511.160 .0592655
511.998 .0604586
512.836 .0617882
513.672 .0632720
514.508 .0649317
515.344 .0667912
516.178 .0688756
517.012 .0712114
517.845 .0738235
518.677 .0767366
519.508 .0799700
520.339 .0835288
521.169 .0874108
521.998 .0915890
522.826 .0960213
523.654 .1006447
524.481 .1053817
525.307 .1101467
526.133 .1148451
526.958 .1193783
527.782 .1236523
528.605 .1275810
529.428 .1310900
530.250 .1341100
531.072 .1365944
531.892 .1385071
532.712 .1398252
533.532 .1405358
534.350 .1406345
535.168 .1401250
535.986 .1390125
536.802 .1373034
537.618 .1350130
538.434 .1321631
539.249 .1287973
540.063 .1249718
540.876 .1207613
541.689 .1162522
542.501 .1115366
543.313 .1067105
544.124 .1018719
544.934 .0971102
545.744 .0925028
546.553 .0881125
547.361 .0839935
548.169 .0801771
548.976 .0766814
549.783 .0735074
550.589 .0706456
551.395 .0680753
552.200 .0657687
553.004 .0636953
553.808 .0618285
554.611 .0601444
555.414 .0586210
556.216 .0572381
557.018 .0559770
557.819 .0548212
558.619 .0537565
559.419 .0527696
560.218 .0518507
561.017 .0509901
561.815 .0501804
562.613 .0494171
563.410 .0486952
564.207 .0480098
565.003 .0473561
565.799 .0467291
566.594 .0461249
567.388 .0455390
568.182 .0449680
568.976 .0444089
569.769 .0438598
570.562 .0433198
571.354 .0427892
572.145 .0422686
572.936 .0417595
573.727 .0412630
574.517 .0407802
575.307 .0403118
576.096 .0398578
576.885 .0394191
577.673 .0389965
578.461 .0385905
579.248 .0382017
580.035 .0378306
580.821 .0374779
581.607 .0371441
582.392 .0368298
583.177 .0365352
583.962 .0362607
584.746 .0360061
585.529 .0357711
586.313 .0355551
587.095 .0353571
587.878 .0351759
588.660 .0350106
589.441 .0348598
590.222 .0347225
591.003 .0345975
591.783 .0344840
592.563 .0343808
593.342 .0342871
594.121 .0342018
594.899 .0341237
595.678 .0340518
596.455 .0339851
597.233 .0339226
598.009 .0338635
598.786 .0338075
599.562 .0337539
600.338 .0337026
601.113 .0336534
601.888 .0335854
602.663 .0335407
603.437 .0334976
604.211 .0334560
604.984 .0334157
605.757 .0333768
606.530 .0333390
607.302 .0333025
608.074 .0332672
608.845 .0332332
609.616 .0332004
610.387 .0331872
611.158 .0331560
611.928 .0331259
612.697 .0330968
613.467 .0330689
614.236 .0330419
615.004 .0330161
615.773 .0329912
616.541 .0329673
617.308 .0329441
618.076 .0329217
618.843 .0328999
619.609 .0328786
620.375 .0328578
621.141 .0328373
621.907 .0328171
622.672 .0327972
623.437 .0327774
624.202 .0327577
624.966 .0327379
625.730 .0327178
626.493 .0326972
627.257 .0326761
628.020 .0326543
628.782 .0326318
629.545 .0326084
630.307 .0325842
631.068 .0325590
631.830 .0325326
632.591 .0325051
633.352 .0324762
634.112 .0324460
634.872 .0324145
635.632 .0323818
636.392 .0323478
637.151 .0323128
637.910 .0322769
638.668 .0322401
639.427 .0322026
640.185 .0321643
640.943 .0321256
641.700 .0320863
642.457 .0320467
643.214 .0320069
643.971 .0319671
644.727 .0319275
645.483 .0318883
646.239 .0318497
646.994 .0318118
647.750 .0317747
648.505 .0317385
649.259 .0317032
650.014 .0316687
650.768 .0316349
651.521 .0316018
652.275 .0315694
653.028 .0315374
653.781 .0315058
654.534 .0314746
655.286 .0314438
656.039 .0314133
656.791 .0313831
657.542 .0313533
658.294 .0313238
659.045 .0312948
659.796 .0312661
660.546 .0312378
661.297 .0312099
662.047 .0311823
662.796 .0311552
663.546 .0311283
664.295 .0311019
665.044 .0310760
665.793 .0310505
666.542 .0310257
667.290 .0310017
668.038 .0309784
668.786 .0309559
669.533 .0309343
670.281 .0309135
671.028 .0308935
671.774 .0308742
672.521 .0308555
673.267 .0308374
674.013 .0308198
674.759 .0308026
675.505 .0307858
676.250 .0307695
676.995 .0307536
677.740 .0307382
678.484 .0307232
679.229 .0307086
679.973 .0306943
680.717 .0306803
681.460 .0306664
682.204 .0306527
682.947 .0306391
683.690 .0306254
684.433 .0306118
685.175 .0305982
685.917 .0305845
686.659 .0305707
687.401 .0305569
688.142 .0305430
688.884 .0305290
689.625 .0305147
690.365 .0305004
691.106 .0304858
691.846 .0304711
692.586 .0304563
693.326 .0304414
694.066 .0304264
694.805 .0304112
695.545 .0303960
696.284 .0303807
697.022 .0303652
697.761 .0303495
698.499 .0303336
699.237 .0303174
699.975 .0303010
700.713 .0302842
701.450 .0302672
702.187 .0302499
702.924 .0302323
703.661 .0302144
704.397 .0301962
705.133 .0301777
705.869 .0301588
706.605 .0301395
707.341 .0301199
708.076 .0300997
708.811 .0300790
709.546 .0300578
710.281 .0300358
711.015 .0300132
711.749 .0299899
712.483 .0299658
713.217 .0299410
713.950 .0299156
714.684 .0298896
715.417 .0298631
716.150 .0298362
716.882 .0298090
717.615 .0297814
718.347 .0297534
719.079 .0297251
719.811 .0296964
720.542 .0296674
721.273 .0296381
722.005 .0296086
722.735 .0295790
723.466 .0295496
724.196 .0295203
724.927 .0294913
725.656 .0294626
726.386 .0294344
727.116 .0294067
727.845 .0293794
728.574 .0293525
729.303 .0293261
730.031 .0293002
730.760 .0292747
731.488 .0292498
732.216 .0292253
732.944 .0292014
733.671 .0291781
734.398 .0291554
735.125 .0291334
735.852 .0291121
736.579 .0290915
737.305 .0290719
738.031 .0290531
738.757 .0290351
739.483 .0290179
740.208 .0290014
740.933 .0289855
741.658 .0289702
742.383 .0289554
743.108 .0289410
743.832 .0289270
744.556 .0289136
745.280 .0289007
746.004 .0288883
746.727 .0288763
747.450 .0288648
748.173 .0288537
748.896 .0288428
749.618 .0288322
750.340 .0288216
751.062 .0288112
751.784 .0288008
752.506 .0287905
753.227 .0287803
753.948 .0287701
754.669 .0287600
755.389 .0287498
756.110 .0287397
756.830 .0287295
757.550 .0287192
758.269 .0287088
758.989 .0286984
759.708 .0286881
760.427 .0286777
761.146 .0286675
761.864 .0286573
762.582 .0286472
763.300 .0286372
764.018 .0286273
764.736 .0286175
765.453 .0286078
766.170 .0285984
766.887 .0285892
767.603 .0285803
768.320 .0285718
769.036 .0285637
769.751 .0285560
770.467 .0285488
771.182 .0285420
771.897 .0285357
772.612 .0285298
773.327 .0285244
774.041 .0285195
774.755 .0285151
775.469 .0285112
776.183 .0285078
776.896 .0285048
777.609 .0285023
778.322 .0285002
779.035 .0284986
779.747 .0284974
780.459 .0284966
781.171 .0284962
781.882 .0284961
782.594 .0284961
783.305 .0284963
784.016 .0284965
784.726 .0284965
785.436 .0284963
786.147 .0284951
786.856 .0284941
787.566 .0284928
788.275 .0284910
788.984 .0284889
789.693 .0284862
790.401 .0284830
791.110 .0284792
791.818 .0284748
792.525 .0284698
793.233 .0284641
793.940 .0284577
794.647 .0284524
795.353 .0284451
796.060 .0284371
796.766 .0284284
797.472 .0284190
798.177 .0284088
798.883 .0283980
799.588 .0283865
800.292 .0283742
800.997 .0283612
801.701 .0283476
802.405 .0283331
803.109 .0283179
803.812 .0283018
804.515 .0282849
805.218 .0282671
805.921 .0282485
806.623 .0282291
807.325 .0282090
808.027 .0281883
808.728 .0281669
809.429 .0281450
810.130 .0281225
810.831 .0280995
811.531 .0280760
812.231 .0280520
812.931 .0280275
813.630 .0280025
814.330 .0279772
815.029 .0279516
815.727 .0279259
816.426 .0279001
817.124 .0278744
817.821 .0278488
818.519 .0278234
819.216 .0277983
819.913 .0277735
820.609 .0277490
821.306 .0277250
822.002 .0277014
822.697 .0276782
823.393 .0276556
824.088 .0276336
824.783 .0276121
825.477 .0275912
826.171 .0275709
826.865 .0275512
827.559 .0275320
828.252 .0275133
828.945 .0274951
829.638 .0274774
830.330 .0274601
831.023 .0274432
831.714 .0274267
832.406 .0274105
833.097 .0273946
833.788 .0273790
834.479 .0273636
835.169 .0273484
835.859 .0273333
836.548 .0273184
837.238 .0273038
837.927 .0272893
838.615 .0272751
839.304 .0272611
839.992 .0272473
840.680 .0272338
841.367 .0272204
842.054 .0272071
842.741 .0271939
843.428 .0271808
844.114 .0271677
844.800 .0271546
845.485 .0271415
846.170 .0271285
846.855 .0271154
847.540 .0271022
848.224 .0270889
848.908 .0270755
849.592 .0270619
850.275 .0270482
850.958 .0270343
851.641 .0270203
852.323 .0270063
853.005 .0269922
853.687 .0269782
854.368 .0269641
855.049 .0269502
855.730 .0269363
856.410 .0269225
857.090 .0269088
857.769 .0268954
858.449 .0268821
859.128 .0268691
859.806 .0268564
860.485 .0268442
861.163 .0268324
861.840 .0268211
862.518 .0268103
863.195 .0268000
863.871 .0267903
864.548 .0267811
865.224 .0267724
865.899 .0267643
866.574 .0267568
867.249 .0267499
867.924 .0267437
868.598 .0267382
869.272 .0267334
869.946 .0267293
870.619 .0267260
871.292 .0267234
871.964 .0267215
872.636 .0267204
873.308 .0267200
873.979 .0267203
874.651 .0267213
875.321 .0267229
875.992 .0267252
876.662 .0267280
877.331 .0267314
878.001 .0267352
878.670 .0267395
879.338 .0267441
880.007 .0267492
880.675 .0267548
881.342 .0267608
882.009 .0267671
882.676 .0267739
883.343 .0267810
884.009 .0267884
884.675 .0267961
885.340 .0268039
886.005 .0268118
886.670 .0268198
887.334 .0268280
887.998 .0268362
888.662 .0268445
889.325 .0268529
889.988 .0268613
890.650 .0268697
891.312 .0268780
891.974 .0268863
892.636 .0268944
893.297 .0269024
893.957 .0269101
894.618 .0269177
895.278 .0269249
895.937 .0269319
896.596 .0269385
897.255 .0269445
897.914 .0269501
898.572 .0269550
899.230 .0269592
899.887 .0269626
900.544 .0269653
901.201 .0269672
901.857 .0269659
902.513 .0269655
903.168 .0269642
903.823 .0269619
904.478 .0269586
905.132 .0269542
905.786 .0269486
906.440 .0269418
907.093 .0269339
907.746 .0269250
908.399 .0269150
909.051 .0269042
909.703 .0268925
910.354 .0268847
911.005 .0268721
911.656 .0268588
912.306 .0268449
912.956 .0268304
913.605 .0268153
914.254 .0267998
914.903 .0267840
915.551 .0267678
916.199 .0267514
916.847 .0267348
917.494 .0267178
918.141 .0267006
918.788 .0266830
919.434 .0266650
920.079 .0266466
920.725 .0266277
921.370 .0266083
922.014 .0265884
922.658 .0265681
923.302 .0265473
923.946 .0265260
924.589 .0265041
925.231 .0264817
925.873 .0264586
926.515 .0264348
927.157 .0264103
927.798 .0263851
928.439 .0263593
929.079 .0263329
929.719 .0263060
930.359 .0262787
930.998 .0262509
931.637 .0262229
932.275 .0261945
932.913 .0261658
933.551 .0261370
934.188 .0261080
934.825 .0260789
935.462 .0260499
936.098 .0260210
936.733 .0259924
937.369 .0259641
938.004 .0259362
938.638 .0259088
939.273 .0258819
939.907 .0258556
940.540 .0258300
941.173 .0258050
941.806 .0257808
942.438 .0257574
943.070 .0257347
943.702 .0257127
944.333 .0256915
944.964 .0256709
945.594 .0256508
946.224 .0256312
946.854 .0256120
947.483 .0255930
948.112 .0255741
948.741 .0255555
949.369 .0255369
949.996 .0255184
950.624 .0255000
951.251 .0254816
951.878 .0254631
952.504 .0254445
953.130 .0254258
953.755 .0254069
954.380 .0253878
955.005 .0253684
955.629 .0253489
956.253 .0253291
956.877 .0253092
957.500 .0252891
958.123 .0252689
958.746 .0252486
959.368 .0252283
959.990 .0252080
960.611 .0251878
961.232 .0251676
961.853 .0251475
962.473 .0251275
963.093 .0251077
963.712 .0250879
964.331 .0250684
964.950 .0250490
965.569 .0250298
966.187 .0250108
966.804 .0249920
967.422 .0249735
968.039 .0249552
968.655 .0249371
969.272 .0249193
969.887 .0249017
970.503 .0248844
971.118 .0248674
971.733 .0248506
972.347 .0248340
972.961 .0248177
973.575 .0248014
974.188 .0247853
974.801 .0247693
975.414 .0247533
976.026 .0247373
976.638 .0247214
977.250 .0247055
977.861 .0246897
978.472 .0246739
979.083 .0246583
979.693 .0246428
980.303 .0246275
980.912 .0246053
981.521 .0245904
982.130 .0245756
982.738 .0245611
983.346 .0245469
983.954 .0245331
984.562 .0245197
985.169 .0245068
985.775 .0244945
986.382 .0244828
986.988 .0244718
987.594 .0244614
988.199 .0244517
988.804 .0244426
989.409 .0244401
990.013 .0244321
990.617 .0244247
991.221 .0244179
991.824 .0244118
992.427 .0244065
993.030 .0244018
993.632 .0243978
994.234 .0243944
994.836 .0243917
995.438 .0243896
996.039 .0243881
996.640 .0243873
997.240 .0243872
997.840 .0243878
998.440 .0243894
999.040 .0243917
999.639 .0243950
1000.238 .0243990
1000.836 .0244039
1001.435 .0244094
1002.033 .0244155
1002.630 .0244222
1003.228 .0244293
1003.825 .0244368
1004.422 .0244448
1005.018 .0244531
1005.614 .0244619
1006.210 .0244711
1006.806 .0244806
1007.401 .0244904
1007.996 .0245005
1008.591 .0245109
1009.186 .0245216
1009.780 .0245325
1010.374 .0245438
1010.967 .0245555
1011.561 .0245677
1012.154 .0245804
1012.746 .0245936
1013.339 .0246074
1013.931 .0246218
1014.523 .0246367
1015.115 .0246521
1015.706 .0246680
1016.298 .0246843
1016.888 .0247009
1017.479 .0247180
1018.069 .0247355
1018.660 .0247534
1019.250 .0247717
1019.839 .0247903
1020.429 .0248092
1021.018 .0248283
1021.607 .0248476
1022.195 .0248672
1022.784 .0248868
1023.372 .0249066
1023.960 .0249267
1024.547 .0249470
1025.135 .0249676
1025.722 .0249885
1026.309 .0250097
1026.896 .0250311
1027.483 .0250527
1028.069 .0250744
1028.655 .0250961
1029.241 .0251177
1029.827 .0251391
1030.412 .0251603
1030.997 .0251812
1031.582 .0252019
1032.167 .0252223
1032.752 .0252426
1033.336 .0252627
1033.921 .0252826
1034.505 .0253022
1035.089 .0253216
1035.672 .0253405
1036.256 .0253590
1036.839 .0253771
1037.422 .0253947
1038.005 .0254117
1038.588 .0254284
1039.171 .0254446
1039.753 .0254605
1040.335 .0254761
1040.918 .0254914
1041.500 .0255063
1042.081 .0255207
1042.663 .0255347
1043.244 .0255479
1043.826 .0255606
1044.407 .0255726
1044.988 .0255839
1045.569 .0255946
1046.150 .0256048
1046.730 .0256145
1047.311 .0256239
1047.891 .0256329
1048.471 .0256416
1049.052 .0256500
1049.632 .0256579
1050.211 .0256655
1050.791 .0256728
1051.371 .0256799
1051.950 .0256868
1052.530 .0256936
1053.109 .0257005
1053.688 .0257074
1054.268 .0257143
1054.847 .0257214
1055.426 .0257284
1056.005 .0257355
1056.583 .0257426
1057.162 .0257496
1057.741 .0257566
1058.319 .0257638
1058.898 .0257710
1059.476 .0257785
1060.055 .0257862
1060.633 .0257942
1061.211 .0258024
1061.790 .0258108
1062.368 .0258195
1062.946 .0258284
1063.524 .0258375
1064.102 .0258467
1064.680 .0258561
1065.258 .0258656
1065.836 .0258752
1066.414 .0258847
1066.992 .0258941
1067.570 .0259032
1068.148 .0259118
1068.726 .0259198
1069.304 .0259272
1069.882 .0259339
1070.460 .0259399
1071.038 .0259451
1071.616 .0259498
1072.194 .0259538
1072.772 .0259573
1073.350 .0259602
1073.928 .0259625
1074.506 .0259641
1075.084 .0259649
1075.662 .0259650
1076.240 .0259642
1076.819 .0259627
1077.397 .0259605
1077.976 .0259576
1078.554 .0259543
1079.133 .0259505
1079.711 .0259463
1080.290 .0259418
1080.869 .0259370
1081.448 .0259317
1082.027 .0259259
1082.606 .0259195
1083.185 .0259126
1083.764 .0259051
1084.343 .0258972
1084.923 .0258889
1085.502 .0258804
1086.082 .0258718
1086.662 .0258633
1087.242 .0258550
1087.822 .0258469
1088.402 .0258391
1088.983 .0258317
1089.563 .0258246
1090.144 .0258180
1090.725 .0258120
1091.306 .0258067
1091.887 .0258022
1092.469 .0257987
1093.050 .0257963
1093.632 .0257949
1094.214 .0257946
1094.796 .0257953
1095.379 .0257968
1095.961 .0257989
1096.544 .0258014
1097.127 .0258041
1097.710 .0258071
1098.294 .0258103
1098.877 .0258137
1099.461 .0258175
1100.046 .0258216
1100.630 .0258262
1101.215 .0258313
1101.800 .0258369
1102.385 .0258430
1102.970 .0258496
1103.556 .0258567
1104.142 .0258642
1104.728 .0258724
1105.315 .0258813
1105.902 .0258911
1106.489 .0259018
1107.077 .0259134
1107.664 .0259258
1108.253 .0259391
1108.841 .0259530
1109.430 .0259675
1110.019 .0259822
1110.609 .0259972
1111.198 .0260122
1111.789 .0260273
1112.379 .0260425
1112.970 .0260578
1113.561 .0260732
1114.153 .0260888
1114.745 .0261048
1115.338 .0261211
1115.931 .0261379
1116.524 .0261556
1117.117 .0261744
1117.712 .0261945
1118.306 .0262161
1118.901 .0262394
1119.496 .0262646
1120.092 .0262920
1120.689 .0263215
1121.285 .0263532
1121.882 .0263869
1122.480 .0264224
1123.078 .0264596
1123.677 .0264983
1124.276 .0265385
1124.875 .0265800
1125.476 .0266230
1126.076 .0266674
1126.677 .0267134
1127.279 .0267613
1127.881 .0268114
1128.484 .0268639
1129.087 .0268838
1129.691 .0269402
1130.295 .0269992
1130.900 .0270611
1131.505 .0271261
1132.111 .0271948
1132.718 .0272678
1133.325 .0273461
1133.933 .0274302
1134.541 .0275149
1135.150 .0276151
1135.760 .0277205
1136.370 .0278415
1136.981 .0278107
1137.592 .0279036
1138.204 .0279971
1138.817 .0280913
1139.431 .0281915
1140.045 .0283090
1140.660 .0284434
1141.275 .0286111
1141.891 .0288010
1142.508 .0288486
1143.126 .0293213
1143.744 .0295156
1144.363 .0300013
1144.983 .0300093
