Measurement Sequence started on: 15-12-46-377
Integration time: 28
Scans to Average: 2 
>>>>>Begin Spectral Data<<<<<
432.689 .0000100
433.621 .0000100
434.552 .0000100
435.482 .0000100
436.410 .0000100
437.337 .0000100
438.262 .0255889
439.187 .0541244
440.110 .0896657
441.031 .1298029
441.952 .1048602
442.871 .1096600
443.789 .1141474
444.705 .1183867
445.621 .1224200
446.535 .1262796
447.447 .1286437
448.359 .1293761
449.269 .1281248
450.178 .1246611
451.086 .1190538
451.993 .1117451
452.898 .1034673
453.803 .0950507
454.706 .0872027
455.608 .0803629
456.508 .0746791
457.408 .0708122
458.306 .0678118
459.204 .0653446
460.100 .0632453
460.995 .0614219
461.888 .0598128
462.781 .0583784
463.673 .0570882
464.563 .0559200
465.452 .0548569
466.340 .0538853
467.228 .0529944
468.114 .0521776
468.999 .0514290
469.882 .0507436
470.765 .0501167
471.647 .0495444
472.528 .0490227
473.407 .0485485
474.286 .0481188
475.163 .0477317
476.040 .0473848
476.915 .0470770
477.790 .0468066
478.663 .0465731
479.535 .0463753
480.407 .0462121
481.277 .0460814
482.147 .0459808
483.015 .0459068
483.883 .0458558
484.749 .0458243
485.615 .0458096
486.479 .0458093
487.343 .0458217
488.206 .0458464
489.067 .0458824
489.928 .0459301
490.788 .0459898
491.647 .0460612
492.505 .0461440
493.362 .0462378
494.218 .0463422
495.073 .0464570
495.928 .0466722
496.781 .0468230
497.634 .0469909
498.486 .0471779
499.337 .0473867
500.187 .0476212
501.036 .0478845
501.884 .0481800
502.731 .0485119
503.578 .0488833
504.424 .0491591
505.268 .0496038
506.113 .0501001
506.956 .0506521
507.798 .0512657
508.640 .0519480
509.480 .0527051
510.320 .0535465
511.160 .0544817
511.998 .0555218
512.836 .0566814
513.672 .0579759
514.508 .0594229
515.344 .0610421
516.178 .0628539
517.012 .0648799
517.845 .0671400
518.677 .0696527
519.508 .0724321
520.339 .0754854
521.169 .0788170
521.998 .0824059
522.826 .0862215
523.654 .0902204
524.481 .0943436
525.307 .0985229
526.133 .1026825
526.958 .1067385
527.782 .1106092
528.605 .1142171
529.428 .1174931
530.250 .1203723
531.072 .1228110
531.892 .1247718
532.712 .1262260
533.532 .1271581
534.350 .1275599
535.168 .1274270
535.986 .1267645
536.802 .1255748
537.618 .1238646
538.434 .1216438
539.249 .1189468
540.063 .1158177
540.876 .1123110
541.689 .1084967
542.501 .1044507
543.313 .1002529
544.124 .0959919
544.934 .0917475
545.744 .0875934
546.553 .0835932
547.361 .0798010
548.169 .0762476
548.976 .0729571
549.783 .0699404
550.589 .0671954
551.395 .0647108
552.200 .0624716
553.004 .0604536
553.808 .0586375
554.611 .0570059
555.414 .0555392
556.216 .0542185
557.018 .0530238
557.819 .0519373
558.619 .0509418
559.419 .0500230
560.218 .0491699
561.017 .0483712
561.815 .0476194
562.613 .0469084
563.410 .0462316
564.207 .0455837
565.003 .0449605
565.799 .0443569
566.594 .0437689
567.388 .0431934
568.182 .0426274
568.976 .0420693
569.769 .0415190
570.562 .0409779
571.354 .0404473
572.145 .0399301
572.936 .0394288
573.727 .0389448
574.517 .0384802
575.307 .0380360
576.096 .0376121
576.885 .0372088
577.673 .0368260
578.461 .0364634
579.248 .0361211
580.035 .0357992
580.821 .0354978
581.607 .0352167
582.392 .0349557
583.177 .0347137
583.962 .0344898
584.746 .0342828
585.529 .0340916
586.313 .0339144
587.095 .0337502
587.878 .0335979
588.660 .0334568
589.441 .0333260
590.222 .0332051
591.003 .0330933
591.783 .0329902
592.563 .0328948
593.342 .0328063
594.121 .0327238
594.899 .0326466
595.678 .0325742
596.455 .0325061
597.233 .0324419
598.009 .0323811
598.786 .0323236
599.562 .0322691
600.338 .0322172
601.113 .0321677
601.888 .0320990
602.663 .0320535
603.437 .0320096
604.211 .0319669
604.984 .0319255
605.757 .0318853
606.530 .0318462
607.302 .0318083
608.074 .0317715
608.845 .0317359
609.616 .0317015
610.387 .0316872
611.158 .0316544
611.928 .0316230
612.697 .0315928
613.467 .0315639
614.236 .0315359
615.004 .0315090
615.773 .0314828
616.541 .0314573
617.308 .0314324
618.076 .0314081
618.843 .0313842
619.609 .0313609
620.375 .0313381
621.141 .0313156
621.907 .0312932
622.672 .0312709
623.437 .0312485
624.202 .0312258
624.966 .0312028
625.730 .0311796
626.493 .0311560
627.257 .0311323
628.020 .0311083
628.782 .0310841
629.545 .0310596
630.307 .0310347
631.068 .0310096
631.830 .0309840
632.591 .0309582
633.352 .0309320
634.112 .0309058
634.872 .0308794
635.632 .0308529
636.392 .0308265
637.151 .0308001
637.910 .0307736
638.668 .0307471
639.427 .0307206
640.185 .0306941
640.943 .0306677
641.700 .0306415
642.457 .0306155
643.214 .0305898
643.971 .0305645
644.727 .0305395
645.483 .0305149
646.239 .0304906
646.994 .0304666
647.750 .0304427
648.505 .0304191
649.259 .0303955
650.014 .0303720
650.768 .0303486
651.521 .0303252
652.275 .0303019
653.028 .0302787
653.781 .0302554
654.534 .0302323
655.286 .0302090
656.039 .0301858
656.791 .0301626
657.542 .0301393
658.294 .0301159
659.045 .0300924
659.796 .0300689
660.546 .0300454
661.297 .0300219
662.047 .0299984
662.796 .0299751
663.546 .0299518
664.295 .0299288
665.044 .0299059
665.793 .0298833
666.542 .0298609
667.290 .0298388
668.038 .0298169
668.786 .0297953
669.533 .0297741
670.281 .0297532
671.028 .0297327
671.774 .0297127
672.521 .0296933
673.267 .0296744
674.013 .0296560
674.759 .0296380
675.505 .0296204
676.250 .0296029
676.995 .0295854
677.740 .0295680
678.484 .0295505
679.229 .0295329
679.973 .0295151
680.717 .0294971
681.460 .0294791
682.204 .0294608
682.947 .0294424
683.690 .0294236
684.433 .0294046
685.175 .0293853
685.917 .0293656
686.659 .0293455
687.401 .0293252
688.142 .0293045
688.884 .0292835
689.625 .0292622
690.365 .0292407
691.106 .0292191
691.846 .0291973
692.586 .0291754
693.326 .0291535
694.066 .0291316
694.805 .0291097
695.545 .0290879
696.284 .0290662
697.022 .0290446
697.761 .0290231
698.499 .0290019
699.237 .0289809
699.975 .0289603
700.713 .0289402
701.450 .0289206
702.187 .0289014
702.924 .0288826
703.661 .0288642
704.397 .0288460
705.133 .0288280
705.869 .0288101
706.605 .0287922
707.341 .0287744
708.076 .0287567
708.811 .0287391
709.546 .0287217
710.281 .0287044
711.015 .0286872
711.749 .0286702
712.483 .0286532
713.217 .0286361
713.950 .0286190
714.684 .0286017
715.417 .0285842
716.150 .0285666
716.882 .0285488
717.615 .0285308
718.347 .0285127
719.079 .0284946
719.811 .0284764
720.542 .0284582
721.273 .0284401
722.005 .0284221
722.735 .0284042
723.466 .0283863
724.196 .0283685
724.927 .0283508
725.656 .0283332
726.386 .0283157
727.116 .0282983
727.845 .0282812
728.574 .0282645
729.303 .0282482
730.031 .0282325
730.760 .0282173
731.488 .0282027
732.216 .0281885
732.944 .0281746
733.671 .0281611
734.398 .0281477
735.125 .0281345
735.852 .0281215
736.579 .0281086
737.305 .0280960
738.031 .0280837
738.757 .0280718
739.483 .0280602
740.208 .0280489
740.933 .0280380
741.658 .0280273
742.383 .0280168
743.108 .0280065
743.832 .0279963
744.556 .0279861
745.280 .0279760
746.004 .0279658
746.727 .0279555
747.450 .0279452
748.173 .0279348
748.896 .0279243
749.618 .0279138
750.340 .0279032
751.062 .0278926
751.784 .0278820
752.506 .0278714
753.227 .0278606
753.948 .0278497
754.669 .0278386
755.389 .0278273
756.110 .0278158
756.830 .0278041
757.550 .0277923
758.269 .0277803
758.989 .0277682
759.708 .0277561
760.427 .0277438
761.146 .0277314
761.864 .0277188
762.582 .0277059
763.300 .0276928
764.018 .0276795
764.736 .0276661
765.453 .0276524
766.170 .0276387
766.887 .0276249
767.603 .0276111
768.320 .0275973
769.036 .0275836
769.751 .0275700
770.467 .0275565
771.182 .0275431
771.897 .0275299
772.612 .0275169
773.327 .0275042
774.041 .0274917
774.755 .0274794
775.469 .0274674
776.183 .0274557
776.896 .0274443
777.609 .0274332
778.322 .0274226
779.035 .0274125
779.747 .0274029
780.459 .0273938
781.171 .0273853
781.882 .0273773
782.594 .0273697
783.305 .0273625
784.016 .0273556
784.726 .0273489
785.436 .0273423
786.147 .0273328
786.856 .0273261
787.566 .0273193
788.275 .0273123
788.984 .0273051
789.693 .0272975
790.401 .0272896
791.110 .0272811
791.818 .0272722
792.525 .0272628
793.233 .0272529
793.940 .0272425
794.647 .0272355
795.353 .0272245
796.060 .0272132
796.766 .0272015
797.472 .0271894
798.177 .0271771
798.883 .0271644
799.588 .0271515
800.292 .0271385
800.997 .0271252
801.701 .0271119
802.405 .0270984
803.109 .0270848
803.812 .0270710
804.515 .0270571
805.218 .0270431
805.921 .0270290
806.623 .0270147
807.325 .0270005
808.027 .0269863
808.728 .0269721
809.429 .0269580
810.130 .0269439
810.831 .0269298
811.531 .0269157
812.231 .0269015
812.931 .0268873
813.630 .0268731
814.330 .0268590
815.029 .0268449
815.727 .0268309
816.426 .0268171
817.124 .0268034
817.821 .0267900
818.519 .0267766
819.216 .0267635
819.913 .0267505
820.609 .0267378
821.306 .0267254
822.002 .0267132
822.697 .0267015
823.393 .0266901
824.088 .0266791
824.783 .0266685
825.477 .0266581
826.171 .0266480
826.865 .0266380
827.559 .0266282
828.252 .0266185
828.945 .0266089
829.638 .0265993
830.330 .0265897
831.023 .0265801
831.714 .0265704
832.406 .0265606
833.097 .0265505
833.788 .0265402
834.479 .0265297
835.169 .0265189
835.859 .0265079
836.548 .0264967
837.238 .0264854
837.927 .0264739
838.615 .0264622
839.304 .0264504
839.992 .0264384
840.680 .0264262
841.367 .0264139
842.054 .0264015
842.741 .0263890
843.428 .0263767
844.114 .0263644
844.800 .0263521
845.485 .0263400
846.170 .0263278
846.855 .0263156
847.540 .0263032
848.224 .0262906
848.908 .0262778
849.592 .0262647
850.275 .0262514
850.958 .0262379
851.641 .0262241
852.323 .0262101
853.005 .0261959
853.687 .0261814
854.368 .0261667
855.049 .0261518
855.730 .0261366
856.410 .0261214
857.090 .0261060
857.769 .0260905
858.449 .0260750
859.128 .0260595
859.806 .0260440
860.485 .0260286
861.163 .0260133
861.840 .0259983
862.518 .0259836
863.195 .0259693
863.871 .0259556
864.548 .0259424
865.224 .0259299
865.899 .0259178
866.574 .0259063
867.249 .0258952
867.924 .0258845
868.598 .0258741
869.272 .0258640
869.946 .0258543
870.619 .0258448
871.292 .0258357
871.964 .0258268
872.636 .0258183
873.308 .0258100
873.979 .0258020
874.651 .0257942
875.321 .0257865
875.992 .0257791
876.662 .0257717
877.331 .0257644
878.001 .0257572
878.670 .0257500
879.338 .0257428
880.007 .0257357
880.675 .0257286
881.342 .0257216
882.009 .0257148
882.676 .0257082
883.343 .0257019
884.009 .0256959
884.675 .0256903
885.340 .0256849
886.005 .0256798
886.670 .0256750
887.334 .0256704
887.998 .0256661
888.662 .0256620
889.325 .0256582
889.988 .0256548
890.650 .0256516
891.312 .0256486
891.974 .0256459
892.636 .0256434
893.297 .0256410
893.957 .0256388
894.618 .0256367
895.278 .0256347
895.937 .0256327
896.596 .0256308
897.255 .0256287
897.914 .0256266
898.572 .0256242
899.230 .0256216
899.887 .0256186
900.544 .0256153
901.201 .0256117
901.857 .0256049
902.513 .0256004
903.168 .0255956
903.823 .0255903
904.478 .0255846
905.132 .0255784
905.786 .0255716
906.440 .0255642
907.093 .0255562
907.746 .0255476
908.399 .0255384
909.051 .0255288
909.703 .0255187
910.354 .0255123
911.005 .0255018
911.656 .0254911
912.306 .0254801
912.956 .0254690
913.605 .0254577
914.254 .0254462
914.903 .0254348
915.551 .0254232
916.199 .0254117
916.847 .0254002
917.494 .0253887
918.141 .0253772
918.788 .0253657
919.434 .0253543
920.079 .0253428
920.725 .0253314
921.370 .0253200
922.014 .0253086
922.658 .0252974
923.302 .0252862
923.946 .0252751
924.589 .0252641
925.231 .0252532
925.873 .0252423
926.515 .0252313
927.157 .0252202
927.798 .0252090
928.439 .0251978
929.079 .0251866
929.719 .0251753
930.359 .0251640
930.998 .0251527
931.637 .0251413
932.275 .0251298
932.913 .0251182
933.551 .0251066
934.188 .0250950
934.825 .0250834
935.462 .0250719
936.098 .0250606
936.733 .0250497
937.369 .0250390
938.004 .0250287
938.638 .0250188
939.273 .0250093
939.907 .0250001
940.540 .0249914
941.173 .0249831
941.806 .0249753
942.438 .0249681
943.070 .0249613
943.702 .0249550
944.333 .0249491
944.964 .0249436
945.594 .0249384
946.224 .0249333
946.854 .0249283
947.483 .0249235
948.112 .0249187
948.741 .0249139
949.369 .0249093
949.996 .0249046
950.624 .0248999
951.251 .0248952
951.878 .0248902
952.504 .0248850
953.130 .0248794
953.755 .0248735
954.380 .0248672
955.005 .0248606
955.629 .0248536
956.253 .0248462
956.877 .0248385
957.500 .0248304
958.123 .0248220
958.746 .0248132
959.368 .0248042
959.990 .0247950
960.611 .0247856
961.232 .0247761
961.853 .0247665
962.473 .0247570
963.093 .0247474
963.712 .0247377
964.331 .0247281
964.950 .0247184
965.569 .0247088
966.187 .0246991
966.804 .0246896
967.422 .0246801
968.039 .0246706
968.655 .0246612
969.272 .0246519
969.887 .0246426
970.503 .0246333
971.118 .0246240
971.733 .0246146
972.347 .0246051
972.961 .0245956
973.575 .0245860
974.188 .0245763
974.801 .0245665
975.414 .0245564
976.026 .0245461
976.638 .0245356
977.250 .0245247
977.861 .0245136
978.472 .0245020
979.083 .0244902
979.693 .0244780
980.303 .0244656
980.912 .0244455
981.521 .0244324
982.130 .0244191
982.738 .0244055
983.346 .0243917
983.954 .0243779
984.562 .0243640
985.169 .0243502
985.775 .0243367
986.382 .0243235
986.988 .0243107
987.594 .0242984
988.199 .0242865
988.804 .0242751
989.409 .0242712
990.013 .0242608
990.617 .0242508
991.221 .0242414
991.824 .0242324
992.427 .0242239
993.030 .0242159
993.632 .0242083
994.234 .0242012
994.836 .0241945
995.438 .0241882
996.039 .0241823
996.640 .0241769
997.240 .0241720
997.840 .0241676
998.440 .0241636
999.040 .0241602
999.639 .0241571
1000.238 .0241544
1000.836 .0241518
1001.435 .0241494
1002.033 .0241471
1002.630 .0241447
1003.228 .0241422
1003.825 .0241396
1004.422 .0241369
1005.018 .0241340
1005.614 .0241308
1006.210 .0241274
1006.806 .0241236
1007.401 .0241193
1007.996 .0241146
1008.591 .0241095
1009.186 .0241040
1009.780 .0240982
1010.374 .0240922
1010.967 .0240862
1011.561 .0240803
1012.154 .0240745
1012.746 .0240689
1013.339 .0240636
1013.931 .0240584
1014.523 .0240534
1015.115 .0240486
1015.706 .0240440
1016.298 .0240396
1016.888 .0240355
1017.479 .0240319
1018.069 .0240288
1018.660 .0240261
1019.250 .0240240
1019.839 .0240223
1020.429 .0240211
1021.018 .0240202
1021.607 .0240197
1022.195 .0240195
1022.784 .0240197
1023.372 .0240203
1023.960 .0240215
1024.547 .0240232
1025.135 .0240256
1025.722 .0240285
1026.309 .0240320
1026.896 .0240359
1027.483 .0240400
1028.069 .0240443
1028.655 .0240487
1029.241 .0240530
1029.827 .0240572
1030.412 .0240613
1030.997 .0240652
1031.582 .0240690
1032.167 .0240726
1032.752 .0240759
1033.336 .0240790
1033.921 .0240817
1034.505 .0240840
1035.089 .0240859
1035.672 .0240874
1036.256 .0240884
1036.839 .0240890
1037.422 .0240892
1038.005 .0240891
1038.588 .0240886
1039.171 .0240877
1039.753 .0240866
1040.335 .0240852
1040.918 .0240835
1041.500 .0240816
1042.081 .0240794
1042.663 .0240770
1043.244 .0240743
1043.826 .0240714
1044.407 .0240684
1044.988 .0240653
1045.569 .0240620
1046.150 .0240587
1046.730 .0240553
1047.311 .0240519
1047.891 .0240486
1048.471 .0240454
1049.052 .0240424
1049.632 .0240395
1050.211 .0240368
1050.791 .0240344
1051.371 .0240321
1051.950 .0240302
1052.530 .0240285
1053.109 .0240272
1053.688 .0240263
1054.268 .0240258
1054.847 .0240258
1055.426 .0240262
1056.005 .0240270
1056.583 .0240282
1057.162 .0240295
1057.741 .0240309
1058.319 .0240325
1058.898 .0240341
1059.476 .0240358
1060.055 .0240377
1060.633 .0240396
1061.211 .0240416
1061.790 .0240438
1062.368 .0240460
1062.946 .0240482
1063.524 .0240503
1064.102 .0240522
1064.680 .0240538
1065.258 .0240552
1065.836 .0240563
1066.414 .0240572
1066.992 .0240581
1067.570 .0240589
1068.148 .0240596
1068.726 .0240604
1069.304 .0240610
1069.882 .0240616
1070.460 .0240619
1071.038 .0240619
1071.616 .0240616
1072.194 .0240610
1072.772 .0240601
1073.350 .0240589
1073.928 .0240577
1074.506 .0240564
1075.084 .0240550
1075.662 .0240536
1076.240 .0240522
1076.819 .0240508
1077.397 .0240495
1077.976 .0240484
1078.554 .0240476
1079.133 .0240473
1079.711 .0240477
1080.290 .0240490
1080.869 .0240512
1081.448 .0240543
1082.027 .0240582
1082.606 .0240628
1083.185 .0240678
1083.764 .0240732
1084.343 .0240789
1084.923 .0240848
1085.502 .0240911
1086.082 .0240978
1086.662 .0241051
1087.242 .0241132
1087.822 .0241219
1088.402 .0241315
1088.983 .0241417
1089.563 .0241526
1090.144 .0241640
1090.725 .0241761
1091.306 .0241887
1091.887 .0242020
1092.469 .0242161
1093.050 .0242310
1093.632 .0242468
1094.214 .0242631
1094.796 .0242799
1095.379 .0242968
1095.961 .0243136
1096.544 .0243301
1097.127 .0243462
1097.710 .0243620
1098.294 .0243776
1098.877 .0243933
1099.461 .0244092
1100.046 .0244255
1100.630 .0244424
1101.215 .0244601
1101.800 .0244785
1102.385 .0244976
1102.970 .0245176
1103.556 .0245387
1104.142 .0245609
1104.728 .0245845
1105.315 .0246095
1105.902 .0246362
1106.489 .0246644
1107.077 .0246941
1107.664 .0247251
1108.253 .0247572
1108.841 .0247901
1109.430 .0248238
1110.019 .0248579
1110.609 .0248926
1111.198 .0249278
1111.789 .0249637
1112.379 .0250003
1112.970 .0250377
1113.561 .0250758
1114.153 .0251146
1114.745 .0251542
1115.338 .0251945
1115.931 .0252354
1116.524 .0252770
1117.117 .0253191
1117.712 .0253618
1118.306 .0254052
1118.901 .0254492
1119.496 .0254939
1120.092 .0255393
1120.689 .0255852
1121.285 .0256316
1121.882 .0256782
1122.480 .0257249
1123.078 .0257718
1123.677 .0258187
1124.276 .0258659
1124.875 .0259135
1125.476 .0259618
1126.076 .0260112
1126.677 .0260622
1127.279 .0261153
1127.881 .0261707
1128.484 .0262289
1129.087 .0262524
1129.691 .0263146
1130.295 .0263801
1130.900 .0264492
1131.505 .0265219
1132.111 .0265981
1132.718 .0266780
1133.325 .0267618
1133.933 .0268489
1134.541 .0269436
1135.150 .0270399
1135.760 .0271357
1136.370 .0272465
1136.981 .0272244
1137.592 .0273474
1138.204 .0274725
1138.817 .0275998
1139.431 .0277336
1140.045 .0278671
1140.660 .0280023
1141.275 .0281500
1141.891 .0282798
1142.508 .0285364
1143.126 .0286249
1143.744 .0286603
1144.363 .0291274
1144.983 .0285524
