Measurement Sequence started on: 15-12-46-377
Integration time: 28
Scans to Average: 2 
>>>>>Begin Spectral Data<<<<<
432.689 .0000100
433.621 .0000100
434.552 .0000100
435.482 .0000100
436.410 .0000100
437.337 .0000100
438.262 .0269918
439.187 .0571997
440.110 .0947367
441.031 .1370905
441.952 .1099947
442.871 .1148429
443.789 .1193418
444.705 .1235681
445.621 .1275747
446.535 .1314024
447.447 .1336609
448.359 .1342036
449.269 .1326632
450.178 .1288000
451.086 .1226850
451.993 .1147879
452.898 .1058853
453.803 .0968592
454.706 .0884626
455.608 .0811650
456.508 .0751266
457.408 .0710459
458.306 .0679223
459.204 .0653951
460.100 .0632832
460.995 .0614840
461.888 .0599224
462.781 .0585473
463.673 .0573195
464.563 .0562111
465.452 .0552008
466.340 .0542730
467.228 .0534163
468.114 .0526238
468.999 .0518900
469.882 .0512110
470.765 .0505838
471.647 .0500052
472.528 .0494725
473.407 .0489830
474.286 .0485343
475.163 .0481251
476.040 .0477542
476.915 .0474208
477.790 .0471244
478.663 .0468645
479.535 .0466408
480.407 .0464526
481.277 .0462986
482.147 .0461769
483.015 .0460844
483.883 .0460184
484.749 .0459755
485.615 .0459523
486.479 .0459468
487.343 .0459569
488.206 .0459822
489.067 .0460225
489.928 .0460781
490.788 .0461499
491.647 .0462381
492.505 .0463432
493.362 .0464656
494.218 .0466050
495.073 .0467613
495.928 .0470616
496.781 .0472657
497.634 .0474895
498.486 .0477349
499.337 .0480044
500.187 .0483007
501.036 .0486270
501.884 .0489857
502.731 .0493804
503.578 .0498143
504.424 .0501127
505.268 .0506159
506.113 .0511674
506.956 .0517717
507.798 .0524335
508.640 .0531607
509.480 .0539625
510.320 .0548496
511.160 .0558350
511.998 .0569331
512.836 .0581603
513.672 .0595324
514.508 .0610680
515.344 .0627862
516.178 .0647072
517.012 .0668538
517.845 .0692472
518.677 .0719093
519.508 .0748614
520.339 .0781145
521.169 .0816737
521.998 .0855227
522.826 .0896303
523.654 .0939434
524.481 .0983952
525.307 .1029100
526.133 .1073967
526.958 .1117598
527.782 .1159066
528.605 .1197488
529.428 .1232116
530.250 .1262263
531.072 .1287449
531.892 .1307301
532.712 .1321579
533.532 .1330116
534.350 .1332815
535.168 .1329691
535.986 .1320778
536.802 .1306099
537.618 .1285771
538.434 .1259934
539.249 .1228959
540.063 .1193348
540.876 .1153779
541.689 .1111039
542.501 .1065978
543.313 .1019519
544.124 .0972613
544.934 .0926139
545.744 .0880900
546.553 .0837537
547.361 .0796621
548.169 .0758510
548.976 .0723429
549.783 .0691459
550.589 .0662587
551.395 .0636695
552.200 .0613564
553.004 .0592928
553.808 .0574539
554.611 .0558143
555.414 .0543512
556.216 .0530407
557.018 .0518601
557.819 .0507903
558.619 .0498141
559.419 .0489173
560.218 .0480899
561.017 .0473218
561.815 .0466062
562.613 .0459377
563.410 .0453115
564.207 .0447219
565.003 .0441636
565.799 .0436318
566.594 .0431218
567.388 .0426297
568.182 .0421523
568.976 .0416870
569.769 .0412330
570.562 .0407901
571.354 .0403586
572.145 .0399388
572.936 .0395312
573.727 .0391354
574.517 .0387513
575.307 .0383783
576.096 .0380158
576.885 .0376639
577.673 .0373230
578.461 .0369939
579.248 .0366770
580.035 .0363730
580.821 .0360825
581.607 .0358060
582.392 .0355436
583.177 .0352957
583.962 .0350622
584.746 .0348431
585.529 .0346380
586.313 .0344466
587.095 .0342681
587.878 .0341019
588.660 .0339472
589.441 .0338033
590.222 .0336693
591.003 .0335447
591.783 .0334287
592.563 .0333209
593.342 .0332205
594.121 .0331267
594.899 .0330386
595.678 .0329556
596.455 .0328770
597.233 .0328019
598.009 .0327299
598.786 .0326607
599.562 .0325939
600.338 .0325296
601.113 .0324675
601.888 .0323815
602.663 .0323247
603.437 .0322700
604.211 .0322174
604.984 .0321668
605.757 .0321181
606.530 .0320714
607.302 .0320265
608.074 .0319835
608.845 .0319424
609.616 .0319032
610.387 .0318884
611.158 .0318522
611.928 .0318180
612.697 .0317857
613.467 .0317554
614.236 .0317270
615.004 .0317003
615.773 .0316754
616.541 .0316519
617.308 .0316300
618.076 .0316094
618.843 .0315900
619.609 .0315717
620.375 .0315543
621.141 .0315377
621.907 .0315216
622.672 .0315058
623.437 .0314900
624.202 .0314743
624.966 .0314583
625.730 .0314421
626.493 .0314256
627.257 .0314086
628.020 .0313910
628.782 .0313729
629.545 .0313539
630.307 .0313341
631.068 .0313132
631.830 .0312913
632.591 .0312682
633.352 .0312442
634.112 .0312192
634.872 .0311934
635.632 .0311668
636.392 .0311397
637.151 .0311121
637.910 .0310841
638.668 .0310559
639.427 .0310275
640.185 .0309990
640.943 .0309705
641.700 .0309422
642.457 .0309140
643.214 .0308862
643.971 .0308587
644.727 .0308317
645.483 .0308053
646.239 .0307793
646.994 .0307539
647.750 .0307291
648.505 .0307048
649.259 .0306809
650.014 .0306574
650.768 .0306342
651.521 .0306113
652.275 .0305884
653.028 .0305655
653.781 .0305425
654.534 .0305195
655.286 .0304962
656.039 .0304728
656.791 .0304493
657.542 .0304256
658.294 .0304018
659.045 .0303779
659.796 .0303540
660.546 .0303301
661.297 .0303063
662.047 .0302826
662.796 .0302591
663.546 .0302358
664.295 .0302127
665.044 .0301899
665.793 .0301674
666.542 .0301455
667.290 .0301241
668.038 .0301034
668.786 .0300833
669.533 .0300641
670.281 .0300455
671.028 .0300277
671.774 .0300104
672.521 .0299937
673.267 .0299773
674.013 .0299612
674.759 .0299454
675.505 .0299300
676.250 .0299148
676.995 .0299000
677.740 .0298853
678.484 .0298709
679.229 .0298567
679.973 .0298425
680.717 .0298284
681.460 .0298143
682.204 .0298001
682.947 .0297860
683.690 .0297718
684.433 .0297575
685.175 .0297433
685.917 .0297291
686.659 .0297148
687.401 .0297005
688.142 .0296862
688.884 .0296719
689.625 .0296577
690.365 .0296435
691.106 .0296295
691.846 .0296154
692.586 .0296014
693.326 .0295874
694.066 .0295732
694.805 .0295589
695.545 .0295444
696.284 .0295298
697.022 .0295150
697.761 .0295001
698.499 .0294853
699.237 .0294704
699.975 .0294555
700.713 .0294406
701.450 .0294257
702.187 .0294108
702.924 .0293959
703.661 .0293808
704.397 .0293656
705.133 .0293502
705.869 .0293347
706.605 .0293190
707.341 .0293031
708.076 .0292870
708.811 .0292708
709.546 .0292545
710.281 .0292380
711.015 .0292213
711.749 .0292043
712.483 .0291871
713.217 .0291694
713.950 .0291511
714.684 .0291322
715.417 .0291127
716.150 .0290925
716.882 .0290717
717.615 .0290503
718.347 .0290282
719.079 .0290056
719.811 .0289825
720.542 .0289588
721.273 .0289347
722.005 .0289101
722.735 .0288852
723.466 .0288600
724.196 .0288347
724.927 .0288093
725.656 .0287840
726.386 .0287587
727.116 .0287336
727.845 .0287088
728.574 .0286844
729.303 .0286604
730.031 .0286369
730.760 .0286141
731.488 .0285920
732.216 .0285706
732.944 .0285498
733.671 .0285296
734.398 .0285099
735.125 .0284906
735.852 .0284717
736.579 .0284532
737.305 .0284350
738.031 .0284173
738.757 .0283999
739.483 .0283829
740.208 .0283662
740.933 .0283498
741.658 .0283336
742.383 .0283176
743.108 .0283017
743.832 .0282858
744.556 .0282702
745.280 .0282547
746.004 .0282395
746.727 .0282246
747.450 .0282100
748.173 .0281958
748.896 .0281820
749.618 .0281686
750.340 .0281556
751.062 .0281433
751.784 .0281314
752.506 .0281202
753.227 .0281095
753.948 .0280995
754.669 .0280900
755.389 .0280810
756.110 .0280726
756.830 .0280648
757.550 .0280574
758.269 .0280505
758.989 .0280441
759.708 .0280381
760.427 .0280325
761.146 .0280273
761.864 .0280223
762.582 .0280175
763.300 .0280129
764.018 .0280084
764.736 .0280041
765.453 .0279998
766.170 .0279956
766.887 .0279916
767.603 .0279876
768.320 .0279838
769.036 .0279801
769.751 .0279765
770.467 .0279730
771.182 .0279696
771.897 .0279663
772.612 .0279632
773.327 .0279602
774.041 .0279575
774.755 .0279549
775.469 .0279526
776.183 .0279504
776.896 .0279485
777.609 .0279468
778.322 .0279453
779.035 .0279438
779.747 .0279424
780.459 .0279409
781.171 .0279393
781.882 .0279376
782.594 .0279357
783.305 .0279337
784.016 .0279313
784.726 .0279287
785.436 .0279258
786.147 .0279194
786.856 .0279150
787.566 .0279099
788.275 .0279041
788.984 .0278975
789.693 .0278900
790.401 .0278817
791.110 .0278726
791.818 .0278627
792.525 .0278519
793.233 .0278404
793.940 .0278280
794.647 .0278197
795.353 .0278063
796.060 .0277921
796.766 .0277772
797.472 .0277616
798.177 .0277453
798.883 .0277284
799.588 .0277108
800.292 .0276926
800.997 .0276737
801.701 .0276543
802.405 .0276342
803.109 .0276136
803.812 .0275923
804.515 .0275705
805.218 .0275482
805.921 .0275254
806.623 .0275020
807.325 .0274782
808.027 .0274540
808.728 .0274292
809.429 .0274040
810.130 .0273784
810.831 .0273524
811.531 .0273261
812.231 .0272994
812.931 .0272726
813.630 .0272457
814.330 .0272187
815.029 .0271918
815.727 .0271651
816.426 .0271385
817.124 .0271121
817.821 .0270860
818.519 .0270602
819.216 .0270347
819.913 .0270095
820.609 .0269849
821.306 .0269608
822.002 .0269375
822.697 .0269149
823.393 .0268932
824.088 .0268723
824.783 .0268523
825.477 .0268332
826.171 .0268148
826.865 .0267972
827.559 .0267804
828.252 .0267643
828.945 .0267489
829.638 .0267343
830.330 .0267206
831.023 .0267077
831.714 .0266956
832.406 .0266842
833.097 .0266735
833.788 .0266633
834.479 .0266537
835.169 .0266447
835.859 .0266362
836.548 .0266282
837.238 .0266208
837.927 .0266141
838.615 .0266079
839.304 .0266024
839.992 .0265973
840.680 .0265927
841.367 .0265884
842.054 .0265845
842.741 .0265809
843.428 .0265775
844.114 .0265745
844.800 .0265716
845.485 .0265690
846.170 .0265666
846.855 .0265644
847.540 .0265623
848.224 .0265602
848.908 .0265581
849.592 .0265560
850.275 .0265539
850.958 .0265517
851.641 .0265495
852.323 .0265472
853.005 .0265449
853.687 .0265425
854.368 .0265401
855.049 .0265377
855.730 .0265352
856.410 .0265328
857.090 .0265306
857.769 .0265286
858.449 .0265268
859.128 .0265254
859.806 .0265245
860.485 .0265239
861.163 .0265238
861.840 .0265242
862.518 .0265250
863.195 .0265264
863.871 .0265282
864.548 .0265307
865.224 .0265336
865.899 .0265371
866.574 .0265411
867.249 .0265454
867.924 .0265502
868.598 .0265552
869.272 .0265605
869.946 .0265659
870.619 .0265713
871.292 .0265767
871.964 .0265821
872.636 .0265874
873.308 .0265925
873.979 .0265974
874.651 .0266020
875.321 .0266062
875.992 .0266101
876.662 .0266136
877.331 .0266167
878.001 .0266195
878.670 .0266218
879.338 .0266237
880.007 .0266252
880.675 .0266262
881.342 .0266268
882.009 .0266270
882.676 .0266267
883.343 .0266261
884.009 .0266251
884.675 .0266239
885.340 .0266224
886.005 .0266207
886.670 .0266188
887.334 .0266167
887.998 .0266144
888.662 .0266118
889.325 .0266089
889.988 .0266056
890.650 .0266021
891.312 .0265983
891.974 .0265941
892.636 .0265897
893.297 .0265849
893.957 .0265798
894.618 .0265742
895.278 .0265682
895.937 .0265616
896.596 .0265543
897.255 .0265462
897.914 .0265371
898.572 .0265271
899.230 .0265160
899.887 .0265037
900.544 .0264903
901.201 .0264758
901.857 .0264492
902.513 .0264316
903.168 .0264128
903.823 .0263929
904.478 .0263718
905.132 .0263496
905.786 .0263262
906.440 .0263019
907.093 .0262765
907.746 .0262501
908.399 .0262229
909.051 .0261949
909.703 .0261662
910.354 .0261499
911.005 .0261205
911.656 .0260905
912.306 .0260600
912.956 .0260289
913.605 .0259975
914.254 .0259657
914.903 .0259335
915.551 .0259010
916.199 .0258683
916.847 .0258353
917.494 .0258020
918.141 .0257686
918.788 .0257349
919.434 .0257010
920.079 .0256670
920.725 .0256330
921.370 .0255990
922.014 .0255650
922.658 .0255311
923.302 .0254972
923.946 .0254632
924.589 .0254293
925.231 .0253954
925.873 .0253614
926.515 .0253273
927.157 .0252934
927.798 .0252595
928.439 .0252259
929.079 .0251925
929.719 .0251597
930.359 .0251273
930.998 .0250956
931.637 .0250645
932.275 .0250342
932.913 .0250047
933.551 .0249762
934.188 .0249486
934.825 .0249221
935.462 .0248968
936.098 .0248727
936.733 .0248498
937.369 .0248282
938.004 .0248078
938.638 .0247886
939.273 .0247705
939.907 .0247535
940.540 .0247376
941.173 .0247227
941.806 .0247088
942.438 .0246958
943.070 .0246837
943.702 .0246723
944.333 .0246615
944.964 .0246513
945.594 .0246416
946.224 .0246322
946.854 .0246231
947.483 .0246142
948.112 .0246054
948.741 .0245968
949.369 .0245883
949.996 .0245798
950.624 .0245715
951.251 .0245632
951.878 .0245550
952.504 .0245469
953.130 .0245389
953.755 .0245311
954.380 .0245234
955.005 .0245160
955.629 .0245089
956.253 .0245021
956.877 .0244957
957.500 .0244899
958.123 .0244846
958.746 .0244800
959.368 .0244761
959.990 .0244730
960.611 .0244709
961.232 .0244696
961.853 .0244693
962.473 .0244699
963.093 .0244715
963.712 .0244740
964.331 .0244775
964.950 .0244818
965.569 .0244869
966.187 .0244928
966.804 .0244993
967.422 .0245064
968.039 .0245138
968.655 .0245216
969.272 .0245295
969.887 .0245376
970.503 .0245458
971.118 .0245540
971.733 .0245622
972.347 .0245704
972.961 .0245787
973.575 .0245869
974.188 .0245952
974.801 .0246034
975.414 .0246116
976.026 .0246198
976.638 .0246279
977.250 .0246360
977.861 .0246440
978.472 .0246520
979.083 .0246598
979.693 .0246675
980.303 .0246749
980.912 .0246861
981.521 .0246931
982.130 .0247001
982.738 .0247069
983.346 .0247137
983.954 .0247205
984.562 .0247274
985.169 .0247344
985.775 .0247416
986.382 .0247491
986.988 .0247568
987.594 .0247649
988.199 .0247734
988.804 .0247823
989.409 .0247873
990.013 .0247970
990.617 .0248072
991.221 .0248178
991.824 .0248287
992.427 .0248399
993.030 .0248511
993.632 .0248624
994.234 .0248737
994.836 .0248849
995.438 .0248961
996.039 .0249072
996.640 .0249184
997.240 .0249297
997.840 .0249411
998.440 .0249527
999.040 .0249645
999.639 .0249764
1000.238 .0249885
1000.836 .0250006
1001.435 .0250128
1002.033 .0250249
1002.630 .0250370
1003.228 .0250489
1003.825 .0250607
1004.422 .0250722
1005.018 .0250835
1005.614 .0250943
1006.210 .0251046
1006.806 .0251145
1007.401 .0251237
1007.996 .0251324
1008.591 .0251404
1009.186 .0251480
1009.780 .0251551
1010.374 .0251618
1010.967 .0251682
1011.561 .0251744
1012.154 .0251804
1012.746 .0251863
1013.339 .0251922
1013.931 .0251981
1014.523 .0252039
1015.115 .0252095
1015.706 .0252150
1016.298 .0252203
1016.888 .0252253
1017.479 .0252301
1018.069 .0252346
1018.660 .0252389
1019.250 .0252431
1019.839 .0252472
1020.429 .0252513
1021.018 .0252554
1021.607 .0252595
1022.195 .0252635
1022.784 .0252676
1023.372 .0252716
1023.960 .0252754
1024.547 .0252792
1025.135 .0252830
1025.722 .0252867
1026.309 .0252903
1026.896 .0252939
1027.483 .0252974
1028.069 .0253007
1028.655 .0253037
1029.241 .0253062
1029.827 .0253082
1030.412 .0253095
1030.997 .0253101
1031.582 .0253100
1032.167 .0253093
1032.752 .0253080
1033.336 .0253062
1033.921 .0253039
1034.505 .0253012
1035.089 .0252979
1035.672 .0252941
1036.256 .0252896
1036.839 .0252844
1037.422 .0252784
1038.005 .0252718
1038.588 .0252643
1039.171 .0252560
1039.753 .0252470
1040.335 .0252372
1040.918 .0252266
1041.500 .0252152
1042.081 .0252029
1042.663 .0251898
1043.244 .0251758
1043.826 .0251610
1044.407 .0251453
1044.988 .0251290
1045.569 .0251121
1046.150 .0250947
1046.730 .0250770
1047.311 .0250591
1047.891 .0250408
1048.471 .0250225
1049.052 .0250040
1049.632 .0249853
1050.211 .0249666
1050.791 .0249478
1051.371 .0249289
1051.950 .0249099
1052.530 .0248909
1053.109 .0248717
1053.688 .0248523
1054.268 .0248329
1054.847 .0248133
1055.426 .0247938
1056.005 .0247743
1056.583 .0247549
1057.162 .0247358
1057.741 .0247169
1058.319 .0246982
1058.898 .0246796
1059.476 .0246610
1060.055 .0246424
1060.633 .0246235
1061.211 .0246044
1061.790 .0245851
1062.368 .0245657
1062.946 .0245463
1063.524 .0245268
1064.102 .0245073
1064.680 .0244878
1065.258 .0244681
1065.836 .0244482
1066.414 .0244279
1066.992 .0244072
1067.570 .0243862
1068.148 .0243650
1068.726 .0243437
1069.304 .0243227
1069.882 .0243021
1070.460 .0242821
1071.038 .0242628
1071.616 .0242442
1072.194 .0242263
1072.772 .0242091
1073.350 .0241925
1073.928 .0241766
1074.506 .0241614
1075.084 .0241470
1075.662 .0241335
1076.240 .0241209
1076.819 .0241094
1077.397 .0240991
1077.976 .0240899
1078.554 .0240818
1079.133 .0240745
1079.711 .0240680
1080.290 .0240621
1080.869 .0240566
1081.448 .0240515
1082.027 .0240467
1082.606 .0240423
1083.185 .0240383
1083.764 .0240346
1084.343 .0240313
1084.923 .0240285
1085.502 .0240262
1086.082 .0240243
1086.662 .0240228
1087.242 .0240217
1087.822 .0240210
1088.402 .0240206
1088.983 .0240205
1089.563 .0240210
1090.144 .0240220
1090.725 .0240238
1091.306 .0240265
1091.887 .0240304
1092.469 .0240353
1093.050 .0240414
1093.632 .0240487
1094.214 .0240569
1094.796 .0240660
1095.379 .0240759
1095.961 .0240865
1096.544 .0240981
1097.127 .0241106
1097.710 .0241242
1098.294 .0241392
1098.877 .0241558
1099.461 .0241739
1100.046 .0241938
1100.630 .0242152
1101.215 .0242382
1101.800 .0242626
1102.385 .0242882
1102.970 .0243150
1103.556 .0243430
1104.142 .0243721
1104.728 .0244024
1105.315 .0244338
1105.902 .0244663
1106.489 .0244997
1107.077 .0245337
1107.664 .0245681
1108.253 .0246027
1108.841 .0246371
1109.430 .0246716
1110.019 .0247060
1110.609 .0247404
1111.198 .0247753
1111.789 .0248106
1112.379 .0248467
1112.970 .0248836
1113.561 .0249214
1114.153 .0249601
1114.745 .0249999
1115.338 .0250407
1115.931 .0250826
1116.524 .0251256
1117.117 .0251698
1117.712 .0252152
1118.306 .0252620
1118.901 .0253101
1119.496 .0253594
1120.092 .0254103
1120.689 .0254628
1121.285 .0255167
1121.882 .0255724
1122.480 .0256299
1123.078 .0256893
1123.677 .0257509
1124.276 .0258149
1124.875 .0258814
1125.476 .0259507
1126.076 .0260228
1126.677 .0260976
1127.279 .0261753
1127.881 .0262558
1128.484 .0263390
1129.087 .0263747
1129.691 .0264618
1130.295 .0265512
1130.900 .0266429
1131.505 .0267367
1132.111 .0268321
1132.718 .0269285
1133.325 .0270260
1133.933 .0271250
1134.541 .0272249
1135.150 .0273181
1135.760 .0274116
1136.370 .0275227
1136.981 .0277055
1137.592 .0278210
1138.204 .0279342
1138.817 .0280480
1139.431 .0281595
1140.045 .0282609
1140.660 .0283515
1141.275 .0284503
1141.891 .0285593
1142.508 .0286571
1143.126 .0285387
1143.744 .0286248
1144.363 .0291901
1144.983 .0295880
