Measurement Sequence started on: 15-12-46-377
Integration time: 28
Scans to Average: 2 
>>>>>Begin Spectral Data<<<<<
432.689 .0000100
433.621 .0000100
434.552 .0000100
435.482 .0000100
436.410 .0000100
437.337 .0000100
438.262 .0274608
439.187 .0582631
440.110 .0965317
441.031 .1397125
441.952 .1130805
442.871 .1182867
443.789 .1231565
444.705 .1277584
445.621 .1321386
446.535 .1363337
447.447 .1389244
448.359 .1397554
449.269 .1384504
450.178 .1347629
451.086 .1287649
451.993 .1209303
452.898 .1120449
453.803 .1030030
454.706 .0945648
455.608 .0872031
456.508 .0810782
457.408 .0768977
458.306 .0736475
459.204 .0709638
460.100 .0686687
460.995 .0666668
461.888 .0648934
462.781 .0633055
463.673 .0618703
464.563 .0605653
465.452 .0593728
466.340 .0582785
467.228 .0572732
468.114 .0563487
468.999 .0554988
469.882 .0547182
470.765 .0540030
471.647 .0533495
472.528 .0527558
473.407 .0522185
474.286 .0517358
475.163 .0513061
476.040 .0509258
476.915 .0505920
477.790 .0503016
478.663 .0500513
479.535 .0498385
480.407 .0496603
481.277 .0495144
482.147 .0493981
483.015 .0493092
483.883 .0492454
484.749 .0492039
485.615 .0491825
486.479 .0491785
487.343 .0491895
488.206 .0492136
489.067 .0492486
489.928 .0492937
490.788 .0493486
491.647 .0494135
492.505 .0494896
493.362 .0495785
494.218 .0496817
495.073 .0498016
495.928 .0500473
496.781 .0502224
497.634 .0504209
498.486 .0506448
499.337 .0508963
500.187 .0511783
501.036 .0514940
501.884 .0518473
502.731 .0522437
503.578 .0526882
504.424 .0530218
505.268 .0535578
506.113 .0541575
506.956 .0548268
507.798 .0555714
508.640 .0563978
509.480 .0573137
510.320 .0583283
511.160 .0594514
511.998 .0606943
512.836 .0620705
513.672 .0635947
514.508 .0652843
515.344 .0671573
516.178 .0692329
517.012 .0715326
517.845 .0740772
518.677 .0768831
519.508 .0799640
520.339 .0833256
521.169 .0869692
521.998 .0908715
522.826 .0949956
523.654 .0992864
524.481 .1036772
525.307 .1080930
526.133 .1124490
526.958 .1166574
527.782 .1206345
528.605 .1243009
529.428 .1275880
530.250 .1304330
531.072 .1327932
531.892 .1346315
532.712 .1359240
533.532 .1366543
534.350 .1368115
535.168 .1363934
535.986 .1354066
536.802 .1338604
537.618 .1317688
538.434 .1291482
539.249 .1260390
540.063 .1224947
540.876 .1185831
541.689 .1143809
542.501 .1099720
543.313 .1054449
544.124 .1008872
544.934 .0963783
545.744 .0919902
546.553 .0877834
547.361 .0838097
548.169 .0800999
548.976 .0766764
549.783 .0735475
550.589 .0707123
551.395 .0681610
552.200 .0658744
553.004 .0638274
553.808 .0619934
554.611 .0603470
555.414 .0588646
556.216 .0575231
557.018 .0562997
557.819 .0551758
558.619 .0541357
559.419 .0531652
560.218 .0522542
561.017 .0513950
561.815 .0505819
562.613 .0498115
563.410 .0490791
564.207 .0483806
565.003 .0477116
565.799 .0470678
566.594 .0464453
567.388 .0458407
568.182 .0452515
568.976 .0446760
569.769 .0441138
570.562 .0435662
571.354 .0430348
572.145 .0425214
572.936 .0420274
573.727 .0415535
574.517 .0410997
575.307 .0406655
576.096 .0402499
576.885 .0398521
577.673 .0394717
578.461 .0391082
579.248 .0387613
580.035 .0384310
580.821 .0381171
581.607 .0378196
582.392 .0375385
583.177 .0372733
583.962 .0370237
584.746 .0367891
585.529 .0365689
586.313 .0363625
587.095 .0361691
587.878 .0359882
588.660 .0358191
589.441 .0356613
590.222 .0355141
591.003 .0353770
591.783 .0352495
592.563 .0351311
593.342 .0350210
594.121 .0349186
594.899 .0348231
595.678 .0347338
596.455 .0346500
597.233 .0345710
598.009 .0344965
598.786 .0344259
599.562 .0343588
600.338 .0342952
601.113 .0342350
601.888 .0341553
602.663 .0341026
603.437 .0340529
604.211 .0340057
604.984 .0339608
605.757 .0339179
606.530 .0338767
607.302 .0338371
608.074 .0337991
608.845 .0337627
609.616 .0337280
610.387 .0337147
611.158 .0336825
611.928 .0336520
612.697 .0336231
613.467 .0335957
614.236 .0335695
615.004 .0335441
615.773 .0335194
616.541 .0334951
617.308 .0334712
618.076 .0334476
618.843 .0334244
619.609 .0334016
620.375 .0333790
621.141 .0333567
621.907 .0333346
622.672 .0333126
623.437 .0332906
624.202 .0332684
624.966 .0332459
625.730 .0332230
626.493 .0331997
627.257 .0331758
628.020 .0331513
628.782 .0331261
629.545 .0331003
630.307 .0330739
631.068 .0330470
631.830 .0330196
632.591 .0329918
633.352 .0329636
634.112 .0329350
634.872 .0329060
635.632 .0328765
636.392 .0328465
637.151 .0328160
637.910 .0327850
638.668 .0327536
639.427 .0327220
640.185 .0326903
640.943 .0326587
641.700 .0326273
642.457 .0325961
643.214 .0325651
643.971 .0325344
644.727 .0325040
645.483 .0324738
646.239 .0324438
646.994 .0324140
647.750 .0323844
648.505 .0323550
649.259 .0323258
650.014 .0322968
650.768 .0322679
651.521 .0322391
652.275 .0322103
653.028 .0321817
653.781 .0321530
654.534 .0321244
655.286 .0320956
656.039 .0320668
656.791 .0320378
657.542 .0320086
658.294 .0319794
659.045 .0319501
659.796 .0319208
660.546 .0318916
661.297 .0318627
662.047 .0318340
662.796 .0318058
663.546 .0317779
664.295 .0317504
665.044 .0317234
665.793 .0316968
666.542 .0316706
667.290 .0316451
668.038 .0316201
668.786 .0315957
669.533 .0315720
670.281 .0315490
671.028 .0315266
671.774 .0315047
672.521 .0314833
673.267 .0314622
674.013 .0314414
674.759 .0314209
675.505 .0314005
676.250 .0313803
676.995 .0313603
677.740 .0313404
678.484 .0313206
679.229 .0313010
679.973 .0312815
680.717 .0312621
681.460 .0312428
682.204 .0312236
682.947 .0312045
683.690 .0311855
684.433 .0311667
685.175 .0311480
685.917 .0311295
686.659 .0311111
687.401 .0310930
688.142 .0310752
688.884 .0310576
689.625 .0310403
690.365 .0310233
691.106 .0310065
691.846 .0309899
692.586 .0309735
693.326 .0309572
694.066 .0309411
694.805 .0309250
695.545 .0309089
696.284 .0308929
697.022 .0308768
697.761 .0308607
698.499 .0308446
699.237 .0308284
699.975 .0308122
700.713 .0307960
701.450 .0307797
702.187 .0307633
702.924 .0307469
703.661 .0307305
704.397 .0307141
705.133 .0306977
705.869 .0306812
706.605 .0306647
707.341 .0306483
708.076 .0306318
708.811 .0306155
709.546 .0305992
710.281 .0305829
711.015 .0305665
711.749 .0305501
712.483 .0305334
713.217 .0305166
713.950 .0304996
714.684 .0304823
715.417 .0304647
716.150 .0304469
716.882 .0304287
717.615 .0304102
718.347 .0303913
719.079 .0303721
719.811 .0303525
720.542 .0303324
721.273 .0303119
722.005 .0302911
722.735 .0302700
723.466 .0302487
724.196 .0302272
724.927 .0302057
725.656 .0301842
726.386 .0301627
727.116 .0301414
727.845 .0301203
728.574 .0300995
729.303 .0300792
730.031 .0300593
730.760 .0300400
731.488 .0300213
732.216 .0300031
732.944 .0299856
733.671 .0299685
734.398 .0299519
735.125 .0299359
735.852 .0299204
736.579 .0299054
737.305 .0298910
738.031 .0298772
738.757 .0298638
739.483 .0298508
740.208 .0298382
740.933 .0298257
741.658 .0298134
742.383 .0298010
743.108 .0297885
743.832 .0297759
744.556 .0297632
745.280 .0297503
746.004 .0297374
746.727 .0297244
747.450 .0297114
748.173 .0296983
748.896 .0296851
749.618 .0296717
750.340 .0296583
751.062 .0296448
751.784 .0296311
752.506 .0296172
753.227 .0296031
753.948 .0295888
754.669 .0295744
755.389 .0295598
756.110 .0295451
756.830 .0295304
757.550 .0295158
758.269 .0295013
758.989 .0294869
759.708 .0294726
760.427 .0294583
761.146 .0294440
761.864 .0294297
762.582 .0294153
763.300 .0294007
764.018 .0293860
764.736 .0293713
765.453 .0293566
766.170 .0293419
766.887 .0293274
767.603 .0293131
768.320 .0292991
769.036 .0292853
769.751 .0292718
770.467 .0292586
771.182 .0292458
771.897 .0292332
772.612 .0292210
773.327 .0292091
774.041 .0291975
774.755 .0291864
775.469 .0291758
776.183 .0291656
776.896 .0291560
777.609 .0291470
778.322 .0291385
779.035 .0291307
779.747 .0291233
780.459 .0291165
781.171 .0291100
781.882 .0291038
782.594 .0290979
783.305 .0290923
784.016 .0290868
784.726 .0290814
785.436 .0290762
786.147 .0290685
786.856 .0290631
787.566 .0290577
788.275 .0290522
788.984 .0290465
789.693 .0290406
790.401 .0290345
791.110 .0290281
791.818 .0290213
792.525 .0290142
793.233 .0290067
793.940 .0289988
794.647 .0289936
795.353 .0289852
796.060 .0289765
796.766 .0289674
797.472 .0289580
798.177 .0289483
798.883 .0289382
799.588 .0289277
800.292 .0289169
800.997 .0289057
801.701 .0288942
802.405 .0288823
803.109 .0288701
803.812 .0288576
804.515 .0288448
805.218 .0288317
805.921 .0288182
806.623 .0288044
807.325 .0287903
808.027 .0287759
808.728 .0287612
809.429 .0287462
810.130 .0287310
810.831 .0287156
811.531 .0287001
812.231 .0286845
812.931 .0286689
813.630 .0286533
814.330 .0286379
815.029 .0286227
815.727 .0286078
816.426 .0285933
817.124 .0285794
817.821 .0285660
818.519 .0285532
819.216 .0285410
819.913 .0285295
820.609 .0285186
821.306 .0285084
822.002 .0284987
822.697 .0284896
823.393 .0284811
824.088 .0284732
824.783 .0284658
825.477 .0284590
826.171 .0284526
826.865 .0284465
827.559 .0284406
828.252 .0284348
828.945 .0284290
829.638 .0284231
830.330 .0284170
831.023 .0284107
831.714 .0284041
832.406 .0283972
833.097 .0283900
833.788 .0283824
834.479 .0283744
835.169 .0283661
835.859 .0283573
836.548 .0283483
837.238 .0283389
837.927 .0283292
838.615 .0283193
839.304 .0283091
839.992 .0282987
840.680 .0282880
841.367 .0282771
842.054 .0282660
842.741 .0282547
843.428 .0282433
844.114 .0282318
844.800 .0282203
845.485 .0282089
846.170 .0281975
846.855 .0281863
847.540 .0281752
848.224 .0281641
848.908 .0281531
849.592 .0281421
850.275 .0281311
850.958 .0281201
851.641 .0281089
852.323 .0280978
853.005 .0280866
853.687 .0280753
854.368 .0280641
855.049 .0280528
855.730 .0280416
856.410 .0280304
857.090 .0280192
857.769 .0280080
858.449 .0279967
859.128 .0279855
859.806 .0279741
860.485 .0279628
861.163 .0279513
861.840 .0279398
862.518 .0279283
863.195 .0279168
863.871 .0279054
864.548 .0278939
865.224 .0278826
865.899 .0278714
866.574 .0278602
867.249 .0278492
867.924 .0278381
868.598 .0278270
869.272 .0278159
869.946 .0278048
870.619 .0277935
871.292 .0277823
871.964 .0277710
872.636 .0277598
873.308 .0277487
873.979 .0277378
874.651 .0277270
875.321 .0277165
875.992 .0277062
876.662 .0276961
877.331 .0276864
878.001 .0276770
878.670 .0276678
879.338 .0276591
880.007 .0276506
880.675 .0276424
881.342 .0276346
882.009 .0276269
882.676 .0276196
883.343 .0276124
884.009 .0276054
884.675 .0275986
885.340 .0275919
886.005 .0275855
886.670 .0275792
887.334 .0275730
887.998 .0275669
888.662 .0275609
889.325 .0275548
889.988 .0275486
890.650 .0275424
891.312 .0275361
891.974 .0275298
892.636 .0275234
893.297 .0275170
893.957 .0275107
894.618 .0275043
895.278 .0274978
895.937 .0274913
896.596 .0274845
897.255 .0274774
897.914 .0274700
898.572 .0274622
899.230 .0274539
899.887 .0274452
900.544 .0274360
901.201 .0274264
901.857 .0274101
902.513 .0273993
903.168 .0273879
903.823 .0273760
904.478 .0273635
905.132 .0273504
905.786 .0273368
906.440 .0273227
907.093 .0273081
907.746 .0272931
908.399 .0272778
909.051 .0272622
909.703 .0272462
910.354 .0272372
911.005 .0272211
911.656 .0272046
912.306 .0271879
912.956 .0271709
913.605 .0271537
914.254 .0271363
914.903 .0271189
915.551 .0271014
916.199 .0270839
916.847 .0270664
917.494 .0270489
918.141 .0270312
918.788 .0270135
919.434 .0269955
920.079 .0269774
920.725 .0269591
921.370 .0269408
922.014 .0269223
922.658 .0269037
923.302 .0268851
923.946 .0268664
924.589 .0268476
925.231 .0268286
925.873 .0268094
926.515 .0267900
927.157 .0267704
927.798 .0267506
928.439 .0267307
929.079 .0267108
929.719 .0266909
930.359 .0266712
930.998 .0266516
931.637 .0266323
932.275 .0266133
932.913 .0265946
933.551 .0265763
934.188 .0265584
934.825 .0265410
935.462 .0265242
936.098 .0265080
936.733 .0264925
937.369 .0264777
938.004 .0264637
938.638 .0264504
939.273 .0264378
939.907 .0264259
940.540 .0264146
941.173 .0264038
941.806 .0263936
942.438 .0263840
943.070 .0263749
943.702 .0263663
944.333 .0263581
944.964 .0263503
945.594 .0263428
946.224 .0263354
946.854 .0263282
947.483 .0263208
948.112 .0263134
948.741 .0263059
949.369 .0262982
949.996 .0262904
950.624 .0262825
951.251 .0262744
951.878 .0262662
952.504 .0262578
953.130 .0262492
953.755 .0262403
954.380 .0262313
955.005 .0262221
955.629 .0262129
956.253 .0262037
956.877 .0261946
957.500 .0261856
958.123 .0261768
958.746 .0261682
959.368 .0261599
959.990 .0261517
960.611 .0261438
961.232 .0261362
961.853 .0261289
962.473 .0261220
963.093 .0261155
963.712 .0261095
964.331 .0261039
964.950 .0260988
965.569 .0260942
966.187 .0260899
966.804 .0260860
967.422 .0260822
968.039 .0260786
968.655 .0260751
969.272 .0260716
969.887 .0260682
970.503 .0260648
971.118 .0260615
971.733 .0260582
972.347 .0260548
972.961 .0260514
973.575 .0260477
974.188 .0260438
974.801 .0260395
975.414 .0260347
976.026 .0260295
976.638 .0260238
977.250 .0260176
977.861 .0260110
978.472 .0260041
979.083 .0259968
979.693 .0259892
980.303 .0259813
980.912 .0259680
981.521 .0259594
982.130 .0259504
982.738 .0259411
983.346 .0259316
983.954 .0259219
984.562 .0259123
985.169 .0259029
985.775 .0258936
986.382 .0258847
986.988 .0258761
987.594 .0258679
988.199 .0258600
988.804 .0258525
989.409 .0258505
990.013 .0258438
990.617 .0258377
991.221 .0258321
991.824 .0258272
992.427 .0258229
993.030 .0258194
993.632 .0258165
994.234 .0258144
994.836 .0258130
995.438 .0258122
996.039 .0258120
996.640 .0258123
997.240 .0258131
997.840 .0258145
998.440 .0258164
999.040 .0258188
999.639 .0258216
1000.238 .0258248
1000.836 .0258283
1001.435 .0258321
1002.033 .0258361
1002.630 .0258403
1003.228 .0258444
1003.825 .0258485
1004.422 .0258525
1005.018 .0258564
1005.614 .0258601
1006.210 .0258635
1006.806 .0258667
1007.401 .0258695
1007.996 .0258720
1008.591 .0258743
1009.186 .0258763
1009.780 .0258781
1010.374 .0258798
1010.967 .0258815
1011.561 .0258830
1012.154 .0258846
1012.746 .0258862
1013.339 .0258879
1013.931 .0258897
1014.523 .0258916
1015.115 .0258936
1015.706 .0258958
1016.298 .0258982
1016.888 .0259010
1017.479 .0259040
1018.069 .0259074
1018.660 .0259111
1019.250 .0259154
1019.839 .0259201
1020.429 .0259254
1021.018 .0259311
1021.607 .0259375
1022.195 .0259444
1022.784 .0259519
1023.372 .0259599
1023.960 .0259685
1024.547 .0259775
1025.135 .0259870
1025.722 .0259967
1026.309 .0260068
1026.896 .0260170
1027.483 .0260273
1028.069 .0260375
1028.655 .0260476
1029.241 .0260574
1029.827 .0260669
1030.412 .0260759
1030.997 .0260844
1031.582 .0260922
1032.167 .0260993
1032.752 .0261057
1033.336 .0261113
1033.921 .0261160
1034.505 .0261199
1035.089 .0261230
1035.672 .0261252
1036.256 .0261266
1036.839 .0261271
1037.422 .0261268
1038.005 .0261257
1038.588 .0261238
1039.171 .0261212
1039.753 .0261178
1040.335 .0261138
1040.918 .0261093
1041.500 .0261043
1042.081 .0260989
1042.663 .0260933
1043.244 .0260873
1043.826 .0260811
1044.407 .0260747
1044.988 .0260680
1045.569 .0260612
1046.150 .0260543
1046.730 .0260473
1047.311 .0260403
1047.891 .0260333
1048.471 .0260266
1049.052 .0260202
1049.632 .0260141
1050.211 .0260084
1050.791 .0260031
1051.371 .0259982
1051.950 .0259937
1052.530 .0259895
1053.109 .0259856
1053.688 .0259822
1054.268 .0259791
1054.847 .0259763
1055.426 .0259738
1056.005 .0259716
1056.583 .0259697
1057.162 .0259680
1057.741 .0259664
1058.319 .0259650
1058.898 .0259634
1059.476 .0259618
1060.055 .0259601
1060.633 .0259581
1061.211 .0259560
1061.790 .0259536
1062.368 .0259511
1062.946 .0259483
1063.524 .0259453
1064.102 .0259422
1064.680 .0259390
1065.258 .0259357
1065.836 .0259323
1066.414 .0259290
1066.992 .0259256
1067.570 .0259223
1068.148 .0259190
1068.726 .0259157
1069.304 .0259124
1069.882 .0259092
1070.460 .0259060
1071.038 .0259029
1071.616 .0259001
1072.194 .0258975
1072.772 .0258952
1073.350 .0258933
1073.928 .0258917
1074.506 .0258905
1075.084 .0258898
1075.662 .0258894
1076.240 .0258894
1076.819 .0258897
1077.397 .0258905
1077.976 .0258916
1078.554 .0258933
1079.133 .0258956
1079.711 .0258984
1080.290 .0259018
1080.869 .0259058
1081.448 .0259103
1082.027 .0259153
1082.606 .0259205
1083.185 .0259259
1083.764 .0259314
1084.343 .0259368
1084.923 .0259421
1085.502 .0259473
1086.082 .0259523
1086.662 .0259573
1087.242 .0259620
1087.822 .0259665
1088.402 .0259706
1088.983 .0259742
1089.563 .0259772
1090.144 .0259794
1090.725 .0259807
1091.306 .0259813
1091.887 .0259813
1092.469 .0259809
1093.050 .0259804
1093.632 .0259800
1094.214 .0259799
1094.796 .0259804
1095.379 .0259815
1095.961 .0259832
1096.544 .0259856
1097.127 .0259886
1097.710 .0259924
1098.294 .0259971
1098.877 .0260027
1099.461 .0260096
1100.046 .0260179
1100.630 .0260275
1101.215 .0260386
1101.800 .0260510
1102.385 .0260646
1102.970 .0260792
1103.556 .0260947
1104.142 .0261110
1104.728 .0261281
1105.315 .0261462
1105.902 .0261652
1106.489 .0261854
1107.077 .0262069
1107.664 .0262297
1108.253 .0262538
1108.841 .0262791
1109.430 .0263055
1110.019 .0263329
1110.609 .0263613
1111.198 .0263906
1111.789 .0264209
1112.379 .0264523
1112.970 .0264851
1113.561 .0265190
1114.153 .0265544
1114.745 .0265911
1115.338 .0266291
1115.931 .0266684
1116.524 .0267089
1117.117 .0267506
1117.712 .0267937
1118.306 .0268382
1118.901 .0268839
1119.496 .0269311
1120.092 .0269799
1120.689 .0270303
1121.285 .0270823
1121.882 .0271361
1122.480 .0271917
1123.078 .0272491
1123.677 .0273083
1124.276 .0273693
1124.875 .0274321
1125.476 .0274965
1126.076 .0275623
1126.677 .0276293
1127.279 .0276976
1127.881 .0277669
1128.484 .0278375
1129.087 .0278728
1129.691 .0279453
1130.295 .0280187
1130.900 .0280932
1131.505 .0281687
1132.111 .0282453
1132.718 .0283230
1133.325 .0284023
1133.933 .0284830
1134.541 .0285643
1135.150 .0286444
1135.760 .0287293
1136.370 .0288284
1136.981 .0288464
1137.592 .0289307
1138.204 .0290201
1138.817 .0291118
1139.431 .0292109
1140.045 .0293109
1140.660 .0294150
1141.275 .0295344
1141.891 .0296532
1142.508 .0297462
1143.126 .0297945
1143.744 .0300040
1144.363 .0304762
1144.983 .0303439
