Measurement Sequence started on: 15-12-46-377
Integration time: 28
Scans to Average: 2 
>>>>>Begin Spectral Data<<<<<
432.689 .0000100
433.621 .0000100
434.552 .0000100
435.482 .0000100
436.410 .0000100
437.337 .0000100
438.262 .0271126
439.187 .0574649
440.110 .0952651
441.031 .1379120
441.952 .1104638
442.871 .1152970
443.789 .1197854
444.705 .1240039
445.621 .1280068
446.535 .1318335
447.447 .1340849
448.359 .1346107
449.269 .1330366
450.178 .1291205
451.086 .1229377
451.993 .1149585
452.898 .1059678
453.803 .0968579
454.706 .0883894
455.608 .0810375
456.508 .0749643
457.408 .0708696
458.306 .0677456
459.204 .0652269
460.100 .0631246
460.995 .0613310
461.888 .0597731
462.781 .0583992
463.673 .0571725
464.563 .0560679
465.452 .0550678
466.340 .0541569
467.228 .0533249
468.114 .0525631
468.999 .0518643
469.882 .0512224
470.765 .0506315
471.647 .0500882
472.528 .0495892
473.407 .0491328
474.286 .0487180
475.163 .0483447
476.040 .0480126
476.915 .0477208
477.790 .0474680
478.663 .0472530
479.535 .0470737
480.407 .0469276
481.277 .0468127
482.147 .0467262
483.015 .0466656
483.883 .0466289
484.749 .0466134
485.615 .0466178
486.479 .0466397
487.343 .0466774
488.206 .0467290
489.067 .0467928
489.928 .0468676
490.788 .0469527
491.647 .0470476
492.505 .0471525
493.362 .0472676
494.218 .0473942
495.073 .0475331
495.928 .0477918
496.781 .0479709
497.634 .0481678
498.486 .0483844
499.337 .0486220
500.187 .0488824
501.036 .0491677
501.884 .0494807
502.731 .0498247
503.578 .0502027
504.424 .0504697
505.268 .0509124
506.113 .0514017
506.956 .0519424
507.798 .0525404
508.640 .0532032
509.480 .0539396
510.320 .0547597
511.160 .0556744
511.998 .0566979
512.836 .0578478
513.672 .0591429
514.508 .0606039
515.344 .0622528
516.178 .0641130
517.012 .0662085
517.845 .0685618
518.677 .0711911
519.508 .0741134
520.339 .0773387
521.169 .0808703
521.998 .0846834
522.826 .0887448
523.654 .0930028
524.481 .0973917
525.307 .1018349
526.133 .1062439
526.958 .1105269
527.782 .1145948
528.605 .1183626
529.428 .1217548
530.250 .1247026
531.072 .1271613
531.892 .1290903
532.712 .1304651
533.532 .1312727
534.350 .1315090
535.168 .1311786
535.986 .1302928
536.802 .1288611
537.618 .1268939
538.434 .1244055
539.249 .1214362
540.063 .1180319
540.876 .1142537
541.689 .1101750
542.501 .1058772
543.313 .1014502
544.124 .0969849
544.934 .0925656
545.744 .0882711
546.553 .0841668
547.361 .0803073
548.169 .0767210
548.976 .0734307
549.783 .0704406
550.589 .0677411
551.395 .0653140
552.200 .0631329
553.004 .0611681
553.808 .0593922
554.611 .0577832
555.414 .0563215
556.216 .0549881
557.018 .0537664
557.819 .0526422
558.619 .0516030
559.419 .0506379
560.218 .0497375
561.017 .0488935
561.815 .0481003
562.613 .0473520
563.410 .0466434
564.207 .0459706
565.003 .0453291
565.799 .0447153
566.594 .0441254
567.388 .0435576
568.182 .0430092
568.976 .0424781
569.769 .0419629
570.562 .0414632
571.354 .0409780
572.145 .0405073
572.936 .0400509
573.727 .0396089
574.517 .0391808
575.307 .0387667
576.096 .0383662
576.885 .0379794
577.673 .0376064
578.461 .0372477
579.248 .0369037
580.035 .0365748
580.821 .0362612
581.607 .0359633
582.392 .0356812
583.177 .0354153
583.962 .0351652
584.746 .0349309
585.529 .0347123
586.313 .0345090
587.095 .0343203
587.878 .0341460
588.660 .0339852
589.441 .0338374
590.222 .0337017
591.003 .0335776
591.783 .0334641
592.563 .0333606
593.342 .0332662
594.121 .0331801
594.899 .0331014
595.678 .0330290
596.455 .0329623
597.233 .0329005
598.009 .0328432
598.786 .0327896
599.562 .0327393
600.338 .0326919
601.113 .0326473
601.888 .0325877
602.663 .0325481
603.437 .0325104
604.211 .0324742
604.984 .0324392
605.757 .0324053
606.530 .0323721
607.302 .0323397
608.074 .0323078
608.845 .0322765
609.616 .0322458
610.387 .0322312
611.158 .0322013
611.928 .0321719
612.697 .0321430
613.467 .0321145
614.236 .0320864
615.004 .0320586
615.773 .0320311
616.541 .0320039
617.308 .0319770
618.076 .0319503
618.843 .0319239
619.609 .0318978
620.375 .0318719
621.141 .0318462
621.907 .0318206
622.672 .0317951
623.437 .0317696
624.202 .0317439
624.966 .0317180
625.730 .0316918
626.493 .0316654
627.257 .0316385
628.020 .0316113
628.782 .0315835
629.545 .0315551
630.307 .0315260
631.068 .0314964
631.830 .0314661
632.591 .0314352
633.352 .0314038
634.112 .0313720
634.872 .0313396
635.632 .0313069
636.392 .0312738
637.151 .0312404
637.910 .0312068
638.668 .0311731
639.427 .0311394
640.185 .0311060
640.943 .0310729
641.700 .0310404
642.457 .0310085
643.214 .0309772
643.971 .0309465
644.727 .0309165
645.483 .0308872
646.239 .0308586
646.994 .0308308
647.750 .0308038
648.505 .0307775
649.259 .0307520
650.014 .0307271
650.768 .0307026
651.521 .0306786
652.275 .0306548
653.028 .0306311
653.781 .0306076
654.534 .0305839
655.286 .0305603
656.039 .0305366
656.791 .0305128
657.542 .0304888
658.294 .0304647
659.045 .0304402
659.796 .0304156
660.546 .0303907
661.297 .0303656
662.047 .0303405
662.796 .0303154
663.546 .0302904
664.295 .0302655
665.044 .0302409
665.793 .0302167
666.542 .0301930
667.290 .0301698
668.038 .0301473
668.786 .0301255
669.533 .0301045
670.281 .0300842
671.028 .0300647
671.774 .0300458
672.521 .0300276
673.267 .0300100
674.013 .0299931
674.759 .0299768
675.505 .0299612
676.250 .0299464
676.995 .0299323
677.740 .0299189
678.484 .0299060
679.229 .0298936
679.973 .0298814
680.717 .0298694
681.460 .0298576
682.204 .0298457
682.947 .0298337
683.690 .0298215
684.433 .0298092
685.175 .0297967
685.917 .0297839
686.659 .0297708
687.401 .0297574
688.142 .0297436
688.884 .0297295
689.625 .0297152
690.365 .0297005
691.106 .0296856
691.846 .0296703
692.586 .0296547
693.326 .0296389
694.066 .0296229
694.805 .0296067
695.545 .0295906
696.284 .0295745
697.022 .0295586
697.761 .0295428
698.499 .0295274
699.237 .0295122
699.975 .0294972
700.713 .0294825
701.450 .0294680
702.187 .0294537
702.924 .0294396
703.661 .0294258
704.397 .0294121
705.133 .0293986
705.869 .0293852
706.605 .0293719
707.341 .0293585
708.076 .0293450
708.811 .0293313
709.546 .0293175
710.281 .0293034
711.015 .0292890
711.749 .0292744
712.483 .0292594
713.217 .0292440
713.950 .0292282
714.684 .0292118
715.417 .0291947
716.150 .0291770
716.882 .0291586
717.615 .0291395
718.347 .0291197
719.079 .0290993
719.811 .0290781
720.542 .0290563
721.273 .0290339
722.005 .0290110
722.735 .0289875
723.466 .0289637
724.196 .0289396
724.927 .0289153
725.656 .0288911
726.386 .0288669
727.116 .0288429
727.845 .0288192
728.574 .0287957
729.303 .0287725
730.031 .0287497
730.760 .0287273
731.488 .0287054
732.216 .0286841
732.944 .0286635
733.671 .0286435
734.398 .0286242
735.125 .0286056
735.852 .0285876
736.579 .0285701
737.305 .0285530
738.031 .0285364
738.757 .0285201
739.483 .0285040
740.208 .0284882
740.933 .0284726
741.658 .0284570
742.383 .0284416
743.108 .0284262
743.832 .0284109
744.556 .0283955
745.280 .0283802
746.004 .0283648
746.727 .0283494
747.450 .0283339
748.173 .0283183
748.896 .0283026
749.618 .0282867
750.340 .0282706
751.062 .0282544
751.784 .0282381
752.506 .0282219
753.227 .0282057
753.948 .0281896
754.669 .0281737
755.389 .0281580
756.110 .0281425
756.830 .0281272
757.550 .0281120
758.269 .0280969
758.989 .0280819
759.708 .0280670
760.427 .0280520
761.146 .0280371
761.864 .0280221
762.582 .0280071
763.300 .0279920
764.018 .0279769
764.736 .0279617
765.453 .0279464
766.170 .0279311
766.887 .0279158
767.603 .0279005
768.320 .0278853
769.036 .0278702
769.751 .0278554
770.467 .0278408
771.182 .0278266
771.897 .0278128
772.612 .0277996
773.327 .0277869
774.041 .0277748
774.755 .0277634
775.469 .0277527
776.183 .0277428
776.896 .0277336
777.609 .0277252
778.322 .0277174
779.035 .0277104
779.747 .0277041
780.459 .0276984
781.171 .0276934
781.882 .0276890
782.594 .0276851
783.305 .0276817
784.016 .0276787
784.726 .0276761
785.436 .0276737
786.147 .0276704
786.856 .0276681
787.566 .0276658
788.275 .0276636
788.984 .0276614
789.693 .0276591
790.401 .0276567
791.110 .0276542
791.818 .0276516
792.525 .0276488
793.233 .0276458
793.940 .0276426
794.647 .0276406
795.353 .0276374
796.060 .0276341
796.766 .0276307
797.472 .0276272
798.177 .0276237
798.883 .0276202
799.588 .0276166
800.292 .0276129
800.997 .0276092
801.701 .0276055
802.405 .0276018
803.109 .0275981
803.812 .0275944
804.515 .0275907
805.218 .0275869
805.921 .0275830
806.623 .0275789
807.325 .0275744
808.027 .0275698
808.728 .0275648
809.429 .0275597
810.130 .0275543
810.831 .0275489
811.531 .0275433
812.231 .0275375
812.931 .0275316
813.630 .0275255
814.330 .0275192
815.029 .0275128
815.727 .0275063
816.426 .0274997
817.124 .0274932
817.821 .0274867
818.519 .0274804
819.216 .0274743
819.913 .0274684
820.609 .0274627
821.306 .0274573
822.002 .0274521
822.697 .0274472
823.393 .0274425
824.088 .0274382
824.783 .0274341
825.477 .0274303
826.171 .0274268
826.865 .0274236
827.559 .0274205
828.252 .0274177
828.945 .0274150
829.638 .0274125
830.330 .0274102
831.023 .0274079
831.714 .0274057
832.406 .0274036
833.097 .0274015
833.788 .0273993
834.479 .0273971
835.169 .0273947
835.859 .0273922
836.548 .0273894
837.238 .0273864
837.927 .0273832
838.615 .0273796
839.304 .0273756
839.992 .0273714
840.680 .0273668
841.367 .0273619
842.054 .0273567
842.741 .0273511
843.428 .0273450
844.114 .0273384
844.800 .0273312
845.485 .0273233
846.170 .0273146
846.855 .0273051
847.540 .0272949
848.224 .0272838
848.908 .0272721
849.592 .0272595
850.275 .0272462
850.958 .0272322
851.641 .0272173
852.323 .0272016
853.005 .0271850
853.687 .0271675
854.368 .0271491
855.049 .0271299
855.730 .0271099
856.410 .0270892
857.090 .0270679
857.769 .0270459
858.449 .0270235
859.128 .0270007
859.806 .0269774
860.485 .0269538
861.163 .0269299
861.840 .0269060
862.518 .0268820
863.195 .0268581
863.871 .0268343
864.548 .0268107
865.224 .0267873
865.899 .0267640
866.574 .0267411
867.249 .0267184
867.924 .0266960
868.598 .0266740
869.272 .0266525
869.946 .0266316
870.619 .0266111
871.292 .0265913
871.964 .0265720
872.636 .0265533
873.308 .0265350
873.979 .0265172
874.651 .0264997
875.321 .0264826
875.992 .0264659
876.662 .0264496
877.331 .0264336
878.001 .0264179
878.670 .0264026
879.338 .0263874
880.007 .0263726
880.675 .0263579
881.342 .0263435
882.009 .0263293
882.676 .0263154
883.343 .0263018
884.009 .0262885
884.675 .0262755
885.340 .0262627
886.005 .0262502
886.670 .0262379
887.334 .0262259
887.998 .0262140
888.662 .0262024
889.325 .0261911
889.988 .0261801
890.650 .0261695
891.312 .0261592
891.974 .0261494
892.636 .0261398
893.297 .0261307
893.957 .0261218
894.618 .0261131
895.278 .0261045
895.937 .0260960
896.596 .0260874
897.255 .0260786
897.914 .0260696
898.572 .0260603
899.230 .0260506
899.887 .0260405
900.544 .0260299
901.201 .0260188
901.857 .0259995
902.513 .0259869
903.168 .0259737
903.823 .0259599
904.478 .0259455
905.132 .0259306
905.786 .0259151
906.440 .0258991
907.093 .0258827
907.746 .0258660
908.399 .0258489
909.051 .0258317
909.703 .0258143
910.354 .0258057
911.005 .0257886
911.656 .0257714
912.306 .0257543
912.956 .0257373
913.605 .0257205
914.254 .0257038
914.903 .0256875
915.551 .0256714
916.199 .0256556
916.847 .0256401
917.494 .0256248
918.141 .0256098
918.788 .0255951
919.434 .0255806
920.079 .0255665
920.725 .0255526
921.370 .0255390
922.014 .0255257
922.658 .0255125
923.302 .0254995
923.946 .0254865
924.589 .0254735
925.231 .0254603
925.873 .0254470
926.515 .0254335
927.157 .0254198
927.798 .0254059
928.439 .0253920
929.079 .0253780
929.719 .0253640
930.359 .0253501
930.998 .0253363
931.637 .0253228
932.275 .0253094
932.913 .0252965
933.551 .0252840
934.188 .0252720
934.825 .0252607
935.462 .0252501
936.098 .0252403
936.733 .0252312
937.369 .0252229
938.004 .0252154
938.638 .0252086
939.273 .0252027
939.907 .0251975
940.540 .0251932
941.173 .0251897
941.806 .0251870
942.438 .0251853
943.070 .0251844
943.702 .0251843
944.333 .0251850
944.964 .0251864
945.594 .0251883
946.224 .0251909
946.854 .0251939
947.483 .0251973
948.112 .0252012
948.741 .0252054
949.369 .0252099
949.996 .0252147
950.624 .0252198
951.251 .0252250
951.878 .0252303
952.504 .0252356
953.130 .0252410
953.755 .0252463
954.380 .0252515
955.005 .0252568
955.629 .0252622
956.253 .0252675
956.877 .0252729
957.500 .0252783
958.123 .0252837
958.746 .0252891
959.368 .0252945
959.990 .0252999
960.611 .0253053
961.232 .0253106
961.853 .0253160
962.473 .0253214
963.093 .0253268
963.712 .0253322
964.331 .0253376
964.950 .0253430
965.569 .0253483
966.187 .0253536
966.804 .0253587
967.422 .0253638
968.039 .0253687
968.655 .0253734
969.272 .0253779
969.887 .0253823
970.503 .0253864
971.118 .0253903
971.733 .0253939
972.347 .0253973
972.961 .0254005
973.575 .0254034
974.188 .0254060
974.801 .0254082
975.414 .0254101
976.026 .0254115
976.638 .0254124
977.250 .0254127
977.861 .0254126
978.472 .0254119
979.083 .0254107
979.693 .0254092
980.303 .0254072
980.912 .0254028
981.521 .0254002
982.130 .0253975
982.738 .0253945
983.346 .0253913
983.954 .0253880
984.562 .0253847
985.169 .0253813
985.775 .0253781
986.382 .0253751
986.988 .0253724
987.594 .0253700
988.199 .0253679
988.804 .0253661
989.409 .0253666
990.013 .0253653
990.617 .0253643
991.221 .0253635
991.824 .0253629
992.427 .0253627
993.030 .0253627
993.632 .0253631
994.234 .0253638
994.836 .0253647
995.438 .0253658
996.039 .0253671
996.640 .0253684
997.240 .0253699
997.840 .0253715
998.440 .0253732
999.040 .0253752
999.639 .0253774
1000.238 .0253798
1000.836 .0253824
1001.435 .0253852
1002.033 .0253881
1002.630 .0253911
1003.228 .0253939
1003.825 .0253967
1004.422 .0253993
1005.018 .0254017
1005.614 .0254040
1006.210 .0254061
1006.806 .0254082
1007.401 .0254101
1007.996 .0254118
1008.591 .0254133
1009.186 .0254145
1009.780 .0254155
1010.374 .0254163
1010.967 .0254168
1011.561 .0254170
1012.154 .0254169
1012.746 .0254167
1013.339 .0254162
1013.931 .0254155
1014.523 .0254146
1015.115 .0254135
1015.706 .0254122
1016.298 .0254107
1016.888 .0254090
1017.479 .0254074
1018.069 .0254058
1018.660 .0254043
1019.250 .0254030
1019.839 .0254018
1020.429 .0254007
1021.018 .0253998
1021.607 .0253989
1022.195 .0253981
1022.784 .0253975
1023.372 .0253969
1023.960 .0253965
1024.547 .0253963
1025.135 .0253964
1025.722 .0253968
1026.309 .0253974
1026.896 .0253984
1027.483 .0253995
1028.069 .0254009
1028.655 .0254025
1029.241 .0254042
1029.827 .0254062
1030.412 .0254084
1030.997 .0254110
1031.582 .0254139
1032.167 .0254170
1032.752 .0254205
1033.336 .0254241
1033.921 .0254278
1034.505 .0254314
1035.089 .0254347
1035.672 .0254377
1036.256 .0254401
1036.839 .0254421
1037.422 .0254435
1038.005 .0254442
1038.588 .0254443
1039.171 .0254437
1039.753 .0254424
1040.335 .0254401
1040.918 .0254369
1041.500 .0254327
1042.081 .0254274
1042.663 .0254211
1043.244 .0254137
1043.826 .0254053
1044.407 .0253960
1044.988 .0253860
1045.569 .0253753
1046.150 .0253641
1046.730 .0253525
1047.311 .0253404
1047.891 .0253279
1048.471 .0253149
1049.052 .0253016
1049.632 .0252878
1050.211 .0252737
1050.791 .0252593
1051.371 .0252447
1051.950 .0252300
1052.530 .0252153
1053.109 .0252007
1053.688 .0251863
1054.268 .0251719
1054.847 .0251575
1055.426 .0251432
1056.005 .0251287
1056.583 .0251142
1057.162 .0250995
1057.741 .0250849
1058.319 .0250703
1058.898 .0250557
1059.476 .0250413
1060.055 .0250272
1060.633 .0250134
1061.211 .0249998
1061.790 .0249865
1062.368 .0249736
1062.946 .0249611
1063.524 .0249490
1064.102 .0249373
1064.680 .0249263
1065.258 .0249157
1065.836 .0249057
1066.414 .0248961
1066.992 .0248869
1067.570 .0248779
1068.148 .0248693
1068.726 .0248608
1069.304 .0248526
1069.882 .0248446
1070.460 .0248367
1071.038 .0248292
1071.616 .0248219
1072.194 .0248149
1072.772 .0248082
1073.350 .0248019
1073.928 .0247960
1074.506 .0247904
1075.084 .0247854
1075.662 .0247808
1076.240 .0247767
1076.819 .0247730
1077.397 .0247698
1077.976 .0247668
1078.554 .0247641
1079.133 .0247616
1079.711 .0247592
1080.290 .0247568
1080.869 .0247544
1081.448 .0247519
1082.027 .0247492
1082.606 .0247463
1083.185 .0247432
1083.764 .0247399
1084.343 .0247362
1084.923 .0247323
1085.502 .0247282
1086.082 .0247240
1086.662 .0247198
1087.242 .0247158
1087.822 .0247122
1088.402 .0247091
1088.983 .0247067
1089.563 .0247051
1090.144 .0247044
1090.725 .0247044
1091.306 .0247052
1091.887 .0247067
1092.469 .0247089
1093.050 .0247115
1093.632 .0247147
1094.214 .0247184
1094.796 .0247225
1095.379 .0247271
1095.961 .0247320
1096.544 .0247373
1097.127 .0247429
1097.710 .0247485
1098.294 .0247542
1098.877 .0247599
1099.461 .0247657
1100.046 .0247716
1100.630 .0247779
1101.215 .0247846
1101.800 .0247919
1102.385 .0248000
1102.970 .0248089
1103.556 .0248186
1104.142 .0248293
1104.728 .0248406
1105.315 .0248526
1105.902 .0248651
1106.489 .0248780
1107.077 .0248913
1107.664 .0249051
1108.253 .0249195
1108.841 .0249347
1109.430 .0249510
1110.019 .0249685
1110.609 .0249874
1111.198 .0250079
1111.789 .0250298
1112.379 .0250533
1112.970 .0250781
1113.561 .0251040
1114.153 .0251313
1114.745 .0251601
1115.338 .0251907
1115.931 .0252235
1116.524 .0252590
1117.117 .0252976
1117.712 .0253394
1118.306 .0253841
1118.901 .0254314
1119.496 .0254811
1120.092 .0255325
1120.689 .0255850
1121.285 .0256386
1121.882 .0256932
1122.480 .0257489
1123.078 .0258060
1123.677 .0258650
1124.276 .0259258
1124.875 .0259887
1125.476 .0260534
1126.076 .0261197
1126.677 .0261873
1127.279 .0262558
1127.881 .0263253
1128.484 .0263959
1129.087 .0264290
1129.691 .0265016
1130.295 .0265759
1130.900 .0266523
1131.505 .0267313
1132.111 .0268128
1132.718 .0268973
1133.325 .0269840
1133.933 .0270723
1134.541 .0271649
1135.150 .0272600
1135.760 .0273612
1136.370 .0274467
1136.981 .0274653
1137.592 .0275526
1138.204 .0276455
1138.817 .0277445
1139.431 .0278564
1140.045 .0279773
1140.660 .0281116
1141.275 .0282383
1141.891 .0283629
1142.508 .0285690
1143.126 .0287366
1143.744 .0290016
1144.363 .0286483
1144.983 .0287290
