Measurement Sequence started on: 15-12-46-377
Integration time: 28
Scans to Average: 2 
>>>>>Begin Spectral Data<<<<<
432.689 .0000100
433.621 .0000100
434.552 .0000100
435.482 .0000100
436.410 .0000100
437.337 .0000100
438.262 .0273842
439.187 .0578831
440.110 .0958614
441.031 .1386387
441.952 .1108017
442.871 .1156763
443.789 .1202053
444.705 .1244590
445.621 .1284869
446.535 .1323260
447.447 .1345637
448.359 .1350595
449.269 .1334404
450.178 .1294708
451.086 .1232308
451.993 .1151991
452.898 .1061663
453.803 .0970264
454.706 .0885377
455.608 .0811695
456.508 .0750778
457.408 .0709655
458.306 .0678095
459.204 .0652498
460.100 .0631019
460.995 .0612664
461.888 .0596755
462.781 .0582823
463.673 .0570524
464.563 .0559603
465.452 .0549838
466.340 .0541041
467.228 .0533058
468.114 .0525776
468.999 .0519101
469.882 .0512961
470.765 .0507294
471.647 .0502066
472.528 .0497250
473.407 .0492825
474.286 .0488776
475.163 .0485103
476.040 .0481782
476.915 .0478803
477.790 .0476139
478.663 .0473769
479.535 .0471668
480.407 .0469813
481.277 .0468186
482.147 .0466769
483.015 .0465557
483.883 .0464544
484.749 .0463731
485.615 .0463122
486.479 .0462713
487.343 .0462498
488.206 .0462473
489.067 .0462625
489.928 .0462942
490.788 .0463421
491.647 .0464062
492.505 .0464868
493.362 .0465850
494.218 .0467025
495.073 .0468411
495.928 .0471332
496.781 .0473345
497.634 .0475614
498.486 .0478149
499.337 .0480951
500.187 .0484031
501.036 .0487404
501.884 .0491089
502.731 .0495120
503.578 .0499535
504.424 .0502583
505.268 .0507702
506.113 .0513313
506.956 .0519458
507.798 .0526191
508.640 .0533569
509.480 .0541674
510.320 .0550615
511.160 .0560500
511.998 .0571476
512.836 .0583719
513.672 .0597424
514.508 .0612813
515.344 .0630108
516.178 .0649551
517.012 .0671388
517.845 .0695849
518.677 .0723136
519.508 .0753407
520.339 .0786750
521.169 .0823181
521.998 .0862455
522.826 .0904237
523.654 .0947987
524.481 .0993040
525.307 .1038634
526.133 .1083875
526.958 .1127821
527.782 .1169554
528.605 .1208216
529.428 .1243050
530.250 .1273344
531.072 .1298626
531.892 .1318479
532.712 .1332660
533.532 .1341014
534.350 .1343475
535.168 .1340070
535.986 .1330871
536.802 .1315951
537.618 .1295429
538.434 .1269470
539.249 .1238500
540.063 .1203017
540.876 .1163688
541.689 .1121284
542.501 .1076643
543.313 .1030683
544.124 .0984354
544.934 .0938514
545.744 .0893947
546.553 .0851309
547.361 .0811164
548.169 .0773825
548.976 .0739533
549.783 .0708342
550.589 .0680193
551.395 .0654924
552.200 .0632281
553.004 .0611972
553.808 .0593743
554.611 .0577345
555.414 .0562552
556.216 .0549136
557.018 .0536892
557.819 .0525635
558.619 .0515218
559.419 .0505514
560.218 .0496435
561.017 .0487887
561.815 .0479820
562.613 .0472185
563.410 .0464934
564.207 .0458024
565.003 .0451415
565.799 .0445061
566.594 .0438928
567.388 .0432989
568.182 .0427225
568.976 .0421623
569.769 .0416182
570.562 .0410901
571.354 .0405785
572.145 .0400843
572.936 .0396085
573.727 .0391512
574.517 .0387133
575.307 .0382949
576.096 .0378954
576.885 .0375147
577.673 .0371526
578.461 .0368089
579.248 .0364834
580.035 .0361758
580.821 .0358855
581.607 .0356121
582.392 .0353549
583.177 .0351132
583.962 .0348865
584.746 .0346740
585.529 .0344753
586.313 .0342900
587.095 .0341176
587.878 .0339577
588.660 .0338100
589.441 .0336740
590.222 .0335492
591.003 .0334351
591.783 .0333307
592.563 .0332354
593.342 .0331483
594.121 .0330686
594.899 .0329954
595.678 .0329280
596.455 .0328656
597.233 .0328076
598.009 .0327532
598.786 .0327021
599.562 .0326534
600.338 .0326069
601.113 .0325619
601.888 .0324973
602.663 .0324550
603.437 .0324137
604.211 .0323733
604.984 .0323339
605.757 .0322954
606.530 .0322580
607.302 .0322215
608.074 .0321861
608.845 .0321517
609.616 .0321183
610.387 .0321046
611.158 .0320729
611.928 .0320425
612.697 .0320132
613.467 .0319852
614.236 .0319586
615.004 .0319334
615.773 .0319094
616.541 .0318866
617.308 .0318649
618.076 .0318438
618.843 .0318234
619.609 .0318034
620.375 .0317836
621.141 .0317639
621.907 .0317442
622.672 .0317243
623.437 .0317042
624.202 .0316840
624.966 .0316633
625.730 .0316423
626.493 .0316208
627.257 .0315986
628.020 .0315757
628.782 .0315522
629.545 .0315278
630.307 .0315028
631.068 .0314770
631.830 .0314505
632.591 .0314233
633.352 .0313956
634.112 .0313673
634.872 .0313387
635.632 .0313099
636.392 .0312809
637.151 .0312517
637.910 .0312225
638.668 .0311932
639.427 .0311640
640.185 .0311348
640.943 .0311056
641.700 .0310767
642.457 .0310479
643.214 .0310195
643.971 .0309914
644.727 .0309638
645.483 .0309367
646.239 .0309099
646.994 .0308835
647.750 .0308574
648.505 .0308315
649.259 .0308057
650.014 .0307800
650.768 .0307543
651.521 .0307288
652.275 .0307032
653.028 .0306778
653.781 .0306524
654.534 .0306271
655.286 .0306017
656.039 .0305764
656.791 .0305511
657.542 .0305257
658.294 .0305003
659.045 .0304749
659.796 .0304496
660.546 .0304244
661.297 .0303993
662.047 .0303743
662.796 .0303495
663.546 .0303249
664.295 .0303004
665.044 .0302761
665.793 .0302521
666.542 .0302284
667.290 .0302052
668.038 .0301825
668.786 .0301602
669.533 .0301384
670.281 .0301172
671.028 .0300964
671.774 .0300761
672.521 .0300563
673.267 .0300371
674.013 .0300183
674.759 .0300001
675.505 .0299823
676.250 .0299651
676.995 .0299483
677.740 .0299318
678.484 .0299157
679.229 .0298999
679.973 .0298845
680.717 .0298693
681.460 .0298545
682.204 .0298399
682.947 .0298256
683.690 .0298116
684.433 .0297977
685.175 .0297839
685.917 .0297702
686.659 .0297564
687.401 .0297426
688.142 .0297287
688.884 .0297146
689.625 .0297004
690.365 .0296859
691.106 .0296712
691.846 .0296561
692.586 .0296407
693.326 .0296249
694.066 .0296087
694.805 .0295921
695.545 .0295752
696.284 .0295579
697.022 .0295404
697.761 .0295225
698.499 .0295044
699.237 .0294861
699.975 .0294676
700.713 .0294489
701.450 .0294302
702.187 .0294116
702.924 .0293930
703.661 .0293745
704.397 .0293562
705.133 .0293380
705.869 .0293200
706.605 .0293020
707.341 .0292842
708.076 .0292663
708.811 .0292486
709.546 .0292308
710.281 .0292130
711.015 .0291951
711.749 .0291773
712.483 .0291593
713.217 .0291413
713.950 .0291230
714.684 .0291044
715.417 .0290855
716.150 .0290662
716.882 .0290466
717.615 .0290265
718.347 .0290060
719.079 .0289852
719.811 .0289640
720.542 .0289425
721.273 .0289209
722.005 .0288991
722.735 .0288772
723.466 .0288554
724.196 .0288335
724.927 .0288118
725.656 .0287903
726.386 .0287690
727.116 .0287481
727.845 .0287274
728.574 .0287072
729.303 .0286874
730.031 .0286680
730.760 .0286490
731.488 .0286305
732.216 .0286124
732.944 .0285948
733.671 .0285777
734.398 .0285608
735.125 .0285443
735.852 .0285282
736.579 .0285123
737.305 .0284966
738.031 .0284812
738.757 .0284660
739.483 .0284509
740.208 .0284360
740.933 .0284212
741.658 .0284065
742.383 .0283920
743.108 .0283775
743.832 .0283631
744.556 .0283487
745.280 .0283344
746.004 .0283200
746.727 .0283057
747.450 .0282913
748.173 .0282770
748.896 .0282627
749.618 .0282484
750.340 .0282341
751.062 .0282199
751.784 .0282058
752.506 .0281917
753.227 .0281776
753.948 .0281635
754.669 .0281495
755.389 .0281356
756.110 .0281217
756.830 .0281080
757.550 .0280945
758.269 .0280811
758.989 .0280680
759.708 .0280551
760.427 .0280423
761.146 .0280297
761.864 .0280173
762.582 .0280050
763.300 .0279927
764.018 .0279807
764.736 .0279688
765.453 .0279572
766.170 .0279459
766.887 .0279349
767.603 .0279242
768.320 .0279138
769.036 .0279036
769.751 .0278937
770.467 .0278840
771.182 .0278745
771.897 .0278654
772.612 .0278566
773.327 .0278481
774.041 .0278402
774.755 .0278327
775.469 .0278257
776.183 .0278192
776.896 .0278133
777.609 .0278080
778.322 .0278031
779.035 .0277988
779.747 .0277951
780.459 .0277918
781.171 .0277890
781.882 .0277867
782.594 .0277847
783.305 .0277830
784.016 .0277816
784.726 .0277804
785.436 .0277794
786.147 .0277783
786.856 .0277773
787.566 .0277763
788.275 .0277752
788.984 .0277740
789.693 .0277725
790.401 .0277708
791.110 .0277686
791.818 .0277660
792.525 .0277630
793.233 .0277596
793.940 .0277559
794.647 .0277528
795.353 .0277486
796.060 .0277442
796.766 .0277394
797.472 .0277342
798.177 .0277287
798.883 .0277228
799.588 .0277164
800.292 .0277096
800.997 .0277024
801.701 .0276949
802.405 .0276871
803.109 .0276789
803.812 .0276705
804.515 .0276618
805.218 .0276528
805.921 .0276435
806.623 .0276338
807.325 .0276236
808.027 .0276130
808.728 .0276020
809.429 .0275904
810.130 .0275784
810.831 .0275659
811.531 .0275530
812.231 .0275396
812.931 .0275258
813.630 .0275116
814.330 .0274970
815.029 .0274822
815.727 .0274671
816.426 .0274519
817.124 .0274366
817.821 .0274213
818.519 .0274059
819.216 .0273908
819.913 .0273758
820.609 .0273610
821.306 .0273465
822.002 .0273323
822.697 .0273185
823.393 .0273050
824.088 .0272920
824.783 .0272795
825.477 .0272674
826.171 .0272557
826.865 .0272445
827.559 .0272336
828.252 .0272231
828.945 .0272128
829.638 .0272026
830.330 .0271926
831.023 .0271826
831.714 .0271725
832.406 .0271624
833.097 .0271521
833.788 .0271417
834.479 .0271311
835.169 .0271202
835.859 .0271092
836.548 .0270978
837.238 .0270861
837.927 .0270741
838.615 .0270616
839.304 .0270487
839.992 .0270353
840.680 .0270215
841.367 .0270073
842.054 .0269926
842.741 .0269776
843.428 .0269622
844.114 .0269463
844.800 .0269301
845.485 .0269136
846.170 .0268966
846.855 .0268792
847.540 .0268613
848.224 .0268431
848.908 .0268244
849.592 .0268053
850.275 .0267859
850.958 .0267661
851.641 .0267460
852.323 .0267256
853.005 .0267049
853.687 .0266840
854.368 .0266629
855.049 .0266416
855.730 .0266202
856.410 .0265987
857.090 .0265772
857.769 .0265557
858.449 .0265344
859.128 .0265132
859.806 .0264922
860.485 .0264715
861.163 .0264509
861.840 .0264307
862.518 .0264107
863.195 .0263911
863.871 .0263720
864.548 .0263534
865.224 .0263354
865.899 .0263181
866.574 .0263014
867.249 .0262854
867.924 .0262702
868.598 .0262556
869.272 .0262417
869.946 .0262285
870.619 .0262160
871.292 .0262041
871.964 .0261930
872.636 .0261824
873.308 .0261725
873.979 .0261632
874.651 .0261544
875.321 .0261462
875.992 .0261385
876.662 .0261312
877.331 .0261245
878.001 .0261183
878.670 .0261127
879.338 .0261076
880.007 .0261029
880.675 .0260987
881.342 .0260949
882.009 .0260915
882.676 .0260885
883.343 .0260859
884.009 .0260837
884.675 .0260820
885.340 .0260807
886.005 .0260800
886.670 .0260798
887.334 .0260801
887.998 .0260808
888.662 .0260820
889.325 .0260837
889.988 .0260858
890.650 .0260883
891.312 .0260913
891.974 .0260946
892.636 .0260983
893.297 .0261023
893.957 .0261065
894.618 .0261108
895.278 .0261153
895.937 .0261198
896.596 .0261243
897.255 .0261287
897.914 .0261330
898.572 .0261370
899.230 .0261407
899.887 .0261439
900.544 .0261465
901.201 .0261485
901.857 .0261480
902.513 .0261482
903.168 .0261478
903.823 .0261467
904.478 .0261450
905.132 .0261427
905.786 .0261397
906.440 .0261361
907.093 .0261319
907.746 .0261272
908.399 .0261219
909.051 .0261162
909.703 .0261102
910.354 .0261067
911.005 .0261006
911.656 .0260943
912.306 .0260878
912.956 .0260813
913.605 .0260747
914.254 .0260680
914.903 .0260615
915.551 .0260550
916.199 .0260487
916.847 .0260426
917.494 .0260366
918.141 .0260309
918.788 .0260252
919.434 .0260197
920.079 .0260142
920.725 .0260087
921.370 .0260030
922.014 .0259973
922.658 .0259913
923.302 .0259852
923.946 .0259788
924.589 .0259721
925.231 .0259652
925.873 .0259579
926.515 .0259503
927.157 .0259424
927.798 .0259342
928.439 .0259256
929.079 .0259166
929.719 .0259074
930.359 .0258978
930.998 .0258879
931.637 .0258777
932.275 .0258673
932.913 .0258567
933.551 .0258462
934.188 .0258357
934.825 .0258253
935.462 .0258151
936.098 .0258051
936.733 .0257954
937.369 .0257859
938.004 .0257766
938.638 .0257676
939.273 .0257589
939.907 .0257505
940.540 .0257425
941.173 .0257350
941.806 .0257279
942.438 .0257213
943.070 .0257152
943.702 .0257095
944.333 .0257040
944.964 .0256988
945.594 .0256936
946.224 .0256886
946.854 .0256835
947.483 .0256786
948.112 .0256737
948.741 .0256689
949.369 .0256641
949.996 .0256592
950.624 .0256542
951.251 .0256489
951.878 .0256433
952.504 .0256372
953.130 .0256307
953.755 .0256236
954.380 .0256160
955.005 .0256080
955.629 .0255994
956.253 .0255904
956.877 .0255809
957.500 .0255709
958.123 .0255603
958.746 .0255493
959.368 .0255379
959.990 .0255261
960.611 .0255140
961.232 .0255017
961.853 .0254893
962.473 .0254767
963.093 .0254641
963.712 .0254515
964.331 .0254387
964.950 .0254259
965.569 .0254129
966.187 .0253998
966.804 .0253865
967.422 .0253731
968.039 .0253594
968.655 .0253456
969.272 .0253315
969.887 .0253171
970.503 .0253025
971.118 .0252876
971.733 .0252724
972.347 .0252569
972.961 .0252412
973.575 .0252251
974.188 .0252087
974.801 .0251920
975.414 .0251749
976.026 .0251573
976.638 .0251393
977.250 .0251208
977.861 .0251019
978.472 .0250826
979.083 .0250629
979.693 .0250428
980.303 .0250224
980.912 .0249906
981.521 .0249697
982.130 .0249485
982.738 .0249271
983.346 .0249057
983.954 .0248843
984.562 .0248630
985.169 .0248419
985.775 .0248213
986.382 .0248010
986.988 .0247812
987.594 .0247618
988.199 .0247429
988.804 .0247245
989.409 .0247169
990.013 .0246992
990.617 .0246819
991.221 .0246652
991.824 .0246489
992.427 .0246332
993.030 .0246178
993.632 .0246029
994.234 .0245883
994.836 .0245738
995.438 .0245596
996.039 .0245456
996.640 .0245318
997.240 .0245183
997.840 .0245051
998.440 .0244924
999.040 .0244801
999.639 .0244681
1000.238 .0244564
1000.836 .0244450
1001.435 .0244338
1002.033 .0244227
1002.630 .0244118
1003.228 .0244010
1003.825 .0243903
1004.422 .0243798
1005.018 .0243696
1005.614 .0243596
1006.210 .0243499
1006.806 .0243403
1007.401 .0243309
1007.996 .0243216
1008.591 .0243125
1009.186 .0243035
1009.780 .0242946
1010.374 .0242860
1010.967 .0242776
1011.561 .0242697
1012.154 .0242621
1012.746 .0242550
1013.339 .0242484
1013.931 .0242423
1014.523 .0242367
1015.115 .0242315
1015.706 .0242267
1016.298 .0242224
1016.888 .0242184
1017.479 .0242150
1018.069 .0242120
1018.660 .0242095
1019.250 .0242075
1019.839 .0242059
1020.429 .0242049
1021.018 .0242043
1021.607 .0242041
1022.195 .0242044
1022.784 .0242049
1023.372 .0242059
1023.960 .0242071
1024.547 .0242088
1025.135 .0242109
1025.722 .0242135
1026.309 .0242164
1026.896 .0242198
1027.483 .0242236
1028.069 .0242278
1028.655 .0242322
1029.241 .0242370
1029.827 .0242420
1030.412 .0242472
1030.997 .0242524
1031.582 .0242577
1032.167 .0242630
1032.752 .0242683
1033.336 .0242734
1033.921 .0242785
1034.505 .0242836
1035.089 .0242885
1035.672 .0242935
1036.256 .0242984
1036.839 .0243033
1037.422 .0243082
1038.005 .0243131
1038.588 .0243180
1039.171 .0243228
1039.753 .0243275
1040.335 .0243321
1040.918 .0243366
1041.500 .0243411
1042.081 .0243455
1042.663 .0243498
1043.244 .0243540
1043.826 .0243582
1044.407 .0243623
1044.988 .0243663
1045.569 .0243702
1046.150 .0243742
1046.730 .0243781
1047.311 .0243820
1047.891 .0243860
1048.471 .0243901
1049.052 .0243944
1049.632 .0243989
1050.211 .0244037
1050.791 .0244086
1051.371 .0244139
1051.950 .0244194
1052.530 .0244254
1053.109 .0244317
1053.688 .0244384
1054.268 .0244456
1054.847 .0244534
1055.426 .0244616
1056.005 .0244705
1056.583 .0244799
1057.162 .0244898
1057.741 .0245003
1058.319 .0245112
1058.898 .0245225
1059.476 .0245343
1060.055 .0245466
1060.633 .0245593
1061.211 .0245724
1061.790 .0245857
1062.368 .0245993
1062.946 .0246128
1063.524 .0246262
1064.102 .0246393
1064.680 .0246520
1065.258 .0246643
1065.836 .0246762
1066.414 .0246879
1066.992 .0246994
1067.570 .0247108
1068.148 .0247225
1068.726 .0247343
1069.304 .0247463
1069.882 .0247586
1070.460 .0247710
1071.038 .0247835
1071.616 .0247962
1072.194 .0248089
1072.772 .0248218
1073.350 .0248347
1073.928 .0248476
1074.506 .0248606
1075.084 .0248735
1075.662 .0248865
1076.240 .0248993
1076.819 .0249118
1077.397 .0249242
1077.976 .0249364
1078.554 .0249485
1079.133 .0249606
1079.711 .0249729
1080.290 .0249857
1080.869 .0249989
1081.448 .0250127
1082.027 .0250272
1082.606 .0250424
1083.185 .0250583
1083.764 .0250747
1084.343 .0250916
1084.923 .0251089
1085.502 .0251263
1086.082 .0251439
1086.662 .0251615
1087.242 .0251789
1087.822 .0251960
1088.402 .0252129
1088.983 .0252293
1089.563 .0252452
1090.144 .0252608
1090.725 .0252761
1091.306 .0252912
1091.887 .0253064
1092.469 .0253217
1093.050 .0253374
1093.632 .0253537
1094.214 .0253706
1094.796 .0253884
1095.379 .0254069
1095.961 .0254262
1096.544 .0254462
1097.127 .0254669
1097.710 .0254881
1098.294 .0255099
1098.877 .0255320
1099.461 .0255546
1100.046 .0255775
1100.630 .0256007
1101.215 .0256243
1101.800 .0256484
1102.385 .0256729
1102.970 .0256980
1103.556 .0257236
1104.142 .0257498
1104.728 .0257768
1105.315 .0258045
1105.902 .0258331
1106.489 .0258628
1107.077 .0258936
1107.664 .0259257
1108.253 .0259591
1108.841 .0259940
1109.430 .0260304
1110.019 .0260681
1110.609 .0261070
1111.198 .0261470
1111.789 .0261877
1112.379 .0262293
1112.970 .0262715
1113.561 .0263143
1114.153 .0263579
1114.745 .0264023
1115.338 .0264478
1115.931 .0264945
1116.524 .0265424
1117.117 .0265919
1117.712 .0266428
1118.306 .0266952
1118.901 .0267489
1119.496 .0268040
1120.092 .0268605
1120.689 .0269186
1121.285 .0269785
1121.882 .0270402
1122.480 .0271040
1123.078 .0271700
1123.677 .0272382
1124.276 .0273084
1124.875 .0273803
1125.476 .0274537
1126.076 .0275283
1126.677 .0276038
1127.279 .0276801
1127.881 .0277573
1128.484 .0278355
1129.087 .0278708
1129.691 .0279512
1130.295 .0280332
1130.900 .0281167
1131.505 .0282019
1132.111 .0282887
1132.718 .0283773
1133.325 .0284678
1133.933 .0285596
1134.541 .0286522
1135.150 .0287459
1135.760 .0288495
1136.370 .0289568
1136.981 .0290592
1137.592 .0291526
1138.204 .0292474
1138.817 .0293403
1139.431 .0294366
1140.045 .0295350
1140.660 .0296434
1141.275 .0297606
1141.891 .0298629
1142.508 .0299555
1143.126 .0300600
1143.744 .0304161
1144.363 .0305963
1144.983 .0299832
