Measurement Sequence started on: 15-12-46-377
Integration time: 28
Scans to Average: 2 
>>>>>Begin Spectral Data<<<<<
432.689 .0000100
433.621 .0000100
434.552 .0000100
435.482 .0000100
436.410 .0000100
437.337 .0000100
438.262 .0265944
439.187 .0562940
440.110 .0931621
441.031 .1347481
441.952 .1077441
442.871 .1124904
443.789 .1169040
444.705 .1210555
445.621 .1249915
446.535 .1287484
447.447 .1309525
448.359 .1314594
449.269 .1299096
450.178 .1260674
451.086 .1200083
451.993 .1121982
452.898 .1034042
453.803 .0944957
454.706 .0862123
455.608 .0790118
456.508 .0730480
457.408 .0690047
458.306 .0658912
459.204 .0633514
460.100 .0612101
460.995 .0593688
461.888 .0577597
462.781 .0563396
463.673 .0550753
464.563 .0539439
465.452 .0529283
466.340 .0520128
467.228 .0511860
468.114 .0504384
468.999 .0497614
469.882 .0491467
470.765 .0485879
471.647 .0480805
472.528 .0476210
473.407 .0472071
474.286 .0468364
475.163 .0465070
476.040 .0462167
476.915 .0459623
477.790 .0457402
478.663 .0455472
479.535 .0453796
480.407 .0452345
481.277 .0451097
482.147 .0450034
483.015 .0449143
483.883 .0448421
484.749 .0447866
485.615 .0447475
486.479 .0447237
487.343 .0447138
488.206 .0447160
489.067 .0447282
489.928 .0447492
490.788 .0447784
491.647 .0448163
492.505 .0448641
493.362 .0449238
494.218 .0449975
495.073 .0450879
495.928 .0452940
496.781 .0454418
497.634 .0456152
498.486 .0458158
499.337 .0460449
500.187 .0463043
501.036 .0465956
501.884 .0469211
502.731 .0472837
503.578 .0476866
504.424 .0479826
505.268 .0484561
506.113 .0489787
506.956 .0495544
507.798 .0501882
508.640 .0508858
509.480 .0516543
510.320 .0525032
511.160 .0534436
511.998 .0544882
512.836 .0556528
513.672 .0569552
514.508 .0584159
515.344 .0600554
516.178 .0618947
517.012 .0639593
517.845 .0662706
518.677 .0688477
519.508 .0717078
520.339 .0748605
521.169 .0783116
521.998 .0820411
522.826 .0860155
523.654 .0901834
524.481 .0944812
525.307 .0988312
526.133 .1031430
526.958 .1073247
527.782 .1112883
528.605 .1149495
529.428 .1182386
530.250 .1210935
531.072 .1234736
531.892 .1253455
532.712 .1266873
533.532 .1274863
534.350 .1277350
535.168 .1274342
535.986 .1265914
536.802 .1252108
537.618 .1233032
538.434 .1208793
539.249 .1179751
540.063 .1146394
540.876 .1109351
541.689 .1069352
542.501 .1027245
543.313 .0983960
544.124 .0940417
544.934 .0897445
545.744 .0855809
546.553 .0816119
547.361 .0778859
548.169 .0744265
548.976 .0712484
549.783 .0683544
550.589 .0657383
551.395 .0633832
552.200 .0612675
553.004 .0593642
553.808 .0576499
554.611 .0561014
555.414 .0546983
556.216 .0534204
557.018 .0522488
557.819 .0511672
558.619 .0501621
559.419 .0492221
560.218 .0483388
561.017 .0475050
561.815 .0467173
562.613 .0459719
563.410 .0452641
564.207 .0445898
565.003 .0439464
565.799 .0433298
566.594 .0427365
567.388 .0421633
568.182 .0416079
568.976 .0410684
569.769 .0405446
570.562 .0400364
571.354 .0395452
572.145 .0390731
572.936 .0386212
573.727 .0381901
574.517 .0377810
575.307 .0373934
576.096 .0370266
576.885 .0366797
577.673 .0363514
578.461 .0360399
579.248 .0357441
580.035 .0354635
580.821 .0351977
581.607 .0349470
582.392 .0347113
583.177 .0344906
583.962 .0342844
584.746 .0340919
585.529 .0339119
586.313 .0337434
587.095 .0335854
587.878 .0334367
588.660 .0332964
589.441 .0331640
590.222 .0330389
591.003 .0329208
591.783 .0328094
592.563 .0327042
593.342 .0326047
594.121 .0325102
594.899 .0324204
595.678 .0323346
596.455 .0322525
597.233 .0321737
598.009 .0320980
598.786 .0320252
599.562 .0319551
600.338 .0318877
601.113 .0318230
601.888 .0317358
602.663 .0316779
603.437 .0316228
604.211 .0315703
604.984 .0315206
605.757 .0314736
606.530 .0314292
607.302 .0313875
608.074 .0313482
608.845 .0313113
609.616 .0312767
610.387 .0312649
611.158 .0312334
611.928 .0312040
612.697 .0311766
613.467 .0311511
614.236 .0311273
615.004 .0311052
615.773 .0310845
616.541 .0310651
617.308 .0310467
618.076 .0310292
618.843 .0310123
619.609 .0309959
620.375 .0309797
621.141 .0309635
621.907 .0309473
622.672 .0309310
623.437 .0309144
624.202 .0308975
624.966 .0308803
625.730 .0308626
626.493 .0308445
627.257 .0308260
628.020 .0308069
628.782 .0307873
629.545 .0307673
630.307 .0307467
631.068 .0307257
631.830 .0307044
632.591 .0306828
633.352 .0306611
634.112 .0306393
634.872 .0306175
635.632 .0305957
636.392 .0305740
637.151 .0305523
637.910 .0305309
638.668 .0305097
639.427 .0304889
640.185 .0304686
640.943 .0304489
641.700 .0304298
642.457 .0304114
643.214 .0303936
643.971 .0303763
644.727 .0303592
645.483 .0303424
646.239 .0303256
646.994 .0303088
647.750 .0302920
648.505 .0302751
649.259 .0302581
650.014 .0302410
650.768 .0302236
651.521 .0302058
652.275 .0301876
653.028 .0301687
653.781 .0301493
654.534 .0301291
655.286 .0301082
656.039 .0300865
656.791 .0300641
657.542 .0300409
658.294 .0300170
659.045 .0299922
659.796 .0299667
660.546 .0299405
661.297 .0299136
662.047 .0298863
662.796 .0298585
663.546 .0298305
664.295 .0298024
665.044 .0297742
665.793 .0297460
666.542 .0297180
667.290 .0296900
668.038 .0296621
668.786 .0296343
669.533 .0296068
670.281 .0295797
671.028 .0295530
671.774 .0295269
672.521 .0295014
673.267 .0294766
674.013 .0294526
674.759 .0294294
675.505 .0294069
676.250 .0293853
676.995 .0293644
677.740 .0293444
678.484 .0293253
679.229 .0293069
679.973 .0292894
680.717 .0292726
681.460 .0292566
682.204 .0292412
682.947 .0292263
683.690 .0292119
684.433 .0291980
685.175 .0291845
685.917 .0291714
686.659 .0291586
687.401 .0291463
688.142 .0291341
688.884 .0291223
689.625 .0291105
690.365 .0290988
691.106 .0290871
691.846 .0290753
692.586 .0290634
693.326 .0290515
694.066 .0290396
694.805 .0290277
695.545 .0290159
696.284 .0290042
697.022 .0289927
697.761 .0289813
698.499 .0289700
699.237 .0289590
699.975 .0289481
700.713 .0289374
701.450 .0289269
702.187 .0289165
702.924 .0289062
703.661 .0288960
704.397 .0288859
705.133 .0288759
705.869 .0288660
706.605 .0288563
707.341 .0288466
708.076 .0288372
708.811 .0288278
709.546 .0288186
710.281 .0288094
711.015 .0288002
711.749 .0287908
712.483 .0287812
713.217 .0287714
713.950 .0287613
714.684 .0287508
715.417 .0287400
716.150 .0287289
716.882 .0287173
717.615 .0287054
718.347 .0286930
719.079 .0286802
719.811 .0286669
720.542 .0286531
721.273 .0286388
722.005 .0286240
722.735 .0286087
723.466 .0285930
724.196 .0285768
724.927 .0285602
725.656 .0285432
726.386 .0285257
727.116 .0285080
727.845 .0284899
728.574 .0284716
729.303 .0284531
730.031 .0284344
730.760 .0284156
731.488 .0283967
732.216 .0283776
732.944 .0283584
733.671 .0283392
734.398 .0283198
735.125 .0283004
735.852 .0282810
736.579 .0282616
737.305 .0282422
738.031 .0282228
738.757 .0282035
739.483 .0281842
740.208 .0281649
740.933 .0281456
741.658 .0281263
742.383 .0281068
743.108 .0280872
743.832 .0280675
744.556 .0280478
745.280 .0280280
746.004 .0280082
746.727 .0279885
747.450 .0279687
748.173 .0279490
748.896 .0279294
749.618 .0279098
750.340 .0278902
751.062 .0278707
751.784 .0278513
752.506 .0278319
753.227 .0278125
753.948 .0277933
754.669 .0277743
755.389 .0277555
756.110 .0277369
756.830 .0277186
757.550 .0277005
758.269 .0276827
758.989 .0276651
759.708 .0276477
760.427 .0276306
761.146 .0276136
761.864 .0275969
762.582 .0275804
763.300 .0275641
764.018 .0275482
764.736 .0275327
765.453 .0275175
766.170 .0275028
766.887 .0274887
767.603 .0274750
768.320 .0274619
769.036 .0274495
769.751 .0274377
770.467 .0274267
771.182 .0274164
771.897 .0274069
772.612 .0273982
773.327 .0273904
774.041 .0273835
774.755 .0273774
775.469 .0273723
776.183 .0273681
776.896 .0273648
777.609 .0273624
778.322 .0273607
779.035 .0273598
779.747 .0273595
780.459 .0273598
781.171 .0273607
781.882 .0273620
782.594 .0273638
783.305 .0273661
784.016 .0273687
784.726 .0273717
785.436 .0273749
786.147 .0273800
786.856 .0273834
787.566 .0273867
788.275 .0273900
788.984 .0273932
789.693 .0273962
790.401 .0273990
791.110 .0274017
791.818 .0274042
792.525 .0274065
793.233 .0274085
793.940 .0274102
794.647 .0274102
795.353 .0274114
796.060 .0274121
796.766 .0274123
797.472 .0274121
798.177 .0274114
798.883 .0274102
799.588 .0274084
800.292 .0274062
800.997 .0274034
801.701 .0274001
802.405 .0273963
803.109 .0273918
803.812 .0273869
804.515 .0273814
805.218 .0273754
805.921 .0273689
806.623 .0273618
807.325 .0273543
808.027 .0273464
808.728 .0273379
809.429 .0273288
810.130 .0273192
810.831 .0273091
811.531 .0272984
812.231 .0272873
812.931 .0272757
813.630 .0272637
814.330 .0272514
815.029 .0272389
815.727 .0272262
816.426 .0272132
817.124 .0272001
817.821 .0271867
818.519 .0271732
819.216 .0271595
819.913 .0271457
820.609 .0271318
821.306 .0271179
822.002 .0271040
822.697 .0270902
823.393 .0270765
824.088 .0270628
824.783 .0270492
825.477 .0270357
826.171 .0270221
826.865 .0270086
827.559 .0269951
828.252 .0269817
828.945 .0269683
829.638 .0269550
830.330 .0269418
831.023 .0269286
831.714 .0269155
832.406 .0269023
833.097 .0268891
833.788 .0268758
834.479 .0268625
835.169 .0268491
835.859 .0268357
836.548 .0268223
837.238 .0268088
837.927 .0267952
838.615 .0267815
839.304 .0267675
839.992 .0267533
840.680 .0267386
841.367 .0267235
842.054 .0267080
842.741 .0266919
843.428 .0266754
844.114 .0266585
844.800 .0266410
845.485 .0266231
846.170 .0266046
846.855 .0265856
847.540 .0265661
848.224 .0265459
848.908 .0265252
849.592 .0265040
850.275 .0264823
850.958 .0264602
851.641 .0264378
852.323 .0264150
853.005 .0263920
853.687 .0263689
854.368 .0263455
855.049 .0263221
855.730 .0262987
856.410 .0262754
857.090 .0262522
857.769 .0262294
858.449 .0262069
859.128 .0261848
859.806 .0261632
860.485 .0261421
861.163 .0261217
861.840 .0261019
862.518 .0260828
863.195 .0260645
863.871 .0260471
864.548 .0260306
865.224 .0260150
865.899 .0260002
866.574 .0259864
867.249 .0259733
867.924 .0259611
868.598 .0259496
869.272 .0259388
869.946 .0259288
870.619 .0259195
871.292 .0259108
871.964 .0259028
872.636 .0258953
873.308 .0258885
873.979 .0258821
874.651 .0258761
875.321 .0258707
875.992 .0258656
876.662 .0258611
877.331 .0258570
878.001 .0258535
878.670 .0258504
879.338 .0258479
880.007 .0258460
880.675 .0258446
881.342 .0258437
882.009 .0258434
882.676 .0258436
883.343 .0258445
884.009 .0258460
884.675 .0258482
885.340 .0258511
886.005 .0258547
886.670 .0258590
887.334 .0258639
887.998 .0258693
888.662 .0258752
889.325 .0258816
889.988 .0258884
890.650 .0258957
891.312 .0259033
891.974 .0259114
892.636 .0259198
893.297 .0259286
893.957 .0259377
894.618 .0259470
895.278 .0259563
895.937 .0259656
896.596 .0259748
897.255 .0259837
897.914 .0259923
898.572 .0260004
899.230 .0260081
899.887 .0260152
900.544 .0260217
901.201 .0260275
901.857 .0260332
902.513 .0260372
903.168 .0260403
903.823 .0260426
904.478 .0260441
905.132 .0260447
905.786 .0260445
906.440 .0260434
907.093 .0260416
907.746 .0260390
908.399 .0260357
909.051 .0260318
909.703 .0260272
910.354 .0260231
911.005 .0260179
911.656 .0260121
912.306 .0260058
912.956 .0259990
913.605 .0259919
914.254 .0259844
914.903 .0259766
915.551 .0259685
916.199 .0259602
916.847 .0259516
917.494 .0259428
918.141 .0259336
918.788 .0259242
919.434 .0259143
920.079 .0259042
920.725 .0258937
921.370 .0258829
922.014 .0258718
922.658 .0258605
923.302 .0258488
923.946 .0258369
924.589 .0258247
925.231 .0258122
925.873 .0257993
926.515 .0257861
927.157 .0257725
927.798 .0257586
928.439 .0257445
929.079 .0257301
929.719 .0257157
930.359 .0257012
930.998 .0256867
931.637 .0256723
932.275 .0256579
932.913 .0256436
933.551 .0256295
934.188 .0256155
934.825 .0256017
935.462 .0255882
936.098 .0255750
936.733 .0255622
937.369 .0255497
938.004 .0255376
938.638 .0255258
939.273 .0255144
939.907 .0255033
940.540 .0254926
941.173 .0254821
941.806 .0254719
942.438 .0254619
943.070 .0254521
943.702 .0254426
944.333 .0254331
944.964 .0254236
945.594 .0254140
946.224 .0254043
946.854 .0253942
947.483 .0253839
948.112 .0253731
948.741 .0253618
949.369 .0253501
949.996 .0253379
950.624 .0253253
951.251 .0253120
951.878 .0252983
952.504 .0252840
953.130 .0252692
953.755 .0252538
954.380 .0252380
955.005 .0252217
955.629 .0252050
956.253 .0251879
956.877 .0251705
957.500 .0251527
958.123 .0251346
958.746 .0251163
959.368 .0250977
959.990 .0250791
960.611 .0250603
961.232 .0250414
961.853 .0250226
962.473 .0250039
963.093 .0249852
963.712 .0249667
964.331 .0249483
964.950 .0249300
965.569 .0249119
966.187 .0248938
966.804 .0248758
967.422 .0248580
968.039 .0248402
968.655 .0248226
969.272 .0248050
969.887 .0247875
970.503 .0247700
971.118 .0247524
971.733 .0247347
972.347 .0247169
972.961 .0246990
973.575 .0246809
974.188 .0246626
974.801 .0246441
975.414 .0246253
976.026 .0246064
976.638 .0245872
977.250 .0245678
977.861 .0245481
978.472 .0245280
979.083 .0245077
979.693 .0244870
980.303 .0244661
980.912 .0244336
981.521 .0244124
982.130 .0243911
982.738 .0243699
983.346 .0243487
983.954 .0243278
984.562 .0243072
985.169 .0242870
985.775 .0242673
986.382 .0242481
986.988 .0242296
987.594 .0242118
988.199 .0241948
988.804 .0241787
989.409 .0241737
990.013 .0241591
990.617 .0241455
991.221 .0241328
991.824 .0241212
992.427 .0241104
993.030 .0241006
993.632 .0240916
994.234 .0240834
994.836 .0240759
995.438 .0240690
996.039 .0240628
996.640 .0240571
997.240 .0240520
997.840 .0240475
998.440 .0240434
999.040 .0240398
999.639 .0240366
1000.238 .0240338
1000.836 .0240312
1001.435 .0240289
1002.033 .0240267
1002.630 .0240248
1003.228 .0240230
1003.825 .0240213
1004.422 .0240198
1005.018 .0240184
1005.614 .0240171
1006.210 .0240158
1006.806 .0240147
1007.401 .0240137
1007.996 .0240129
1008.591 .0240123
1009.186 .0240118
1009.780 .0240117
1010.374 .0240118
1010.967 .0240121
1011.561 .0240128
1012.154 .0240139
1012.746 .0240153
1013.339 .0240172
1013.931 .0240197
1014.523 .0240226
1015.115 .0240262
1015.706 .0240303
1016.298 .0240352
1016.888 .0240408
1017.479 .0240471
1018.069 .0240542
1018.660 .0240620
1019.250 .0240706
1019.839 .0240799
1020.429 .0240901
1021.018 .0241010
1021.607 .0241127
1022.195 .0241251
1022.784 .0241383
1023.372 .0241521
1023.960 .0241666
1024.547 .0241816
1025.135 .0241972
1025.722 .0242133
1026.309 .0242298
1026.896 .0242468
1027.483 .0242643
1028.069 .0242824
1028.655 .0243010
1029.241 .0243200
1029.827 .0243395
1030.412 .0243593
1030.997 .0243793
1031.582 .0243995
1032.167 .0244198
1032.752 .0244401
1033.336 .0244604
1033.921 .0244807
1034.505 .0245009
1035.089 .0245210
1035.672 .0245410
1036.256 .0245607
1036.839 .0245800
1037.422 .0245988
1038.005 .0246170
1038.588 .0246345
1039.171 .0246514
1039.753 .0246675
1040.335 .0246831
1040.918 .0246981
1041.500 .0247127
1042.081 .0247268
1042.663 .0247404
1043.244 .0247536
1043.826 .0247663
1044.407 .0247785
1044.988 .0247902
1045.569 .0248014
1046.150 .0248123
1046.730 .0248231
1047.311 .0248338
1047.891 .0248448
1048.471 .0248561
1049.052 .0248678
1049.632 .0248799
1050.211 .0248924
1050.791 .0249052
1051.371 .0249181
1051.950 .0249312
1052.530 .0249442
1053.109 .0249574
1053.688 .0249706
1054.268 .0249839
1054.847 .0249974
1055.426 .0250111
1056.005 .0250248
1056.583 .0250385
1057.162 .0250519
1057.741 .0250650
1058.319 .0250776
1058.898 .0250897
1059.476 .0251012
1060.055 .0251124
1060.633 .0251233
1061.211 .0251341
1061.790 .0251448
1062.368 .0251557
1062.946 .0251665
1063.524 .0251773
1064.102 .0251878
1064.680 .0251980
1065.258 .0252077
1065.836 .0252169
1066.414 .0252257
1066.992 .0252340
1067.570 .0252420
1068.148 .0252496
1068.726 .0252570
1069.304 .0252641
1069.882 .0252710
1070.460 .0252777
1071.038 .0252842
1071.616 .0252905
1072.194 .0252967
1072.772 .0253029
1073.350 .0253093
1073.928 .0253159
1074.506 .0253229
1075.084 .0253304
1075.662 .0253383
1076.240 .0253466
1076.819 .0253553
1077.397 .0253643
1077.976 .0253735
1078.554 .0253829
1079.133 .0253923
1079.711 .0254019
1080.290 .0254115
1080.869 .0254213
1081.448 .0254310
1082.027 .0254407
1082.606 .0254503
1083.185 .0254597
1083.764 .0254689
1084.343 .0254777
1084.923 .0254862
1085.502 .0254944
1086.082 .0255022
1086.662 .0255098
1087.242 .0255170
1087.822 .0255239
1088.402 .0255304
1088.983 .0255366
1089.563 .0255423
1090.144 .0255475
1090.725 .0255523
1091.306 .0255567
1091.887 .0255609
1092.469 .0255648
1093.050 .0255689
1093.632 .0255731
1094.214 .0255777
1094.796 .0255828
1095.379 .0255882
1095.961 .0255942
1096.544 .0256006
1097.127 .0256075
1097.710 .0256149
1098.294 .0256227
1098.877 .0256311
1099.461 .0256401
1100.046 .0256498
1100.630 .0256603
1101.215 .0256718
1101.800 .0256842
1102.385 .0256976
1102.970 .0257118
1103.556 .0257267
1104.142 .0257423
1104.728 .0257585
1105.315 .0257752
1105.902 .0257925
1106.489 .0258105
1107.077 .0258293
1107.664 .0258490
1108.253 .0258697
1108.841 .0258915
1109.430 .0259144
1110.019 .0259382
1110.609 .0259626
1111.198 .0259873
1111.789 .0260124
1112.379 .0260377
1112.970 .0260631
1113.561 .0260890
1114.153 .0261153
1114.745 .0261424
1115.338 .0261705
1115.931 .0261996
1116.524 .0262298
1117.117 .0262611
1117.712 .0262933
1118.306 .0263261
1118.901 .0263597
1119.496 .0263941
1120.092 .0264293
1120.689 .0264658
1121.285 .0265035
1121.882 .0265429
1122.480 .0265840
1123.078 .0266267
1123.677 .0266712
1124.276 .0267171
1124.875 .0267645
1125.476 .0268132
1126.076 .0268630
1126.677 .0269140
1127.279 .0269662
1127.881 .0270196
1128.484 .0270745
1129.087 .0270998
1129.691 .0271569
1130.295 .0272153
1130.900 .0272747
1131.505 .0273352
1132.111 .0273966
1132.718 .0274588
1133.325 .0275221
1133.933 .0275866
1134.541 .0276553
1135.150 .0277239
1135.760 .0277877
1136.370 .0278618
1136.981 .0279238
1137.592 .0279941
1138.204 .0280635
1138.817 .0281328
1139.431 .0282059
1140.045 .0282825
1140.660 .0283590
1141.275 .0284469
1141.891 .0285390
1142.508 .0287095
1143.126 .0287632
1143.744 .0286808
1144.363 .0290186
1144.983 .0290766
