Measurement Sequence started on: 15-12-46-377
Integration time: 28
Scans to Average: 2 
>>>>>Begin Spectral Data<<<<<
432.689 .0000100
433.621 .0000100
434.552 .0000100
435.482 .0000100
436.410 .0000100
437.337 .0000100
438.262 .0290727
439.187 .0612779
440.110 .1012361
441.031 .1462406
441.952 .1162216
442.871 .1213108
443.789 .1260528
444.705 .1305212
445.621 .1347648
446.535 .1388207
447.447 .1411845
448.359 .1417103
449.269 .1400072
450.178 .1358234
451.086 .1292478
451.993 .1207908
452.898 .1112891
453.803 .1016857
454.706 .0927790
455.608 .0850591
456.508 .0786828
457.408 .0743898
458.306 .0710855
459.204 .0683854
460.100 .0660993
460.995 .0641200
461.888 .0623773
462.781 .0608262
463.673 .0594335
464.563 .0581770
465.452 .0570404
466.340 .0560091
467.228 .0550713
468.114 .0542175
468.999 .0534387
469.882 .0527274
470.765 .0520779
471.647 .0514856
472.528 .0509475
473.407 .0504618
474.286 .0500265
475.163 .0496398
476.040 .0493000
476.915 .0490050
477.790 .0487521
478.663 .0485386
479.535 .0483619
480.407 .0482193
481.277 .0481081
482.147 .0480254
483.015 .0479688
483.883 .0479360
484.749 .0479242
485.615 .0479307
486.479 .0479528
487.343 .0479883
488.206 .0480355
489.067 .0480929
489.928 .0481603
490.788 .0482381
491.647 .0483267
492.505 .0484270
493.362 .0485398
494.218 .0486663
495.073 .0488071
495.928 .0490740
496.781 .0492595
497.634 .0494634
498.486 .0496867
499.337 .0499323
500.187 .0502028
501.036 .0505011
501.884 .0508314
502.731 .0511985
503.578 .0516070
504.424 .0519027
505.268 .0523875
506.113 .0529246
506.956 .0535183
507.798 .0541723
508.640 .0548927
509.480 .0556872
510.320 .0565650
511.160 .0575370
511.998 .0586176
512.836 .0598247
513.672 .0611771
514.508 .0626958
515.344 .0644036
516.178 .0663250
517.012 .0684838
517.845 .0709024
518.677 .0736006
519.508 .0765947
520.339 .0798915
521.169 .0834901
521.998 .0873672
522.826 .0914894
523.654 .0958043
524.481 .1002475
525.307 .1047453
526.133 .1092147
526.958 .1135660
527.782 .1177123
528.605 .1215703
529.428 .1250655
530.250 .1281268
531.072 .1307046
531.892 .1327547
532.712 .1342502
533.532 .1351719
534.350 .1355106
535.168 .1352667
535.986 .1344460
536.802 .1330555
537.618 .1311067
538.434 .1286170
539.249 .1256263
540.063 .1221813
540.876 .1183472
541.689 .1141985
542.501 .1098187
543.313 .1052948
544.124 .1007177
544.934 .0961722
545.744 .0917357
546.553 .0874729
547.361 .0834399
548.169 .0796711
548.976 .0761932
549.783 .0730148
550.589 .0701332
551.395 .0675352
552.200 .0651993
553.004 .0630988
553.808 .0612087
554.611 .0595062
555.414 .0579700
556.216 .0565786
557.018 .0553136
557.819 .0541573
558.619 .0530943
559.419 .0521110
560.218 .0511966
561.017 .0503419
561.815 .0495390
562.613 .0487820
563.410 .0480655
564.207 .0473850
565.003 .0467355
565.799 .0461116
566.594 .0455081
567.388 .0449215
568.182 .0443484
568.976 .0437862
569.769 .0432344
570.562 .0426931
571.354 .0421638
572.145 .0416483
572.936 .0411487
573.727 .0406660
574.517 .0402015
575.307 .0397561
576.096 .0393291
576.885 .0389208
577.673 .0385310
578.461 .0381595
579.248 .0378065
580.035 .0374725
580.821 .0371575
581.607 .0368615
582.392 .0365849
583.177 .0363276
583.962 .0360893
584.746 .0358693
585.529 .0356667
586.313 .0354803
587.095 .0353090
587.878 .0351514
588.660 .0350060
589.441 .0348717
590.222 .0347474
591.003 .0346321
591.783 .0345249
592.563 .0344251
593.342 .0343319
594.121 .0342444
594.899 .0341619
595.678 .0340836
596.455 .0340088
597.233 .0339369
598.009 .0338675
598.786 .0338005
599.562 .0337357
600.338 .0336731
601.113 .0336127
601.888 .0335304
602.663 .0334761
603.437 .0334241
604.211 .0333745
604.984 .0333271
605.757 .0332818
606.530 .0332385
607.302 .0331972
608.074 .0331576
608.845 .0331198
609.616 .0330838
610.387 .0330699
611.158 .0330362
611.928 .0330041
612.697 .0329736
613.467 .0329446
614.236 .0329171
615.004 .0328911
615.773 .0328664
616.541 .0328429
617.308 .0328206
618.076 .0327992
618.843 .0327785
619.609 .0327585
620.375 .0327390
621.141 .0327199
621.907 .0327011
622.672 .0326825
623.437 .0326642
624.202 .0326460
624.966 .0326279
625.730 .0326096
626.493 .0325912
627.257 .0325723
628.020 .0325529
628.782 .0325329
629.545 .0325121
630.307 .0324904
631.068 .0324680
631.830 .0324448
632.591 .0324209
633.352 .0323963
634.112 .0323711
634.872 .0323452
635.632 .0323186
636.392 .0322915
637.151 .0322637
637.910 .0322354
638.668 .0322065
639.427 .0321772
640.185 .0321473
640.943 .0321171
641.700 .0320866
642.457 .0320558
643.214 .0320248
643.971 .0319936
644.727 .0319624
645.483 .0319312
646.239 .0319000
646.994 .0318688
647.750 .0318377
648.505 .0318068
649.259 .0317760
650.014 .0317453
650.768 .0317147
651.521 .0316842
652.275 .0316537
653.028 .0316233
653.781 .0315930
654.534 .0315627
655.286 .0315323
656.039 .0315019
656.791 .0314714
657.542 .0314409
658.294 .0314104
659.045 .0313798
659.796 .0313493
660.546 .0313189
661.297 .0312886
662.047 .0312585
662.796 .0312287
663.546 .0311993
664.295 .0311702
665.044 .0311416
665.793 .0311134
666.542 .0310858
667.290 .0310588
668.038 .0310324
668.786 .0310066
669.533 .0309814
670.281 .0309570
671.028 .0309332
671.774 .0309103
672.521 .0308882
673.267 .0308670
674.013 .0308468
674.759 .0308276
675.505 .0308094
676.250 .0307922
676.995 .0307760
677.740 .0307607
678.484 .0307464
679.229 .0307329
679.973 .0307203
680.717 .0307085
681.460 .0306974
682.204 .0306870
682.947 .0306772
683.690 .0306678
684.433 .0306586
685.175 .0306495
685.917 .0306405
686.659 .0306314
687.401 .0306221
688.142 .0306126
688.884 .0306027
689.625 .0305925
690.365 .0305818
691.106 .0305707
691.846 .0305590
692.586 .0305466
693.326 .0305337
694.066 .0305202
694.805 .0305060
695.545 .0304913
696.284 .0304761
697.022 .0304605
697.761 .0304443
698.499 .0304278
699.237 .0304109
699.975 .0303936
700.713 .0303759
701.450 .0303580
702.187 .0303397
702.924 .0303212
703.661 .0303024
704.397 .0302834
705.133 .0302641
705.869 .0302445
706.605 .0302246
707.341 .0302044
708.076 .0301838
708.811 .0301628
709.546 .0301413
710.281 .0301194
711.015 .0300971
711.749 .0300744
712.483 .0300512
713.217 .0300276
713.950 .0300035
714.684 .0299789
715.417 .0299537
716.150 .0299281
716.882 .0299019
717.615 .0298751
718.347 .0298477
719.079 .0298199
719.811 .0297917
720.542 .0297631
721.273 .0297342
722.005 .0297051
722.735 .0296758
723.466 .0296463
724.196 .0296169
724.927 .0295875
725.656 .0295582
726.386 .0295291
727.116 .0295003
727.845 .0294718
728.574 .0294437
729.303 .0294162
730.031 .0293892
730.760 .0293628
731.488 .0293371
732.216 .0293122
732.944 .0292880
733.671 .0292647
734.398 .0292423
735.125 .0292207
735.852 .0292001
736.579 .0291805
737.305 .0291617
738.031 .0291438
738.757 .0291269
739.483 .0291109
740.208 .0290958
740.933 .0290816
741.658 .0290683
742.383 .0290559
743.108 .0290443
743.832 .0290335
744.556 .0290234
745.280 .0290141
746.004 .0290055
746.727 .0289975
747.450 .0289901
748.173 .0289833
748.896 .0289770
749.618 .0289712
750.340 .0289657
751.062 .0289606
751.784 .0289557
752.506 .0289511
753.227 .0289467
753.948 .0289426
754.669 .0289388
755.389 .0289353
756.110 .0289320
756.830 .0289290
757.550 .0289261
758.269 .0289235
758.989 .0289212
759.708 .0289189
760.427 .0289168
761.146 .0289148
761.864 .0289127
762.582 .0289107
763.300 .0289085
764.018 .0289064
764.736 .0289041
765.453 .0289017
766.170 .0288993
766.887 .0288968
767.603 .0288942
768.320 .0288915
769.036 .0288887
769.751 .0288857
770.467 .0288825
771.182 .0288791
771.897 .0288754
772.612 .0288715
773.327 .0288674
774.041 .0288631
774.755 .0288586
775.469 .0288541
776.183 .0288494
776.896 .0288447
777.609 .0288399
778.322 .0288350
779.035 .0288299
779.747 .0288246
780.459 .0288190
781.171 .0288131
781.882 .0288070
782.594 .0288006
783.305 .0287939
784.016 .0287869
784.726 .0287795
785.436 .0287717
786.147 .0287580
786.856 .0287486
787.566 .0287386
788.275 .0287279
788.984 .0287165
789.693 .0287042
790.401 .0286910
791.110 .0286770
791.818 .0286621
792.525 .0286463
793.233 .0286295
793.940 .0286119
794.647 .0286009
795.353 .0285821
796.060 .0285627
796.766 .0285425
797.472 .0285218
798.177 .0285004
798.883 .0284785
799.588 .0284561
800.292 .0284332
800.997 .0284099
801.701 .0283861
802.405 .0283620
803.109 .0283376
803.812 .0283129
804.515 .0282880
805.218 .0282628
805.921 .0282375
806.623 .0282119
807.325 .0281862
808.027 .0281603
808.728 .0281341
809.429 .0281078
810.130 .0280814
810.831 .0280550
811.531 .0280286
812.231 .0280023
812.931 .0279760
813.630 .0279500
814.330 .0279242
815.029 .0278986
815.727 .0278733
816.426 .0278483
817.124 .0278237
817.821 .0277995
818.519 .0277758
819.216 .0277527
819.913 .0277302
820.609 .0277085
821.306 .0276875
822.002 .0276673
822.697 .0276479
823.393 .0276294
824.088 .0276117
824.783 .0275950
825.477 .0275791
826.171 .0275641
826.865 .0275500
827.559 .0275368
828.252 .0275246
828.945 .0275133
829.638 .0275030
830.330 .0274937
831.023 .0274852
831.714 .0274776
832.406 .0274708
833.097 .0274648
833.788 .0274595
834.479 .0274550
835.169 .0274512
835.859 .0274481
836.548 .0274457
837.238 .0274440
837.927 .0274430
838.615 .0274427
839.304 .0274429
839.992 .0274436
840.680 .0274449
841.367 .0274467
842.054 .0274489
842.741 .0274516
843.428 .0274548
844.114 .0274583
844.800 .0274622
845.485 .0274663
846.170 .0274705
846.855 .0274746
847.540 .0274788
848.224 .0274828
848.908 .0274867
849.592 .0274905
850.275 .0274942
850.958 .0274979
851.641 .0275014
852.323 .0275048
853.005 .0275080
853.687 .0275111
854.368 .0275140
855.049 .0275168
855.730 .0275196
856.410 .0275224
857.090 .0275253
857.769 .0275283
858.449 .0275315
859.128 .0275348
859.806 .0275383
860.485 .0275419
861.163 .0275457
861.840 .0275496
862.518 .0275536
863.195 .0275579
863.871 .0275623
864.548 .0275669
865.224 .0275715
865.899 .0275763
866.574 .0275811
867.249 .0275857
867.924 .0275902
868.598 .0275945
869.272 .0275985
869.946 .0276021
870.619 .0276053
871.292 .0276081
871.964 .0276105
872.636 .0276123
873.308 .0276136
873.979 .0276142
874.651 .0276143
875.321 .0276136
875.992 .0276123
876.662 .0276102
877.331 .0276073
878.001 .0276038
878.670 .0275994
879.338 .0275944
880.007 .0275888
880.675 .0275825
881.342 .0275757
882.009 .0275685
882.676 .0275608
883.343 .0275526
884.009 .0275440
884.675 .0275351
885.340 .0275258
886.005 .0275162
886.670 .0275062
887.334 .0274959
887.998 .0274853
888.662 .0274743
889.325 .0274629
889.988 .0274510
890.650 .0274387
891.312 .0274260
891.974 .0274129
892.636 .0273993
893.297 .0273852
893.957 .0273708
894.618 .0273558
895.278 .0273404
895.937 .0273243
896.596 .0273075
897.255 .0272899
897.914 .0272716
898.572 .0272524
899.230 .0272323
899.887 .0272113
900.544 .0271895
901.201 .0271668
901.857 .0271289
902.513 .0271039
903.168 .0270780
903.823 .0270513
904.478 .0270238
905.132 .0269954
905.786 .0269662
906.440 .0269361
907.093 .0269054
907.746 .0268740
908.399 .0268419
909.051 .0268093
909.703 .0267762
910.354 .0267587
911.005 .0267253
911.656 .0266916
912.306 .0266578
912.956 .0266238
913.605 .0265897
914.254 .0265556
914.903 .0265215
915.551 .0264875
916.199 .0264536
916.847 .0264199
917.494 .0263864
918.141 .0263531
918.788 .0263200
919.434 .0262871
920.079 .0262543
920.725 .0262217
921.370 .0261894
922.014 .0261572
922.658 .0261253
923.302 .0260936
923.946 .0260621
924.589 .0260309
925.231 .0260000
925.873 .0259694
926.515 .0259391
927.157 .0259090
927.798 .0258792
928.439 .0258498
929.079 .0258208
929.719 .0257922
930.359 .0257640
930.998 .0257364
931.637 .0257093
932.275 .0256828
932.913 .0256570
933.551 .0256318
934.188 .0256075
934.825 .0255840
935.462 .0255614
936.098 .0255398
936.733 .0255192
937.369 .0254997
938.004 .0254812
938.638 .0254638
939.273 .0254474
939.907 .0254322
940.540 .0254180
941.173 .0254051
941.806 .0253932
942.438 .0253825
943.070 .0253729
943.702 .0253643
944.333 .0253567
944.964 .0253500
945.594 .0253442
946.224 .0253391
946.854 .0253347
947.483 .0253310
948.112 .0253279
948.741 .0253254
949.369 .0253236
949.996 .0253223
950.624 .0253216
951.251 .0253215
951.878 .0253219
952.504 .0253228
953.130 .0253241
953.755 .0253258
954.380 .0253280
955.005 .0253305
955.629 .0253334
956.253 .0253367
956.877 .0253404
957.500 .0253444
958.123 .0253488
958.746 .0253535
959.368 .0253586
959.990 .0253641
960.611 .0253700
961.232 .0253764
961.853 .0253832
962.473 .0253905
963.093 .0253982
963.712 .0254065
964.331 .0254153
964.950 .0254246
965.569 .0254344
966.187 .0254446
966.804 .0254551
967.422 .0254660
968.039 .0254771
968.655 .0254884
969.272 .0254998
969.887 .0255114
970.503 .0255231
971.118 .0255350
971.733 .0255470
972.347 .0255590
972.961 .0255710
973.575 .0255829
974.188 .0255947
974.801 .0256064
975.414 .0256179
976.026 .0256293
976.638 .0256404
977.250 .0256513
977.861 .0256621
978.472 .0256727
979.083 .0256830
979.693 .0256930
980.303 .0257026
980.912 .0257152
981.521 .0257238
982.130 .0257321
982.738 .0257402
983.346 .0257479
983.954 .0257555
984.562 .0257629
985.169 .0257702
985.775 .0257774
986.382 .0257845
986.988 .0257916
987.594 .0257988
988.199 .0258061
988.804 .0258135
989.409 .0258181
990.013 .0258261
990.617 .0258344
991.221 .0258429
991.824 .0258516
992.427 .0258604
993.030 .0258692
993.632 .0258780
994.234 .0258867
994.836 .0258953
995.438 .0259037
996.039 .0259121
996.640 .0259205
997.240 .0259289
997.840 .0259372
998.440 .0259455
999.040 .0259536
999.639 .0259616
1000.238 .0259692
1000.836 .0259765
1001.435 .0259835
1002.033 .0259901
1002.630 .0259963
1003.228 .0260023
1003.825 .0260078
1004.422 .0260129
1005.018 .0260175
1005.614 .0260215
1006.210 .0260248
1006.806 .0260273
1007.401 .0260290
1007.996 .0260298
1008.591 .0260298
1009.186 .0260291
1009.780 .0260278
1010.374 .0260259
1010.967 .0260234
1011.561 .0260205
1012.154 .0260172
1012.746 .0260136
1013.339 .0260096
1013.931 .0260053
1014.523 .0260006
1015.115 .0259958
1015.706 .0259907
1016.298 .0259854
1016.888 .0259800
1017.479 .0259745
1018.069 .0259689
1018.660 .0259632
1019.250 .0259573
1019.839 .0259514
1020.429 .0259452
1021.018 .0259390
1021.607 .0259325
1022.195 .0259259
1022.784 .0259191
1023.372 .0259121
1023.960 .0259050
1024.547 .0258979
1025.135 .0258907
1025.722 .0258834
1026.309 .0258760
1026.896 .0258686
1027.483 .0258609
1028.069 .0258531
1028.655 .0258450
1029.241 .0258365
1029.827 .0258276
1030.412 .0258183
1030.997 .0258085
1031.582 .0257984
1032.167 .0257878
1032.752 .0257768
1033.336 .0257655
1033.921 .0257538
1034.505 .0257416
1035.089 .0257290
1035.672 .0257160
1036.256 .0257026
1036.839 .0256887
1037.422 .0256744
1038.005 .0256596
1038.588 .0256444
1039.171 .0256288
1039.753 .0256128
1040.335 .0255962
1040.918 .0255792
1041.500 .0255616
1042.081 .0255435
1042.663 .0255249
1043.244 .0255058
1043.826 .0254864
1044.407 .0254666
1044.988 .0254466
1045.569 .0254263
1046.150 .0254059
1046.730 .0253855
1047.311 .0253651
1047.891 .0253446
1048.471 .0253241
1049.052 .0253036
1049.632 .0252832
1050.211 .0252629
1050.791 .0252427
1051.371 .0252228
1051.950 .0252032
1052.530 .0251839
1053.109 .0251648
1053.688 .0251460
1054.268 .0251276
1054.847 .0251095
1055.426 .0250917
1056.005 .0250743
1056.583 .0250574
1057.162 .0250410
1057.741 .0250253
1058.319 .0250104
1058.898 .0249962
1059.476 .0249828
1060.055 .0249701
1060.633 .0249579
1061.211 .0249462
1061.790 .0249348
1062.368 .0249236
1062.946 .0249126
1063.524 .0249016
1064.102 .0248908
1064.680 .0248801
1065.258 .0248695
1065.836 .0248591
1066.414 .0248487
1066.992 .0248384
1067.570 .0248280
1068.148 .0248175
1068.726 .0248069
1069.304 .0247960
1069.882 .0247851
1070.460 .0247741
1071.038 .0247631
1071.616 .0247521
1072.194 .0247411
1072.772 .0247302
1073.350 .0247193
1073.928 .0247084
1074.506 .0246974
1075.084 .0246864
1075.662 .0246754
1076.240 .0246645
1076.819 .0246540
1077.397 .0246441
1077.976 .0246348
1078.554 .0246264
1079.133 .0246189
1079.711 .0246124
1080.290 .0246069
1080.869 .0246023
1081.448 .0245987
1082.027 .0245961
1082.606 .0245946
1083.185 .0245942
1083.764 .0245951
1084.343 .0245973
1084.923 .0246009
1085.502 .0246058
1086.082 .0246117
1086.662 .0246184
1087.242 .0246258
1087.822 .0246338
1088.402 .0246423
1088.983 .0246515
1089.563 .0246617
1090.144 .0246732
1090.725 .0246862
1091.306 .0247011
1091.887 .0247178
1092.469 .0247364
1093.050 .0247567
1093.632 .0247785
1094.214 .0248015
1094.796 .0248256
1095.379 .0248507
1095.961 .0248767
1096.544 .0249038
1097.127 .0249319
1097.710 .0249611
1098.294 .0249911
1098.877 .0250219
1099.461 .0250531
1100.046 .0250846
1100.630 .0251159
1101.215 .0251470
1101.800 .0251778
1102.385 .0252083
1102.970 .0252386
1103.556 .0252691
1104.142 .0252997
1104.728 .0253309
1105.315 .0253627
1105.902 .0253951
1106.489 .0254282
1107.077 .0254620
1107.664 .0254966
1108.253 .0255319
1108.841 .0255678
1109.430 .0256044
1110.019 .0256417
1110.609 .0256798
1111.198 .0257186
1111.789 .0257583
1112.379 .0257991
1112.970 .0258409
1113.561 .0258837
1114.153 .0259277
1114.745 .0259728
1115.338 .0260193
1115.931 .0260669
1116.524 .0261159
1117.117 .0261661
1117.712 .0262179
1118.306 .0262713
1118.901 .0263266
1119.496 .0263839
1120.092 .0264435
1120.689 .0265053
1121.285 .0265694
1121.882 .0266357
1122.480 .0267045
1123.078 .0267753
1123.677 .0268483
1124.276 .0269230
1124.875 .0269997
1125.476 .0270782
1126.076 .0271587
1126.677 .0272413
1127.279 .0273262
1127.881 .0274133
1128.484 .0275029
1129.087 .0275422
1129.691 .0276350
1130.295 .0277304
1130.900 .0278282
1131.505 .0279283
1132.111 .0280308
1132.718 .0281359
1133.325 .0282434
1133.933 .0283530
1134.541 .0284645
1135.150 .0285849
1135.760 .0287060
1136.370 .0288207
1136.981 .0289368
1137.592 .0290726
1138.204 .0292139
1138.817 .0293550
1139.431 .0294928
1140.045 .0296366
1140.660 .0297831
1141.275 .0299233
1141.891 .0300529
1142.508 .0301697
1143.126 .0304840
1143.744 .0305718
1144.363 .0304636
1144.983 .0303916
