Measurement Sequence started on: 15-12-46-377
Integration time: 28
Scans to Average: 2 
>>>>>Begin Spectral Data<<<<<
432.689 .0000100
433.621 .0000100
434.552 .0000100
435.482 .0000100
436.410 .0000100
437.337 .0000100
438.262 .0267459
439.187 .0565479
440.110 .0936356
441.031 .1354395
441.952 .1087819
442.871 .1136511
443.789 .1181872
444.705 .1224591
445.621 .1265130
446.535 .1303852
447.447 .1326937
448.359 .1332962
449.269 .1318250
450.178 .1280453
451.086 .1220311
451.993 .1142461
452.898 .1054587
453.803 .0965399
454.706 .0882317
455.608 .0809946
456.508 .0749819
457.408 .0708834
458.306 .0677035
459.204 .0650916
460.100 .0628702
460.995 .0609426
461.888 .0592424
462.781 .0577262
463.673 .0563612
464.563 .0551251
465.452 .0540016
466.340 .0529780
467.228 .0520433
468.114 .0511890
468.999 .0504081
469.882 .0496934
470.765 .0490392
471.647 .0484407
472.528 .0478938
473.407 .0473958
474.286 .0469448
475.163 .0465401
476.040 .0461803
476.915 .0458646
477.790 .0455914
478.663 .0453590
479.535 .0451656
480.407 .0450082
481.277 .0448843
482.147 .0447912
483.015 .0447263
483.883 .0446877
484.749 .0446736
485.615 .0446830
486.479 .0447151
487.343 .0447690
488.206 .0448444
489.067 .0449396
489.928 .0450538
490.788 .0451854
491.647 .0453329
492.505 .0454950
493.362 .0456708
494.218 .0458597
495.073 .0460624
495.928 .0464195
496.781 .0466627
497.634 .0469238
498.486 .0472038
499.337 .0475039
500.187 .0478249
501.036 .0481675
501.884 .0485332
502.731 .0489244
503.578 .0493436
504.424 .0496164
505.268 .0500930
506.113 .0506116
506.956 .0511771
507.798 .0517971
508.640 .0524797
509.480 .0532344
510.320 .0540721
511.160 .0550053
511.998 .0560483
512.836 .0572202
513.672 .0585400
514.508 .0600319
515.344 .0617207
516.178 .0636323
517.012 .0657945
517.845 .0682344
518.677 .0709763
519.508 .0740387
520.339 .0774324
521.169 .0811607
521.998 .0851989
522.826 .0895104
523.654 .0940379
524.481 .0987100
525.307 .1034421
526.133 .1081398
526.958 .1127007
527.782 .1170268
528.605 .1210245
529.428 .1246126
530.250 .1277176
531.072 .1302910
531.892 .1322916
532.712 .1336962
533.532 .1344944
534.350 .1346854
535.168 .1342745
535.986 .1332752
536.802 .1316991
537.618 .1295617
538.434 .1268790
539.249 .1236918
540.063 .1200497
540.876 .1160185
541.689 .1116764
542.501 .1071119
543.313 .1024187
544.124 .0976974
544.934 .0930412
545.744 .0885360
546.553 .0842519
547.361 .0802466
548.169 .0765510
548.976 .0731842
549.783 .0701468
550.589 .0674247
551.395 .0649929
552.200 .0628205
553.004 .0608705
553.808 .0591126
554.611 .0575188
555.414 .0560676
556.216 .0547384
557.018 .0535143
557.819 .0523815
558.619 .0513277
559.419 .0503428
560.218 .0494203
561.017 .0485536
561.815 .0477362
562.613 .0469638
563.410 .0462316
564.207 .0455357
565.003 .0448725
565.799 .0442386
566.594 .0436303
567.388 .0430458
568.182 .0424824
568.976 .0419385
569.769 .0414132
570.562 .0409060
571.354 .0404166
572.145 .0399453
572.936 .0394923
573.727 .0390570
574.517 .0386389
575.307 .0382379
576.096 .0378529
576.885 .0374833
577.673 .0371283
578.461 .0367879
579.248 .0364620
580.035 .0361512
580.821 .0358556
581.607 .0355759
582.392 .0353125
583.177 .0350656
583.962 .0348350
584.746 .0346204
585.529 .0344209
586.313 .0342353
587.095 .0340628
587.878 .0339023
588.660 .0337527
589.441 .0336134
590.222 .0334838
591.003 .0333636
591.783 .0332522
592.563 .0331493
593.342 .0330544
594.121 .0329669
594.899 .0328863
595.678 .0328116
596.455 .0327422
597.233 .0326774
598.009 .0326165
598.786 .0325593
599.562 .0325052
600.338 .0324539
601.113 .0324054
601.888 .0323393
602.663 .0322958
603.437 .0322541
604.211 .0322142
604.984 .0321758
605.757 .0321388
606.530 .0321030
607.302 .0320685
608.074 .0320352
608.845 .0320032
609.616 .0319724
610.387 .0319606
611.158 .0319322
611.928 .0319053
612.697 .0318799
613.467 .0318560
614.236 .0318337
615.004 .0318131
615.773 .0317940
616.541 .0317763
617.308 .0317600
618.076 .0317448
618.843 .0317306
619.609 .0317172
620.375 .0317043
621.141 .0316919
621.907 .0316796
622.672 .0316675
623.437 .0316552
624.202 .0316426
624.966 .0316296
625.730 .0316158
626.493 .0316011
627.257 .0315853
628.020 .0315683
628.782 .0315498
629.545 .0315299
630.307 .0315084
631.068 .0314853
631.830 .0314606
632.591 .0314345
633.352 .0314068
634.112 .0313779
634.872 .0313477
635.632 .0313164
636.392 .0312841
637.151 .0312511
637.910 .0312174
638.668 .0311833
639.427 .0311489
640.185 .0311143
640.943 .0310798
641.700 .0310455
642.457 .0310116
643.214 .0309780
643.971 .0309449
644.727 .0309122
645.483 .0308801
646.239 .0308485
646.994 .0308175
647.750 .0307870
648.505 .0307573
649.259 .0307282
650.014 .0306997
650.768 .0306719
651.521 .0306447
652.275 .0306182
653.028 .0305923
653.781 .0305670
654.534 .0305421
655.286 .0305177
656.039 .0304937
656.791 .0304700
657.542 .0304467
658.294 .0304237
659.045 .0304010
659.796 .0303787
660.546 .0303567
661.297 .0303351
662.047 .0303139
662.796 .0302932
663.546 .0302728
664.295 .0302529
665.044 .0302334
665.793 .0302144
666.542 .0301960
667.290 .0301783
668.038 .0301613
668.786 .0301449
669.533 .0301292
670.281 .0301141
671.028 .0300996
671.774 .0300857
672.521 .0300725
673.267 .0300598
674.013 .0300478
674.759 .0300364
675.505 .0300256
676.250 .0300155
676.995 .0300058
677.740 .0299967
678.484 .0299879
679.229 .0299795
679.973 .0299715
680.717 .0299639
681.460 .0299567
682.204 .0299499
682.947 .0299435
683.690 .0299373
684.433 .0299312
685.175 .0299251
685.917 .0299188
686.659 .0299124
687.401 .0299056
688.142 .0298985
688.884 .0298910
689.625 .0298830
690.365 .0298744
691.106 .0298652
691.846 .0298550
692.586 .0298439
693.326 .0298317
694.066 .0298183
694.805 .0298037
695.545 .0297880
696.284 .0297712
697.022 .0297534
697.761 .0297347
698.499 .0297150
699.237 .0296945
699.975 .0296732
700.713 .0296511
701.450 .0296282
702.187 .0296047
702.924 .0295806
703.661 .0295560
704.397 .0295311
705.133 .0295058
705.869 .0294803
706.605 .0294546
707.341 .0294288
708.076 .0294029
708.811 .0293769
709.546 .0293510
710.281 .0293250
711.015 .0292991
711.749 .0292732
712.483 .0292472
713.217 .0292212
713.950 .0291951
714.684 .0291688
715.417 .0291422
716.150 .0291154
716.882 .0290884
717.615 .0290610
718.347 .0290334
719.079 .0290055
719.811 .0289775
720.542 .0289492
721.273 .0289209
722.005 .0288925
722.735 .0288641
723.466 .0288357
724.196 .0288076
724.927 .0287799
725.656 .0287526
726.386 .0287260
727.116 .0287002
727.845 .0286753
728.574 .0286515
729.303 .0286289
730.031 .0286075
730.760 .0285875
731.488 .0285689
732.216 .0285519
732.944 .0285363
733.671 .0285223
734.398 .0285098
735.125 .0284989
735.852 .0284894
736.579 .0284813
737.305 .0284745
738.031 .0284690
738.757 .0284646
739.483 .0284611
740.208 .0284586
740.933 .0284568
741.658 .0284556
742.383 .0284549
743.108 .0284545
743.832 .0284544
744.556 .0284543
745.280 .0284541
746.004 .0284539
746.727 .0284534
747.450 .0284526
748.173 .0284514
748.896 .0284498
749.618 .0284476
750.340 .0284449
751.062 .0284417
751.784 .0284379
752.506 .0284335
753.227 .0284286
753.948 .0284233
754.669 .0284176
755.389 .0284116
756.110 .0284053
756.830 .0283988
757.550 .0283921
758.269 .0283853
758.989 .0283783
759.708 .0283711
760.427 .0283638
761.146 .0283564
761.864 .0283489
762.582 .0283412
763.300 .0283334
764.018 .0283254
764.736 .0283174
765.453 .0283092
766.170 .0283009
766.887 .0282925
767.603 .0282840
768.320 .0282754
769.036 .0282667
769.751 .0282578
770.467 .0282488
771.182 .0282397
771.897 .0282303
772.612 .0282207
773.327 .0282109
774.041 .0282009
774.755 .0281906
775.469 .0281801
776.183 .0281694
776.896 .0281585
777.609 .0281475
778.322 .0281361
779.035 .0281245
779.747 .0281126
780.459 .0281002
781.171 .0280874
781.882 .0280741
782.594 .0280602
783.305 .0280458
784.016 .0280307
784.726 .0280151
785.436 .0279989
786.147 .0279720
786.856 .0279541
787.566 .0279355
788.275 .0279162
788.984 .0278960
789.693 .0278751
790.401 .0278535
791.110 .0278311
791.818 .0278080
792.525 .0277843
793.233 .0277599
793.940 .0277351
794.647 .0277213
795.353 .0276958
796.060 .0276698
796.766 .0276434
797.472 .0276166
798.177 .0275894
798.883 .0275619
799.588 .0275342
800.292 .0275064
800.997 .0274784
801.701 .0274504
802.405 .0274223
803.109 .0273943
803.812 .0273663
804.515 .0273385
805.218 .0273108
805.921 .0272834
806.623 .0272562
807.325 .0272295
808.027 .0272031
808.728 .0271772
809.429 .0271518
810.130 .0271268
810.831 .0271024
811.531 .0270784
812.231 .0270550
812.931 .0270322
813.630 .0270100
814.330 .0269884
815.029 .0269676
815.727 .0269475
816.426 .0269282
817.124 .0269096
817.821 .0268917
818.519 .0268747
819.216 .0268583
819.913 .0268429
820.609 .0268283
821.306 .0268146
822.002 .0268019
822.697 .0267903
823.393 .0267797
824.088 .0267703
824.783 .0267620
825.477 .0267547
826.171 .0267486
826.865 .0267434
827.559 .0267392
828.252 .0267361
828.945 .0267339
829.638 .0267326
830.330 .0267323
831.023 .0267329
831.714 .0267344
832.406 .0267368
833.097 .0267399
833.788 .0267438
834.479 .0267484
835.169 .0267537
835.859 .0267595
836.548 .0267657
837.238 .0267724
837.927 .0267794
838.615 .0267866
839.304 .0267940
839.992 .0268015
840.680 .0268090
841.367 .0268164
842.054 .0268236
842.741 .0268306
843.428 .0268374
844.114 .0268439
844.800 .0268500
845.485 .0268558
846.170 .0268611
846.855 .0268660
847.540 .0268705
848.224 .0268744
848.908 .0268779
849.592 .0268808
850.275 .0268832
850.958 .0268850
851.641 .0268862
852.323 .0268868
853.005 .0268869
853.687 .0268865
854.368 .0268857
855.049 .0268843
855.730 .0268825
856.410 .0268802
857.090 .0268773
857.769 .0268740
858.449 .0268702
859.128 .0268658
859.806 .0268610
860.485 .0268559
861.163 .0268503
861.840 .0268444
862.518 .0268383
863.195 .0268318
863.871 .0268251
864.548 .0268180
865.224 .0268107
865.899 .0268032
866.574 .0267955
867.249 .0267876
867.924 .0267797
868.598 .0267718
869.272 .0267639
869.946 .0267559
870.619 .0267480
871.292 .0267400
871.964 .0267318
872.636 .0267236
873.308 .0267152
873.979 .0267067
874.651 .0266979
875.321 .0266890
875.992 .0266798
876.662 .0266703
877.331 .0266606
878.001 .0266506
878.670 .0266401
879.338 .0266293
880.007 .0266181
880.675 .0266064
881.342 .0265943
882.009 .0265817
882.676 .0265686
883.343 .0265550
884.009 .0265409
884.675 .0265262
885.340 .0265110
886.005 .0264953
886.670 .0264792
887.334 .0264628
887.998 .0264459
888.662 .0264286
889.325 .0264109
889.988 .0263928
890.650 .0263742
891.312 .0263552
891.974 .0263358
892.636 .0263158
893.297 .0262954
893.957 .0262746
894.618 .0262534
895.278 .0262317
895.937 .0262096
896.596 .0261871
897.255 .0261641
897.914 .0261407
898.572 .0261169
899.230 .0260927
899.887 .0260680
900.544 .0260428
901.201 .0260171
901.857 .0259763
902.513 .0259492
903.168 .0259217
903.823 .0258935
904.478 .0258649
905.132 .0258357
905.786 .0258060
906.440 .0257759
907.093 .0257454
907.746 .0257147
908.399 .0256838
909.051 .0256527
909.703 .0256215
910.354 .0256055
911.005 .0255743
911.656 .0255432
912.306 .0255121
912.956 .0254812
913.605 .0254505
914.254 .0254199
914.903 .0253896
915.551 .0253596
916.199 .0253299
916.847 .0253006
917.494 .0252717
918.141 .0252432
918.788 .0252151
919.434 .0251875
920.079 .0251603
920.725 .0251336
921.370 .0251074
922.014 .0250816
922.658 .0250564
923.302 .0250317
923.946 .0250076
924.589 .0249842
925.231 .0249615
925.873 .0249396
926.515 .0249184
927.157 .0248980
927.798 .0248785
928.439 .0248598
929.079 .0248419
929.719 .0248250
930.359 .0248088
930.998 .0247935
931.637 .0247790
932.275 .0247654
932.913 .0247526
933.551 .0247406
934.188 .0247295
934.825 .0247193
935.462 .0247101
936.098 .0247017
936.733 .0246941
937.369 .0246874
938.004 .0246815
938.638 .0246763
939.273 .0246719
939.907 .0246681
940.540 .0246651
941.173 .0246627
941.806 .0246610
942.438 .0246599
943.070 .0246595
943.702 .0246596
944.333 .0246602
944.964 .0246613
945.594 .0246627
946.224 .0246645
946.854 .0246667
947.483 .0246692
948.112 .0246721
948.741 .0246754
949.369 .0246792
949.996 .0246834
950.624 .0246881
951.251 .0246932
951.878 .0246988
952.504 .0247048
953.130 .0247112
953.755 .0247182
954.380 .0247256
955.005 .0247336
955.629 .0247421
956.253 .0247511
956.877 .0247606
957.500 .0247706
958.123 .0247811
958.746 .0247920
959.368 .0248034
959.990 .0248152
960.611 .0248273
961.232 .0248398
961.853 .0248527
962.473 .0248658
963.093 .0248792
963.712 .0248927
964.331 .0249063
964.950 .0249200
965.569 .0249337
966.187 .0249473
966.804 .0249608
967.422 .0249740
968.039 .0249870
968.655 .0249997
969.272 .0250119
969.887 .0250238
970.503 .0250351
971.118 .0250460
971.733 .0250564
972.347 .0250662
972.961 .0250754
973.575 .0250841
974.188 .0250923
974.801 .0250999
975.414 .0251069
976.026 .0251133
976.638 .0251191
977.250 .0251243
977.861 .0251289
978.472 .0251329
979.083 .0251363
979.693 .0251392
980.303 .0251414
980.912 .0251425
981.521 .0251435
982.130 .0251440
982.738 .0251441
983.346 .0251438
983.954 .0251432
984.562 .0251423
985.169 .0251413
985.775 .0251400
986.382 .0251386
986.988 .0251370
987.594 .0251353
988.199 .0251336
988.804 .0251318
989.409 .0251309
990.013 .0251292
990.617 .0251276
991.221 .0251260
991.824 .0251246
992.427 .0251233
993.030 .0251220
993.632 .0251208
994.234 .0251197
994.836 .0251185
995.438 .0251174
996.039 .0251163
996.640 .0251153
997.240 .0251142
997.840 .0251133
998.440 .0251123
999.040 .0251114
999.639 .0251103
1000.238 .0251090
1000.836 .0251076
1001.435 .0251058
1002.033 .0251036
1002.630 .0251010
1003.228 .0250979
1003.825 .0250943
1004.422 .0250901
1005.018 .0250855
1005.614 .0250802
1006.210 .0250745
1006.806 .0250682
1007.401 .0250615
1007.996 .0250544
1008.591 .0250469
1009.186 .0250391
1009.780 .0250309
1010.374 .0250224
1010.967 .0250136
1011.561 .0250045
1012.154 .0249953
1012.746 .0249859
1013.339 .0249764
1013.931 .0249668
1014.523 .0249573
1015.115 .0249478
1015.706 .0249384
1016.298 .0249290
1016.888 .0249197
1017.479 .0249105
1018.069 .0249013
1018.660 .0248922
1019.250 .0248830
1019.839 .0248739
1020.429 .0248647
1021.018 .0248556
1021.607 .0248465
1022.195 .0248373
1022.784 .0248282
1023.372 .0248190
1023.960 .0248096
1024.547 .0247998
1025.135 .0247897
1025.722 .0247791
1026.309 .0247680
1026.896 .0247564
1027.483 .0247443
1028.069 .0247319
1028.655 .0247190
1029.241 .0247057
1029.827 .0246921
1030.412 .0246781
1030.997 .0246636
1031.582 .0246487
1032.167 .0246334
1032.752 .0246176
1033.336 .0246014
1033.921 .0245849
1034.505 .0245682
1035.089 .0245513
1035.672 .0245343
1036.256 .0245173
1036.839 .0245002
1037.422 .0244830
1038.005 .0244658
1038.588 .0244484
1039.171 .0244309
1039.753 .0244132
1040.335 .0243954
1040.918 .0243776
1041.500 .0243598
1042.081 .0243422
1042.663 .0243246
1043.244 .0243073
1043.826 .0242901
1044.407 .0242731
1044.988 .0242561
1045.569 .0242391
1046.150 .0242220
1046.730 .0242049
1047.311 .0241876
1047.891 .0241704
1048.471 .0241533
1049.052 .0241365
1049.632 .0241199
1050.211 .0241038
1050.791 .0240880
1051.371 .0240727
1051.950 .0240576
1052.530 .0240428
1053.109 .0240281
1053.688 .0240136
1054.268 .0239993
1054.847 .0239852
1055.426 .0239715
1056.005 .0239583
1056.583 .0239455
1057.162 .0239332
1057.741 .0239213
1058.319 .0239098
1058.898 .0238986
1059.476 .0238877
1060.055 .0238770
1060.633 .0238666
1061.211 .0238565
1061.790 .0238468
1062.368 .0238376
1062.946 .0238290
1063.524 .0238209
1064.102 .0238133
1064.680 .0238062
1065.258 .0237994
1065.836 .0237928
1066.414 .0237865
1066.992 .0237803
1067.570 .0237744
1068.148 .0237689
1068.726 .0237639
1069.304 .0237594
1069.882 .0237555
1070.460 .0237522
1071.038 .0237496
1071.616 .0237476
1072.194 .0237461
1072.772 .0237452
1073.350 .0237447
1073.928 .0237448
1074.506 .0237454
1075.084 .0237467
1075.662 .0237487
1076.240 .0237515
1076.819 .0237550
1077.397 .0237594
1077.976 .0237646
1078.554 .0237705
1079.133 .0237773
1079.711 .0237848
1080.290 .0237929
1080.869 .0238018
1081.448 .0238112
1082.027 .0238213
1082.606 .0238320
1083.185 .0238434
1083.764 .0238555
1084.343 .0238683
1084.923 .0238819
1085.502 .0238962
1086.082 .0239114
1086.662 .0239273
1087.242 .0239439
1087.822 .0239611
1088.402 .0239787
1088.983 .0239968
1089.563 .0240151
1090.144 .0240338
1090.725 .0240529
1091.306 .0240727
1091.887 .0240932
1092.469 .0241146
1093.050 .0241367
1093.632 .0241596
1094.214 .0241831
1094.796 .0242070
1095.379 .0242312
1095.961 .0242555
1096.544 .0242799
1097.127 .0243043
1097.710 .0243290
1098.294 .0243541
1098.877 .0243796
1099.461 .0244058
1100.046 .0244323
1100.630 .0244592
1101.215 .0244862
1101.800 .0245133
1102.385 .0245401
1102.970 .0245669
1103.556 .0245936
1104.142 .0246205
1104.728 .0246479
1105.315 .0246760
1105.902 .0247050
1106.489 .0247351
1107.077 .0247662
1107.664 .0247981
1108.253 .0248309
1108.841 .0248643
1109.430 .0248982
1110.019 .0249327
1110.609 .0249680
1111.198 .0250042
1111.789 .0250415
1112.379 .0250804
1112.970 .0251208
1113.561 .0251630
1114.153 .0252069
1114.745 .0252526
1115.338 .0253001
1115.931 .0253492
1116.524 .0253999
1117.117 .0254522
1117.712 .0255061
1118.306 .0255616
1118.901 .0256187
1119.496 .0256775
1120.092 .0257379
1120.689 .0257998
1121.285 .0258634
1121.882 .0259284
1122.480 .0259949
1123.078 .0260629
1123.677 .0261323
1124.276 .0262034
1124.875 .0262760
1125.476 .0263504
1126.076 .0264267
1126.677 .0265053
1127.279 .0265863
1127.881 .0266702
1128.484 .0267571
1129.087 .0267963
1129.691 .0268874
1130.295 .0269818
1130.900 .0270798
1131.505 .0271817
1132.111 .0272876
1132.718 .0273977
1133.325 .0275124
1133.933 .0276315
1134.541 .0277580
1135.150 .0278921
1135.760 .0280242
1136.370 .0281672
1136.981 .0281208
1137.592 .0282769
1138.204 .0284388
1138.817 .0286073
1139.431 .0287863
1140.045 .0289747
1140.660 .0291671
1141.275 .0293739
1141.891 .0295756
1142.508 .0298631
1143.126 .0301573
1143.744 .0301753
1144.363 .0305615
1144.983 .0303737
