Measurement Sequence started on: 15-12-46-377
Integration time: 28
Scans to Average: 2 
>>>>>Begin Spectral Data<<<<<
432.689 .0000100
433.621 .0000100
434.552 .0000100
435.482 .0000100
436.410 .0000100
437.337 .0000100
438.262 .0272430
439.187 .0576339
440.110 .0954926
441.031 .1382046
441.952 .1112151
442.871 .1162038
443.789 .1208488
444.705 .1252198
445.621 .1293667
446.535 .1333274
447.447 .1356966
448.359 .1363304
449.269 .1348537
450.178 .1310242
451.086 .1249168
451.993 .1170017
452.898 .1080606
453.803 .0989808
454.706 .0905181
455.608 .0831434
456.508 .0770176
457.408 .0728449
458.306 .0696147
459.204 .0669716
460.100 .0647358
460.995 .0628068
461.888 .0611170
462.781 .0596194
463.673 .0582788
464.563 .0570703
465.452 .0559744
466.340 .0549762
467.228 .0540658
468.114 .0532356
468.999 .0524791
469.882 .0517905
470.765 .0511644
471.647 .0505962
472.528 .0500815
473.407 .0496156
474.286 .0491956
475.163 .0488193
476.040 .0484837
476.915 .0481867
477.790 .0479258
478.663 .0476990
479.535 .0475038
480.407 .0473373
481.277 .0471967
482.147 .0470789
483.015 .0469815
483.883 .0469019
484.749 .0468387
485.615 .0467912
486.479 .0467588
487.343 .0467415
488.206 .0467393
489.067 .0467519
489.928 .0467790
490.788 .0468207
491.647 .0468773
492.505 .0469495
493.362 .0470378
494.218 .0471434
495.073 .0472684
495.928 .0475366
496.781 .0477205
497.634 .0479294
498.486 .0481642
499.337 .0484258
500.187 .0487151
501.036 .0490332
501.884 .0493815
502.731 .0497625
503.578 .0501781
504.424 .0504619
505.268 .0509412
506.113 .0514654
506.956 .0520385
507.798 .0526659
508.640 .0533539
509.480 .0541098
510.320 .0549421
511.160 .0558610
511.998 .0568769
512.836 .0580024
513.672 .0592512
514.508 .0606396
515.344 .0621837
516.178 .0639040
517.012 .0658237
517.845 .0679667
518.677 .0703569
519.508 .0730154
520.339 .0759584
521.169 .0791934
521.998 .0827024
522.826 .0864576
523.654 .0904109
524.481 .0945023
525.307 .0986581
526.133 .1027956
526.958 .1068298
527.782 .1106771
528.605 .1142589
529.428 .1175071
530.250 .1203614
531.072 .1227806
531.892 .1247267
532.712 .1261780
533.532 .1271192
534.350 .1275405
535.168 .1274393
535.986 .1268154
536.802 .1256684
537.618 .1240011
538.434 .1218218
539.249 .1191646
540.063 .1160716
540.876 .1126028
541.689 .1088278
542.501 .1048267
543.313 .1006864
544.124 .0964924
544.934 .0923255
545.744 .0882597
546.553 .0843554
547.361 .0806623
548.169 .0772110
548.976 .0740262
549.783 .0711156
550.589 .0684765
551.395 .0660970
552.200 .0639566
553.004 .0620305
553.808 .0602960
554.611 .0587304
555.414 .0573147
556.216 .0560286
557.018 .0548530
557.819 .0537716
558.619 .0527702
559.419 .0518363
560.218 .0509592
561.017 .0501302
561.815 .0493429
562.613 .0485911
563.410 .0478712
564.207 .0471799
565.003 .0465136
565.799 .0458694
566.594 .0452444
567.388 .0446360
568.182 .0440422
568.976 .0434614
569.769 .0428931
570.562 .0423378
571.354 .0417966
572.145 .0412702
572.936 .0407596
573.727 .0402657
574.517 .0397893
575.307 .0393306
576.096 .0388899
576.885 .0384673
577.673 .0380630
578.461 .0376772
579.248 .0373098
580.035 .0369607
580.821 .0366299
581.607 .0363171
582.392 .0360220
583.177 .0357441
583.962 .0354831
584.746 .0352385
585.529 .0350100
586.313 .0347973
587.095 .0345996
587.878 .0344166
588.660 .0342474
589.441 .0340912
590.222 .0339472
591.003 .0338148
591.783 .0336932
592.563 .0335817
593.342 .0334796
594.121 .0333860
594.899 .0332999
595.678 .0332206
596.455 .0331470
597.233 .0330782
598.009 .0330137
598.786 .0329527
599.562 .0328947
600.338 .0328393
601.113 .0327866
601.888 .0327148
602.663 .0326677
603.437 .0326227
604.211 .0325796
604.984 .0325382
605.757 .0324984
606.530 .0324601
607.302 .0324232
608.074 .0323876
608.845 .0323533
609.616 .0323203
610.387 .0323074
611.158 .0322765
611.928 .0322471
612.697 .0322190
613.467 .0321924
614.236 .0321671
615.004 .0321431
615.773 .0321203
616.541 .0320984
617.308 .0320774
618.076 .0320570
618.843 .0320372
619.609 .0320177
620.375 .0319984
621.141 .0319794
621.907 .0319605
622.672 .0319417
623.437 .0319229
624.202 .0319039
624.966 .0318847
625.730 .0318652
626.493 .0318451
627.257 .0318246
628.020 .0318035
628.782 .0317820
629.545 .0317598
630.307 .0317372
631.068 .0317142
631.830 .0316907
632.591 .0316667
633.352 .0316424
634.112 .0316176
634.872 .0315926
635.632 .0315672
636.392 .0315416
637.151 .0315157
637.910 .0314897
638.668 .0314636
639.427 .0314373
640.185 .0314110
640.943 .0313847
641.700 .0313584
642.457 .0313323
643.214 .0313064
643.971 .0312807
644.727 .0312553
645.483 .0312302
646.239 .0312055
646.994 .0311810
647.750 .0311569
648.505 .0311330
649.259 .0311093
650.014 .0310858
650.768 .0310625
651.521 .0310392
652.275 .0310160
653.028 .0309928
653.781 .0309694
654.534 .0309458
655.286 .0309221
656.039 .0308982
656.791 .0308741
657.542 .0308499
658.294 .0308254
659.045 .0308007
659.796 .0307758
660.546 .0307506
661.297 .0307252
662.047 .0306996
662.796 .0306737
663.546 .0306476
664.295 .0306212
665.044 .0305947
665.793 .0305681
666.542 .0305414
667.290 .0305146
668.038 .0304878
668.786 .0304611
669.533 .0304344
670.281 .0304078
671.028 .0303815
671.774 .0303554
672.521 .0303296
673.267 .0303040
674.013 .0302786
674.759 .0302534
675.505 .0302284
676.250 .0302036
676.995 .0301789
677.740 .0301545
678.484 .0301304
679.229 .0301066
679.973 .0300831
680.717 .0300600
681.460 .0300370
682.204 .0300143
682.947 .0299916
683.690 .0299691
684.433 .0299466
685.175 .0299242
685.917 .0299020
686.659 .0298800
687.401 .0298583
688.142 .0298369
688.884 .0298157
689.625 .0297946
690.365 .0297737
691.106 .0297527
691.846 .0297316
692.586 .0297105
693.326 .0296894
694.066 .0296682
694.805 .0296472
695.545 .0296263
696.284 .0296056
697.022 .0295851
697.761 .0295648
698.499 .0295446
699.237 .0295246
699.975 .0295048
700.713 .0294851
701.450 .0294658
702.187 .0294467
702.924 .0294280
703.661 .0294097
704.397 .0293916
705.133 .0293739
705.869 .0293564
706.605 .0293393
707.341 .0293224
708.076 .0293059
708.811 .0292897
709.546 .0292738
710.281 .0292583
711.015 .0292430
711.749 .0292279
712.483 .0292130
713.217 .0291982
713.950 .0291833
714.684 .0291685
715.417 .0291536
716.150 .0291388
716.882 .0291240
717.615 .0291092
718.347 .0290945
719.079 .0290797
719.811 .0290650
720.542 .0290503
721.273 .0290356
722.005 .0290208
722.735 .0290061
723.466 .0289914
724.196 .0289770
724.927 .0289627
725.656 .0289488
726.386 .0289353
727.116 .0289222
727.845 .0289096
728.574 .0288976
729.303 .0288862
730.031 .0288753
730.760 .0288649
731.488 .0288552
732.216 .0288459
732.944 .0288370
733.671 .0288286
734.398 .0288206
735.125 .0288128
735.852 .0288053
736.579 .0287979
737.305 .0287907
738.031 .0287837
738.757 .0287768
739.483 .0287700
740.208 .0287634
740.933 .0287569
741.658 .0287505
742.383 .0287442
743.108 .0287379
743.832 .0287314
744.556 .0287247
745.280 .0287178
746.004 .0287105
746.727 .0287030
747.450 .0286952
748.173 .0286873
748.896 .0286791
749.618 .0286708
750.340 .0286623
751.062 .0286537
751.784 .0286448
752.506 .0286356
753.227 .0286259
753.948 .0286158
754.669 .0286052
755.389 .0285940
756.110 .0285823
756.830 .0285699
757.550 .0285570
758.269 .0285436
758.989 .0285296
759.708 .0285152
760.427 .0285003
761.146 .0284849
761.864 .0284690
762.582 .0284526
763.300 .0284356
764.018 .0284180
764.736 .0283998
765.453 .0283810
766.170 .0283617
766.887 .0283421
767.603 .0283222
768.320 .0283023
769.036 .0282825
769.751 .0282629
770.467 .0282436
771.182 .0282247
771.897 .0282061
772.612 .0281880
773.327 .0281702
774.041 .0281529
774.755 .0281359
775.469 .0281194
776.183 .0281034
776.896 .0280878
777.609 .0280728
778.322 .0280582
779.035 .0280442
779.747 .0280307
780.459 .0280176
781.171 .0280050
781.882 .0279928
782.594 .0279809
783.305 .0279693
784.016 .0279579
784.726 .0279465
785.436 .0279352
786.147 .0279182
786.856 .0279067
787.566 .0278950
788.275 .0278832
788.984 .0278712
789.693 .0278588
790.401 .0278462
791.110 .0278332
791.818 .0278199
792.525 .0278062
793.233 .0277921
793.940 .0277777
794.647 .0277693
795.353 .0277545
796.060 .0277392
796.766 .0277237
797.472 .0277077
798.177 .0276914
798.883 .0276748
799.588 .0276577
800.292 .0276403
800.997 .0276225
801.701 .0276045
802.405 .0275862
803.109 .0275676
803.812 .0275488
804.515 .0275297
805.218 .0275104
805.921 .0274909
806.623 .0274712
807.325 .0274514
808.027 .0274316
808.728 .0274119
809.429 .0273923
810.130 .0273729
810.831 .0273538
811.531 .0273349
812.231 .0273163
812.931 .0272980
813.630 .0272800
814.330 .0272624
815.029 .0272452
815.727 .0272285
816.426 .0272125
817.124 .0271971
817.821 .0271824
818.519 .0271684
819.216 .0271552
819.913 .0271426
820.609 .0271309
821.306 .0271198
822.002 .0271095
822.697 .0271000
823.393 .0270913
824.088 .0270834
824.783 .0270764
825.477 .0270701
826.171 .0270644
826.865 .0270594
827.559 .0270549
828.252 .0270509
828.945 .0270472
829.638 .0270438
830.330 .0270407
831.023 .0270379
831.714 .0270352
832.406 .0270328
833.097 .0270304
833.788 .0270281
834.479 .0270259
835.169 .0270237
835.859 .0270215
836.548 .0270195
837.238 .0270176
837.927 .0270159
838.615 .0270145
839.304 .0270133
839.992 .0270123
840.680 .0270115
841.367 .0270108
842.054 .0270102
842.741 .0270097
843.428 .0270092
844.114 .0270087
844.800 .0270082
845.485 .0270077
846.170 .0270073
846.855 .0270068
847.540 .0270062
848.224 .0270055
848.908 .0270047
849.592 .0270036
850.275 .0270023
850.958 .0270007
851.641 .0269987
852.323 .0269963
853.005 .0269934
853.687 .0269900
854.368 .0269862
855.049 .0269818
855.730 .0269769
856.410 .0269715
857.090 .0269657
857.769 .0269596
858.449 .0269532
859.128 .0269464
859.806 .0269394
860.485 .0269322
861.163 .0269248
861.840 .0269173
862.518 .0269098
863.195 .0269024
863.871 .0268952
864.548 .0268882
865.224 .0268815
865.899 .0268752
866.574 .0268693
867.249 .0268637
867.924 .0268585
868.598 .0268537
869.272 .0268492
869.946 .0268449
870.619 .0268409
871.292 .0268372
871.964 .0268337
872.636 .0268304
873.308 .0268272
873.979 .0268243
874.651 .0268215
875.321 .0268188
875.992 .0268163
876.662 .0268137
877.331 .0268112
878.001 .0268087
878.670 .0268061
879.338 .0268034
880.007 .0268007
880.675 .0267979
881.342 .0267950
882.009 .0267922
882.676 .0267894
883.343 .0267866
884.009 .0267839
884.675 .0267814
885.340 .0267790
886.005 .0267767
886.670 .0267746
887.334 .0267728
887.998 .0267711
888.662 .0267696
889.325 .0267684
889.988 .0267673
890.650 .0267663
891.312 .0267654
891.974 .0267645
892.636 .0267636
893.297 .0267626
893.957 .0267616
894.618 .0267604
895.278 .0267590
895.937 .0267572
896.596 .0267550
897.255 .0267522
897.914 .0267486
898.572 .0267441
899.230 .0267385
899.887 .0267319
900.544 .0267241
901.201 .0267151
901.857 .0266963
902.513 .0266844
903.168 .0266713
903.823 .0266571
904.478 .0266416
905.132 .0266250
905.786 .0266072
906.440 .0265882
907.093 .0265682
907.746 .0265471
908.399 .0265252
909.051 .0265026
909.703 .0264794
910.354 .0264666
911.005 .0264432
911.656 .0264194
912.306 .0263954
912.956 .0263712
913.605 .0263467
914.254 .0263222
914.903 .0262976
915.551 .0262730
916.199 .0262485
916.847 .0262241
917.494 .0261999
918.141 .0261757
918.788 .0261516
919.434 .0261275
920.079 .0261034
920.725 .0260793
921.370 .0260552
922.014 .0260309
922.658 .0260065
923.302 .0259821
923.946 .0259575
924.589 .0259328
925.231 .0259079
925.873 .0258828
926.515 .0258574
927.157 .0258318
927.798 .0258058
928.439 .0257794
929.079 .0257527
929.719 .0257257
930.359 .0256985
930.998 .0256709
931.637 .0256433
932.275 .0256155
932.913 .0255878
933.551 .0255603
934.188 .0255330
934.825 .0255061
935.462 .0254796
936.098 .0254535
936.733 .0254280
937.369 .0254030
938.004 .0253787
938.638 .0253550
939.273 .0253321
939.907 .0253100
940.540 .0252887
941.173 .0252683
941.806 .0252488
942.438 .0252300
943.070 .0252119
943.702 .0251946
944.333 .0251779
944.964 .0251618
945.594 .0251463
946.224 .0251313
946.854 .0251168
947.483 .0251027
948.112 .0250891
948.741 .0250759
949.369 .0250629
949.996 .0250501
950.624 .0250373
951.251 .0250244
951.878 .0250115
952.504 .0249983
953.130 .0249850
953.755 .0249714
954.380 .0249577
955.005 .0249439
955.629 .0249298
956.253 .0249156
956.877 .0249012
957.500 .0248865
958.123 .0248716
958.746 .0248566
959.368 .0248414
959.990 .0248262
960.611 .0248110
961.232 .0247961
961.853 .0247814
962.473 .0247670
963.093 .0247530
963.712 .0247393
964.331 .0247259
964.950 .0247128
965.569 .0247000
966.187 .0246874
966.804 .0246751
967.422 .0246630
968.039 .0246513
968.655 .0246397
969.272 .0246285
969.887 .0246175
970.503 .0246067
971.118 .0245963
971.733 .0245860
972.347 .0245759
972.961 .0245660
973.575 .0245564
974.188 .0245469
974.801 .0245376
975.414 .0245285
976.026 .0245196
976.638 .0245107
977.250 .0245018
977.861 .0244930
978.472 .0244842
979.083 .0244753
979.693 .0244663
980.303 .0244573
980.912 .0244443
981.521 .0244354
982.130 .0244267
982.738 .0244182
983.346 .0244099
983.954 .0244020
984.562 .0243943
985.169 .0243871
985.775 .0243805
986.382 .0243744
986.988 .0243689
987.594 .0243640
988.199 .0243599
988.804 .0243566
989.409 .0243570
990.013 .0243549
990.617 .0243537
991.221 .0243532
991.824 .0243534
992.427 .0243543
993.030 .0243559
993.632 .0243580
994.234 .0243608
994.836 .0243640
995.438 .0243677
996.039 .0243719
996.640 .0243765
997.240 .0243816
997.840 .0243872
998.440 .0243934
999.040 .0244000
999.639 .0244072
1000.238 .0244148
1000.836 .0244230
1001.435 .0244317
1002.033 .0244409
1002.630 .0244506
1003.228 .0244606
1003.825 .0244710
1004.422 .0244817
1005.018 .0244926
1005.614 .0245038
1006.210 .0245151
1006.806 .0245265
1007.401 .0245379
1007.996 .0245494
1008.591 .0245608
1009.186 .0245721
1009.780 .0245835
1010.374 .0245949
1010.967 .0246062
1011.561 .0246175
1012.154 .0246288
1012.746 .0246402
1013.339 .0246515
1013.931 .0246629
1014.523 .0246742
1015.115 .0246856
1015.706 .0246969
1016.298 .0247084
1016.888 .0247200
1017.479 .0247318
1018.069 .0247438
1018.660 .0247560
1019.250 .0247685
1019.839 .0247812
1020.429 .0247942
1021.018 .0248073
1021.607 .0248206
1022.195 .0248340
1022.784 .0248475
1023.372 .0248611
1023.960 .0248750
1024.547 .0248891
1025.135 .0249035
1025.722 .0249183
1026.309 .0249335
1026.896 .0249489
1027.483 .0249645
1028.069 .0249804
1028.655 .0249963
1029.241 .0250124
1029.827 .0250286
1030.412 .0250450
1030.997 .0250616
1031.582 .0250787
1032.167 .0250961
1032.752 .0251139
1033.336 .0251320
1033.921 .0251503
1034.505 .0251685
1035.089 .0251867
1035.672 .0252047
1036.256 .0252223
1036.839 .0252397
1037.422 .0252568
1038.005 .0252736
1038.588 .0252902
1039.171 .0253067
1039.753 .0253229
1040.335 .0253388
1040.918 .0253544
1041.500 .0253696
1042.081 .0253843
1042.663 .0253984
1043.244 .0254121
1043.826 .0254253
1044.407 .0254382
1044.988 .0254509
1045.569 .0254634
1046.150 .0254759
1046.730 .0254883
1047.311 .0255007
1047.891 .0255129
1048.471 .0255248
1049.052 .0255364
1049.632 .0255476
1050.211 .0255584
1050.791 .0255687
1051.371 .0255786
1051.950 .0255880
1052.530 .0255970
1053.109 .0256056
1053.688 .0256137
1054.268 .0256214
1054.847 .0256286
1055.426 .0256353
1056.005 .0256415
1056.583 .0256472
1057.162 .0256524
1057.741 .0256571
1058.319 .0256613
1058.898 .0256651
1059.476 .0256685
1060.055 .0256715
1060.633 .0256743
1061.211 .0256768
1061.790 .0256791
1062.368 .0256811
1062.946 .0256830
1063.524 .0256845
1064.102 .0256858
1064.680 .0256867
1065.258 .0256872
1065.836 .0256874
1066.414 .0256872
1066.992 .0256868
1067.570 .0256863
1068.148 .0256856
1068.726 .0256849
1069.304 .0256843
1069.882 .0256837
1070.460 .0256833
1071.038 .0256830
1071.616 .0256830
1072.194 .0256832
1072.772 .0256836
1073.350 .0256844
1073.928 .0256855
1074.506 .0256869
1075.084 .0256885
1075.662 .0256904
1076.240 .0256924
1076.819 .0256946
1077.397 .0256970
1077.976 .0256995
1078.554 .0257022
1079.133 .0257051
1079.711 .0257084
1080.290 .0257119
1080.869 .0257158
1081.448 .0257198
1082.027 .0257241
1082.606 .0257285
1083.185 .0257331
1083.764 .0257380
1084.343 .0257432
1084.923 .0257488
1085.502 .0257551
1086.082 .0257620
1086.662 .0257695
1087.242 .0257774
1087.822 .0257858
1088.402 .0257943
1088.983 .0258029
1089.563 .0258113
1090.144 .0258198
1090.725 .0258283
1091.306 .0258371
1091.887 .0258463
1092.469 .0258561
1093.050 .0258667
1093.632 .0258778
1094.214 .0258893
1094.796 .0259010
1095.379 .0259128
1095.961 .0259244
1096.544 .0259358
1097.127 .0259468
1097.710 .0259578
1098.294 .0259688
1098.877 .0259800
1099.461 .0259916
1100.046 .0260035
1100.630 .0260158
1101.215 .0260283
1101.800 .0260409
1102.385 .0260535
1102.970 .0260662
1103.556 .0260792
1104.142 .0260929
1104.728 .0261074
1105.315 .0261231
1105.902 .0261402
1106.489 .0261587
1107.077 .0261786
1107.664 .0261998
1108.253 .0262221
1108.841 .0262452
1109.430 .0262692
1110.019 .0262937
1110.609 .0263188
1111.198 .0263445
1111.789 .0263707
1112.379 .0263973
1112.970 .0264242
1113.561 .0264512
1114.153 .0264783
1114.745 .0265053
1115.338 .0265322
1115.931 .0265590
1116.524 .0265859
1117.117 .0266129
1117.712 .0266404
1118.306 .0266683
1118.901 .0266968
1119.496 .0267259
1120.092 .0267558
1120.689 .0267863
1121.285 .0268175
1121.882 .0268493
1122.480 .0268822
1123.078 .0269160
1123.677 .0269512
1124.276 .0269880
1124.875 .0270264
1125.476 .0270664
1126.076 .0271082
1126.677 .0271516
1127.279 .0271966
1127.881 .0272432
1128.484 .0272918
1129.087 .0273080
1129.691 .0273597
1130.295 .0274140
1130.900 .0274712
1131.505 .0275317
1132.111 .0275953
1132.718 .0276617
1133.325 .0277315
1133.933 .0278053
1134.541 .0278802
1135.150 .0279588
1135.760 .0280279
1136.370 .0281242
1136.981 .0282185
1137.592 .0283031
1138.204 .0283900
1138.817 .0284809
1139.431 .0285743
1140.045 .0286695
1140.660 .0287566
1141.275 .0288609
1141.891 .0289882
1142.508 .0290426
1143.126 .0291746
1143.744 .0289388
1144.363 .0297373
1144.983 .0302641
