Measurement Sequence started on: 15-12-46-377
Integration time: 28
Scans to Average: 2 
>>>>>Begin Spectral Data<<<<<
432.689 .0000100
433.621 .0000100
434.552 .0000100
435.482 .0000100
436.410 .0000100
437.337 .0000100
438.262 .0276221
439.187 .0586159
440.110 .0971405
441.031 .1406521
441.952 .1134159
442.871 .1185615
443.789 .1233677
444.705 .1279017
445.621 .1322102
446.535 .1363284
447.447 .1388293
448.359 .1395555
449.269 .1381272
450.178 .1342957
451.086 .1281381
451.993 .1201327
452.898 .1110735
453.803 .1018633
454.706 .0932708
455.608 .0857744
456.508 .0795344
457.408 .0752617
458.306 .0719343
459.204 .0691834
460.100 .0668281
460.995 .0647678
461.888 .0629388
462.781 .0612984
463.673 .0598156
464.563 .0584679
465.452 .0572386
466.340 .0561146
467.228 .0550853
468.114 .0541426
468.999 .0532795
469.882 .0524908
470.765 .0517713
471.647 .0511166
472.528 .0505238
473.407 .0499885
474.286 .0495081
475.163 .0490799
476.040 .0487006
476.915 .0483671
477.790 .0480754
478.663 .0478220
479.535 .0476035
480.407 .0474163
481.277 .0472567
482.147 .0471212
483.015 .0470069
483.883 .0469116
484.749 .0468330
485.615 .0467699
486.479 .0467219
487.343 .0466888
488.206 .0466711
489.067 .0466688
489.928 .0466832
490.788 .0467150
491.647 .0467653
492.505 .0468353
493.362 .0469257
494.218 .0470373
495.073 .0471705
495.928 .0474543
496.781 .0476431
497.634 .0478537
498.486 .0480867
499.337 .0483428
500.187 .0486230
501.036 .0489293
501.884 .0492642
502.731 .0496307
503.578 .0500315
504.424 .0502980
505.268 .0507609
506.113 .0512666
506.956 .0518174
507.798 .0524177
508.640 .0530735
509.480 .0537913
510.320 .0545805
511.160 .0554525
511.998 .0564210
512.836 .0575033
513.672 .0587162
514.508 .0600799
515.344 .0616132
516.178 .0633356
517.012 .0652672
517.845 .0674267
518.677 .0698328
519.508 .0724992
520.339 .0754355
521.169 .0786490
521.998 .0821238
522.826 .0858352
523.654 .0897407
524.481 .0937888
525.307 .0979129
526.133 .1020329
526.958 .1060635
527.782 .1099197
528.605 .1135190
529.428 .1167879
530.250 .1196573
531.072 .1220809
531.892 .1240195
532.712 .1254495
533.532 .1263556
534.350 .1267345
535.168 .1265906
535.986 .1259294
536.802 .1247562
537.618 .1230806
538.434 .1209094
539.249 .1182727
540.063 .1152089
540.876 .1117706
541.689 .1080185
542.501 .1040253
543.313 .0998725
544.124 .0956468
544.934 .0914310
545.744 .0873021
546.553 .0833260
547.361 .0795611
548.169 .0760411
548.976 .0727898
549.783 .0698166
550.589 .0671200
551.395 .0646843
552.200 .0624876
553.004 .0605045
553.808 .0587133
554.611 .0570925
555.414 .0556250
556.216 .0542934
557.018 .0530811
557.819 .0519745
558.619 .0509601
559.419 .0500261
560.218 .0491636
561.017 .0483626
561.815 .0476146
562.613 .0469129
563.410 .0462508
564.207 .0456219
565.003 .0450215
565.799 .0444458
566.594 .0438909
567.388 .0433541
568.182 .0428338
568.976 .0423280
569.769 .0418358
570.562 .0413567
571.354 .0408900
572.145 .0404357
572.936 .0399938
573.727 .0395634
574.517 .0391449
575.307 .0387388
576.096 .0383454
576.885 .0379656
577.673 .0376006
578.461 .0372512
579.248 .0369180
580.035 .0366015
580.821 .0363016
581.607 .0360177
582.392 .0357495
583.177 .0354963
583.962 .0352573
584.746 .0350322
585.529 .0348206
586.313 .0346221
587.095 .0344365
587.878 .0342634
588.660 .0341021
589.441 .0339520
590.222 .0338125
591.003 .0336827
591.783 .0335621
592.563 .0334499
593.342 .0333457
594.121 .0332489
594.899 .0331589
595.678 .0330754
596.455 .0329978
597.233 .0329257
598.009 .0328588
598.786 .0327965
599.562 .0327384
600.338 .0326842
601.113 .0326334
601.888 .0325678
602.663 .0325241
603.437 .0324833
604.211 .0324450
604.984 .0324091
605.757 .0323754
606.530 .0323435
607.302 .0323133
608.074 .0322846
608.845 .0322571
609.616 .0322307
610.387 .0322194
611.158 .0321945
611.928 .0321705
612.697 .0321474
613.467 .0321251
614.236 .0321035
615.004 .0320825
615.773 .0320619
616.541 .0320417
617.308 .0320218
618.076 .0320022
618.843 .0319827
619.609 .0319632
620.375 .0319437
621.141 .0319242
621.907 .0319044
622.672 .0318845
623.437 .0318643
624.202 .0318439
624.966 .0318232
625.730 .0318024
626.493 .0317813
627.257 .0317599
628.020 .0317383
628.782 .0317163
629.545 .0316939
630.307 .0316709
631.068 .0316475
631.830 .0316234
632.591 .0315989
633.352 .0315738
634.112 .0315482
634.872 .0315224
635.632 .0314961
636.392 .0314696
637.151 .0314428
637.910 .0314157
638.668 .0313882
639.427 .0313605
640.185 .0313323
640.943 .0313039
641.700 .0312752
642.457 .0312462
643.214 .0312170
643.971 .0311878
644.727 .0311585
645.483 .0311291
646.239 .0310999
646.994 .0310707
647.750 .0310417
648.505 .0310129
649.259 .0309845
650.014 .0309565
650.768 .0309291
651.521 .0309023
652.275 .0308761
653.028 .0308506
653.781 .0308257
654.534 .0308015
655.286 .0307780
656.039 .0307551
656.791 .0307328
657.542 .0307112
658.294 .0306903
659.045 .0306701
659.796 .0306507
660.546 .0306321
661.297 .0306142
662.047 .0305970
662.796 .0305803
663.546 .0305641
664.295 .0305482
665.044 .0305326
665.793 .0305171
666.542 .0305019
667.290 .0304869
668.038 .0304723
668.786 .0304579
669.533 .0304440
670.281 .0304305
671.028 .0304175
671.774 .0304048
672.521 .0303926
673.267 .0303805
674.013 .0303688
674.759 .0303572
675.505 .0303457
676.250 .0303342
676.995 .0303228
677.740 .0303113
678.484 .0302999
679.229 .0302885
679.973 .0302771
680.717 .0302659
681.460 .0302547
682.204 .0302436
682.947 .0302325
683.690 .0302213
684.433 .0302100
685.175 .0301984
685.917 .0301864
686.659 .0301741
687.401 .0301612
688.142 .0301480
688.884 .0301343
689.625 .0301203
690.365 .0301061
691.106 .0300917
691.846 .0300771
692.586 .0300624
693.326 .0300474
694.066 .0300322
694.805 .0300166
695.545 .0300007
696.284 .0299843
697.022 .0299673
697.761 .0299500
698.499 .0299322
699.237 .0299140
699.975 .0298956
700.713 .0298770
701.450 .0298583
702.187 .0298394
702.924 .0298205
703.661 .0298015
704.397 .0297824
705.133 .0297629
705.869 .0297431
706.605 .0297228
707.341 .0297020
708.076 .0296806
708.811 .0296587
709.546 .0296364
710.281 .0296137
711.015 .0295907
711.749 .0295675
712.483 .0295442
713.217 .0295208
713.950 .0294972
714.684 .0294735
715.417 .0294496
716.150 .0294254
716.882 .0294009
717.615 .0293761
718.347 .0293510
719.079 .0293257
719.811 .0293002
720.542 .0292746
721.273 .0292489
722.005 .0292233
722.735 .0291978
723.466 .0291724
724.196 .0291473
724.927 .0291223
725.656 .0290977
726.386 .0290732
727.116 .0290491
727.845 .0290254
728.574 .0290020
729.303 .0289790
730.031 .0289566
730.760 .0289349
731.488 .0289139
732.216 .0288937
732.944 .0288743
733.671 .0288558
734.398 .0288381
735.125 .0288213
735.852 .0288053
736.579 .0287901
737.305 .0287755
738.031 .0287617
738.757 .0287486
739.483 .0287363
740.208 .0287247
740.933 .0287139
741.658 .0287040
742.383 .0286949
743.108 .0286866
743.832 .0286791
744.556 .0286724
745.280 .0286664
746.004 .0286610
746.727 .0286562
747.450 .0286519
748.173 .0286480
748.896 .0286446
749.618 .0286416
750.340 .0286388
751.062 .0286364
751.784 .0286343
752.506 .0286323
753.227 .0286305
753.948 .0286287
754.669 .0286269
755.389 .0286251
756.110 .0286233
756.830 .0286214
757.550 .0286194
758.269 .0286174
758.989 .0286153
759.708 .0286130
760.427 .0286105
761.146 .0286078
761.864 .0286048
762.582 .0286016
763.300 .0285981
764.018 .0285943
764.736 .0285903
765.453 .0285861
766.170 .0285816
766.887 .0285769
767.603 .0285719
768.320 .0285665
769.036 .0285608
769.751 .0285546
770.467 .0285481
771.182 .0285412
771.897 .0285339
772.612 .0285261
773.327 .0285179
774.041 .0285093
774.755 .0285001
775.469 .0284903
776.183 .0284801
776.896 .0284693
777.609 .0284580
778.322 .0284462
779.035 .0284339
779.747 .0284211
780.459 .0284077
781.171 .0283938
781.882 .0283794
782.594 .0283644
783.305 .0283488
784.016 .0283327
784.726 .0283161
785.436 .0282992
786.147 .0282724
786.856 .0282542
787.566 .0282354
788.275 .0282161
788.984 .0281962
789.693 .0281757
790.401 .0281546
791.110 .0281329
791.818 .0281106
792.525 .0280878
793.233 .0280645
793.940 .0280408
794.647 .0280273
795.353 .0280032
796.060 .0279788
796.766 .0279541
797.472 .0279293
798.177 .0279043
798.883 .0278792
799.588 .0278541
800.292 .0278289
800.997 .0278037
801.701 .0277785
802.405 .0277534
803.109 .0277283
803.812 .0277032
804.515 .0276783
805.218 .0276535
805.921 .0276289
806.623 .0276044
807.325 .0275801
808.027 .0275560
808.728 .0275321
809.429 .0275083
810.130 .0274847
810.831 .0274612
811.531 .0274379
812.231 .0274148
812.931 .0273919
813.630 .0273693
814.330 .0273470
815.029 .0273252
815.727 .0273038
816.426 .0272829
817.124 .0272625
817.821 .0272426
818.519 .0272233
819.216 .0272046
819.913 .0271867
820.609 .0271695
821.306 .0271532
822.002 .0271378
822.697 .0271235
823.393 .0271101
824.088 .0270976
824.783 .0270861
825.477 .0270755
826.171 .0270657
826.865 .0270567
827.559 .0270486
828.252 .0270412
828.945 .0270346
829.638 .0270288
830.330 .0270237
831.023 .0270193
831.714 .0270154
832.406 .0270121
833.097 .0270092
833.788 .0270067
834.479 .0270046
835.169 .0270029
835.859 .0270017
836.548 .0270009
837.238 .0270006
837.927 .0270007
838.615 .0270013
839.304 .0270022
839.992 .0270036
840.680 .0270053
841.367 .0270074
842.054 .0270099
842.741 .0270130
843.428 .0270167
844.114 .0270211
844.800 .0270260
845.485 .0270314
846.170 .0270373
846.855 .0270435
847.540 .0270499
848.224 .0270565
848.908 .0270632
849.592 .0270699
850.275 .0270766
850.958 .0270833
851.641 .0270899
852.323 .0270966
853.005 .0271031
853.687 .0271095
854.368 .0271157
855.049 .0271217
855.730 .0271275
856.410 .0271330
857.090 .0271383
857.769 .0271434
858.449 .0271483
859.128 .0271531
859.806 .0271578
860.485 .0271623
861.163 .0271668
861.840 .0271711
862.518 .0271752
863.195 .0271792
863.871 .0271829
864.548 .0271862
865.224 .0271892
865.899 .0271918
866.574 .0271938
867.249 .0271954
867.924 .0271964
868.598 .0271967
869.272 .0271962
869.946 .0271950
870.619 .0271930
871.292 .0271900
871.964 .0271860
872.636 .0271811
873.308 .0271753
873.979 .0271686
874.651 .0271610
875.321 .0271526
875.992 .0271433
876.662 .0271331
877.331 .0271220
878.001 .0271099
878.670 .0270968
879.338 .0270828
880.007 .0270679
880.675 .0270522
881.342 .0270358
882.009 .0270188
882.676 .0270014
883.343 .0269836
884.009 .0269655
884.675 .0269469
885.340 .0269280
886.005 .0269088
886.670 .0268891
887.334 .0268691
887.998 .0268488
888.662 .0268282
889.325 .0268074
889.988 .0267862
890.650 .0267649
891.312 .0267432
891.974 .0267212
892.636 .0266988
893.297 .0266760
893.957 .0266527
894.618 .0266289
895.278 .0266047
895.937 .0265799
896.596 .0265545
897.255 .0265287
897.914 .0265023
898.572 .0264753
899.230 .0264477
899.887 .0264196
900.544 .0263909
901.201 .0263617
901.857 .0263162
902.513 .0262860
903.168 .0262556
903.823 .0262249
904.478 .0261940
905.132 .0261630
905.786 .0261320
906.440 .0261009
907.093 .0260697
907.746 .0260386
908.399 .0260075
909.051 .0259765
909.703 .0259456
910.354 .0259311
911.005 .0259008
911.656 .0258709
912.306 .0258414
912.956 .0258125
913.605 .0257840
914.254 .0257561
914.903 .0257287
915.551 .0257018
916.199 .0256754
916.847 .0256493
917.494 .0256236
918.141 .0255984
918.788 .0255735
919.434 .0255491
920.079 .0255251
920.725 .0255016
921.370 .0254784
922.014 .0254555
922.658 .0254329
923.302 .0254106
923.946 .0253885
924.589 .0253667
925.231 .0253451
925.873 .0253237
926.515 .0253028
927.157 .0252821
927.798 .0252617
928.439 .0252416
929.079 .0252218
929.719 .0252022
930.359 .0251828
930.998 .0251636
931.637 .0251447
932.275 .0251261
932.913 .0251079
933.551 .0250902
934.188 .0250731
934.825 .0250566
935.462 .0250408
936.098 .0250256
936.733 .0250111
937.369 .0249973
938.004 .0249841
938.638 .0249717
939.273 .0249602
939.907 .0249494
940.540 .0249396
941.173 .0249308
941.806 .0249229
942.438 .0249159
943.070 .0249098
943.702 .0249044
944.333 .0248997
944.964 .0248956
945.594 .0248921
946.224 .0248892
946.854 .0248867
947.483 .0248848
948.112 .0248835
948.741 .0248827
949.369 .0248825
949.996 .0248829
950.624 .0248839
951.251 .0248854
951.878 .0248875
952.504 .0248902
953.130 .0248934
953.755 .0248972
954.380 .0249015
955.005 .0249064
955.629 .0249119
956.253 .0249179
956.877 .0249244
957.500 .0249313
958.123 .0249386
958.746 .0249464
959.368 .0249546
959.990 .0249632
960.611 .0249723
961.232 .0249819
961.853 .0249921
962.473 .0250029
963.093 .0250143
963.712 .0250262
964.331 .0250386
964.950 .0250516
965.569 .0250650
966.187 .0250788
966.804 .0250931
967.422 .0251076
968.039 .0251224
968.655 .0251372
969.272 .0251522
969.887 .0251670
970.503 .0251817
971.118 .0251962
971.733 .0252104
972.347 .0252243
972.961 .0252378
973.575 .0252510
974.188 .0252639
974.801 .0252763
975.414 .0252882
976.026 .0252996
976.638 .0253105
977.250 .0253208
977.861 .0253306
978.472 .0253399
979.083 .0253486
979.693 .0253568
980.303 .0253645
980.912 .0253737
981.521 .0253801
982.130 .0253860
982.738 .0253913
983.346 .0253962
983.954 .0254007
984.562 .0254048
985.169 .0254088
985.775 .0254126
986.382 .0254164
986.988 .0254203
987.594 .0254242
988.199 .0254282
988.804 .0254323
989.409 .0254350
990.013 .0254395
990.617 .0254442
991.221 .0254491
991.824 .0254543
992.427 .0254596
993.030 .0254650
993.632 .0254704
994.234 .0254759
994.836 .0254812
995.438 .0254862
996.039 .0254910
996.640 .0254956
997.240 .0254998
997.840 .0255038
998.440 .0255075
999.040 .0255109
999.639 .0255139
1000.238 .0255166
1000.836 .0255188
1001.435 .0255205
1002.033 .0255217
1002.630 .0255221
1003.228 .0255219
1003.825 .0255209
1004.422 .0255193
1005.018 .0255168
1005.614 .0255135
1006.210 .0255094
1006.806 .0255043
1007.401 .0254982
1007.996 .0254910
1008.591 .0254827
1009.186 .0254734
1009.780 .0254632
1010.374 .0254521
1010.967 .0254403
1011.561 .0254279
1012.154 .0254149
1012.746 .0254016
1013.339 .0253878
1013.931 .0253738
1014.523 .0253595
1015.115 .0253450
1015.706 .0253303
1016.298 .0253156
1016.888 .0253008
1017.479 .0252861
1018.069 .0252715
1018.660 .0252570
1019.250 .0252426
1019.839 .0252284
1020.429 .0252142
1021.018 .0252001
1021.607 .0251861
1022.195 .0251721
1022.784 .0251582
1023.372 .0251443
1023.960 .0251306
1024.547 .0251170
1025.135 .0251037
1025.722 .0250905
1026.309 .0250775
1026.896 .0250648
1027.483 .0250521
1028.069 .0250395
1028.655 .0250270
1029.241 .0250144
1029.827 .0250018
1030.412 .0249892
1030.997 .0249765
1031.582 .0249636
1032.167 .0249505
1032.752 .0249372
1033.336 .0249235
1033.921 .0249094
1034.505 .0248949
1035.089 .0248799
1035.672 .0248643
1036.256 .0248483
1036.839 .0248318
1037.422 .0248148
1038.005 .0247974
1038.588 .0247795
1039.171 .0247613
1039.753 .0247426
1040.335 .0247236
1040.918 .0247042
1041.500 .0246845
1042.081 .0246646
1042.663 .0246445
1043.244 .0246242
1043.826 .0246038
1044.407 .0245833
1044.988 .0245629
1045.569 .0245425
1046.150 .0245221
1046.730 .0245018
1047.311 .0244815
1047.891 .0244614
1048.471 .0244413
1049.052 .0244214
1049.632 .0244018
1050.211 .0243826
1050.791 .0243638
1051.371 .0243456
1051.950 .0243281
1052.530 .0243114
1053.109 .0242953
1053.688 .0242799
1054.268 .0242652
1054.847 .0242513
1055.426 .0242381
1056.005 .0242257
1056.583 .0242141
1057.162 .0242033
1057.741 .0241933
1058.319 .0241841
1058.898 .0241757
1059.476 .0241678
1060.055 .0241605
1060.633 .0241534
1061.211 .0241465
1061.790 .0241397
1062.368 .0241330
1062.946 .0241265
1063.524 .0241201
1064.102 .0241137
1064.680 .0241073
1065.258 .0241010
1065.836 .0240947
1066.414 .0240884
1066.992 .0240820
1067.570 .0240756
1068.148 .0240693
1068.726 .0240630
1069.304 .0240569
1069.882 .0240512
1070.460 .0240460
1071.038 .0240414
1071.616 .0240374
1072.194 .0240340
1072.772 .0240313
1073.350 .0240293
1073.928 .0240280
1074.506 .0240274
1075.084 .0240275
1075.662 .0240285
1076.240 .0240304
1076.819 .0240332
1077.397 .0240371
1077.976 .0240419
1078.554 .0240476
1079.133 .0240540
1079.711 .0240610
1080.290 .0240686
1080.869 .0240767
1081.448 .0240854
1082.027 .0240947
1082.606 .0241046
1083.185 .0241151
1083.764 .0241261
1084.343 .0241377
1084.923 .0241497
1085.502 .0241622
1086.082 .0241750
1086.662 .0241880
1087.242 .0242015
1087.822 .0242155
1088.402 .0242301
1088.983 .0242456
1089.563 .0242618
1090.144 .0242789
1090.725 .0242969
1091.306 .0243155
1091.887 .0243350
1092.469 .0243550
1093.050 .0243757
1093.632 .0243968
1094.214 .0244184
1094.796 .0244405
1095.379 .0244631
1095.961 .0244862
1096.544 .0245099
1097.127 .0245342
1097.710 .0245591
1098.294 .0245846
1098.877 .0246109
1099.461 .0246380
1100.046 .0246660
1100.630 .0246950
1101.215 .0247250
1101.800 .0247560
1102.385 .0247880
1102.970 .0248209
1103.556 .0248548
1104.142 .0248895
1104.728 .0249249
1105.315 .0249607
1105.902 .0249970
1106.489 .0250335
1107.077 .0250702
1107.664 .0251072
1108.253 .0251443
1108.841 .0251815
1109.430 .0252190
1110.019 .0252568
1110.609 .0252950
1111.198 .0253338
1111.789 .0253734
1112.379 .0254140
1112.970 .0254558
1113.561 .0254990
1114.153 .0255440
1114.745 .0255908
1115.338 .0256394
1115.931 .0256899
1116.524 .0257422
1117.117 .0257962
1117.712 .0258518
1118.306 .0259090
1118.901 .0259676
1119.496 .0260277
1120.092 .0260893
1120.689 .0261520
1121.285 .0262158
1121.882 .0262805
1122.480 .0263458
1123.078 .0264118
1123.677 .0264783
1124.276 .0265454
1124.875 .0266134
1125.476 .0266826
1126.076 .0267533
1126.677 .0268257
1127.279 .0269002
1127.881 .0269766
1128.484 .0270549
1129.087 .0270922
1129.691 .0271729
1130.295 .0272548
1130.900 .0273376
1131.505 .0274213
1132.111 .0275058
1132.718 .0275911
1133.325 .0276771
1133.933 .0277646
1134.541 .0278551
1135.150 .0279494
1135.760 .0280384
1136.370 .0281236
1136.981 .0282279
1137.592 .0283296
1138.204 .0284221
1138.817 .0285144
1139.431 .0286078
1140.045 .0287042
1140.660 .0288021
1141.275 .0289014
1141.891 .0290211
1142.508 .0291859
1143.126 .0293748
1143.744 .0293063
1144.363 .0292837
1144.983 .0299288
