Measurement Sequence started on: 15-12-46-377
Integration time: 28
Scans to Average: 2 
>>>>>Begin Spectral Data<<<<<
432.689 .0000100
433.621 .0000100
434.552 .0000100
435.482 .0000100
436.410 .0000100
437.337 .0000100
438.262 .0282160
439.187 .0597287
440.110 .0988150
441.031 .1428849
441.952 .1142740
442.871 .1193730
443.789 .1241351
444.705 .1286300
445.621 .1329065
446.535 .1370008
447.447 .1394551
448.359 .1401178
449.269 .1386076
450.178 .1346754
451.086 .1284055
451.993 .1202895
452.898 .1111390
453.803 .1018711
454.706 .0932621
455.608 .0857918
456.508 .0796158
457.408 .0754538
458.306 .0722532
459.204 .0696358
460.100 .0674189
460.995 .0654995
461.888 .0638126
462.781 .0623134
463.673 .0609692
464.563 .0597561
465.452 .0586543
466.340 .0576482
467.228 .0567272
468.114 .0558818
468.999 .0551051
469.882 .0543920
470.765 .0537385
471.647 .0531422
472.528 .0526018
473.407 .0521146
474.286 .0516786
475.163 .0512912
476.040 .0509488
476.915 .0506467
477.790 .0503809
478.663 .0501478
479.535 .0499437
480.407 .0497667
481.277 .0496145
482.147 .0494856
483.015 .0493790
483.883 .0492938
484.749 .0492288
485.615 .0491841
486.479 .0491587
487.343 .0491523
488.206 .0491647
489.067 .0491958
489.928 .0492458
490.788 .0493153
491.647 .0494049
492.505 .0495154
493.362 .0496471
494.218 .0498011
495.073 .0499774
495.928 .0503242
496.781 .0505583
497.634 .0508158
498.486 .0510974
499.337 .0514046
500.187 .0517387
501.036 .0521020
501.884 .0524970
502.731 .0529266
503.578 .0533930
504.424 .0537050
505.268 .0542407
506.113 .0548238
506.956 .0554586
507.798 .0561502
508.640 .0569051
509.480 .0577326
510.320 .0586440
511.160 .0596528
511.998 .0607756
512.836 .0620321
513.672 .0634408
514.508 .0650239
515.344 .0668044
516.178 .0688056
517.012 .0710514
517.845 .0735651
518.677 .0763648
519.508 .0794681
520.339 .0828866
521.169 .0866298
521.998 .0906796
522.826 .0950097
523.654 .0995704
524.481 .1042973
525.307 .1091086
526.133 .1139066
526.958 .1185836
527.782 .1230362
528.605 .1271621
529.428 .1308723
530.250 .1340888
531.072 .1367656
531.892 .1388639
532.712 .1403657
533.532 .1412615
534.350 .1415513
535.168 .1412386
535.986 .1403347
536.802 .1388444
537.618 .1367755
538.434 .1341355
539.249 .1309581
540.063 .1272839
540.876 .1231751
541.689 .1187060
542.501 .1139687
543.313 .1090655
544.124 .1041059
544.934 .0991895
545.744 .0944106
546.553 .0898475
547.361 .0855628
548.169 .0815864
548.976 .0779384
549.783 .0746165
550.589 .0716099
551.395 .0688963
552.200 .0664507
553.004 .0642437
553.808 .0622510
554.611 .0604513
555.414 .0588250
556.216 .0573524
557.018 .0560152
557.819 .0547961
558.619 .0536799
559.419 .0526512
560.218 .0516981
561.017 .0508097
561.815 .0499790
562.613 .0492003
563.410 .0484675
564.207 .0477759
565.003 .0471222
565.799 .0465016
566.594 .0459104
567.388 .0453450
568.182 .0448013
568.976 .0442756
569.769 .0437660
570.562 .0432713
571.354 .0427909
572.145 .0423250
572.936 .0418744
573.727 .0414390
574.517 .0410192
575.307 .0406154
576.096 .0402269
576.885 .0398536
577.673 .0394952
578.461 .0391510
579.248 .0388209
580.035 .0385047
580.821 .0382024
581.607 .0379141
582.392 .0376404
583.177 .0373816
583.962 .0371375
584.746 .0369082
585.529 .0366935
586.313 .0364927
587.095 .0363051
587.878 .0361298
588.660 .0359657
589.441 .0358122
590.222 .0356684
591.003 .0355337
591.783 .0354076
592.563 .0352899
593.342 .0351800
594.121 .0350776
594.899 .0349821
595.678 .0348930
596.455 .0348099
597.233 .0347324
598.009 .0346599
598.786 .0345920
599.562 .0345282
600.338 .0344681
601.113 .0344116
601.888 .0343373
602.663 .0342878
603.437 .0342410
604.211 .0341967
604.984 .0341545
605.757 .0341143
606.530 .0340759
607.302 .0340391
608.074 .0340035
608.845 .0339689
609.616 .0339351
610.387 .0339190
611.158 .0338855
611.928 .0338524
612.697 .0338195
613.467 .0337866
614.236 .0337537
615.004 .0337206
615.773 .0336875
616.541 .0336542
617.308 .0336208
618.076 .0335873
618.843 .0335536
619.609 .0335196
620.375 .0334852
621.141 .0334505
621.907 .0334155
622.672 .0333801
623.437 .0333446
624.202 .0333090
624.966 .0332733
625.730 .0332377
626.493 .0332022
627.257 .0331667
628.020 .0331313
628.782 .0330960
629.545 .0330606
630.307 .0330254
631.068 .0329902
631.830 .0329553
632.591 .0329208
633.352 .0328867
634.112 .0328531
634.872 .0328201
635.632 .0327875
636.392 .0327555
637.151 .0327239
637.910 .0326927
638.668 .0326620
639.427 .0326317
640.185 .0326018
640.943 .0325725
641.700 .0325437
642.457 .0325155
643.214 .0324879
643.971 .0324608
644.727 .0324342
645.483 .0324082
646.239 .0323826
646.994 .0323575
647.750 .0323328
648.505 .0323085
649.259 .0322845
650.014 .0322608
650.768 .0322373
651.521 .0322141
652.275 .0321912
653.028 .0321686
653.781 .0321463
654.534 .0321242
655.286 .0321024
656.039 .0320807
656.791 .0320591
657.542 .0320375
658.294 .0320156
659.045 .0319937
659.796 .0319715
660.546 .0319493
661.297 .0319270
662.047 .0319047
662.796 .0318826
663.546 .0318605
664.295 .0318385
665.044 .0318165
665.793 .0317945
666.542 .0317725
667.290 .0317502
668.038 .0317279
668.786 .0317053
669.533 .0316827
670.281 .0316599
671.028 .0316371
671.774 .0316142
672.521 .0315913
673.267 .0315682
674.013 .0315450
674.759 .0315216
675.505 .0314979
676.250 .0314740
676.995 .0314499
677.740 .0314254
678.484 .0314007
679.229 .0313757
679.973 .0313504
680.717 .0313250
681.460 .0312994
682.204 .0312736
682.947 .0312477
683.690 .0312217
684.433 .0311955
685.175 .0311691
685.917 .0311423
686.659 .0311152
687.401 .0310877
688.142 .0310597
688.884 .0310313
689.625 .0310025
690.365 .0309734
691.106 .0309442
691.846 .0309149
692.586 .0308856
693.326 .0308565
694.066 .0308275
694.805 .0307987
695.545 .0307702
696.284 .0307421
697.022 .0307143
697.761 .0306868
698.499 .0306598
699.237 .0306333
699.975 .0306073
700.713 .0305820
701.450 .0305573
702.187 .0305334
702.924 .0305102
703.661 .0304878
704.397 .0304662
705.133 .0304454
705.869 .0304252
706.605 .0304056
707.341 .0303866
708.076 .0303679
708.811 .0303496
709.546 .0303316
710.281 .0303139
711.015 .0302964
711.749 .0302792
712.483 .0302622
713.217 .0302455
713.950 .0302290
714.684 .0302127
715.417 .0301967
716.150 .0301808
716.882 .0301650
717.615 .0301493
718.347 .0301337
719.079 .0301181
719.811 .0301026
720.542 .0300873
721.273 .0300722
722.005 .0300575
722.735 .0300433
723.466 .0300297
724.196 .0300168
724.927 .0300046
725.656 .0299931
726.386 .0299824
727.116 .0299724
727.845 .0299631
728.574 .0299545
729.303 .0299466
730.031 .0299393
730.760 .0299326
731.488 .0299265
732.216 .0299208
732.944 .0299155
733.671 .0299105
734.398 .0299058
735.125 .0299012
735.852 .0298969
736.579 .0298926
737.305 .0298884
738.031 .0298842
738.757 .0298797
739.483 .0298749
740.208 .0298697
740.933 .0298639
741.658 .0298575
742.383 .0298504
743.108 .0298427
743.832 .0298343
744.556 .0298254
745.280 .0298158
746.004 .0298056
746.727 .0297949
747.450 .0297835
748.173 .0297714
748.896 .0297587
749.618 .0297452
750.340 .0297311
751.062 .0297162
751.784 .0297008
752.506 .0296847
753.227 .0296680
753.948 .0296507
754.669 .0296328
755.389 .0296143
756.110 .0295952
756.830 .0295756
757.550 .0295554
758.269 .0295346
758.989 .0295135
759.708 .0294918
760.427 .0294697
761.146 .0294472
761.864 .0294243
762.582 .0294008
763.300 .0293770
764.018 .0293528
764.736 .0293284
765.453 .0293037
766.170 .0292790
766.887 .0292543
767.603 .0292297
768.320 .0292053
769.036 .0291811
769.751 .0291572
770.467 .0291336
771.182 .0291103
771.897 .0290874
772.612 .0290650
773.327 .0290430
774.041 .0290215
774.755 .0290005
775.469 .0289799
776.183 .0289599
776.896 .0289404
777.609 .0289215
778.322 .0289030
779.035 .0288850
779.747 .0288676
780.459 .0288507
781.171 .0288344
781.882 .0288185
782.594 .0288030
783.305 .0287880
784.016 .0287733
784.726 .0287589
785.436 .0287447
786.147 .0287246
786.856 .0287111
787.566 .0286978
788.275 .0286848
788.984 .0286720
789.693 .0286594
790.401 .0286471
791.110 .0286350
791.818 .0286230
792.525 .0286112
793.233 .0285997
793.940 .0285884
794.647 .0285830
795.353 .0285723
796.060 .0285619
796.766 .0285518
797.472 .0285421
798.177 .0285328
798.883 .0285238
799.588 .0285152
800.292 .0285070
800.997 .0284992
801.701 .0284919
802.405 .0284850
803.109 .0284786
803.812 .0284725
804.515 .0284667
805.218 .0284612
805.921 .0284559
806.623 .0284508
807.325 .0284460
808.027 .0284416
808.728 .0284375
809.429 .0284338
810.130 .0284306
810.831 .0284277
811.531 .0284252
812.231 .0284230
812.931 .0284210
813.630 .0284193
814.330 .0284178
815.029 .0284165
815.727 .0284156
816.426 .0284149
817.124 .0284145
817.821 .0284143
818.519 .0284143
819.216 .0284145
819.913 .0284149
820.609 .0284153
821.306 .0284160
822.002 .0284170
822.697 .0284182
823.393 .0284197
824.088 .0284216
824.783 .0284237
825.477 .0284260
826.171 .0284283
826.865 .0284306
827.559 .0284329
828.252 .0284350
828.945 .0284370
829.638 .0284389
830.330 .0284406
831.023 .0284422
831.714 .0284437
832.406 .0284450
833.097 .0284460
833.788 .0284467
834.479 .0284469
835.169 .0284467
835.859 .0284461
836.548 .0284449
837.238 .0284434
837.927 .0284413
838.615 .0284388
839.304 .0284358
839.992 .0284322
840.680 .0284281
841.367 .0284234
842.054 .0284180
842.741 .0284119
843.428 .0284052
844.114 .0283977
844.800 .0283894
845.485 .0283803
846.170 .0283704
846.855 .0283597
847.540 .0283480
848.224 .0283353
848.908 .0283216
849.592 .0283069
850.275 .0282913
850.958 .0282748
851.641 .0282575
852.323 .0282394
853.005 .0282206
853.687 .0282011
854.368 .0281810
855.049 .0281602
855.730 .0281389
856.410 .0281169
857.090 .0280944
857.769 .0280714
858.449 .0280480
859.128 .0280244
859.806 .0280005
860.485 .0279765
861.163 .0279524
861.840 .0279283
862.518 .0279042
863.195 .0278802
863.871 .0278561
864.548 .0278321
865.224 .0278081
865.899 .0277841
866.574 .0277601
867.249 .0277360
867.924 .0277118
868.598 .0276876
869.272 .0276633
869.946 .0276389
870.619 .0276144
871.292 .0275899
871.964 .0275653
872.636 .0275408
873.308 .0275163
873.979 .0274919
874.651 .0274676
875.321 .0274435
875.992 .0274194
876.662 .0273955
877.331 .0273718
878.001 .0273482
878.670 .0273250
879.338 .0273020
880.007 .0272793
880.675 .0272570
881.342 .0272351
882.009 .0272137
882.676 .0271927
883.343 .0271721
884.009 .0271520
884.675 .0271324
885.340 .0271131
886.005 .0270944
886.670 .0270761
887.334 .0270584
887.998 .0270412
888.662 .0270246
889.325 .0270086
889.988 .0269931
890.650 .0269782
891.312 .0269639
891.974 .0269501
892.636 .0269369
893.297 .0269241
893.957 .0269118
894.618 .0269001
895.278 .0268887
895.937 .0268778
896.596 .0268672
897.255 .0268568
897.914 .0268465
898.572 .0268363
899.230 .0268262
899.887 .0268161
900.544 .0268061
901.201 .0267961
901.857 .0267808
902.513 .0267707
903.168 .0267606
903.823 .0267504
904.478 .0267403
905.132 .0267300
905.786 .0267198
906.440 .0267096
907.093 .0266995
907.746 .0266896
908.399 .0266799
909.051 .0266704
909.703 .0266613
910.354 .0266576
911.005 .0266492
911.656 .0266410
912.306 .0266331
912.956 .0266257
913.605 .0266186
914.254 .0266120
914.903 .0266060
915.551 .0266006
916.199 .0265956
916.847 .0265912
917.494 .0265872
918.141 .0265837
918.788 .0265804
919.434 .0265774
920.079 .0265747
920.725 .0265722
921.370 .0265699
922.014 .0265677
922.658 .0265656
923.302 .0265636
923.946 .0265614
924.589 .0265591
925.231 .0265566
925.873 .0265538
926.515 .0265506
927.157 .0265471
927.798 .0265434
928.439 .0265394
929.079 .0265353
929.719 .0265310
930.359 .0265267
930.998 .0265224
931.637 .0265182
932.275 .0265140
932.913 .0265101
933.551 .0265064
934.188 .0265030
934.825 .0265002
935.462 .0264980
936.098 .0264964
936.733 .0264955
937.369 .0264954
938.004 .0264960
938.638 .0264973
939.273 .0264994
939.907 .0265021
940.540 .0265055
941.173 .0265095
941.806 .0265140
942.438 .0265190
943.070 .0265245
943.702 .0265303
944.333 .0265365
944.964 .0265429
945.594 .0265495
946.224 .0265562
946.854 .0265630
947.483 .0265697
948.112 .0265763
948.741 .0265828
949.369 .0265890
949.996 .0265950
950.624 .0266006
951.251 .0266058
951.878 .0266106
952.504 .0266148
953.130 .0266185
953.755 .0266216
954.380 .0266242
955.005 .0266262
955.629 .0266275
956.253 .0266282
956.877 .0266282
957.500 .0266275
958.123 .0266260
958.746 .0266239
959.368 .0266211
959.990 .0266178
960.611 .0266139
961.232 .0266096
961.853 .0266049
962.473 .0265998
963.093 .0265944
963.712 .0265885
964.331 .0265823
964.950 .0265756
965.569 .0265685
966.187 .0265610
966.804 .0265530
967.422 .0265447
968.039 .0265360
968.655 .0265270
969.272 .0265176
969.887 .0265079
970.503 .0264978
971.118 .0264873
971.733 .0264764
972.347 .0264652
972.961 .0264535
973.575 .0264415
974.188 .0264291
974.801 .0264162
975.414 .0264030
976.026 .0263893
976.638 .0263751
977.250 .0263604
977.861 .0263451
978.472 .0263293
979.083 .0263129
979.693 .0262958
980.303 .0262781
980.912 .0262483
981.521 .0262288
982.130 .0262086
982.738 .0261879
983.346 .0261665
983.954 .0261447
984.562 .0261225
985.169 .0260999
985.775 .0260771
986.382 .0260541
986.988 .0260311
987.594 .0260079
988.199 .0259847
988.804 .0259616
989.409 .0259508
990.013 .0259281
990.617 .0259055
991.221 .0258832
991.824 .0258612
992.427 .0258396
993.030 .0258183
993.632 .0257974
994.234 .0257769
994.836 .0257567
995.438 .0257367
996.039 .0257170
996.640 .0256976
997.240 .0256785
997.840 .0256597
998.440 .0256413
999.040 .0256233
999.639 .0256056
1000.238 .0255882
1000.836 .0255710
1001.435 .0255540
1002.033 .0255370
1002.630 .0255200
1003.228 .0255029
1003.825 .0254857
1004.422 .0254684
1005.018 .0254509
1005.614 .0254333
1006.210 .0254154
1006.806 .0253973
1007.401 .0253789
1007.996 .0253602
1008.591 .0253413
1009.186 .0253221
1009.780 .0253028
1010.374 .0252833
1010.967 .0252637
1011.561 .0252441
1012.154 .0252246
1012.746 .0252052
1013.339 .0251859
1013.931 .0251668
1014.523 .0251479
1015.115 .0251292
1015.706 .0251110
1016.298 .0250931
1016.888 .0250757
1017.479 .0250589
1018.069 .0250427
1018.660 .0250272
1019.250 .0250124
1019.839 .0249984
1020.429 .0249850
1021.018 .0249725
1021.607 .0249608
1022.195 .0249499
1022.784 .0249399
1023.372 .0249308
1023.960 .0249227
1024.547 .0249155
1025.135 .0249093
1025.722 .0249040
1026.309 .0248995
1026.896 .0248959
1027.483 .0248929
1028.069 .0248907
1028.655 .0248891
1029.241 .0248882
1029.827 .0248878
1030.412 .0248880
1030.997 .0248887
1031.582 .0248898
1032.167 .0248913
1032.752 .0248930
1033.336 .0248949
1033.921 .0248970
1034.505 .0248990
1035.089 .0249010
1035.672 .0249030
1036.256 .0249048
1036.839 .0249065
1037.422 .0249081
1038.005 .0249095
1038.588 .0249107
1039.171 .0249116
1039.753 .0249123
1040.335 .0249127
1040.918 .0249129
1041.500 .0249131
1042.081 .0249132
1042.663 .0249134
1043.244 .0249138
1043.826 .0249144
1044.407 .0249153
1044.988 .0249164
1045.569 .0249177
1046.150 .0249193
1046.730 .0249210
1047.311 .0249230
1047.891 .0249253
1048.471 .0249280
1049.052 .0249311
1049.632 .0249346
1050.211 .0249386
1050.791 .0249430
1051.371 .0249479
1051.950 .0249532
1052.530 .0249591
1053.109 .0249656
1053.688 .0249728
1054.268 .0249809
1054.847 .0249900
1055.426 .0250001
1056.005 .0250114
1056.583 .0250236
1057.162 .0250367
1057.741 .0250505
1058.319 .0250649
1058.898 .0250797
1059.476 .0250948
1060.055 .0251102
1060.633 .0251257
1061.211 .0251413
1061.790 .0251570
1062.368 .0251727
1062.946 .0251884
1063.524 .0252039
1064.102 .0252192
1064.680 .0252342
1065.258 .0252490
1065.836 .0252635
1066.414 .0252781
1066.992 .0252928
1067.570 .0253079
1068.148 .0253234
1068.726 .0253394
1069.304 .0253558
1069.882 .0253725
1070.460 .0253894
1071.038 .0254063
1071.616 .0254229
1072.194 .0254393
1072.772 .0254553
1073.350 .0254711
1073.928 .0254868
1074.506 .0255025
1075.084 .0255182
1075.662 .0255342
1076.240 .0255503
1076.819 .0255666
1077.397 .0255832
1077.976 .0255999
1078.554 .0256169
1079.133 .0256342
1079.711 .0256519
1080.290 .0256702
1080.869 .0256892
1081.448 .0257091
1082.027 .0257298
1082.606 .0257512
1083.185 .0257733
1083.764 .0257958
1084.343 .0258186
1084.923 .0258416
1085.502 .0258648
1086.082 .0258882
1086.662 .0259118
1087.242 .0259357
1087.822 .0259601
1088.402 .0259849
1088.983 .0260104
1089.563 .0260365
1090.144 .0260631
1090.725 .0260903
1091.306 .0261180
1091.887 .0261462
1092.469 .0261748
1093.050 .0262038
1093.632 .0262333
1094.214 .0262631
1094.796 .0262933
1095.379 .0263237
1095.961 .0263543
1096.544 .0263849
1097.127 .0264153
1097.710 .0264454
1098.294 .0264750
1098.877 .0265043
1099.461 .0265334
1100.046 .0265625
1100.630 .0265920
1101.215 .0266219
1101.800 .0266525
1102.385 .0266838
1102.970 .0267157
1103.556 .0267481
1104.142 .0267808
1104.728 .0268136
1105.315 .0268465
1105.902 .0268797
1106.489 .0269131
1107.077 .0269469
1107.664 .0269816
1108.253 .0270171
1108.841 .0270535
1109.430 .0270905
1110.019 .0271280
1110.609 .0271658
1111.198 .0272037
1111.789 .0272416
1112.379 .0272797
1112.970 .0273181
1113.561 .0273571
1114.153 .0273972
1114.745 .0274385
1115.338 .0274814
1115.931 .0275259
1116.524 .0275720
1117.117 .0276193
1117.712 .0276677
1118.306 .0277168
1118.901 .0277667
1119.496 .0278172
1120.092 .0278684
1120.689 .0279204
1121.285 .0279735
1121.882 .0280277
1122.480 .0280833
1123.078 .0281403
1123.677 .0281989
1124.276 .0282589
1124.875 .0283202
1125.476 .0283825
1126.076 .0284459
1126.677 .0285105
1127.279 .0285763
1127.881 .0286438
1128.484 .0287131
1129.087 .0287437
1129.691 .0288167
1130.295 .0288921
1130.900 .0289703
1131.505 .0290511
1132.111 .0291345
1132.718 .0292202
1133.325 .0293083
1133.933 .0293989
1134.541 .0294905
1135.150 .0295811
1135.760 .0296797
1136.370 .0297785
1136.981 .0298311
1137.592 .0299258
1138.204 .0300307
1138.817 .0301436
1139.431 .0302635
1140.045 .0303875
1140.660 .0305138
1141.275 .0306398
1141.891 .0307801
1142.508 .0308732
1143.126 .0309134
1143.744 .0312064
1144.363 .0312791
1144.983 .0318334
