Measurement Sequence started on: 15-12-46-377
Integration time: 28
Scans to Average: 2 
>>>>>Begin Spectral Data<<<<<
432.689 .0000100
433.621 .0000100
434.552 .0000100
435.482 .0000100
436.410 .0000100
437.337 .0000100
438.262 .0298122
439.187 .0632840
440.110 .1048360
441.031 .1517158
441.952 .1218243
442.871 .1272470
443.789 .1322886
444.705 .1370240
445.621 .1415062
446.535 .1457764
447.447 .1482965
448.359 .1488986
449.269 .1471793
450.178 .1428760
451.086 .1360743
451.993 .1272939
452.898 .1173965
453.803 .1073600
454.706 .0980158
455.608 .0898798
456.508 .0831257
457.408 .0785205
458.306 .0749616
459.204 .0720477
460.100 .0695822
460.995 .0674575
461.888 .0656019
462.781 .0639658
463.673 .0625113
464.563 .0612107
465.452 .0600411
466.340 .0589827
467.228 .0580193
468.114 .0571378
468.999 .0563287
469.882 .0555839
470.765 .0548975
471.647 .0542651
472.528 .0536842
473.407 .0531520
474.286 .0526670
475.163 .0522278
476.040 .0518319
476.915 .0514771
477.790 .0511603
478.663 .0508784
479.535 .0506286
480.407 .0504084
481.277 .0502155
482.147 .0500485
483.015 .0499059
483.883 .0497865
484.749 .0496886
485.615 .0496107
486.479 .0495512
487.343 .0495081
488.206 .0494803
489.067 .0494668
489.928 .0494670
490.788 .0494810
491.647 .0495088
492.505 .0495509
493.362 .0496080
494.218 .0496809
495.073 .0497700
495.928 .0499660
496.781 .0501011
497.634 .0502565
498.486 .0504348
499.337 .0506383
500.187 .0508701
501.036 .0511333
501.884 .0514313
502.731 .0517673
503.578 .0521451
504.424 .0524262
505.268 .0528814
506.113 .0533911
506.956 .0539608
507.798 .0545977
508.640 .0553098
509.480 .0561063
510.320 .0569984
511.160 .0579979
511.998 .0591190
512.836 .0603788
513.672 .0617961
514.508 .0633934
515.344 .0651937
516.178 .0672203
517.012 .0694991
517.845 .0720540
518.677 .0749069
519.508 .0780736
520.339 .0815649
521.169 .0853803
521.998 .0894941
522.826 .0938689
523.654 .0984470
524.481 .1031591
525.307 .1079237
526.133 .1126480
526.958 .1172366
527.782 .1215962
528.605 .1256394
529.428 .1292866
530.250 .1324681
531.072 .1351332
531.892 .1372376
532.712 .1387531
533.532 .1396635
534.350 .1399615
535.168 .1396515
535.986 .1387429
536.802 .1372467
537.618 .1351783
538.434 .1325579
539.249 .1294280
540.063 .1258392
540.876 .1218568
541.689 .1175559
542.501 .1130204
543.313 .1083425
544.124 .1036155
544.934 .0989283
545.744 .0943636
546.553 .0899934
547.361 .0858766
548.169 .0820502
548.976 .0785402
549.783 .0753544
550.589 .0724861
551.395 .0699156
552.200 .0676138
553.004 .0655470
553.808 .0636855
554.611 .0619998
555.414 .0604662
556.216 .0590633
557.018 .0577731
557.819 .0565822
558.619 .0554779
559.419 .0544506
560.218 .0534916
561.017 .0525927
561.815 .0517463
562.613 .0509452
563.410 .0501827
564.207 .0494519
565.003 .0487475
565.799 .0480649
566.594 .0474001
567.388 .0467510
568.182 .0461165
568.976 .0454958
569.769 .0448892
570.562 .0442972
571.354 .0437214
572.145 .0431635
572.936 .0426246
573.727 .0421053
574.517 .0416061
575.307 .0411278
576.096 .0406699
576.885 .0402323
577.673 .0398152
578.461 .0394189
579.248 .0390433
580.035 .0386883
580.821 .0383538
581.607 .0380397
582.392 .0377455
583.177 .0374706
583.962 .0372145
584.746 .0369764
585.529 .0367554
586.313 .0365506
587.095 .0363609
587.878 .0361855
588.660 .0360230
589.441 .0358724
590.222 .0357327
591.003 .0356030
591.783 .0354824
592.563 .0353702
593.342 .0352659
594.121 .0351690
594.899 .0350787
595.678 .0349944
596.455 .0349154
597.233 .0348410
598.009 .0347705
598.786 .0347032
599.562 .0346387
600.338 .0345765
601.113 .0345162
601.888 .0344305
602.663 .0343738
603.437 .0343184
604.211 .0342644
604.984 .0342115
605.757 .0341598
606.530 .0341090
607.302 .0340591
608.074 .0340100
608.845 .0339618
609.616 .0339145
610.387 .0338938
611.158 .0338483
611.928 .0338039
612.697 .0337609
613.467 .0337193
614.236 .0336791
615.004 .0336403
615.773 .0336030
616.541 .0335670
617.308 .0335323
618.076 .0334989
618.843 .0334667
619.609 .0334358
620.375 .0334060
621.141 .0333773
621.907 .0333496
622.672 .0333227
623.437 .0332964
624.202 .0332705
624.966 .0332450
625.730 .0332195
626.493 .0331940
627.257 .0331684
628.020 .0331426
628.782 .0331165
629.545 .0330901
630.307 .0330631
631.068 .0330357
631.830 .0330076
632.591 .0329790
633.352 .0329499
634.112 .0329204
634.872 .0328905
635.632 .0328603
636.392 .0328300
637.151 .0327996
637.910 .0327690
638.668 .0327384
639.427 .0327078
640.185 .0326773
640.943 .0326470
641.700 .0326169
642.457 .0325873
643.214 .0325581
643.971 .0325295
644.727 .0325016
645.483 .0324743
646.239 .0324477
646.994 .0324219
647.750 .0323967
648.505 .0323723
649.259 .0323486
650.014 .0323256
650.768 .0323031
651.521 .0322809
652.275 .0322590
653.028 .0322372
653.781 .0322153
654.534 .0321933
655.286 .0321710
656.039 .0321484
656.791 .0321255
657.542 .0321022
658.294 .0320785
659.045 .0320544
659.796 .0320298
660.546 .0320047
661.297 .0319791
662.047 .0319528
662.796 .0319259
663.546 .0318984
664.295 .0318704
665.044 .0318418
665.793 .0318129
666.542 .0317837
667.290 .0317542
668.038 .0317247
668.786 .0316950
669.533 .0316653
670.281 .0316356
671.028 .0316059
671.774 .0315764
672.521 .0315471
673.267 .0315180
674.013 .0314894
674.759 .0314612
675.505 .0314335
676.250 .0314064
676.995 .0313798
677.740 .0313537
678.484 .0313282
679.229 .0313031
679.973 .0312785
680.717 .0312544
681.460 .0312308
682.204 .0312077
682.947 .0311851
683.690 .0311630
684.433 .0311413
685.175 .0311201
685.917 .0310993
686.659 .0310790
687.401 .0310590
688.142 .0310395
688.884 .0310202
689.625 .0310013
690.365 .0309826
691.106 .0309641
691.846 .0309459
692.586 .0309280
693.326 .0309102
694.066 .0308926
694.805 .0308752
695.545 .0308579
696.284 .0308408
697.022 .0308238
697.761 .0308068
698.499 .0307898
699.237 .0307728
699.975 .0307558
700.713 .0307388
701.450 .0307217
702.187 .0307046
702.924 .0306874
703.661 .0306701
704.397 .0306528
705.133 .0306355
705.869 .0306181
706.605 .0306007
707.341 .0305833
708.076 .0305659
708.811 .0305483
709.546 .0305307
710.281 .0305129
711.015 .0304950
711.749 .0304769
712.483 .0304586
713.217 .0304403
713.950 .0304218
714.684 .0304032
715.417 .0303846
716.150 .0303660
716.882 .0303472
717.615 .0303283
718.347 .0303093
719.079 .0302901
719.811 .0302709
720.542 .0302515
721.273 .0302321
722.005 .0302127
722.735 .0301932
723.466 .0301738
724.196 .0301544
724.927 .0301351
725.656 .0301158
726.386 .0300966
727.116 .0300776
727.845 .0300587
728.574 .0300402
729.303 .0300219
730.031 .0300040
730.760 .0299865
731.488 .0299693
732.216 .0299524
732.944 .0299358
733.671 .0299194
734.398 .0299033
735.125 .0298874
735.852 .0298717
736.579 .0298561
737.305 .0298407
738.031 .0298254
738.757 .0298103
739.483 .0297953
740.208 .0297803
740.933 .0297654
741.658 .0297505
742.383 .0297355
743.108 .0297205
743.832 .0297054
744.556 .0296903
745.280 .0296750
746.004 .0296596
746.727 .0296442
747.450 .0296286
748.173 .0296130
748.896 .0295973
749.618 .0295815
750.340 .0295656
751.062 .0295497
751.784 .0295336
752.506 .0295176
753.227 .0295014
753.948 .0294852
754.669 .0294690
755.389 .0294528
756.110 .0294366
756.830 .0294204
757.550 .0294044
758.269 .0293885
758.989 .0293728
759.708 .0293572
760.427 .0293419
761.146 .0293268
761.864 .0293119
762.582 .0292972
763.300 .0292828
764.018 .0292686
764.736 .0292546
765.453 .0292408
766.170 .0292275
766.887 .0292144
767.603 .0292018
768.320 .0291898
769.036 .0291782
769.751 .0291671
770.467 .0291566
771.182 .0291465
771.897 .0291369
772.612 .0291277
773.327 .0291189
774.041 .0291105
774.755 .0291024
775.469 .0290946
776.183 .0290872
776.896 .0290803
777.609 .0290737
778.322 .0290675
779.035 .0290616
779.747 .0290559
780.459 .0290504
781.171 .0290450
781.882 .0290398
782.594 .0290346
783.305 .0290294
784.016 .0290243
784.726 .0290193
785.436 .0290144
786.147 .0290074
786.856 .0290027
787.566 .0289980
788.275 .0289933
788.984 .0289887
789.693 .0289840
790.401 .0289794
791.110 .0289747
791.818 .0289699
792.525 .0289651
793.233 .0289601
793.940 .0289550
794.647 .0289522
795.353 .0289468
796.060 .0289413
796.766 .0289356
797.472 .0289297
798.177 .0289235
798.883 .0289171
799.588 .0289105
800.292 .0289035
800.997 .0288962
801.701 .0288886
802.405 .0288806
803.109 .0288721
803.812 .0288632
804.515 .0288539
805.218 .0288441
805.921 .0288339
806.623 .0288233
807.325 .0288122
808.027 .0288007
808.728 .0287887
809.429 .0287764
810.130 .0287637
810.831 .0287507
811.531 .0287374
812.231 .0287238
812.931 .0287101
813.630 .0286962
814.330 .0286823
815.029 .0286682
815.727 .0286542
816.426 .0286402
817.124 .0286263
817.821 .0286125
818.519 .0285987
819.216 .0285851
819.913 .0285716
820.609 .0285582
821.306 .0285449
822.002 .0285318
822.697 .0285189
823.393 .0285062
824.088 .0284938
824.783 .0284818
825.477 .0284700
826.171 .0284583
826.865 .0284468
827.559 .0284353
828.252 .0284237
828.945 .0284121
829.638 .0284004
830.330 .0283886
831.023 .0283767
831.714 .0283648
832.406 .0283528
833.097 .0283406
833.788 .0283283
834.479 .0283158
835.169 .0283031
835.859 .0282902
836.548 .0282771
837.238 .0282638
837.927 .0282503
838.615 .0282367
839.304 .0282229
839.992 .0282090
840.680 .0281949
841.367 .0281805
842.054 .0281659
842.741 .0281512
843.428 .0281362
844.114 .0281211
844.800 .0281058
845.485 .0280904
846.170 .0280747
846.855 .0280588
847.540 .0280426
848.224 .0280261
848.908 .0280092
849.592 .0279920
850.275 .0279744
850.958 .0279567
851.641 .0279388
852.323 .0279208
853.005 .0279029
853.687 .0278851
854.368 .0278674
855.049 .0278498
855.730 .0278323
856.410 .0278150
857.090 .0277979
857.769 .0277810
858.449 .0277644
859.128 .0277481
859.806 .0277323
860.485 .0277169
861.163 .0277019
861.840 .0276874
862.518 .0276735
863.195 .0276600
863.871 .0276470
864.548 .0276345
865.224 .0276226
865.899 .0276113
866.574 .0276005
867.249 .0275903
867.924 .0275807
868.598 .0275715
869.272 .0275628
869.946 .0275545
870.619 .0275465
871.292 .0275388
871.964 .0275314
872.636 .0275242
873.308 .0275174
873.979 .0275107
874.651 .0275044
875.321 .0274982
875.992 .0274923
876.662 .0274865
877.331 .0274809
878.001 .0274753
878.670 .0274699
879.338 .0274646
880.007 .0274595
880.675 .0274547
881.342 .0274501
882.009 .0274459
882.676 .0274421
883.343 .0274386
884.009 .0274355
884.675 .0274328
885.340 .0274305
886.005 .0274285
886.670 .0274271
887.334 .0274260
887.998 .0274254
888.662 .0274253
889.325 .0274257
889.988 .0274266
890.650 .0274279
891.312 .0274297
891.974 .0274319
892.636 .0274344
893.297 .0274371
893.957 .0274401
894.618 .0274432
895.278 .0274465
895.937 .0274497
896.596 .0274528
897.255 .0274557
897.914 .0274583
898.572 .0274606
899.230 .0274624
899.887 .0274637
900.544 .0274645
901.201 .0274645
901.857 .0274613
902.513 .0274595
903.168 .0274571
903.823 .0274540
904.478 .0274503
905.132 .0274459
905.786 .0274409
906.440 .0274353
907.093 .0274291
907.746 .0274223
908.399 .0274151
909.051 .0274075
909.703 .0273995
910.354 .0273952
911.005 .0273870
911.656 .0273786
912.306 .0273701
912.956 .0273614
913.605 .0273526
914.254 .0273437
914.903 .0273348
915.551 .0273259
916.199 .0273169
916.847 .0273079
917.494 .0272988
918.141 .0272895
918.788 .0272801
919.434 .0272704
920.079 .0272604
920.725 .0272500
921.370 .0272391
922.014 .0272277
922.658 .0272157
923.302 .0272031
923.946 .0271898
924.589 .0271757
925.231 .0271609
925.873 .0271454
926.515 .0271291
927.157 .0271121
927.798 .0270944
928.439 .0270760
929.079 .0270571
929.719 .0270376
930.359 .0270177
930.998 .0269973
931.637 .0269767
932.275 .0269558
932.913 .0269346
933.551 .0269133
934.188 .0268919
934.825 .0268705
935.462 .0268491
936.098 .0268280
936.733 .0268073
937.369 .0267869
938.004 .0267671
938.638 .0267478
939.273 .0267291
939.907 .0267111
940.540 .0266938
941.173 .0266771
941.806 .0266610
942.438 .0266456
943.070 .0266308
943.702 .0266166
944.333 .0266029
944.964 .0265897
945.594 .0265770
946.224 .0265645
946.854 .0265523
947.483 .0265401
948.112 .0265279
948.741 .0265157
949.369 .0265032
949.996 .0264906
950.624 .0264778
951.251 .0264648
951.878 .0264515
952.504 .0264380
953.130 .0264243
953.755 .0264103
954.380 .0263961
955.005 .0263815
955.629 .0263666
956.253 .0263513
956.877 .0263355
957.500 .0263193
958.123 .0263027
958.746 .0262856
959.368 .0262681
959.990 .0262503
960.611 .0262322
961.232 .0262138
961.853 .0261951
962.473 .0261762
963.093 .0261571
963.712 .0261377
964.331 .0261183
964.950 .0260988
965.569 .0260793
966.187 .0260599
966.804 .0260407
967.422 .0260218
968.039 .0260031
968.655 .0259846
969.272 .0259663
969.887 .0259482
970.503 .0259302
971.118 .0259121
971.733 .0258941
972.347 .0258759
972.961 .0258578
973.575 .0258395
974.188 .0258213
974.801 .0258030
975.414 .0257846
976.026 .0257662
976.638 .0257476
977.250 .0257289
977.861 .0257101
978.472 .0256911
979.083 .0256720
979.693 .0256529
980.303 .0256338
980.912 .0256050
981.521 .0255865
982.130 .0255683
982.738 .0255505
983.346 .0255331
983.954 .0255161
984.562 .0254994
985.169 .0254831
985.775 .0254673
986.382 .0254520
986.988 .0254373
987.594 .0254233
988.199 .0254101
988.804 .0253977
989.409 .0253946
990.013 .0253836
990.617 .0253734
991.221 .0253639
991.824 .0253552
992.427 .0253471
993.030 .0253397
993.632 .0253329
994.234 .0253268
994.836 .0253214
995.438 .0253167
996.039 .0253128
996.640 .0253096
997.240 .0253071
997.840 .0253053
998.440 .0253040
999.040 .0253032
999.639 .0253027
1000.238 .0253026
1000.836 .0253027
1001.435 .0253031
1002.033 .0253037
1002.630 .0253045
1003.228 .0253054
1003.825 .0253065
1004.422 .0253078
1005.018 .0253090
1005.614 .0253103
1006.210 .0253113
1006.806 .0253122
1007.401 .0253128
1007.996 .0253133
1008.591 .0253137
1009.186 .0253141
1009.780 .0253145
1010.374 .0253152
1010.967 .0253161
1011.561 .0253173
1012.154 .0253189
1012.746 .0253208
1013.339 .0253229
1013.931 .0253254
1014.523 .0253281
1015.115 .0253312
1015.706 .0253345
1016.298 .0253383
1016.888 .0253425
1017.479 .0253473
1018.069 .0253526
1018.660 .0253585
1019.250 .0253650
1019.839 .0253721
1020.429 .0253798
1021.018 .0253882
1021.607 .0253971
1022.195 .0254067
1022.784 .0254170
1023.372 .0254279
1023.960 .0254396
1024.547 .0254520
1025.135 .0254653
1025.722 .0254795
1026.309 .0254946
1026.896 .0255103
1027.483 .0255268
1028.069 .0255438
1028.655 .0255613
1029.241 .0255791
1029.827 .0255971
1030.412 .0256154
1030.997 .0256338
1031.582 .0256525
1032.167 .0256713
1032.752 .0256903
1033.336 .0257095
1033.921 .0257287
1034.505 .0257480
1035.089 .0257672
1035.672 .0257863
1036.256 .0258050
1036.839 .0258234
1037.422 .0258415
1038.005 .0258592
1038.588 .0258766
1039.171 .0258936
1039.753 .0259103
1040.335 .0259266
1040.918 .0259427
1041.500 .0259583
1042.081 .0259735
1042.663 .0259881
1043.244 .0260022
1043.826 .0260157
1044.407 .0260288
1044.988 .0260414
1045.569 .0260537
1046.150 .0260657
1046.730 .0260776
1047.311 .0260891
1047.891 .0261004
1048.471 .0261113
1049.052 .0261217
1049.632 .0261317
1050.211 .0261412
1050.791 .0261502
1051.371 .0261588
1051.950 .0261671
1052.530 .0261754
1053.109 .0261835
1053.688 .0261916
1054.268 .0261997
1054.847 .0262078
1055.426 .0262159
1056.005 .0262239
1056.583 .0262320
1057.162 .0262401
1057.741 .0262484
1058.319 .0262569
1058.898 .0262658
1059.476 .0262752
1060.055 .0262849
1060.633 .0262950
1061.211 .0263051
1061.790 .0263154
1062.368 .0263254
1062.946 .0263353
1063.524 .0263448
1064.102 .0263541
1064.680 .0263632
1065.258 .0263722
1065.836 .0263812
1066.414 .0263903
1066.992 .0263994
1067.570 .0264085
1068.148 .0264175
1068.726 .0264261
1069.304 .0264343
1069.882 .0264419
1070.460 .0264490
1071.038 .0264557
1071.616 .0264621
1072.194 .0264684
1072.772 .0264746
1073.350 .0264809
1073.928 .0264872
1074.506 .0264934
1075.084 .0264994
1075.662 .0265050
1076.240 .0265101
1076.819 .0265147
1077.397 .0265187
1077.976 .0265224
1078.554 .0265259
1079.133 .0265292
1079.711 .0265325
1080.290 .0265359
1080.869 .0265393
1081.448 .0265428
1082.027 .0265462
1082.606 .0265495
1083.185 .0265526
1083.764 .0265554
1084.343 .0265582
1084.923 .0265609
1085.502 .0265638
1086.082 .0265670
1086.662 .0265707
1087.242 .0265750
1087.822 .0265799
1088.402 .0265855
1088.983 .0265915
1089.563 .0265980
1090.144 .0266046
1090.725 .0266113
1091.306 .0266181
1091.887 .0266250
1092.469 .0266321
1093.050 .0266394
1093.632 .0266470
1094.214 .0266548
1094.796 .0266629
1095.379 .0266712
1095.961 .0266798
1096.544 .0266887
1097.127 .0266979
1097.710 .0267077
1098.294 .0267182
1098.877 .0267297
1099.461 .0267422
1100.046 .0267560
1100.630 .0267712
1101.215 .0267876
1101.800 .0268051
1102.385 .0268235
1102.970 .0268429
1103.556 .0268629
1104.142 .0268836
1104.728 .0269048
1105.315 .0269265
1105.902 .0269487
1106.489 .0269711
1107.077 .0269940
1107.664 .0270170
1108.253 .0270402
1108.841 .0270634
1109.430 .0270866
1110.019 .0271099
1110.609 .0271332
1111.198 .0271571
1111.789 .0271817
1112.379 .0272074
1112.970 .0272343
1113.561 .0272624
1114.153 .0272916
1114.745 .0273220
1115.338 .0273531
1115.931 .0273846
1116.524 .0274163
1117.117 .0274483
1117.712 .0274805
1118.306 .0275132
1118.901 .0275467
1119.496 .0275813
1120.092 .0276172
1120.689 .0276543
1121.285 .0276926
1121.882 .0277319
1122.480 .0277721
1123.078 .0278129
1123.677 .0278545
1124.276 .0278971
1124.875 .0279411
1125.476 .0279869
1126.076 .0280348
1126.677 .0280852
1127.279 .0281382
1127.881 .0281939
1128.484 .0282520
1129.087 .0282777
1129.691 .0283388
1130.295 .0284014
1130.900 .0284656
1131.505 .0285312
1132.111 .0285982
1132.718 .0286671
1133.325 .0287384
1133.933 .0288126
1134.541 .0288863
1135.150 .0289668
1135.760 .0290458
1136.370 .0291413
1136.981 .0291863
1137.592 .0292787
1138.204 .0293685
1138.817 .0294567
1139.431 .0295424
1140.045 .0296331
1140.660 .0297261
1141.275 .0298372
1141.891 .0299565
1142.508 .0299860
1143.126 .0302231
1143.744 .0302303
1144.363 .0307454
1144.983 .0307624
