Measurement Sequence started on: 15-12-46-377
Integration time: 28
Scans to Average: 2 
>>>>>Begin Spectral Data<<<<<
432.689 .0000100
433.621 .0000100
434.552 .0000100
435.482 .0000100
436.410 .0000100
437.337 .0000100
438.262 .0288632
439.187 .0610331
440.110 .1009896
441.031 .1460445
441.952 .1170626
442.871 .1222632
443.789 .1270958
444.705 .1316327
445.621 .1359269
446.535 .1400197
447.447 .1424234
448.359 .1429898
449.269 .1413293
450.178 .1371885
451.086 .1306517
451.993 .1222197
452.898 .1127203
453.803 .1030907
454.706 .0941271
455.608 .0863247
456.508 .0798496
457.408 .0754461
458.306 .0720429
459.204 .0692634
460.100 .0669224
460.995 .0649155
461.888 .0631726
462.781 .0616429
463.673 .0602866
464.563 .0590744
465.452 .0579818
466.340 .0569900
467.228 .0560859
468.114 .0552585
468.999 .0544996
469.882 .0538033
470.765 .0531642
471.647 .0525784
472.528 .0520417
473.407 .0515501
474.286 .0510995
475.163 .0506866
476.040 .0503075
476.915 .0499597
477.790 .0496412
478.663 .0493514
479.535 .0490903
480.407 .0488585
481.277 .0486561
482.147 .0484836
483.015 .0483412
483.883 .0482284
484.749 .0481446
485.615 .0480888
486.479 .0480596
487.343 .0480560
488.206 .0480772
489.067 .0481229
489.928 .0481931
490.788 .0482884
491.647 .0484093
492.505 .0485560
493.362 .0487285
494.218 .0489258
495.073 .0491465
495.928 .0495474
496.781 .0498149
497.634 .0500988
498.486 .0503986
499.337 .0507145
500.187 .0510479
501.036 .0514009
501.884 .0517766
502.731 .0521790
503.578 .0526122
504.424 .0528906
505.268 .0533870
506.113 .0539280
506.956 .0545184
507.798 .0551645
508.640 .0558749
509.480 .0566597
510.320 .0575316
511.160 .0585044
511.998 .0595944
512.836 .0608206
513.672 .0622029
514.508 .0637644
515.344 .0655296
516.178 .0675254
517.012 .0697787
517.845 .0723134
518.677 .0751513
519.508 .0783118
520.339 .0818026
521.169 .0856286
521.998 .0897656
522.826 .0941774
523.654 .0988090
524.481 .1035910
525.307 .1084408
526.133 .1132657
526.958 .1179656
527.782 .1224402
528.605 .1265954
529.428 .1303520
530.250 .1336314
531.072 .1363860
531.892 .1385747
532.712 .1401700
533.532 .1411534
534.350 .1415166
535.168 .1412604
535.986 .1403927
536.802 .1389197
537.618 .1368529
538.434 .1342057
539.249 .1310223
540.063 .1273529
540.876 .1232632
541.689 .1188334
542.501 .1141534
543.313 .1093166
544.124 .1044220
544.934 .0995637
545.744 .0948277
546.553 .0902836
547.361 .0859965
548.169 .0820002
548.976 .0783188
549.783 .0749602
550.589 .0719196
551.395 .0691803
552.200 .0667188
553.004 .0645038
553.808 .0625082
554.611 .0607088
555.414 .0590835
556.216 .0576072
557.018 .0562610
557.819 .0550286
558.619 .0538933
559.419 .0528413
560.218 .0518634
561.017 .0509501
561.815 .0500952
562.613 .0492930
563.410 .0485374
564.207 .0478230
565.003 .0471446
565.799 .0464966
566.594 .0458741
567.388 .0452737
568.182 .0446922
568.976 .0441270
569.769 .0435776
570.562 .0430433
571.354 .0425241
572.145 .0420207
572.936 .0415337
573.727 .0410634
574.517 .0406098
575.307 .0401735
576.096 .0397543
576.885 .0393520
577.673 .0389670
578.461 .0385990
579.248 .0382483
580.035 .0379152
580.821 .0375995
581.607 .0373014
582.392 .0370210
583.177 .0367580
583.962 .0365118
584.746 .0362820
585.529 .0360680
586.313 .0358688
587.095 .0356838
587.878 .0355124
588.660 .0353537
589.441 .0352074
590.222 .0350727
591.003 .0349488
591.783 .0348348
592.563 .0347300
593.342 .0346332
594.121 .0345434
594.899 .0344598
595.678 .0343817
596.455 .0343082
597.233 .0342391
598.009 .0341737
598.786 .0341116
599.562 .0340526
600.338 .0339962
601.113 .0339424
601.888 .0338677
602.663 .0338186
603.437 .0337712
604.211 .0337253
604.984 .0336809
605.757 .0336378
606.530 .0335961
607.302 .0335557
608.074 .0335166
608.845 .0334789
609.616 .0334426
610.387 .0334281
611.158 .0333937
611.928 .0333606
612.697 .0333286
613.467 .0332975
614.236 .0332674
615.004 .0332380
615.773 .0332093
616.541 .0331811
617.308 .0331533
618.076 .0331257
618.843 .0330981
619.609 .0330704
620.375 .0330424
621.141 .0330140
621.907 .0329851
622.672 .0329556
623.437 .0329255
624.202 .0328946
624.966 .0328631
625.730 .0328308
626.493 .0327978
627.257 .0327641
628.020 .0327298
628.782 .0326949
629.545 .0326595
630.307 .0326237
631.068 .0325878
631.830 .0325518
632.591 .0325159
633.352 .0324801
634.112 .0324446
634.872 .0324095
635.632 .0323747
636.392 .0323405
637.151 .0323069
637.910 .0322738
638.668 .0322414
639.427 .0322098
640.185 .0321790
640.943 .0321490
641.700 .0321199
642.457 .0320917
643.214 .0320642
643.971 .0320375
644.727 .0320115
645.483 .0319860
646.239 .0319610
646.994 .0319364
647.750 .0319122
648.505 .0318883
649.259 .0318647
650.014 .0318415
650.768 .0318185
651.521 .0317959
652.275 .0317734
653.028 .0317512
653.781 .0317291
654.534 .0317071
655.286 .0316852
656.039 .0316633
656.791 .0316415
657.542 .0316195
658.294 .0315975
659.045 .0315753
659.796 .0315530
660.546 .0315306
661.297 .0315081
662.047 .0314856
662.796 .0314630
663.546 .0314406
664.295 .0314184
665.044 .0313963
665.793 .0313743
666.542 .0313524
667.290 .0313305
668.038 .0313085
668.786 .0312864
669.533 .0312643
670.281 .0312422
671.028 .0312202
671.774 .0311983
672.521 .0311766
673.267 .0311550
674.013 .0311336
674.759 .0311123
675.505 .0310911
676.250 .0310700
676.995 .0310490
677.740 .0310280
678.484 .0310072
679.229 .0309865
679.973 .0309659
680.717 .0309454
681.460 .0309251
682.204 .0309047
682.947 .0308843
683.690 .0308638
684.433 .0308432
685.175 .0308226
685.917 .0308018
686.659 .0307811
687.401 .0307602
688.142 .0307391
688.884 .0307179
689.625 .0306965
690.365 .0306748
691.106 .0306528
691.846 .0306306
692.586 .0306080
693.326 .0305851
694.066 .0305620
694.805 .0305388
695.545 .0305155
696.284 .0304922
697.022 .0304690
697.761 .0304459
698.499 .0304230
699.237 .0304004
699.975 .0303782
700.713 .0303563
701.450 .0303348
702.187 .0303137
702.924 .0302929
703.661 .0302725
704.397 .0302525
705.133 .0302329
705.869 .0302136
706.605 .0301948
707.341 .0301764
708.076 .0301585
708.811 .0301409
709.546 .0301237
710.281 .0301066
711.015 .0300898
711.749 .0300729
712.483 .0300559
713.217 .0300388
713.950 .0300215
714.684 .0300040
715.417 .0299862
716.150 .0299681
716.882 .0299497
717.615 .0299309
718.347 .0299119
719.079 .0298925
719.811 .0298729
720.542 .0298529
721.273 .0298328
722.005 .0298126
722.735 .0297923
723.466 .0297720
724.196 .0297519
724.927 .0297320
725.656 .0297123
726.386 .0296930
727.116 .0296742
727.845 .0296559
728.574 .0296382
729.303 .0296211
730.031 .0296046
730.760 .0295889
731.488 .0295739
732.216 .0295595
732.944 .0295456
733.671 .0295323
734.398 .0295194
735.125 .0295071
735.852 .0294951
736.579 .0294836
737.305 .0294724
738.031 .0294616
738.757 .0294512
739.483 .0294409
740.208 .0294307
740.933 .0294206
741.658 .0294103
742.383 .0294000
743.108 .0293894
743.832 .0293787
744.556 .0293678
745.280 .0293566
746.004 .0293453
746.727 .0293338
747.450 .0293220
748.173 .0293100
748.896 .0292976
749.618 .0292850
750.340 .0292722
751.062 .0292591
751.784 .0292459
752.506 .0292325
753.227 .0292190
753.948 .0292054
754.669 .0291917
755.389 .0291778
756.110 .0291638
756.830 .0291497
757.550 .0291354
758.269 .0291212
758.989 .0291069
759.708 .0290927
760.427 .0290785
761.146 .0290644
761.864 .0290502
762.582 .0290359
763.300 .0290214
764.018 .0290067
764.736 .0289917
765.453 .0289765
766.170 .0289612
766.887 .0289458
767.603 .0289303
768.320 .0289149
769.036 .0288996
769.751 .0288844
770.467 .0288693
771.182 .0288543
771.897 .0288395
772.612 .0288248
773.327 .0288102
774.041 .0287958
774.755 .0287816
775.469 .0287677
776.183 .0287541
776.896 .0287408
777.609 .0287279
778.322 .0287155
779.035 .0287035
779.747 .0286920
780.459 .0286809
781.171 .0286702
781.882 .0286598
782.594 .0286498
783.305 .0286401
784.016 .0286307
784.726 .0286216
785.436 .0286128
786.147 .0286008
786.856 .0285929
787.566 .0285852
788.275 .0285777
788.984 .0285704
789.693 .0285632
790.401 .0285560
791.110 .0285488
791.818 .0285415
792.525 .0285341
793.233 .0285264
793.940 .0285184
794.647 .0285138
795.353 .0285054
796.060 .0284967
796.766 .0284876
797.472 .0284782
798.177 .0284684
798.883 .0284583
799.588 .0284478
800.292 .0284371
800.997 .0284260
801.701 .0284147
802.405 .0284030
803.109 .0283911
803.812 .0283789
804.515 .0283664
805.218 .0283536
805.921 .0283407
806.623 .0283277
807.325 .0283146
808.027 .0283015
808.728 .0282885
809.429 .0282757
810.130 .0282630
810.831 .0282506
811.531 .0282384
812.231 .0282264
812.931 .0282147
813.630 .0282033
814.330 .0281923
815.029 .0281817
815.727 .0281716
816.426 .0281621
817.124 .0281531
817.821 .0281446
818.519 .0281366
819.216 .0281290
819.913 .0281217
820.609 .0281147
821.306 .0281079
822.002 .0281013
822.697 .0280949
823.393 .0280886
824.088 .0280826
824.783 .0280767
825.477 .0280709
826.171 .0280652
826.865 .0280595
827.559 .0280537
828.252 .0280477
828.945 .0280415
829.638 .0280352
830.330 .0280288
831.023 .0280222
831.714 .0280157
832.406 .0280091
833.097 .0280025
833.788 .0279959
834.479 .0279892
835.169 .0279824
835.859 .0279754
836.548 .0279685
837.238 .0279614
837.927 .0279544
838.615 .0279474
839.304 .0279405
839.992 .0279337
840.680 .0279270
841.367 .0279204
842.054 .0279137
842.741 .0279069
843.428 .0279001
844.114 .0278932
844.800 .0278861
845.485 .0278789
846.170 .0278714
846.855 .0278638
847.540 .0278558
848.224 .0278476
848.908 .0278389
849.592 .0278298
850.275 .0278202
850.958 .0278101
851.641 .0277994
852.323 .0277883
853.005 .0277766
853.687 .0277645
854.368 .0277519
855.049 .0277389
855.730 .0277254
856.410 .0277114
857.090 .0276970
857.769 .0276823
858.449 .0276673
859.128 .0276520
859.806 .0276367
860.485 .0276213
861.163 .0276060
861.840 .0275908
862.518 .0275758
863.195 .0275608
863.871 .0275459
864.548 .0275311
865.224 .0275164
865.899 .0275017
866.574 .0274870
867.249 .0274724
867.924 .0274578
868.598 .0274434
869.272 .0274292
869.946 .0274150
870.619 .0274009
871.292 .0273869
871.964 .0273730
872.636 .0273590
873.308 .0273452
873.979 .0273313
874.651 .0273175
875.321 .0273037
875.992 .0272900
876.662 .0272762
877.331 .0272626
878.001 .0272489
878.670 .0272352
879.338 .0272216
880.007 .0272081
880.675 .0271947
881.342 .0271814
882.009 .0271684
882.676 .0271557
883.343 .0271432
884.009 .0271311
884.675 .0271192
885.340 .0271077
886.005 .0270965
886.670 .0270857
887.334 .0270754
887.998 .0270655
888.662 .0270561
889.325 .0270472
889.988 .0270387
890.650 .0270306
891.312 .0270228
891.974 .0270153
892.636 .0270080
893.297 .0270009
893.957 .0269939
894.618 .0269871
895.278 .0269804
895.937 .0269738
896.596 .0269673
897.255 .0269608
897.914 .0269543
898.572 .0269476
899.230 .0269406
899.887 .0269333
900.544 .0269257
901.201 .0269177
901.857 .0269035
902.513 .0268943
903.168 .0268846
903.823 .0268744
904.478 .0268637
905.132 .0268525
905.786 .0268407
906.440 .0268284
907.093 .0268155
907.746 .0268021
908.399 .0267883
909.051 .0267741
909.703 .0267595
910.354 .0267513
911.005 .0267365
911.656 .0267217
912.306 .0267066
912.956 .0266915
913.605 .0266762
914.254 .0266608
914.903 .0266453
915.551 .0266298
916.199 .0266142
916.847 .0265985
917.494 .0265829
918.141 .0265672
918.788 .0265515
919.434 .0265359
920.079 .0265202
920.725 .0265044
921.370 .0264886
922.014 .0264727
922.658 .0264566
923.302 .0264405
923.946 .0264243
924.589 .0264081
925.231 .0263919
925.873 .0263757
926.515 .0263595
927.157 .0263433
927.798 .0263272
928.439 .0263111
929.079 .0262949
929.719 .0262789
930.359 .0262630
930.998 .0262472
931.637 .0262318
932.275 .0262167
932.913 .0262020
933.551 .0261880
934.188 .0261745
934.825 .0261618
935.462 .0261498
936.098 .0261386
936.733 .0261282
937.369 .0261187
938.004 .0261100
938.638 .0261021
939.273 .0260951
939.907 .0260889
940.540 .0260836
941.173 .0260791
941.806 .0260754
942.438 .0260726
943.070 .0260705
943.702 .0260690
944.333 .0260681
944.964 .0260677
945.594 .0260676
946.224 .0260676
946.854 .0260678
947.483 .0260680
948.112 .0260682
948.741 .0260682
949.369 .0260680
949.996 .0260677
950.624 .0260671
951.251 .0260662
951.878 .0260649
952.504 .0260632
953.130 .0260609
953.755 .0260579
954.380 .0260544
955.005 .0260502
955.629 .0260454
956.253 .0260401
956.877 .0260345
957.500 .0260285
958.123 .0260222
958.746 .0260158
959.368 .0260092
959.990 .0260025
960.611 .0259957
961.232 .0259889
961.853 .0259822
962.473 .0259755
963.093 .0259691
963.712 .0259630
964.331 .0259572
964.950 .0259519
965.569 .0259469
966.187 .0259422
966.804 .0259379
967.422 .0259338
968.039 .0259299
968.655 .0259260
969.272 .0259222
969.887 .0259185
970.503 .0259149
971.118 .0259114
971.733 .0259080
972.347 .0259047
972.961 .0259013
973.575 .0258977
974.188 .0258940
974.801 .0258899
975.414 .0258853
976.026 .0258803
976.638 .0258748
977.250 .0258687
977.861 .0258622
978.472 .0258551
979.083 .0258475
979.693 .0258394
980.303 .0258308
980.912 .0258158
981.521 .0258063
982.130 .0257964
982.738 .0257862
983.346 .0257759
983.954 .0257656
984.562 .0257554
985.169 .0257454
985.775 .0257358
986.382 .0257265
986.988 .0257176
987.594 .0257090
988.199 .0257008
988.804 .0256930
989.409 .0256909
990.013 .0256838
990.617 .0256772
991.221 .0256710
991.824 .0256654
992.427 .0256602
993.030 .0256555
993.632 .0256512
994.234 .0256473
994.836 .0256438
995.438 .0256405
996.039 .0256376
996.640 .0256350
997.240 .0256327
997.840 .0256307
998.440 .0256291
999.040 .0256278
999.639 .0256267
1000.238 .0256258
1000.836 .0256250
1001.435 .0256241
1002.033 .0256232
1002.630 .0256222
1003.228 .0256210
1003.825 .0256196
1004.422 .0256180
1005.018 .0256162
1005.614 .0256142
1006.210 .0256119
1006.806 .0256095
1007.401 .0256067
1007.996 .0256037
1008.591 .0256003
1009.186 .0255965
1009.780 .0255923
1010.374 .0255877
1010.967 .0255828
1011.561 .0255776
1012.154 .0255721
1012.746 .0255664
1013.339 .0255605
1013.931 .0255544
1014.523 .0255480
1015.115 .0255415
1015.706 .0255347
1016.298 .0255277
1016.888 .0255206
1017.479 .0255135
1018.069 .0255065
1018.660 .0254998
1019.250 .0254932
1019.839 .0254870
1020.429 .0254811
1021.018 .0254754
1021.607 .0254701
1022.195 .0254650
1022.784 .0254601
1023.372 .0254554
1023.960 .0254510
1024.547 .0254469
1025.135 .0254431
1025.722 .0254397
1026.309 .0254367
1026.896 .0254341
1027.483 .0254318
1028.069 .0254299
1028.655 .0254282
1029.241 .0254268
1029.827 .0254256
1030.412 .0254246
1030.997 .0254238
1031.582 .0254234
1032.167 .0254232
1032.752 .0254233
1033.336 .0254235
1033.921 .0254238
1034.505 .0254239
1035.089 .0254237
1035.672 .0254232
1036.256 .0254220
1036.839 .0254203
1037.422 .0254180
1038.005 .0254151
1038.588 .0254116
1039.171 .0254077
1039.753 .0254034
1040.335 .0253988
1040.918 .0253940
1041.500 .0253889
1042.081 .0253838
1042.663 .0253785
1043.244 .0253732
1043.826 .0253679
1044.407 .0253628
1044.988 .0253578
1045.569 .0253529
1046.150 .0253484
1046.730 .0253441
1047.311 .0253400
1047.891 .0253362
1048.471 .0253325
1049.052 .0253288
1049.632 .0253252
1050.211 .0253215
1050.791 .0253177
1051.371 .0253139
1051.950 .0253100
1052.530 .0253061
1053.109 .0253024
1053.688 .0252989
1054.268 .0252958
1054.847 .0252932
1055.426 .0252911
1056.005 .0252895
1056.583 .0252885
1057.162 .0252880
1057.741 .0252878
1058.319 .0252880
1058.898 .0252884
1059.476 .0252889
1060.055 .0252895
1060.633 .0252902
1061.211 .0252910
1061.790 .0252917
1062.368 .0252923
1062.946 .0252929
1063.524 .0252933
1064.102 .0252935
1064.680 .0252936
1065.258 .0252934
1065.836 .0252931
1066.414 .0252927
1066.992 .0252924
1067.570 .0252922
1068.148 .0252923
1068.726 .0252927
1069.304 .0252935
1069.882 .0252946
1070.460 .0252959
1071.038 .0252974
1071.616 .0252989
1072.194 .0253004
1072.772 .0253019
1073.350 .0253033
1073.928 .0253048
1074.506 .0253064
1075.084 .0253082
1075.662 .0253101
1076.240 .0253122
1076.819 .0253145
1077.397 .0253169
1077.976 .0253195
1078.554 .0253224
1079.133 .0253256
1079.711 .0253292
1080.290 .0253334
1080.869 .0253382
1081.448 .0253437
1082.027 .0253500
1082.606 .0253569
1083.185 .0253643
1083.764 .0253723
1084.343 .0253806
1084.923 .0253892
1085.502 .0253980
1086.082 .0254071
1086.662 .0254166
1087.242 .0254267
1087.822 .0254374
1088.402 .0254491
1088.983 .0254617
1089.563 .0254753
1090.144 .0254897
1090.725 .0255048
1091.306 .0255204
1091.887 .0255364
1092.469 .0255526
1093.050 .0255690
1093.632 .0255858
1094.214 .0256031
1094.796 .0256209
1095.379 .0256392
1095.961 .0256581
1096.544 .0256772
1097.127 .0256964
1097.710 .0257155
1098.294 .0257344
1098.877 .0257529
1099.461 .0257712
1100.046 .0257894
1100.630 .0258079
1101.215 .0258267
1101.800 .0258460
1102.385 .0258659
1102.970 .0258863
1103.556 .0259068
1104.142 .0259274
1104.728 .0259478
1105.315 .0259679
1105.902 .0259876
1106.489 .0260072
1107.077 .0260269
1107.664 .0260469
1108.253 .0260674
1108.841 .0260887
1109.430 .0261109
1110.019 .0261339
1110.609 .0261577
1111.198 .0261822
1111.789 .0262074
1112.379 .0262333
1112.970 .0262600
1113.561 .0262876
1114.153 .0263164
1114.745 .0263467
1115.338 .0263785
1115.931 .0264120
1116.524 .0264475
1117.117 .0264848
1117.712 .0265242
1118.306 .0265655
1118.901 .0266088
1119.496 .0266541
1120.092 .0267012
1120.689 .0267504
1121.285 .0268016
1121.882 .0268549
1122.480 .0269105
1123.078 .0269686
1123.677 .0270295
1124.276 .0270932
1124.875 .0271601
1125.476 .0272303
1126.076 .0273037
1126.677 .0273801
1127.279 .0274595
1127.881 .0275414
1128.484 .0276259
1129.087 .0276614
1129.691 .0277496
1130.295 .0278401
1130.900 .0279330
1131.505 .0280285
1132.111 .0281269
1132.718 .0282279
1133.325 .0283318
1133.933 .0284385
1134.541 .0285515
1135.150 .0286610
1135.760 .0287702
1136.370 .0288881
1136.981 .0290393
1137.592 .0291466
1138.204 .0292559
1138.817 .0293735
1139.431 .0294997
1140.045 .0296311
1140.660 .0297637
1141.275 .0299032
1141.891 .0300466
1142.508 .0302927
1143.126 .0302700
1143.744 .0303371
1144.363 .0306631
1144.983 .0308211
