Measurement Sequence started on: 15-12-46-377
Integration time: 28
Scans to Average: 2 
>>>>>Begin Spectral Data<<<<<
432.689 .0000100
433.621 .0000100
434.552 .0000100
435.482 .0000100
436.410 .0000100
437.337 .0000100
438.262 .0266068
439.187 .0564157
440.110 .0935469
441.031 .1354176
441.952 .1085788
442.871 .1133678
443.789 .1178225
444.705 .1220145
445.621 .1259944
446.535 .1298006
447.447 .1320582
448.359 .1326196
449.269 .1311165
450.178 .1273119
451.086 .1212800
451.993 .1134837
452.898 .1046928
453.803 .0957836
454.706 .0875009
455.608 .0803096
456.508 .0743681
457.408 .0703620
458.306 .0673023
459.204 .0648313
460.100 .0627643
460.995 .0609976
461.888 .0594612
462.781 .0581070
463.673 .0568979
464.563 .0558113
465.452 .0548278
466.340 .0539319
467.228 .0531136
468.114 .0523638
468.999 .0516753
469.882 .0510415
470.765 .0504563
471.647 .0499150
472.528 .0494141
473.407 .0489502
474.286 .0485212
475.163 .0481264
476.040 .0477644
476.915 .0474346
477.790 .0471363
478.663 .0468694
479.535 .0466329
480.407 .0464268
481.277 .0462499
482.147 .0461007
483.015 .0459780
483.883 .0458794
484.749 .0458029
485.615 .0457464
486.479 .0457082
487.343 .0456867
488.206 .0456815
489.067 .0456922
489.928 .0457190
490.788 .0457629
491.647 .0458244
492.505 .0459034
493.362 .0460003
494.218 .0461149
495.073 .0462468
495.928 .0465052
496.781 .0466813
497.634 .0468751
498.486 .0470880
499.337 .0473223
500.187 .0475811
501.036 .0478677
501.884 .0481856
502.731 .0485389
503.578 .0489307
504.424 .0492085
505.268 .0496679
506.113 .0501735
506.956 .0507281
507.798 .0513353
508.640 .0520008
509.480 .0527326
510.320 .0535395
511.160 .0544323
511.998 .0554243
512.836 .0565324
513.672 .0577733
514.508 .0591655
515.344 .0607308
516.178 .0624900
517.012 .0644661
517.845 .0666808
518.677 .0691584
519.508 .0719216
520.339 .0749828
521.169 .0783476
521.998 .0819992
522.826 .0859067
523.654 .0900194
524.481 .0942699
525.307 .0985842
526.133 .1028777
526.958 .1070599
527.782 .1110449
528.605 .1147549
529.428 .1181214
530.250 .1210822
531.072 .1235914
531.892 .1256124
532.712 .1271160
533.532 .1280851
534.350 .1285094
535.168 .1283865
535.986 .1277175
536.802 .1265011
537.618 .1247429
538.434 .1224566
539.249 .1196750
540.063 .1164453
540.876 .1128287
541.689 .1089020
542.501 .1047453
543.313 .1004444
544.124 .0960897
544.934 .0917646
545.744 .0875418
546.553 .0834824
547.361 .0796375
548.169 .0760410
548.976 .0727161
549.783 .0696739
550.589 .0669133
551.395 .0644230
552.200 .0621839
553.004 .0601698
553.808 .0583577
554.611 .0567264
555.414 .0552540
556.216 .0539210
557.018 .0527085
557.819 .0516014
558.619 .0505860
559.419 .0496515
560.218 .0487889
561.017 .0479891
561.815 .0472440
562.613 .0465464
563.410 .0458891
564.207 .0452654
565.003 .0446696
565.799 .0440969
566.594 .0435427
567.388 .0430040
568.182 .0424785
568.976 .0419640
569.769 .0414595
570.562 .0409646
571.354 .0404793
572.145 .0400041
572.936 .0395395
573.727 .0390860
574.517 .0386442
575.307 .0382150
576.096 .0377985
576.885 .0373960
577.673 .0370088
578.461 .0366381
579.248 .0362852
580.035 .0359513
580.821 .0356375
581.607 .0353438
582.392 .0350704
583.177 .0348165
583.962 .0345813
584.746 .0343638
585.529 .0341629
586.313 .0339776
587.095 .0338070
587.878 .0336502
588.660 .0335063
589.441 .0333746
590.222 .0332543
591.003 .0331446
591.783 .0330447
592.563 .0329536
593.342 .0328704
594.121 .0327940
594.899 .0327237
595.678 .0326585
596.455 .0325976
597.233 .0325402
598.009 .0324857
598.786 .0324336
599.562 .0323832
600.338 .0323343
601.113 .0322865
601.888 .0322179
602.663 .0321729
603.437 .0321289
604.211 .0320858
604.984 .0320435
605.757 .0320022
606.530 .0319618
607.302 .0319222
608.074 .0318836
608.845 .0318459
609.616 .0318094
610.387 .0317945
611.158 .0317597
611.928 .0317262
612.697 .0316939
613.467 .0316629
614.236 .0316330
615.004 .0316042
615.773 .0315764
616.541 .0315493
617.308 .0315229
618.076 .0314970
618.843 .0314715
619.609 .0314463
620.375 .0314213
621.141 .0313964
621.907 .0313716
622.672 .0313468
623.437 .0313219
624.202 .0312969
624.966 .0312718
625.730 .0312465
626.493 .0312211
627.257 .0311954
628.020 .0311696
628.782 .0311435
629.545 .0311172
630.307 .0310907
631.068 .0310641
631.830 .0310373
632.591 .0310104
633.352 .0309836
634.112 .0309568
634.872 .0309301
635.632 .0309036
636.392 .0308771
637.151 .0308509
637.910 .0308248
638.668 .0307988
639.427 .0307730
640.185 .0307473
640.943 .0307217
641.700 .0306963
642.457 .0306710
643.214 .0306460
643.971 .0306213
644.727 .0305968
645.483 .0305727
646.239 .0305488
646.994 .0305253
647.750 .0305020
648.505 .0304789
649.259 .0304559
650.014 .0304329
650.768 .0304099
651.521 .0303868
652.275 .0303636
653.028 .0303404
653.781 .0303172
654.534 .0302941
655.286 .0302711
656.039 .0302482
656.791 .0302255
657.542 .0302029
658.294 .0301805
659.045 .0301581
659.796 .0301358
660.546 .0301135
661.297 .0300912
662.047 .0300688
662.796 .0300465
663.546 .0300243
664.295 .0300022
665.044 .0299802
665.793 .0299586
666.542 .0299373
667.290 .0299164
668.038 .0298959
668.786 .0298757
669.533 .0298559
670.281 .0298363
671.028 .0298169
671.774 .0297978
672.521 .0297788
673.267 .0297601
674.013 .0297416
674.759 .0297234
675.505 .0297055
676.250 .0296879
676.995 .0296707
677.740 .0296537
678.484 .0296371
679.229 .0296206
679.973 .0296043
680.717 .0295881
681.460 .0295718
682.204 .0295554
682.947 .0295389
683.690 .0295222
684.433 .0295053
685.175 .0294883
685.917 .0294712
686.659 .0294539
687.401 .0294367
688.142 .0294193
688.884 .0294018
689.625 .0293841
690.365 .0293662
691.106 .0293480
691.846 .0293295
692.586 .0293108
693.326 .0292920
694.066 .0292732
694.805 .0292544
695.545 .0292358
696.284 .0292172
697.022 .0291989
697.761 .0291807
698.499 .0291626
699.237 .0291446
699.975 .0291267
700.713 .0291089
701.450 .0290913
702.187 .0290738
702.924 .0290565
703.661 .0290394
704.397 .0290225
705.133 .0290058
705.869 .0289893
706.605 .0289728
707.341 .0289565
708.076 .0289403
708.811 .0289241
709.546 .0289078
710.281 .0288914
711.015 .0288748
711.749 .0288580
712.483 .0288410
713.217 .0288237
713.950 .0288061
714.684 .0287885
715.417 .0287707
716.150 .0287528
716.882 .0287349
717.615 .0287170
718.347 .0286989
719.079 .0286807
719.811 .0286623
720.542 .0286439
721.273 .0286252
722.005 .0286065
722.735 .0285878
723.466 .0285692
724.196 .0285507
724.927 .0285325
725.656 .0285147
726.386 .0284972
727.116 .0284802
727.845 .0284636
728.574 .0284473
729.303 .0284313
730.031 .0284156
730.760 .0284001
731.488 .0283849
732.216 .0283698
732.944 .0283549
733.671 .0283402
734.398 .0283258
735.125 .0283115
735.852 .0282974
736.579 .0282836
737.305 .0282700
738.031 .0282565
738.757 .0282432
739.483 .0282299
740.208 .0282167
740.933 .0282035
741.658 .0281904
742.383 .0281771
743.108 .0281638
743.832 .0281504
744.556 .0281370
745.280 .0281236
746.004 .0281102
746.727 .0280968
747.450 .0280835
748.173 .0280703
748.896 .0280571
749.618 .0280440
750.340 .0280308
751.062 .0280176
751.784 .0280044
752.506 .0279910
753.227 .0279775
753.948 .0279639
754.669 .0279502
755.389 .0279365
756.110 .0279226
756.830 .0279087
757.550 .0278947
758.269 .0278807
758.989 .0278666
759.708 .0278523
760.427 .0278379
761.146 .0278234
761.864 .0278087
762.582 .0277937
763.300 .0277786
764.018 .0277633
764.736 .0277478
765.453 .0277322
766.170 .0277164
766.887 .0277005
767.603 .0276846
768.320 .0276687
769.036 .0276530
769.751 .0276374
770.467 .0276221
771.182 .0276071
771.897 .0275924
772.612 .0275780
773.327 .0275639
774.041 .0275501
774.755 .0275366
775.469 .0275235
776.183 .0275108
776.896 .0274985
777.609 .0274867
778.322 .0274753
779.035 .0274645
779.747 .0274541
780.459 .0274443
781.171 .0274349
781.882 .0274261
782.594 .0274178
783.305 .0274099
784.016 .0274024
784.726 .0273953
785.436 .0273884
786.147 .0273785
786.856 .0273716
787.566 .0273647
788.275 .0273576
788.984 .0273504
789.693 .0273429
790.401 .0273351
791.110 .0273271
791.818 .0273186
792.525 .0273098
793.233 .0273005
793.940 .0272907
794.647 .0272842
795.353 .0272736
796.060 .0272626
796.766 .0272511
797.472 .0272391
798.177 .0272267
798.883 .0272139
799.588 .0272007
800.292 .0271872
800.997 .0271735
801.701 .0271596
802.405 .0271455
803.109 .0271313
803.812 .0271169
804.515 .0271024
805.218 .0270878
805.921 .0270730
806.623 .0270581
807.325 .0270431
808.027 .0270280
808.728 .0270128
809.429 .0269976
810.130 .0269824
810.831 .0269673
811.531 .0269523
812.231 .0269374
812.931 .0269226
813.630 .0269080
814.330 .0268936
815.029 .0268795
815.727 .0268658
816.426 .0268524
817.124 .0268395
817.821 .0268269
818.519 .0268148
819.216 .0268031
819.913 .0267918
820.609 .0267809
821.306 .0267703
822.002 .0267603
822.697 .0267507
823.393 .0267417
824.088 .0267333
824.783 .0267254
825.477 .0267180
826.171 .0267110
826.865 .0267044
827.559 .0266980
828.252 .0266918
828.945 .0266858
829.638 .0266799
830.330 .0266742
831.023 .0266685
831.714 .0266630
832.406 .0266574
833.097 .0266517
833.788 .0266458
834.479 .0266396
835.169 .0266331
835.859 .0266263
836.548 .0266191
837.238 .0266116
837.927 .0266039
838.615 .0265958
839.304 .0265875
839.992 .0265790
840.680 .0265701
841.367 .0265610
842.054 .0265515
842.741 .0265418
843.428 .0265318
844.114 .0265216
844.800 .0265113
845.485 .0265009
846.170 .0264903
846.855 .0264797
847.540 .0264689
848.224 .0264579
848.908 .0264467
849.592 .0264353
850.275 .0264236
850.958 .0264117
851.641 .0263996
852.323 .0263874
853.005 .0263750
853.687 .0263626
854.368 .0263502
855.049 .0263376
855.730 .0263250
856.410 .0263124
857.090 .0262998
857.769 .0262873
858.449 .0262748
859.128 .0262625
859.806 .0262504
860.485 .0262384
861.163 .0262265
861.840 .0262148
862.518 .0262032
863.195 .0261918
863.871 .0261806
864.548 .0261697
865.224 .0261591
865.899 .0261489
866.574 .0261391
867.249 .0261296
867.924 .0261205
868.598 .0261116
869.272 .0261030
869.946 .0260947
870.619 .0260867
871.292 .0260788
871.964 .0260714
872.636 .0260642
873.308 .0260574
873.979 .0260509
874.651 .0260447
875.321 .0260387
875.992 .0260329
876.662 .0260272
877.331 .0260216
878.001 .0260161
878.670 .0260107
879.338 .0260054
880.007 .0260001
880.675 .0259950
881.342 .0259900
882.009 .0259850
882.676 .0259801
883.343 .0259752
884.009 .0259705
884.675 .0259659
885.340 .0259614
886.005 .0259573
886.670 .0259534
887.334 .0259499
887.998 .0259466
888.662 .0259437
889.325 .0259410
889.988 .0259385
890.650 .0259362
891.312 .0259341
891.974 .0259322
892.636 .0259306
893.297 .0259291
893.957 .0259280
894.618 .0259270
895.278 .0259262
895.937 .0259253
896.596 .0259244
897.255 .0259233
897.914 .0259218
898.572 .0259198
899.230 .0259174
899.887 .0259145
900.544 .0259110
901.201 .0259070
901.857 .0258975
902.513 .0258918
903.168 .0258855
903.823 .0258786
904.478 .0258709
905.132 .0258626
905.786 .0258535
906.440 .0258439
907.093 .0258336
907.746 .0258229
908.399 .0258116
909.051 .0257999
909.703 .0257878
910.354 .0257814
911.005 .0257689
911.656 .0257561
912.306 .0257430
912.956 .0257296
913.605 .0257161
914.254 .0257025
914.903 .0256888
915.551 .0256752
916.199 .0256615
916.847 .0256479
917.494 .0256344
918.141 .0256208
918.788 .0256073
919.434 .0255936
920.079 .0255799
920.725 .0255661
921.370 .0255522
922.014 .0255382
922.658 .0255241
923.302 .0255099
923.946 .0254955
924.589 .0254809
925.231 .0254661
925.873 .0254509
926.515 .0254355
927.157 .0254198
927.798 .0254037
928.439 .0253874
929.079 .0253709
929.719 .0253543
930.359 .0253375
930.998 .0253207
931.637 .0253038
932.275 .0252870
932.913 .0252703
933.551 .0252536
934.188 .0252371
934.825 .0252208
935.462 .0252047
936.098 .0251889
936.733 .0251733
937.369 .0251582
938.004 .0251433
938.638 .0251289
939.273 .0251148
939.907 .0251010
940.540 .0250877
941.173 .0250748
941.806 .0250624
942.438 .0250504
943.070 .0250389
943.702 .0250278
944.333 .0250173
944.964 .0250073
945.594 .0249976
946.224 .0249883
946.854 .0249794
947.483 .0249706
948.112 .0249619
948.741 .0249534
949.369 .0249449
949.996 .0249364
950.624 .0249279
951.251 .0249193
951.878 .0249107
952.504 .0249019
953.130 .0248929
953.755 .0248837
954.380 .0248743
955.005 .0248646
955.629 .0248545
956.253 .0248442
956.877 .0248335
957.500 .0248225
958.123 .0248112
958.746 .0247995
959.368 .0247875
959.990 .0247752
960.611 .0247627
961.232 .0247498
961.853 .0247368
962.473 .0247236
963.093 .0247103
963.712 .0246970
964.331 .0246836
964.950 .0246702
965.569 .0246569
966.187 .0246438
966.804 .0246308
967.422 .0246179
968.039 .0246052
968.655 .0245928
969.272 .0245805
969.887 .0245685
970.503 .0245567
971.118 .0245451
971.733 .0245337
972.347 .0245225
972.961 .0245115
973.575 .0245005
974.188 .0244896
974.801 .0244787
975.414 .0244678
976.026 .0244567
976.638 .0244456
977.250 .0244343
977.861 .0244229
978.472 .0244112
979.083 .0243994
979.693 .0243874
980.303 .0243752
980.912 .0243555
981.521 .0243427
982.130 .0243297
982.738 .0243166
983.346 .0243033
983.954 .0242900
984.562 .0242767
985.169 .0242636
985.775 .0242506
986.382 .0242379
986.988 .0242255
987.594 .0242134
988.199 .0242017
988.804 .0241904
989.409 .0241864
990.013 .0241760
990.617 .0241661
991.221 .0241569
991.824 .0241484
992.427 .0241406
993.030 .0241335
993.632 .0241270
994.234 .0241210
994.836 .0241155
995.438 .0241103
996.039 .0241053
996.640 .0241006
997.240 .0240961
997.840 .0240920
998.440 .0240882
999.040 .0240847
999.639 .0240815
1000.238 .0240786
1000.836 .0240760
1001.435 .0240733
1002.033 .0240707
1002.630 .0240679
1003.228 .0240650
1003.825 .0240620
1004.422 .0240589
1005.018 .0240557
1005.614 .0240526
1006.210 .0240495
1006.806 .0240464
1007.401 .0240433
1007.996 .0240402
1008.591 .0240370
1009.186 .0240336
1009.780 .0240302
1010.374 .0240268
1010.967 .0240236
1011.561 .0240206
1012.154 .0240179
1012.746 .0240157
1013.339 .0240141
1013.931 .0240129
1014.523 .0240122
1015.115 .0240120
1015.706 .0240122
1016.298 .0240128
1016.888 .0240138
1017.479 .0240153
1018.069 .0240173
1018.660 .0240199
1019.250 .0240232
1019.839 .0240270
1020.429 .0240314
1021.018 .0240364
1021.607 .0240418
1022.195 .0240477
1022.784 .0240538
1023.372 .0240602
1023.960 .0240669
1024.547 .0240739
1025.135 .0240811
1025.722 .0240885
1026.309 .0240961
1026.896 .0241038
1027.483 .0241116
1028.069 .0241194
1028.655 .0241271
1029.241 .0241347
1029.827 .0241420
1030.412 .0241492
1030.997 .0241563
1031.582 .0241632
1032.167 .0241700
1032.752 .0241767
1033.336 .0241835
1033.921 .0241903
1034.505 .0241971
1035.089 .0242040
1035.672 .0242110
1036.256 .0242180
1036.839 .0242250
1037.422 .0242320
1038.005 .0242389
1038.588 .0242457
1039.171 .0242524
1039.753 .0242589
1040.335 .0242651
1040.918 .0242709
1041.500 .0242762
1042.081 .0242811
1042.663 .0242854
1043.244 .0242892
1043.826 .0242923
1044.407 .0242948
1044.988 .0242968
1045.569 .0242983
1046.150 .0242994
1046.730 .0243002
1047.311 .0243006
1047.891 .0243009
1048.471 .0243010
1049.052 .0243011
1049.632 .0243010
1050.211 .0243010
1050.791 .0243010
1051.371 .0243011
1051.950 .0243013
1052.530 .0243016
1053.109 .0243020
1053.688 .0243026
1054.268 .0243033
1054.847 .0243041
1055.426 .0243050
1056.005 .0243059
1056.583 .0243070
1057.162 .0243081
1057.741 .0243092
1058.319 .0243104
1058.898 .0243117
1059.476 .0243132
1060.055 .0243149
1060.633 .0243169
1061.211 .0243194
1061.790 .0243223
1062.368 .0243258
1062.946 .0243299
1063.524 .0243348
1064.102 .0243405
1064.680 .0243468
1065.258 .0243539
1065.836 .0243616
1066.414 .0243700
1066.992 .0243789
1067.570 .0243883
1068.148 .0243980
1068.726 .0244079
1069.304 .0244179
1069.882 .0244278
1070.460 .0244377
1071.038 .0244473
1071.616 .0244567
1072.194 .0244658
1072.772 .0244746
1073.350 .0244833
1073.928 .0244918
1074.506 .0245002
1075.084 .0245087
1075.662 .0245170
1076.240 .0245254
1076.819 .0245336
1077.397 .0245416
1077.976 .0245495
1078.554 .0245572
1079.133 .0245648
1079.711 .0245722
1080.290 .0245796
1080.869 .0245868
1081.448 .0245941
1082.027 .0246012
1082.606 .0246082
1083.185 .0246151
1083.764 .0246216
1084.343 .0246280
1084.923 .0246342
1085.502 .0246403
1086.082 .0246467
1086.662 .0246534
1087.242 .0246607
1087.822 .0246688
1088.402 .0246778
1088.983 .0246876
1089.563 .0246984
1090.144 .0247100
1090.725 .0247225
1091.306 .0247358
1091.887 .0247499
1092.469 .0247649
1093.050 .0247810
1093.632 .0247982
1094.214 .0248164
1094.796 .0248357
1095.379 .0248558
1095.961 .0248765
1096.544 .0248976
1097.127 .0249190
1097.710 .0249405
1098.294 .0249622
1098.877 .0249840
1099.461 .0250061
1100.046 .0250287
1100.630 .0250519
1101.215 .0250756
1101.800 .0250999
1102.385 .0251246
1102.970 .0251494
1103.556 .0251744
1104.142 .0251994
1104.728 .0252244
1105.315 .0252495
1105.902 .0252748
1106.489 .0253004
1107.077 .0253262
1107.664 .0253523
1108.253 .0253786
1108.841 .0254049
1109.430 .0254312
1110.019 .0254571
1110.609 .0254829
1111.198 .0255084
1111.789 .0255338
1112.379 .0255594
1112.970 .0255855
1113.561 .0256122
1114.153 .0256398
1114.745 .0256684
1115.338 .0256981
1115.931 .0257289
1116.524 .0257609
1117.117 .0257941
1117.712 .0258285
1118.306 .0258642
1118.901 .0259015
1119.496 .0259405
1120.092 .0259812
1120.689 .0260234
1121.285 .0260671
1121.882 .0261121
1122.480 .0261581
1123.078 .0262051
1123.677 .0262530
1124.276 .0263018
1124.875 .0263517
1125.476 .0264031
1126.076 .0264566
1126.677 .0265124
1127.279 .0265709
1127.881 .0266325
1128.484 .0266974
1129.087 .0267259
1129.691 .0267954
1130.295 .0268682
1130.900 .0269443
1131.505 .0270238
1132.111 .0271069
1132.718 .0271937
1133.325 .0272845
1133.933 .0273802
1134.541 .0274792
1135.150 .0275857
1135.760 .0276894
1136.370 .0278030
1136.981 .0277543
1137.592 .0278722
1138.204 .0279973
1138.817 .0281272
1139.431 .0282661
1140.045 .0284138
1140.660 .0285662
1141.275 .0287311
1141.891 .0289273
1142.508 .0290785
1143.126 .0293571
1143.744 .0293514
1144.363 .0297042
1144.983 .0304648
