Measurement Sequence started on: 15-12-46-377
Integration time: 28
Scans to Average: 2 
>>>>>Begin Spectral Data<<<<<
432.689 .0000100
433.621 .0000100
434.552 .0000100
435.482 .0000100
436.410 .0000100
437.337 .0000100
438.262 .0271210
439.187 .0576522
440.110 .0956614
441.031 .1386380
441.952 .1122352
442.871 .1173275
443.789 .1220791
444.705 .1265619
445.621 .1308258
446.535 .1349053
447.447 .1373982
448.359 .1381432
449.269 .1367633
450.178 .1330093
451.086 .1269511
451.993 .1190573
452.898 .1101132
453.803 .1010114
454.706 .0925152
455.608 .0851036
456.508 .0789425
457.408 .0747350
458.306 .0714810
459.204 .0688147
460.100 .0665527
460.995 .0645929
461.888 .0628666
462.781 .0613280
463.673 .0599467
464.563 .0587015
465.452 .0575767
466.340 .0565589
467.228 .0556384
468.114 .0548062
468.999 .0540539
469.882 .0533734
470.765 .0527572
471.647 .0521999
472.528 .0516966
473.407 .0512434
474.286 .0508377
475.163 .0504772
476.040 .0501593
476.915 .0498809
477.790 .0496388
478.663 .0494293
479.535 .0492490
480.407 .0490940
481.277 .0489611
482.147 .0488469
483.015 .0487488
483.883 .0486647
484.749 .0485933
485.615 .0485335
486.479 .0484848
487.343 .0484466
488.206 .0484191
489.067 .0484020
489.928 .0483965
490.788 .0484029
491.647 .0484226
492.505 .0484562
493.362 .0485047
494.218 .0485691
495.073 .0486510
495.928 .0488444
496.781 .0489766
497.634 .0491296
498.486 .0493052
499.337 .0495057
500.187 .0497332
501.036 .0499900
501.884 .0502796
502.731 .0506063
503.578 .0509743
504.424 .0512469
505.268 .0516965
506.113 .0522034
506.956 .0527735
507.798 .0534140
508.640 .0541329
509.480 .0549400
510.320 .0558479
511.160 .0568705
511.998 .0580226
512.836 .0593222
513.672 .0607866
514.508 .0624365
515.344 .0642946
516.178 .0663822
517.012 .0687205
517.845 .0713299
518.677 .0742289
519.508 .0774305
520.339 .0809412
521.169 .0847605
521.998 .0888625
522.826 .0932098
523.654 .0977452
524.481 .1023940
525.307 .1070748
526.133 .1116950
526.958 .1161563
527.782 .1203638
528.605 .1242310
529.428 .1276840
530.250 .1306586
531.072 .1331133
531.892 .1350123
532.712 .1363322
533.532 .1370618
534.350 .1371941
535.168 .1367311
535.986 .1356801
536.802 .1340496
537.618 .1318532
538.434 .1291090
539.249 .1258604
540.063 .1221596
540.876 .1180763
541.689 .1136938
542.501 .1090995
543.313 .1043875
544.124 .0996548
544.934 .0949905
545.744 .0904728
546.553 .0861646
547.361 .0821169
548.169 .0783580
548.976 .0749077
549.783 .0717705
550.589 .0689395
551.395 .0664012
552.200 .0641336
553.004 .0621086
553.808 .0603015
554.611 .0586866
555.414 .0572409
556.216 .0559402
557.018 .0547623
557.819 .0536873
558.619 .0526992
559.419 .0517844
560.218 .0509335
561.017 .0501373
561.815 .0493888
562.613 .0486819
563.410 .0480118
564.207 .0473728
565.003 .0467596
565.799 .0461675
566.594 .0455921
567.388 .0450293
568.182 .0444768
568.976 .0439327
569.769 .0433975
570.562 .0428721
571.354 .0423576
572.145 .0418558
572.936 .0413680
573.727 .0408955
574.517 .0404395
575.307 .0400008
576.096 .0395793
576.885 .0391748
577.673 .0387874
578.461 .0384172
579.248 .0380641
580.035 .0377286
580.821 .0374109
581.607 .0371109
582.392 .0368285
583.177 .0365633
583.962 .0363149
584.746 .0360828
585.529 .0358661
586.313 .0356638
587.095 .0354749
587.878 .0352983
588.660 .0351333
589.441 .0349792
590.222 .0348354
591.003 .0347011
591.783 .0345757
592.563 .0344583
593.342 .0343480
594.121 .0342441
594.899 .0341456
595.678 .0340522
596.455 .0339631
597.233 .0338779
598.009 .0337961
598.786 .0337174
599.562 .0336417
600.338 .0335685
601.113 .0334979
601.888 .0333997
602.663 .0333346
603.437 .0332718
604.211 .0332114
604.984 .0331532
605.757 .0330974
606.530 .0330441
607.302 .0329932
608.074 .0329447
608.845 .0328986
609.616 .0328550
610.387 .0328394
611.158 .0327997
611.928 .0327626
612.697 .0327280
613.467 .0326959
614.236 .0326663
615.004 .0326390
615.773 .0326139
616.541 .0325909
617.308 .0325698
618.076 .0325504
618.843 .0325325
619.609 .0325160
620.375 .0325007
621.141 .0324863
621.907 .0324726
622.672 .0324595
623.437 .0324466
624.202 .0324339
624.966 .0324211
625.730 .0324081
626.493 .0323948
627.257 .0323810
628.020 .0323667
628.782 .0323517
629.545 .0323359
630.307 .0323194
631.068 .0323021
631.830 .0322840
632.591 .0322651
633.352 .0322454
634.112 .0322250
634.872 .0322038
635.632 .0321820
636.392 .0321594
637.151 .0321363
637.910 .0321127
638.668 .0320887
639.427 .0320644
640.185 .0320399
640.943 .0320153
641.700 .0319907
642.457 .0319661
643.214 .0319414
643.971 .0319168
644.727 .0318922
645.483 .0318676
646.239 .0318430
646.994 .0318183
647.750 .0317935
648.505 .0317686
649.259 .0317435
650.014 .0317180
650.768 .0316923
651.521 .0316662
652.275 .0316397
653.028 .0316129
653.781 .0315857
654.534 .0315580
655.286 .0315297
656.039 .0315007
656.791 .0314708
657.542 .0314399
658.294 .0314080
659.045 .0313749
659.796 .0313409
660.546 .0313060
661.297 .0312703
662.047 .0312340
662.796 .0311972
663.546 .0311600
664.295 .0311225
665.044 .0310848
665.793 .0310470
666.542 .0310091
667.290 .0309714
668.038 .0309339
668.786 .0308967
669.533 .0308600
670.281 .0308239
671.028 .0307885
671.774 .0307538
672.521 .0307199
673.267 .0306870
674.013 .0306551
674.759 .0306243
675.505 .0305946
676.250 .0305660
676.995 .0305384
677.740 .0305119
678.484 .0304862
679.229 .0304614
679.973 .0304373
680.717 .0304139
681.460 .0303912
682.204 .0303690
682.947 .0303475
683.690 .0303264
684.433 .0303058
685.175 .0302856
685.917 .0302657
686.659 .0302463
687.401 .0302271
688.142 .0302082
688.884 .0301896
689.625 .0301713
690.365 .0301533
691.106 .0301355
691.846 .0301180
692.586 .0301007
693.326 .0300837
694.066 .0300670
694.805 .0300506
695.545 .0300346
696.284 .0300190
697.022 .0300038
697.761 .0299891
698.499 .0299748
699.237 .0299611
699.975 .0299479
700.713 .0299352
701.450 .0299231
702.187 .0299115
702.924 .0299004
703.661 .0298898
704.397 .0298796
705.133 .0298697
705.869 .0298602
706.605 .0298511
707.341 .0298422
708.076 .0298337
708.811 .0298255
709.546 .0298176
710.281 .0298099
711.015 .0298023
711.749 .0297948
712.483 .0297872
713.217 .0297793
713.950 .0297712
714.684 .0297627
715.417 .0297538
716.150 .0297445
716.882 .0297347
717.615 .0297243
718.347 .0297134
719.079 .0297019
719.811 .0296897
720.542 .0296769
721.273 .0296634
722.005 .0296493
722.735 .0296346
723.466 .0296194
724.196 .0296037
724.927 .0295875
725.656 .0295709
726.386 .0295539
727.116 .0295365
727.845 .0295188
728.574 .0295010
729.303 .0294829
730.031 .0294649
730.760 .0294468
731.488 .0294287
732.216 .0294108
732.944 .0293929
733.671 .0293751
734.398 .0293575
735.125 .0293400
735.852 .0293228
736.579 .0293058
737.305 .0292889
738.031 .0292722
738.757 .0292555
739.483 .0292388
740.208 .0292221
740.933 .0292054
741.658 .0291885
742.383 .0291714
743.108 .0291542
743.832 .0291367
744.556 .0291188
745.280 .0291006
746.004 .0290819
746.727 .0290627
747.450 .0290430
748.173 .0290228
748.896 .0290020
749.618 .0289805
750.340 .0289585
751.062 .0289358
751.784 .0289125
752.506 .0288886
753.227 .0288641
753.948 .0288392
754.669 .0288138
755.389 .0287882
756.110 .0287624
756.830 .0287364
757.550 .0287103
758.269 .0286841
758.989 .0286577
759.708 .0286312
760.427 .0286045
761.146 .0285778
761.864 .0285510
762.582 .0285244
763.300 .0284979
764.018 .0284717
764.736 .0284458
765.453 .0284204
766.170 .0283953
766.887 .0283707
767.603 .0283465
768.320 .0283228
769.036 .0282995
769.751 .0282767
770.467 .0282543
771.182 .0282326
771.897 .0282114
772.612 .0281910
773.327 .0281712
774.041 .0281523
774.755 .0281343
775.469 .0281172
776.183 .0281011
776.896 .0280860
777.609 .0280720
778.322 .0280590
779.035 .0280470
779.747 .0280359
780.459 .0280257
781.171 .0280164
781.882 .0280079
782.594 .0280002
783.305 .0279934
784.016 .0279873
784.726 .0279821
785.436 .0279776
786.147 .0279730
786.856 .0279698
787.566 .0279670
788.275 .0279645
788.984 .0279622
789.693 .0279599
790.401 .0279577
791.110 .0279555
791.818 .0279532
792.525 .0279507
793.233 .0279482
793.940 .0279456
794.647 .0279438
795.353 .0279411
796.060 .0279385
796.766 .0279358
797.472 .0279331
798.177 .0279302
798.883 .0279273
799.588 .0279241
800.292 .0279208
800.997 .0279173
801.701 .0279136
802.405 .0279097
803.109 .0279056
803.812 .0279013
804.515 .0278969
805.218 .0278922
805.921 .0278875
806.623 .0278827
807.325 .0278777
808.027 .0278726
808.728 .0278675
809.429 .0278623
810.130 .0278570
810.831 .0278517
811.531 .0278463
812.231 .0278409
812.931 .0278356
813.630 .0278303
814.330 .0278252
815.029 .0278203
815.727 .0278158
816.426 .0278115
817.124 .0278077
817.821 .0278043
818.519 .0278013
819.216 .0277988
819.913 .0277968
820.609 .0277953
821.306 .0277943
822.002 .0277939
822.697 .0277940
823.393 .0277946
824.088 .0277958
824.783 .0277974
825.477 .0277995
826.171 .0278019
826.865 .0278046
827.559 .0278075
828.252 .0278105
828.945 .0278136
829.638 .0278166
830.330 .0278196
831.023 .0278224
831.714 .0278249
832.406 .0278271
833.097 .0278288
833.788 .0278299
834.479 .0278304
835.169 .0278302
835.859 .0278294
836.548 .0278279
837.238 .0278257
837.927 .0278229
838.615 .0278193
839.304 .0278151
839.992 .0278101
840.680 .0278044
841.367 .0277978
842.054 .0277905
842.741 .0277822
843.428 .0277732
844.114 .0277633
844.800 .0277525
845.485 .0277409
846.170 .0277284
846.855 .0277151
847.540 .0277009
848.224 .0276858
848.908 .0276700
849.592 .0276533
850.275 .0276358
850.958 .0276176
851.641 .0275986
852.323 .0275789
853.005 .0275584
853.687 .0275373
854.368 .0275155
855.049 .0274930
855.730 .0274698
856.410 .0274460
857.090 .0274216
857.769 .0273965
858.449 .0273709
859.128 .0273447
859.806 .0273180
860.485 .0272908
861.163 .0272632
861.840 .0272353
862.518 .0272072
863.195 .0271788
863.871 .0271502
864.548 .0271215
865.224 .0270927
865.899 .0270637
866.574 .0270346
867.249 .0270055
867.924 .0269765
868.598 .0269475
869.272 .0269188
869.946 .0268904
870.619 .0268623
871.292 .0268346
871.964 .0268072
872.636 .0267803
873.308 .0267537
873.979 .0267277
874.651 .0267021
875.321 .0266771
875.992 .0266527
876.662 .0266290
877.331 .0266060
878.001 .0265837
878.670 .0265621
879.338 .0265412
880.007 .0265209
880.675 .0265013
881.342 .0264823
882.009 .0264640
882.676 .0264463
883.343 .0264293
884.009 .0264128
884.675 .0263970
885.340 .0263817
886.005 .0263669
886.670 .0263525
887.334 .0263385
887.998 .0263248
888.662 .0263114
889.325 .0262984
889.988 .0262858
890.650 .0262734
891.312 .0262615
891.974 .0262498
892.636 .0262385
893.297 .0262274
893.957 .0262165
894.618 .0262058
895.278 .0261953
895.937 .0261848
896.596 .0261745
897.255 .0261641
897.914 .0261538
898.572 .0261434
899.230 .0261328
899.887 .0261221
900.544 .0261111
901.201 .0260999
901.857 .0260813
902.513 .0260690
903.168 .0260563
903.823 .0260434
904.478 .0260300
905.132 .0260163
905.786 .0260022
906.440 .0259878
907.093 .0259730
907.746 .0259578
908.399 .0259423
909.051 .0259265
909.703 .0259106
910.354 .0259022
911.005 .0258864
911.656 .0258706
912.306 .0258549
912.956 .0258393
913.605 .0258240
914.254 .0258089
914.903 .0257940
915.551 .0257794
916.199 .0257651
916.847 .0257512
917.494 .0257378
918.141 .0257248
918.788 .0257124
919.434 .0257005
920.079 .0256891
920.725 .0256782
921.370 .0256677
922.014 .0256576
922.658 .0256478
923.302 .0256383
923.946 .0256292
924.589 .0256203
925.231 .0256118
925.873 .0256035
926.515 .0255956
927.157 .0255879
927.798 .0255806
928.439 .0255734
929.079 .0255666
929.719 .0255601
930.359 .0255539
930.998 .0255481
931.637 .0255426
932.275 .0255377
932.913 .0255332
933.551 .0255293
934.188 .0255261
934.825 .0255235
935.462 .0255216
936.098 .0255204
936.733 .0255199
937.369 .0255201
938.004 .0255210
938.638 .0255226
939.273 .0255249
939.907 .0255279
940.540 .0255315
941.173 .0255359
941.806 .0255411
942.438 .0255471
943.070 .0255538
943.702 .0255612
944.333 .0255691
944.964 .0255776
945.594 .0255864
946.224 .0255954
946.854 .0256047
947.483 .0256141
948.112 .0256235
948.741 .0256331
949.369 .0256428
949.996 .0256525
950.624 .0256622
951.251 .0256719
951.878 .0256815
952.504 .0256909
953.130 .0257000
953.755 .0257090
954.380 .0257177
955.005 .0257263
955.629 .0257347
956.253 .0257429
956.877 .0257510
957.500 .0257590
958.123 .0257667
958.746 .0257742
959.368 .0257814
959.990 .0257885
960.611 .0257953
961.232 .0258019
961.853 .0258084
962.473 .0258147
963.093 .0258208
963.712 .0258267
964.331 .0258325
964.950 .0258380
965.569 .0258431
966.187 .0258480
966.804 .0258525
967.422 .0258566
968.039 .0258603
968.655 .0258636
969.272 .0258664
969.887 .0258685
970.503 .0258700
971.118 .0258708
971.733 .0258709
972.347 .0258702
972.961 .0258687
973.575 .0258664
974.188 .0258635
974.801 .0258598
975.414 .0258555
976.026 .0258505
976.638 .0258448
977.250 .0258385
977.861 .0258316
978.472 .0258241
979.083 .0258161
979.693 .0258076
980.303 .0257987
980.912 .0257836
981.521 .0257739
982.130 .0257637
982.738 .0257530
983.346 .0257419
983.954 .0257303
984.562 .0257183
985.169 .0257058
985.775 .0256930
986.382 .0256800
986.988 .0256669
987.594 .0256537
988.199 .0256406
988.804 .0256277
989.409 .0256212
990.013 .0256085
990.617 .0255959
991.221 .0255836
991.824 .0255713
992.427 .0255593
993.030 .0255473
993.632 .0255355
994.234 .0255237
994.836 .0255121
995.438 .0255005
996.039 .0254890
996.640 .0254775
997.240 .0254661
997.840 .0254548
998.440 .0254435
999.040 .0254323
999.639 .0254213
1000.238 .0254103
1000.836 .0253996
1001.435 .0253890
1002.033 .0253786
1002.630 .0253684
1003.228 .0253584
1003.825 .0253485
1004.422 .0253388
1005.018 .0253292
1005.614 .0253196
1006.210 .0253101
1006.806 .0253006
1007.401 .0252910
1007.996 .0252813
1008.591 .0252715
1009.186 .0252615
1009.780 .0252514
1010.374 .0252412
1010.967 .0252308
1011.561 .0252204
1012.154 .0252100
1012.746 .0251995
1013.339 .0251890
1013.931 .0251786
1014.523 .0251681
1015.115 .0251577
1015.706 .0251474
1016.298 .0251371
1016.888 .0251269
1017.479 .0251168
1018.069 .0251067
1018.660 .0250967
1019.250 .0250868
1019.839 .0250769
1020.429 .0250671
1021.018 .0250573
1021.607 .0250475
1022.195 .0250378
1022.784 .0250281
1023.372 .0250185
1023.960 .0250090
1024.547 .0249997
1025.135 .0249904
1025.722 .0249813
1026.309 .0249721
1026.896 .0249631
1027.483 .0249540
1028.069 .0249449
1028.655 .0249357
1029.241 .0249265
1029.827 .0249172
1030.412 .0249078
1030.997 .0248981
1031.582 .0248883
1032.167 .0248783
1032.752 .0248681
1033.336 .0248577
1033.921 .0248471
1034.505 .0248363
1035.089 .0248253
1035.672 .0248140
1036.256 .0248025
1036.839 .0247908
1037.422 .0247789
1038.005 .0247667
1038.588 .0247543
1039.171 .0247416
1039.753 .0247287
1040.335 .0247157
1040.918 .0247026
1041.500 .0246895
1042.081 .0246763
1042.663 .0246631
1043.244 .0246499
1043.826 .0246367
1044.407 .0246234
1044.988 .0246101
1045.569 .0245968
1046.150 .0245834
1046.730 .0245700
1047.311 .0245567
1047.891 .0245436
1048.471 .0245307
1049.052 .0245179
1049.632 .0245054
1050.211 .0244930
1050.791 .0244807
1051.371 .0244684
1051.950 .0244560
1052.530 .0244437
1053.109 .0244315
1053.688 .0244194
1054.268 .0244076
1054.847 .0243962
1055.426 .0243852
1056.005 .0243748
1056.583 .0243648
1057.162 .0243552
1057.741 .0243460
1058.319 .0243371
1058.898 .0243287
1059.476 .0243207
1060.055 .0243133
1060.633 .0243064
1061.211 .0243004
1061.790 .0242951
1062.368 .0242906
1062.946 .0242868
1063.524 .0242835
1064.102 .0242807
1064.680 .0242782
1065.258 .0242760
1065.836 .0242741
1066.414 .0242726
1066.992 .0242714
1067.570 .0242706
1068.148 .0242702
1068.726 .0242704
1069.304 .0242710
1069.882 .0242719
1070.460 .0242731
1071.038 .0242744
1071.616 .0242756
1072.194 .0242769
1072.772 .0242782
1073.350 .0242796
1073.928 .0242809
1074.506 .0242824
1075.084 .0242839
1075.662 .0242855
1076.240 .0242870
1076.819 .0242883
1077.397 .0242894
1077.976 .0242900
1078.554 .0242902
1079.133 .0242899
1079.711 .0242893
1080.290 .0242883
1080.869 .0242872
1081.448 .0242862
1082.027 .0242852
1082.606 .0242844
1083.185 .0242839
1083.764 .0242837
1084.343 .0242841
1084.923 .0242849
1085.502 .0242864
1086.082 .0242887
1086.662 .0242919
1087.242 .0242963
1087.822 .0243019
1088.402 .0243089
1088.983 .0243174
1089.563 .0243275
1090.144 .0243390
1090.725 .0243521
1091.306 .0243668
1091.887 .0243830
1092.469 .0244007
1093.050 .0244199
1093.632 .0244404
1094.214 .0244622
1094.796 .0244853
1095.379 .0245096
1095.961 .0245351
1096.544 .0245617
1097.127 .0245894
1097.710 .0246180
1098.294 .0246474
1098.877 .0246776
1099.461 .0247084
1100.046 .0247396
1100.630 .0247712
1101.215 .0248031
1101.800 .0248354
1102.385 .0248682
1102.970 .0249016
1103.556 .0249356
1104.142 .0249705
1104.728 .0250061
1105.315 .0250423
1105.902 .0250791
1106.489 .0251165
1107.077 .0251544
1107.664 .0251928
1108.253 .0252319
1108.841 .0252717
1109.430 .0253126
1110.019 .0253548
1110.609 .0253984
1111.198 .0254434
1111.789 .0254899
1112.379 .0255377
1112.970 .0255869
1113.561 .0256372
1114.153 .0256886
1114.745 .0257411
1115.338 .0257949
1115.931 .0258502
1116.524 .0259070
1117.117 .0259656
1117.712 .0260260
1118.306 .0260881
1118.901 .0261519
1119.496 .0262170
1120.092 .0262832
1120.689 .0263501
1121.285 .0264177
1121.882 .0264856
1122.480 .0265537
1123.078 .0266222
1123.677 .0266909
1124.276 .0267601
1124.875 .0268297
1125.476 .0268996
1126.076 .0269697
1126.677 .0270401
1127.279 .0271106
1127.881 .0271811
1128.484 .0272518
1129.087 .0272857
1129.691 .0273570
1130.295 .0274294
1130.900 .0275034
1131.505 .0275795
1132.111 .0276584
1132.718 .0277404
1133.325 .0278265
1133.933 .0279181
1134.541 .0280138
1135.150 .0281110
1135.760 .0282150
1136.370 .0283348
1136.981 .0282793
1137.592 .0283685
1138.204 .0284654
1138.817 .0285699
1139.431 .0286891
1140.045 .0288239
1140.660 .0289766
1141.275 .0291579
1141.891 .0293766
1142.508 .0295665
1143.126 .0296824
1143.744 .0299453
1144.363 .0304637
1144.983 .0311994
