Measurement Sequence started on: 15-12-46-377
Integration time: 28
Scans to Average: 2 
>>>>>Begin Spectral Data<<<<<
432.689 .0000100
433.621 .0000100
434.552 .0000100
435.482 .0000100
436.410 .0000100
437.337 .0000100
438.262 .0292884
439.187 .0617686
440.110 .1021264
441.031 .1476143
441.952 .1179184
442.871 .1231499
443.789 .1280221
444.705 .1326084
445.621 .1369600
446.535 .1411165
447.447 .1435671
448.359 .1441674
449.269 .1425227
450.178 .1383768
451.086 .1318175
451.993 .1233547
452.898 .1138256
453.803 .1041775
454.706 .0952132
455.608 .0874272
456.508 .0809827
457.408 .0766293
458.306 .0732715
459.204 .0705287
460.100 .0682131
460.995 .0662183
461.888 .0644738
462.781 .0629312
463.673 .0615536
464.563 .0603129
465.452 .0591886
466.340 .0581634
467.228 .0572264
468.114 .0563682
468.999 .0555823
469.882 .0548635
470.765 .0542064
471.647 .0536065
472.528 .0530603
473.407 .0525629
474.286 .0521108
475.163 .0517016
476.040 .0513326
476.915 .0510023
477.790 .0507092
478.663 .0504521
479.535 .0502293
480.407 .0500387
481.277 .0498775
482.147 .0497411
483.015 .0496261
483.883 .0495292
484.749 .0494473
485.615 .0493798
486.479 .0493263
487.343 .0492873
488.206 .0492647
489.067 .0492598
489.928 .0492742
490.788 .0493081
491.647 .0493616
492.505 .0494338
493.362 .0495238
494.218 .0496311
495.073 .0497561
495.928 .0500231
496.781 .0502077
497.634 .0504200
498.486 .0506641
499.337 .0509432
500.187 .0512610
501.036 .0516212
501.884 .0520264
502.731 .0524795
503.578 .0529830
504.424 .0533447
505.268 .0539375
506.113 .0545901
506.956 .0553071
507.798 .0560951
508.640 .0569626
509.480 .0579194
510.320 .0589782
511.160 .0601516
511.998 .0614539
512.836 .0629021
513.672 .0645095
514.508 .0662945
515.344 .0682758
516.178 .0704752
517.012 .0729157
517.845 .0756189
518.677 .0786053
519.508 .0818930
520.339 .0854930
521.169 .0894106
521.998 .0936228
522.826 .0980955
523.654 .1027705
524.481 .1075733
525.307 .1124181
526.133 .1172080
526.958 .1218399
527.782 .1262154
528.605 .1302412
529.428 .1338380
530.250 .1369323
531.072 .1394796
531.892 .1414438
532.712 .1428030
533.532 .1435440
534.350 .1436619
535.168 .1431638
535.986 .1420628
536.802 .1403672
537.618 .1380910
538.434 .1352488
539.249 .1318807
540.063 .1280346
540.876 .1237780
541.689 .1191948
542.501 .1143785
543.313 .1094279
544.124 .1044466
544.934 .0995287
545.744 .0947618
546.553 .0902170
547.361 .0859549
548.169 .0820080
548.976 .0783952
549.783 .0751205
550.589 .0721742
551.395 .0695376
552.200 .0671815
553.004 .0650706
553.808 .0631761
554.611 .0614709
555.414 .0599318
556.216 .0585366
557.018 .0572672
557.819 .0561086
558.619 .0550449
559.419 .0540614
560.218 .0531459
561.017 .0522874
561.815 .0514768
562.613 .0507064
563.410 .0499686
564.207 .0492577
565.003 .0485699
565.799 .0479022
566.594 .0472524
567.388 .0466196
568.182 .0460027
568.976 .0454006
569.769 .0448126
570.562 .0442380
571.354 .0436757
572.145 .0431262
572.936 .0425901
573.727 .0420682
574.517 .0415618
575.307 .0410725
576.096 .0406012
576.885 .0401495
577.673 .0397185
578.461 .0393085
579.248 .0389199
580.035 .0385531
580.821 .0382078
581.607 .0378839
582.392 .0375809
583.177 .0372986
583.962 .0370365
584.746 .0367941
585.529 .0365708
586.313 .0363656
587.095 .0361776
587.878 .0360059
588.660 .0358492
589.441 .0357062
590.222 .0355759
591.003 .0354567
591.783 .0353475
592.563 .0352473
593.342 .0351551
594.121 .0350702
594.899 .0349916
595.678 .0349188
596.455 .0348511
597.233 .0347877
598.009 .0347280
598.786 .0346712
599.562 .0346168
600.338 .0345643
601.113 .0345133
601.888 .0344411
602.663 .0343934
603.437 .0343470
604.211 .0343018
604.984 .0342580
605.757 .0342153
606.530 .0341739
607.302 .0341336
608.074 .0340944
608.845 .0340561
609.616 .0340187
610.387 .0340028
611.158 .0339670
611.928 .0339320
612.697 .0338979
613.467 .0338648
614.236 .0338326
615.004 .0338012
615.773 .0337706
616.541 .0337408
617.308 .0337114
618.076 .0336824
618.843 .0336537
619.609 .0336249
620.375 .0335961
621.141 .0335669
621.907 .0335374
622.672 .0335074
623.437 .0334767
624.202 .0334455
624.966 .0334138
625.730 .0333815
626.493 .0333487
627.257 .0333156
628.020 .0332821
628.782 .0332483
629.545 .0332143
630.307 .0331803
631.068 .0331461
631.830 .0331120
632.591 .0330780
633.352 .0330443
634.112 .0330108
634.872 .0329776
635.632 .0329448
636.392 .0329124
637.151 .0328804
637.910 .0328489
638.668 .0328179
639.427 .0327875
640.185 .0327577
640.943 .0327287
641.700 .0327003
642.457 .0326725
643.214 .0326452
643.971 .0326183
644.727 .0325918
645.483 .0325654
646.239 .0325392
646.994 .0325131
647.750 .0324871
648.505 .0324613
649.259 .0324355
650.014 .0324099
650.768 .0323842
651.521 .0323584
652.275 .0323324
653.028 .0323061
653.781 .0322794
654.534 .0322525
655.286 .0322252
656.039 .0321976
656.791 .0321697
657.542 .0321414
658.294 .0321130
659.045 .0320842
659.796 .0320552
660.546 .0320260
661.297 .0319967
662.047 .0319672
662.796 .0319376
663.546 .0319080
664.295 .0318785
665.044 .0318490
665.793 .0318196
666.542 .0317903
667.290 .0317613
668.038 .0317325
668.786 .0317041
669.533 .0316763
670.281 .0316489
671.028 .0316222
671.774 .0315960
672.521 .0315705
673.267 .0315457
674.013 .0315215
674.759 .0314980
675.505 .0314750
676.250 .0314527
676.995 .0314309
677.740 .0314097
678.484 .0313889
679.229 .0313686
679.973 .0313485
680.717 .0313287
681.460 .0313089
682.204 .0312892
682.947 .0312695
683.690 .0312497
684.433 .0312298
685.175 .0312098
685.917 .0311896
686.659 .0311693
687.401 .0311489
688.142 .0311283
688.884 .0311076
689.625 .0310867
690.365 .0310657
691.106 .0310446
691.846 .0310233
692.586 .0310019
693.326 .0309804
694.066 .0309588
694.805 .0309373
695.545 .0309159
696.284 .0308948
697.022 .0308738
697.761 .0308533
698.499 .0308330
699.237 .0308132
699.975 .0307937
700.713 .0307745
701.450 .0307556
702.187 .0307369
702.924 .0307184
703.661 .0307001
704.397 .0306819
705.133 .0306639
705.869 .0306461
706.605 .0306283
707.341 .0306107
708.076 .0305931
708.811 .0305754
709.546 .0305576
710.281 .0305395
711.015 .0305212
711.749 .0305025
712.483 .0304835
713.217 .0304642
713.950 .0304446
714.684 .0304248
715.417 .0304049
716.150 .0303848
716.882 .0303646
717.615 .0303443
718.347 .0303239
719.079 .0303034
719.811 .0302828
720.542 .0302622
721.273 .0302417
722.005 .0302213
722.735 .0302012
723.466 .0301813
724.196 .0301618
724.927 .0301428
725.656 .0301243
726.386 .0301065
727.116 .0300893
727.845 .0300729
728.574 .0300571
729.303 .0300419
730.031 .0300274
730.760 .0300133
731.488 .0299995
732.216 .0299859
732.944 .0299725
733.671 .0299590
734.398 .0299456
735.125 .0299322
735.852 .0299187
736.579 .0299052
737.305 .0298915
738.031 .0298777
738.757 .0298635
739.483 .0298489
740.208 .0298339
740.933 .0298184
741.658 .0298025
742.383 .0297862
743.108 .0297695
743.832 .0297526
744.556 .0297356
745.280 .0297185
746.004 .0297014
746.727 .0296843
747.450 .0296672
748.173 .0296501
748.896 .0296331
749.618 .0296161
750.340 .0295992
751.062 .0295822
751.784 .0295653
752.506 .0295484
753.227 .0295315
753.948 .0295145
754.669 .0294977
755.389 .0294810
756.110 .0294644
756.830 .0294480
757.550 .0294318
758.269 .0294158
758.989 .0294000
759.708 .0293843
760.427 .0293687
761.146 .0293530
761.864 .0293374
762.582 .0293219
763.300 .0293065
764.018 .0292914
764.736 .0292765
765.453 .0292621
766.170 .0292481
766.887 .0292345
767.603 .0292214
768.320 .0292087
769.036 .0291965
769.751 .0291847
770.467 .0291734
771.182 .0291626
771.897 .0291522
772.612 .0291424
773.327 .0291330
774.041 .0291241
774.755 .0291157
775.469 .0291078
776.183 .0291002
776.896 .0290930
777.609 .0290861
778.322 .0290796
779.035 .0290733
779.747 .0290672
780.459 .0290613
781.171 .0290557
781.882 .0290503
782.594 .0290450
783.305 .0290401
784.016 .0290354
784.726 .0290309
785.436 .0290267
786.147 .0290214
786.856 .0290175
787.566 .0290136
788.275 .0290098
788.984 .0290058
789.693 .0290018
790.401 .0289977
791.110 .0289935
791.818 .0289892
792.525 .0289849
793.233 .0289805
793.940 .0289761
794.647 .0289730
795.353 .0289683
796.060 .0289635
796.766 .0289585
797.472 .0289533
798.177 .0289477
798.883 .0289418
799.588 .0289357
800.292 .0289292
800.997 .0289225
801.701 .0289155
802.405 .0289082
803.109 .0289004
803.812 .0288923
804.515 .0288837
805.218 .0288746
805.921 .0288650
806.623 .0288550
807.325 .0288446
808.027 .0288339
808.728 .0288229
809.429 .0288115
810.130 .0287999
810.831 .0287879
811.531 .0287757
812.231 .0287630
812.931 .0287501
813.630 .0287369
814.330 .0287236
815.029 .0287102
815.727 .0286968
816.426 .0286835
817.124 .0286703
817.821 .0286572
818.519 .0286441
819.216 .0286311
819.913 .0286182
820.609 .0286054
821.306 .0285929
822.002 .0285807
822.697 .0285688
823.393 .0285573
824.088 .0285462
824.783 .0285354
825.477 .0285248
826.171 .0285143
826.865 .0285039
827.559 .0284934
828.252 .0284830
828.945 .0284726
829.638 .0284623
830.330 .0284522
831.023 .0284421
831.714 .0284321
832.406 .0284221
833.097 .0284119
833.788 .0284014
834.479 .0283907
835.169 .0283797
835.859 .0283684
836.548 .0283568
837.238 .0283450
837.927 .0283330
838.615 .0283207
839.304 .0283081
839.992 .0282952
840.680 .0282817
841.367 .0282678
842.054 .0282532
842.741 .0282381
843.428 .0282225
844.114 .0282064
844.800 .0281899
845.485 .0281730
846.170 .0281556
846.855 .0281377
847.540 .0281192
848.224 .0281001
848.908 .0280805
849.592 .0280604
850.275 .0280399
850.958 .0280192
851.641 .0279983
852.323 .0279773
853.005 .0279563
853.687 .0279355
854.368 .0279147
855.049 .0278942
855.730 .0278738
856.410 .0278537
857.090 .0278340
857.769 .0278147
858.449 .0277958
859.128 .0277776
859.806 .0277599
860.485 .0277428
861.163 .0277263
861.840 .0277103
862.518 .0276950
863.195 .0276802
863.871 .0276659
864.548 .0276520
865.224 .0276386
865.899 .0276254
866.574 .0276125
867.249 .0275996
867.924 .0275869
868.598 .0275742
869.272 .0275615
869.946 .0275489
870.619 .0275363
871.292 .0275238
871.964 .0275115
872.636 .0274993
873.308 .0274873
873.979 .0274755
874.651 .0274638
875.321 .0274524
875.992 .0274413
876.662 .0274306
877.331 .0274203
878.001 .0274105
878.670 .0274012
879.338 .0273925
880.007 .0273845
880.675 .0273773
881.342 .0273708
882.009 .0273652
882.676 .0273606
883.343 .0273570
884.009 .0273544
884.675 .0273527
885.340 .0273520
886.005 .0273522
886.670 .0273530
887.334 .0273545
887.998 .0273566
888.662 .0273592
889.325 .0273622
889.988 .0273657
890.650 .0273697
891.312 .0273740
891.974 .0273787
892.636 .0273837
893.297 .0273887
893.957 .0273937
894.618 .0273987
895.278 .0274035
895.937 .0274080
896.596 .0274122
897.255 .0274160
897.914 .0274194
898.572 .0274222
899.230 .0274245
899.887 .0274262
900.544 .0274271
901.201 .0274274
901.857 .0274247
902.513 .0274231
903.168 .0274207
903.823 .0274177
904.478 .0274141
905.132 .0274099
905.786 .0274051
906.440 .0273997
907.093 .0273940
907.746 .0273878
908.399 .0273813
909.051 .0273745
909.703 .0273675
910.354 .0273637
911.005 .0273567
911.656 .0273497
912.306 .0273425
912.956 .0273353
913.605 .0273280
914.254 .0273205
914.903 .0273129
915.551 .0273051
916.199 .0272971
916.847 .0272889
917.494 .0272805
918.141 .0272719
918.788 .0272630
919.434 .0272539
920.079 .0272444
920.725 .0272347
921.370 .0272246
922.014 .0272141
922.658 .0272034
923.302 .0271921
923.946 .0271805
924.589 .0271683
925.231 .0271555
925.873 .0271422
926.515 .0271282
927.157 .0271135
927.798 .0270982
928.439 .0270823
929.079 .0270658
929.719 .0270489
930.359 .0270316
930.998 .0270140
931.637 .0269961
932.275 .0269781
932.913 .0269600
933.551 .0269419
934.188 .0269239
934.825 .0269062
935.462 .0268888
936.098 .0268718
936.733 .0268552
937.369 .0268390
938.004 .0268233
938.638 .0268081
939.273 .0267932
939.907 .0267787
940.540 .0267647
941.173 .0267511
941.806 .0267378
942.438 .0267250
943.070 .0267126
943.702 .0267005
944.333 .0266887
944.964 .0266772
945.594 .0266659
946.224 .0266548
946.854 .0266438
947.483 .0266329
948.112 .0266221
948.741 .0266114
949.369 .0266006
949.996 .0265898
950.624 .0265788
951.251 .0265676
951.878 .0265561
952.504 .0265442
953.130 .0265318
953.755 .0265190
954.380 .0265058
955.005 .0264922
955.629 .0264781
956.253 .0264636
956.877 .0264487
957.500 .0264333
958.123 .0264174
958.746 .0264012
959.368 .0263846
959.990 .0263678
960.611 .0263508
961.232 .0263337
961.853 .0263165
962.473 .0262994
963.093 .0262821
963.712 .0262648
964.331 .0262474
964.950 .0262298
965.569 .0262120
966.187 .0261941
966.804 .0261759
967.422 .0261577
968.039 .0261393
968.655 .0261210
969.272 .0261025
969.887 .0260841
970.503 .0260656
971.118 .0260471
971.733 .0260285
972.347 .0260099
972.961 .0259912
973.575 .0259725
974.188 .0259538
974.801 .0259351
975.414 .0259163
976.026 .0258974
976.638 .0258784
977.250 .0258592
977.861 .0258398
978.472 .0258202
979.083 .0258002
979.693 .0257800
980.303 .0257594
980.912 .0257274
981.521 .0257062
982.130 .0256849
982.738 .0256634
983.346 .0256419
983.954 .0256204
984.562 .0255990
985.169 .0255778
985.775 .0255568
986.382 .0255362
986.988 .0255160
987.594 .0254963
988.199 .0254772
988.804 .0254586
989.409 .0254513
990.013 .0254339
990.617 .0254172
991.221 .0254012
991.824 .0253858
992.427 .0253711
993.030 .0253571
993.632 .0253436
994.234 .0253309
994.836 .0253187
995.438 .0253073
996.039 .0252965
996.640 .0252864
997.240 .0252771
997.840 .0252685
998.440 .0252607
999.040 .0252536
999.639 .0252472
1000.238 .0252415
1000.836 .0252364
1001.435 .0252320
1002.033 .0252281
1002.630 .0252247
1003.228 .0252217
1003.825 .0252192
1004.422 .0252169
1005.018 .0252150
1005.614 .0252132
1006.210 .0252117
1006.806 .0252103
1007.401 .0252092
1007.996 .0252083
1008.591 .0252077
1009.186 .0252074
1009.780 .0252075
1010.374 .0252080
1010.967 .0252087
1011.561 .0252099
1012.154 .0252114
1012.746 .0252132
1013.339 .0252154
1013.931 .0252180
1014.523 .0252210
1015.115 .0252244
1015.706 .0252283
1016.298 .0252327
1016.888 .0252376
1017.479 .0252430
1018.069 .0252488
1018.660 .0252552
1019.250 .0252620
1019.839 .0252693
1020.429 .0252772
1021.018 .0252857
1021.607 .0252948
1022.195 .0253046
1022.784 .0253150
1023.372 .0253261
1023.960 .0253378
1024.547 .0253500
1025.135 .0253627
1025.722 .0253759
1026.309 .0253893
1026.896 .0254030
1027.483 .0254168
1028.069 .0254307
1028.655 .0254448
1029.241 .0254588
1029.827 .0254730
1030.412 .0254871
1030.997 .0255012
1031.582 .0255154
1032.167 .0255294
1032.752 .0255433
1033.336 .0255570
1033.921 .0255705
1034.505 .0255838
1035.089 .0255969
1035.672 .0256098
1036.256 .0256226
1036.839 .0256351
1037.422 .0256474
1038.005 .0256594
1038.588 .0256711
1039.171 .0256823
1039.753 .0256930
1040.335 .0257033
1040.918 .0257130
1041.500 .0257223
1042.081 .0257312
1042.663 .0257399
1043.244 .0257484
1043.826 .0257570
1044.407 .0257657
1044.988 .0257747
1045.569 .0257839
1046.150 .0257935
1046.730 .0258034
1047.311 .0258137
1047.891 .0258245
1048.471 .0258356
1049.052 .0258472
1049.632 .0258592
1050.211 .0258717
1050.791 .0258846
1051.371 .0258981
1051.950 .0259119
1052.530 .0259261
1053.109 .0259406
1053.688 .0259554
1054.268 .0259705
1054.847 .0259858
1055.426 .0260013
1056.005 .0260169
1056.583 .0260327
1057.162 .0260486
1057.741 .0260646
1058.319 .0260808
1058.898 .0260970
1059.476 .0261134
1060.055 .0261298
1060.633 .0261463
1061.211 .0261628
1061.790 .0261792
1062.368 .0261954
1062.946 .0262113
1063.524 .0262268
1064.102 .0262418
1064.680 .0262564
1065.258 .0262705
1065.836 .0262842
1066.414 .0262975
1066.992 .0263105
1067.570 .0263232
1068.148 .0263357
1068.726 .0263478
1069.304 .0263596
1069.882 .0263709
1070.460 .0263818
1071.038 .0263922
1071.616 .0264021
1072.194 .0264118
1072.772 .0264213
1073.350 .0264306
1073.928 .0264398
1074.506 .0264489
1075.084 .0264578
1075.662 .0264663
1076.240 .0264744
1076.819 .0264821
1077.397 .0264893
1077.976 .0264961
1078.554 .0265026
1079.133 .0265090
1079.711 .0265153
1080.290 .0265217
1080.869 .0265282
1081.448 .0265346
1082.027 .0265411
1082.606 .0265475
1083.185 .0265538
1083.764 .0265602
1084.343 .0265669
1084.923 .0265739
1085.502 .0265817
1086.082 .0265904
1086.662 .0266001
1087.242 .0266110
1087.822 .0266230
1088.402 .0266359
1088.983 .0266494
1089.563 .0266634
1090.144 .0266777
1090.725 .0266923
1091.306 .0267074
1091.887 .0267230
1092.469 .0267393
1093.050 .0267564
1093.632 .0267744
1094.214 .0267931
1094.796 .0268125
1095.379 .0268324
1095.961 .0268523
1096.544 .0268722
1097.127 .0268919
1097.710 .0269115
1098.294 .0269310
1098.877 .0269506
1099.461 .0269704
1100.046 .0269905
1100.630 .0270109
1101.215 .0270315
1101.800 .0270521
1102.385 .0270723
1102.970 .0270920
1103.556 .0271110
1104.142 .0271292
1104.728 .0271466
1105.315 .0271635
1105.902 .0271803
1106.489 .0271972
1107.077 .0272143
1107.664 .0272317
1108.253 .0272492
1108.841 .0272668
1109.430 .0272842
1110.019 .0273015
1110.609 .0273183
1111.198 .0273347
1111.789 .0273507
1112.379 .0273665
1112.970 .0273822
1113.561 .0273980
1114.153 .0274140
1114.745 .0274303
1115.338 .0274470
1115.931 .0274641
1116.524 .0274819
1117.117 .0275002
1117.712 .0275193
1118.306 .0275393
1118.901 .0275604
1119.496 .0275827
1120.092 .0276064
1120.689 .0276315
1121.285 .0276582
1121.882 .0276866
1122.480 .0277167
1123.078 .0277486
1123.677 .0277824
1124.276 .0278185
1124.875 .0278569
1125.476 .0278978
1126.076 .0279413
1126.677 .0279877
1127.279 .0280371
1127.881 .0280896
1128.484 .0281455
1129.087 .0281651
1129.691 .0282264
1130.295 .0282919
1130.900 .0283618
1131.505 .0284366
1132.111 .0285164
1132.718 .0286007
1133.325 .0286895
1133.933 .0287824
1134.541 .0288849
1135.150 .0289861
1135.760 .0290811
1136.370 .0291837
1136.981 .0292057
1137.592 .0293219
1138.204 .0294473
1138.817 .0295830
1139.431 .0297294
1140.045 .0298803
1140.660 .0300263
1141.275 .0301716
1141.891 .0303171
1142.508 .0306225
1143.126 .0306270
1143.744 .0305042
1144.363 .0307718
1144.983 .0311033
