Measurement Sequence started on: 15-12-46-377
Integration time: 28
Scans to Average: 2 
>>>>>Begin Spectral Data<<<<<
432.689 .0000100
433.621 .0000100
434.552 .0000100
435.482 .0000100
436.410 .0000100
437.337 .0000100
438.262 .0261738
439.187 .0554834
440.110 .0919416
441.031 .1331218
441.952 .1072564
442.871 .1121167
443.789 .1166592
444.705 .1209479
445.621 .1250279
446.535 .1289324
447.447 .1313080
448.359 .1320099
449.269 .1306789
450.178 .1270804
451.086 .1212889
451.993 .1137575
452.898 .1052414
453.803 .0965956
454.706 .0885476
455.608 .0815501
456.508 .0757535
457.408 .0718306
458.306 .0688090
459.204 .0663382
460.100 .0642455
460.995 .0624333
461.888 .0608402
462.781 .0594245
463.673 .0581557
464.563 .0570140
465.452 .0559811
466.340 .0550434
467.228 .0541889
468.114 .0534079
468.999 .0526933
469.882 .0520375
470.765 .0514349
471.647 .0508818
472.528 .0503749
473.407 .0499119
474.286 .0494911
475.163 .0491117
476.040 .0487722
476.915 .0484714
477.790 .0482072
478.663 .0479773
479.535 .0477794
480.407 .0476109
481.277 .0474685
482.147 .0473497
483.015 .0472518
483.883 .0471723
484.749 .0471099
485.615 .0470632
486.479 .0470313
487.343 .0470138
488.206 .0470103
489.067 .0470202
489.928 .0470441
490.788 .0470820
491.647 .0471339
492.505 .0472001
493.362 .0472816
494.218 .0473782
495.073 .0474914
495.928 .0477262
496.781 .0478877
497.634 .0480707
498.486 .0482767
499.337 .0485077
500.187 .0487664
501.036 .0490550
501.884 .0493766
502.731 .0497350
503.578 .0501335
504.424 .0504204
505.268 .0508942
506.113 .0514206
506.956 .0520031
507.798 .0526469
508.640 .0533581
509.480 .0541457
510.320 .0550193
511.160 .0559915
511.998 .0570775
512.836 .0582957
513.672 .0596660
514.508 .0612113
515.344 .0629571
516.178 .0649278
517.012 .0671481
517.845 .0696395
518.677 .0724209
519.508 .0755080
520.339 .0789072
521.169 .0826204
521.998 .0866262
522.826 .0908898
523.654 .0953607
524.481 .0999706
525.307 .1046423
526.133 .1092813
526.958 .1137880
527.782 .1180618
528.605 .1220093
529.428 .1255470
530.250 .1286055
531.072 .1311370
531.892 .1331056
532.712 .1344869
533.532 .1352719
534.350 .1354569
535.168 .1350492
535.986 .1340576
536.802 .1324911
537.618 .1303626
538.434 .1276894
539.249 .1245061
540.063 .1208626
540.876 .1168205
541.689 .1124577
542.501 .1078588
543.313 .1031206
544.124 .0983419
544.934 .0936190
545.744 .0890379
546.553 .0846715
547.361 .0805752
548.169 .0767808
548.976 .0733058
549.783 .0701524
550.589 .0673083
551.395 .0647543
552.200 .0624635
553.004 .0604083
553.808 .0585620
554.611 .0569017
555.414 .0554052
556.216 .0540540
557.018 .0528282
557.819 .0517111
558.619 .0506881
559.419 .0497464
560.218 .0488760
561.017 .0480684
561.815 .0473168
562.613 .0466151
563.410 .0459571
564.207 .0453372
565.003 .0447493
565.799 .0441879
566.594 .0436477
567.388 .0431248
568.182 .0426160
568.976 .0421183
569.769 .0416305
570.562 .0411526
571.354 .0406855
572.145 .0402298
572.936 .0397861
573.727 .0393550
574.517 .0389369
575.307 .0385322
576.096 .0381409
576.885 .0377636
577.673 .0374012
578.461 .0370541
579.248 .0367233
580.035 .0364094
580.821 .0361134
581.607 .0358357
582.392 .0355765
583.177 .0353357
583.962 .0351128
584.746 .0349070
585.529 .0347175
586.313 .0345429
587.095 .0343820
587.878 .0342337
588.660 .0340968
589.441 .0339706
590.222 .0338542
591.003 .0337468
591.783 .0336476
592.563 .0335558
593.342 .0334706
594.121 .0333909
594.899 .0333160
595.678 .0332451
596.455 .0331774
597.233 .0331124
598.009 .0330496
598.786 .0329887
599.562 .0329296
600.338 .0328720
601.113 .0328159
601.888 .0327357
602.663 .0326829
603.437 .0326313
604.211 .0325809
604.984 .0325315
605.757 .0324832
606.530 .0324360
607.302 .0323899
608.074 .0323450
608.845 .0323013
609.616 .0322590
610.387 .0322414
611.158 .0322011
611.928 .0321623
612.697 .0321248
613.467 .0320888
614.236 .0320541
615.004 .0320208
615.773 .0319887
616.541 .0319577
617.308 .0319276
618.076 .0318984
618.843 .0318700
619.609 .0318423
620.375 .0318152
621.141 .0317886
621.907 .0317625
622.672 .0317368
623.437 .0317114
624.202 .0316864
624.966 .0316616
625.730 .0316368
626.493 .0316121
627.257 .0315873
628.020 .0315622
628.782 .0315370
629.545 .0315115
630.307 .0314858
631.068 .0314598
631.830 .0314335
632.591 .0314071
633.352 .0313805
634.112 .0313540
634.872 .0313275
635.632 .0313011
636.392 .0312749
637.151 .0312489
637.910 .0312232
638.668 .0311978
639.427 .0311729
640.185 .0311484
640.943 .0311245
641.700 .0311011
642.457 .0310784
643.214 .0310563
643.971 .0310348
644.727 .0310140
645.483 .0309938
646.239 .0309742
646.994 .0309550
647.750 .0309363
648.505 .0309179
649.259 .0308997
650.014 .0308816
650.768 .0308635
651.521 .0308453
652.275 .0308269
653.028 .0308083
653.781 .0307893
654.534 .0307700
655.286 .0307503
656.039 .0307301
656.791 .0307093
657.542 .0306880
658.294 .0306662
659.045 .0306437
659.796 .0306207
660.546 .0305973
661.297 .0305734
662.047 .0305493
662.796 .0305248
663.546 .0305002
664.295 .0304754
665.044 .0304506
665.793 .0304257
666.542 .0304008
667.290 .0303761
668.038 .0303515
668.786 .0303272
669.533 .0303033
670.281 .0302797
671.028 .0302565
671.774 .0302338
672.521 .0302115
673.267 .0301896
674.013 .0301682
674.759 .0301471
675.505 .0301266
676.250 .0301064
676.995 .0300866
677.740 .0300672
678.484 .0300481
679.229 .0300293
679.973 .0300108
680.717 .0299925
681.460 .0299746
682.204 .0299569
682.947 .0299394
683.690 .0299221
684.433 .0299050
685.175 .0298880
685.917 .0298711
686.659 .0298541
687.401 .0298370
688.142 .0298197
688.884 .0298023
689.625 .0297846
690.365 .0297666
691.106 .0297483
691.846 .0297296
692.586 .0297106
693.326 .0296912
694.066 .0296715
694.805 .0296516
695.545 .0296315
696.284 .0296112
697.022 .0295908
697.761 .0295703
698.499 .0295497
699.237 .0295290
699.975 .0295081
700.713 .0294872
701.450 .0294662
702.187 .0294451
702.924 .0294240
703.661 .0294029
704.397 .0293820
705.133 .0293612
705.869 .0293407
706.605 .0293203
707.341 .0293003
708.076 .0292805
708.811 .0292611
709.546 .0292419
710.281 .0292229
711.015 .0292043
711.749 .0291858
712.483 .0291674
713.217 .0291491
713.950 .0291309
714.684 .0291127
715.417 .0290946
716.150 .0290766
716.882 .0290587
717.615 .0290408
718.347 .0290230
719.079 .0290053
719.811 .0289876
720.542 .0289697
721.273 .0289518
722.005 .0289337
722.735 .0289154
723.466 .0288970
724.196 .0288786
724.927 .0288603
725.656 .0288422
726.386 .0288243
727.116 .0288068
727.845 .0287896
728.574 .0287728
729.303 .0287562
730.031 .0287400
730.760 .0287240
731.488 .0287084
732.216 .0286931
732.944 .0286781
733.671 .0286635
734.398 .0286494
735.125 .0286357
735.852 .0286223
736.579 .0286093
737.305 .0285966
738.031 .0285842
738.757 .0285721
739.483 .0285603
740.208 .0285488
740.933 .0285375
741.658 .0285264
742.383 .0285154
743.108 .0285046
743.832 .0284938
744.556 .0284832
745.280 .0284725
746.004 .0284620
746.727 .0284515
747.450 .0284411
748.173 .0284308
748.896 .0284206
749.618 .0284104
750.340 .0284003
751.062 .0283903
751.784 .0283803
752.506 .0283703
753.227 .0283604
753.948 .0283507
754.669 .0283410
755.389 .0283315
756.110 .0283221
756.830 .0283127
757.550 .0283033
758.269 .0282939
758.989 .0282844
759.708 .0282748
760.427 .0282650
761.146 .0282551
761.864 .0282451
762.582 .0282349
763.300 .0282246
764.018 .0282141
764.736 .0282035
765.453 .0281927
766.170 .0281817
766.887 .0281706
767.603 .0281593
768.320 .0281481
769.036 .0281367
769.751 .0281254
770.467 .0281141
771.182 .0281029
771.897 .0280919
772.612 .0280810
773.327 .0280704
774.041 .0280601
774.755 .0280502
775.469 .0280405
776.183 .0280311
776.896 .0280220
777.609 .0280131
778.322 .0280044
779.035 .0279959
779.747 .0279875
780.459 .0279792
781.171 .0279711
781.882 .0279632
782.594 .0279554
783.305 .0279478
784.016 .0279402
784.726 .0279326
785.436 .0279250
786.147 .0279129
786.856 .0279048
787.566 .0278965
788.275 .0278882
788.984 .0278797
789.693 .0278711
790.401 .0278623
791.110 .0278533
791.818 .0278441
792.525 .0278345
793.233 .0278247
793.940 .0278145
794.647 .0278089
795.353 .0277984
796.060 .0277878
796.766 .0277769
797.472 .0277659
798.177 .0277545
798.883 .0277428
799.588 .0277307
800.292 .0277181
800.997 .0277050
801.701 .0276913
802.405 .0276770
803.109 .0276623
803.812 .0276471
804.515 .0276313
805.218 .0276150
805.921 .0275982
806.623 .0275808
807.325 .0275628
808.027 .0275443
808.728 .0275252
809.429 .0275056
810.130 .0274856
810.831 .0274653
811.531 .0274448
812.231 .0274240
812.931 .0274031
813.630 .0273822
814.330 .0273612
815.029 .0273403
815.727 .0273195
816.426 .0272990
817.124 .0272789
817.821 .0272592
818.519 .0272400
819.216 .0272214
819.913 .0272034
820.609 .0271860
821.306 .0271691
822.002 .0271529
822.697 .0271374
823.393 .0271225
824.088 .0271083
824.783 .0270948
825.477 .0270820
826.171 .0270698
826.865 .0270583
827.559 .0270473
828.252 .0270367
828.945 .0270264
829.638 .0270165
830.330 .0270067
831.023 .0269970
831.714 .0269875
832.406 .0269780
833.097 .0269686
833.788 .0269593
834.479 .0269500
835.169 .0269407
835.859 .0269314
836.548 .0269221
837.238 .0269129
837.927 .0269037
838.615 .0268946
839.304 .0268855
839.992 .0268763
840.680 .0268672
841.367 .0268580
842.054 .0268487
842.741 .0268393
843.428 .0268298
844.114 .0268202
844.800 .0268104
845.485 .0268005
846.170 .0267905
846.855 .0267803
847.540 .0267700
848.224 .0267596
848.908 .0267490
849.592 .0267382
850.275 .0267273
850.958 .0267162
851.641 .0267049
852.323 .0266935
853.005 .0266821
853.687 .0266705
854.368 .0266589
855.049 .0266472
855.730 .0266356
856.410 .0266239
857.090 .0266122
857.769 .0266006
858.449 .0265890
859.128 .0265776
859.806 .0265662
860.485 .0265550
861.163 .0265440
861.840 .0265334
862.518 .0265230
863.195 .0265131
863.871 .0265035
864.548 .0264943
865.224 .0264856
865.899 .0264772
866.574 .0264694
867.249 .0264620
867.924 .0264550
868.598 .0264485
869.272 .0264424
869.946 .0264368
870.619 .0264317
871.292 .0264270
871.964 .0264226
872.636 .0264186
873.308 .0264150
873.979 .0264117
874.651 .0264087
875.321 .0264061
875.992 .0264040
876.662 .0264022
877.331 .0264008
878.001 .0263999
878.670 .0263994
879.338 .0263993
880.007 .0263995
880.675 .0264001
881.342 .0264011
882.009 .0264024
882.676 .0264040
883.343 .0264059
884.009 .0264081
884.675 .0264107
885.340 .0264134
886.005 .0264165
886.670 .0264197
887.334 .0264232
887.998 .0264269
888.662 .0264307
889.325 .0264348
889.988 .0264389
890.650 .0264432
891.312 .0264476
891.974 .0264520
892.636 .0264564
893.297 .0264609
893.957 .0264653
894.618 .0264696
895.278 .0264738
895.937 .0264777
896.596 .0264814
897.255 .0264847
897.914 .0264876
898.572 .0264900
899.230 .0264917
899.887 .0264928
900.544 .0264930
901.201 .0264925
901.857 .0264879
902.513 .0264850
903.168 .0264812
903.823 .0264764
904.478 .0264707
905.132 .0264640
905.786 .0264564
906.440 .0264480
907.093 .0264387
907.746 .0264285
908.399 .0264176
909.051 .0264059
909.703 .0263936
910.354 .0263856
911.005 .0263727
911.656 .0263594
912.306 .0263457
912.956 .0263316
913.605 .0263171
914.254 .0263024
914.903 .0262874
915.551 .0262722
916.199 .0262567
916.847 .0262410
917.494 .0262251
918.141 .0262091
918.788 .0261928
919.434 .0261763
920.079 .0261596
920.725 .0261427
921.370 .0261255
922.014 .0261081
922.658 .0260905
923.302 .0260726
923.946 .0260545
924.589 .0260363
925.231 .0260179
925.873 .0259994
926.515 .0259807
927.157 .0259620
927.798 .0259431
928.439 .0259240
929.079 .0259049
929.719 .0258856
930.359 .0258662
930.998 .0258468
931.637 .0258275
932.275 .0258083
932.913 .0257892
933.551 .0257705
934.188 .0257520
934.825 .0257340
935.462 .0257163
936.098 .0256991
936.733 .0256824
937.369 .0256661
938.004 .0256503
938.638 .0256351
939.273 .0256205
939.907 .0256065
940.540 .0255930
941.173 .0255801
941.806 .0255676
942.438 .0255554
943.070 .0255436
943.702 .0255319
944.333 .0255202
944.964 .0255086
945.594 .0254970
946.224 .0254852
946.854 .0254734
947.483 .0254615
948.112 .0254493
948.741 .0254370
949.369 .0254244
949.996 .0254115
950.624 .0253983
951.251 .0253847
951.878 .0253707
952.504 .0253564
953.130 .0253416
953.755 .0253266
954.380 .0253113
955.005 .0252958
955.629 .0252800
956.253 .0252639
956.877 .0252476
957.500 .0252311
958.123 .0252143
958.746 .0251974
959.368 .0251805
959.990 .0251634
960.611 .0251465
961.232 .0251295
961.853 .0251127
962.473 .0250959
963.093 .0250793
963.712 .0250627
964.331 .0250462
964.950 .0250299
965.569 .0250137
966.187 .0249976
966.804 .0249817
967.422 .0249659
968.039 .0249501
968.655 .0249344
969.272 .0249187
969.887 .0249028
970.503 .0248868
971.118 .0248706
971.733 .0248542
972.347 .0248377
972.961 .0248212
973.575 .0248047
974.188 .0247881
974.801 .0247715
975.414 .0247548
976.026 .0247380
976.638 .0247211
977.250 .0247041
977.861 .0246868
978.472 .0246695
979.083 .0246519
979.693 .0246343
980.303 .0246165
980.912 .0245896
981.521 .0245717
982.130 .0245539
982.738 .0245360
983.346 .0245182
983.954 .0245005
984.562 .0244831
985.169 .0244661
985.775 .0244495
986.382 .0244333
986.988 .0244177
987.594 .0244027
988.199 .0243883
988.804 .0243744
989.409 .0243691
990.013 .0243563
990.617 .0243440
991.221 .0243324
991.824 .0243214
992.427 .0243110
993.030 .0243011
993.632 .0242916
994.234 .0242827
994.836 .0242741
995.438 .0242660
996.039 .0242583
996.640 .0242511
997.240 .0242444
997.840 .0242383
998.440 .0242328
999.040 .0242277
999.639 .0242232
1000.238 .0242192
1000.836 .0242156
1001.435 .0242124
1002.033 .0242095
1002.630 .0242071
1003.228 .0242050
1003.825 .0242034
1004.422 .0242021
1005.018 .0242012
1005.614 .0242006
1006.210 .0242002
1006.806 .0242000
1007.401 .0241997
1007.996 .0241996
1008.591 .0241994
1009.186 .0241993
1009.780 .0241993
1010.374 .0241996
1010.967 .0242003
1011.561 .0242014
1012.154 .0242030
1012.746 .0242052
1013.339 .0242080
1013.931 .0242113
1014.523 .0242151
1015.115 .0242193
1015.706 .0242239
1016.298 .0242290
1016.888 .0242345
1017.479 .0242406
1018.069 .0242473
1018.660 .0242545
1019.250 .0242624
1019.839 .0242708
1020.429 .0242797
1021.018 .0242891
1021.607 .0242988
1022.195 .0243088
1022.784 .0243192
1023.372 .0243300
1023.960 .0243412
1024.547 .0243529
1025.135 .0243651
1025.722 .0243779
1026.309 .0243912
1026.896 .0244049
1027.483 .0244187
1028.069 .0244327
1028.655 .0244467
1029.241 .0244606
1029.827 .0244744
1030.412 .0244882
1030.997 .0245019
1031.582 .0245155
1032.167 .0245291
1032.752 .0245427
1033.336 .0245561
1033.921 .0245692
1034.505 .0245820
1035.089 .0245944
1035.672 .0246063
1036.256 .0246178
1036.839 .0246288
1037.422 .0246396
1038.005 .0246502
1038.588 .0246607
1039.171 .0246711
1039.753 .0246813
1040.335 .0246914
1040.918 .0247012
1041.500 .0247107
1042.081 .0247197
1042.663 .0247284
1043.244 .0247367
1043.826 .0247448
1044.407 .0247529
1044.988 .0247611
1045.569 .0247695
1046.150 .0247783
1046.730 .0247873
1047.311 .0247965
1047.891 .0248059
1048.471 .0248152
1049.052 .0248246
1049.632 .0248338
1050.211 .0248430
1050.791 .0248522
1051.371 .0248614
1051.950 .0248707
1052.530 .0248800
1053.109 .0248893
1053.688 .0248985
1054.268 .0249073
1054.847 .0249159
1055.426 .0249241
1056.005 .0249320
1056.583 .0249396
1057.162 .0249471
1057.741 .0249547
1058.319 .0249624
1058.898 .0249703
1059.476 .0249786
1060.055 .0249872
1060.633 .0249961
1061.211 .0250052
1061.790 .0250144
1062.368 .0250237
1062.946 .0250330
1063.524 .0250423
1064.102 .0250517
1064.680 .0250610
1065.258 .0250704
1065.836 .0250798
1066.414 .0250894
1066.992 .0250991
1067.570 .0251089
1068.148 .0251189
1068.726 .0251291
1069.304 .0251397
1069.882 .0251506
1070.460 .0251618
1071.038 .0251735
1071.616 .0251855
1072.194 .0251977
1072.772 .0252102
1073.350 .0252229
1073.928 .0252356
1074.506 .0252482
1075.084 .0252607
1075.662 .0252731
1076.240 .0252852
1076.819 .0252970
1077.397 .0253086
1077.976 .0253200
1078.554 .0253312
1079.133 .0253422
1079.711 .0253531
1080.290 .0253640
1080.869 .0253749
1081.448 .0253860
1082.027 .0253972
1082.606 .0254086
1083.185 .0254201
1083.764 .0254317
1084.343 .0254435
1084.923 .0254553
1085.502 .0254670
1086.082 .0254786
1086.662 .0254901
1087.242 .0255015
1087.822 .0255128
1088.402 .0255240
1088.983 .0255352
1089.563 .0255462
1090.144 .0255573
1090.725 .0255685
1091.306 .0255798
1091.887 .0255916
1092.469 .0256037
1093.050 .0256165
1093.632 .0256300
1094.214 .0256442
1094.796 .0256590
1095.379 .0256746
1095.961 .0256907
1096.544 .0257072
1097.127 .0257240
1097.710 .0257410
1098.294 .0257580
1098.877 .0257750
1099.461 .0257922
1100.046 .0258097
1100.630 .0258275
1101.215 .0258458
1101.800 .0258647
1102.385 .0258843
1102.970 .0259046
1103.556 .0259256
1104.142 .0259474
1104.728 .0259699
1105.315 .0259929
1105.902 .0260166
1106.489 .0260410
1107.077 .0260661
1107.664 .0260919
1108.253 .0261184
1108.841 .0261456
1109.430 .0261733
1110.019 .0262012
1110.609 .0262293
1111.198 .0262573
1111.789 .0262853
1112.379 .0263131
1112.970 .0263409
1113.561 .0263689
1114.153 .0263974
1114.745 .0264268
1115.338 .0264575
1115.931 .0264898
1116.524 .0265238
1117.117 .0265595
1117.712 .0265969
1118.306 .0266360
1118.901 .0266770
1119.496 .0267198
1120.092 .0267645
1120.689 .0268111
1121.285 .0268598
1121.882 .0269107
1122.480 .0269640
1123.078 .0270196
1123.677 .0270774
1124.276 .0271373
1124.875 .0271990
1125.476 .0272623
1126.076 .0273272
1126.677 .0273936
1127.279 .0274615
1127.881 .0275309
1128.484 .0276021
1129.087 .0276344
1129.691 .0277090
1130.295 .0277857
1130.900 .0278643
1131.505 .0279448
1132.111 .0280272
1132.718 .0281114
1133.325 .0281970
1133.933 .0282846
1134.541 .0283741
1135.150 .0284647
1135.760 .0285569
1136.370 .0286492
1136.981 .0287300
1137.592 .0288094
1138.204 .0288959
1138.817 .0289826
1139.431 .0290765
1140.045 .0291760
1140.660 .0292822
1141.275 .0293887
1141.891 .0295122
1142.508 .0296376
1143.126 .0297468
1143.744 .0298698
1144.363 .0299573
1144.983 .0304179
