Measurement Sequence started on: 15-12-46-377
Integration time: 28
Scans to Average: 2 
>>>>>Begin Spectral Data<<<<<
432.689 .0000100
433.621 .0000100
434.552 .0000100
435.482 .0000100
436.410 .0000100
437.337 .0000100
438.262 .0269694
439.187 .0569813
440.110 .0942380
441.031 .1362093
441.952 .1084182
442.871 .1131458
443.789 .1175381
444.705 .1216657
445.621 .1255765
446.535 .1293084
447.447 .1314700
448.359 .1319236
449.269 .1303052
450.178 .1263799
451.086 .1202284
451.993 .1123232
452.898 .1034402
453.803 .0944575
454.706 .0861196
455.608 .0788880
456.508 .0729142
457.408 .0688896
458.306 .0658063
459.204 .0633065
460.100 .0612126
460.995 .0594236
461.888 .0578702
462.781 .0565064
463.673 .0552952
464.563 .0542116
465.452 .0532352
466.340 .0523514
467.228 .0515496
468.114 .0508218
468.999 .0501620
469.882 .0495641
470.765 .0490231
471.647 .0485344
472.528 .0480931
473.407 .0476949
474.286 .0473353
475.163 .0470108
476.040 .0467192
476.915 .0464583
477.790 .0462264
478.663 .0460232
479.535 .0458474
480.407 .0456981
481.277 .0455735
482.147 .0454709
483.015 .0453880
483.883 .0453221
484.749 .0452710
485.615 .0452324
486.479 .0452051
487.343 .0451885
488.206 .0451820
489.067 .0451861
489.928 .0452017
490.788 .0452296
491.647 .0452713
492.505 .0453283
493.362 .0454017
494.218 .0454928
495.073 .0456026
495.928 .0458409
496.781 .0460040
497.634 .0461887
498.486 .0463961
499.337 .0466290
500.187 .0468903
501.036 .0471829
501.884 .0475106
502.731 .0478776
503.578 .0482873
504.424 .0485842
505.268 .0490709
506.113 .0496088
506.956 .0502010
507.798 .0508522
508.640 .0515686
509.480 .0523588
510.320 .0532339
511.160 .0542067
511.998 .0552916
512.836 .0565061
513.672 .0578675
514.508 .0593962
515.344 .0611138
516.178 .0630435
517.012 .0652081
517.845 .0676279
518.677 .0703224
519.508 .0733058
520.339 .0765892
521.169 .0801760
521.998 .0840493
522.826 .0881793
523.654 .0925175
524.481 .0970001
525.307 .1015495
526.133 .1060734
526.958 .1104746
527.782 .1146552
528.605 .1185251
529.428 .1220037
530.250 .1250226
531.072 .1275385
531.892 .1295178
532.712 .1309397
533.532 .1317929
534.350 .1320723
535.168 .1317843
535.986 .1309352
536.802 .1295340
537.618 .1275894
538.434 .1251153
539.249 .1221442
540.063 .1187176
540.876 .1148954
541.689 .1107508
542.501 .1063669
543.313 .1018389
544.124 .0972619
544.934 .0927280
545.744 .0883193
546.553 .0841064
547.361 .0801440
548.169 .0764619
548.976 .0730762
549.783 .0699886
550.589 .0671896
551.395 .0646611
552.200 .0623765
553.004 .0603090
553.808 .0584346
554.611 .0567318
555.414 .0551819
556.216 .0537672
557.018 .0524734
557.819 .0512868
558.619 .0501942
559.419 .0491841
560.218 .0482464
561.017 .0473725
561.815 .0465559
562.613 .0457910
563.410 .0450726
564.207 .0443964
565.003 .0437585
565.799 .0431552
566.594 .0425828
567.388 .0420384
568.182 .0415193
568.976 .0410235
569.769 .0405485
570.562 .0400923
571.354 .0396529
572.145 .0392288
572.936 .0388188
573.727 .0384219
574.517 .0380377
575.307 .0376660
576.096 .0373070
576.885 .0369607
577.673 .0366275
578.461 .0363075
579.248 .0360004
580.035 .0357061
580.821 .0354245
581.607 .0351554
582.392 .0348990
583.177 .0346554
583.962 .0344247
584.746 .0342074
585.529 .0340032
586.313 .0338120
587.095 .0336337
587.878 .0334675
588.660 .0333128
589.441 .0331690
590.222 .0330357
591.003 .0329122
591.783 .0327982
592.563 .0326932
593.342 .0325968
594.121 .0325085
594.899 .0324276
595.678 .0323535
596.455 .0322857
597.233 .0322234
598.009 .0321660
598.786 .0321132
599.562 .0320643
600.338 .0320190
601.113 .0319770
601.888 .0319231
602.663 .0318873
603.437 .0318536
604.211 .0318219
604.984 .0317919
605.757 .0317635
606.530 .0317363
607.302 .0317103
608.074 .0316855
608.845 .0316617
609.616 .0316392
610.387 .0316303
611.158 .0316095
611.928 .0315898
612.697 .0315712
613.467 .0315536
614.236 .0315369
615.004 .0315210
615.773 .0315059
616.541 .0314916
617.308 .0314778
618.076 .0314646
618.843 .0314518
619.609 .0314394
620.375 .0314273
621.141 .0314153
621.907 .0314033
622.672 .0313911
623.437 .0313785
624.202 .0313654
624.966 .0313515
625.730 .0313367
626.493 .0313209
627.257 .0313039
628.020 .0312857
628.782 .0312662
629.545 .0312454
630.307 .0312233
631.068 .0312001
631.830 .0311757
632.591 .0311502
633.352 .0311237
634.112 .0310962
634.872 .0310679
635.632 .0310386
636.392 .0310087
637.151 .0309781
637.910 .0309470
638.668 .0309156
639.427 .0308842
640.185 .0308528
640.943 .0308218
641.700 .0307911
642.457 .0307610
643.214 .0307314
643.971 .0307023
644.727 .0306737
645.483 .0306455
646.239 .0306178
646.994 .0305904
647.750 .0305634
648.505 .0305369
649.259 .0305107
650.014 .0304850
650.768 .0304596
651.521 .0304346
652.275 .0304099
653.028 .0303855
653.781 .0303613
654.534 .0303372
655.286 .0303133
656.039 .0302895
656.791 .0302657
657.542 .0302420
658.294 .0302184
659.045 .0301950
659.796 .0301719
660.546 .0301494
661.297 .0301274
662.047 .0301061
662.796 .0300856
663.546 .0300658
664.295 .0300469
665.044 .0300287
665.793 .0300112
666.542 .0299946
667.290 .0299787
668.038 .0299635
668.786 .0299492
669.533 .0299358
670.281 .0299233
671.028 .0299117
671.774 .0299011
672.521 .0298914
673.267 .0298826
674.013 .0298746
674.759 .0298672
675.505 .0298604
676.250 .0298540
676.995 .0298480
677.740 .0298421
678.484 .0298363
679.229 .0298306
679.973 .0298249
680.717 .0298193
681.460 .0298137
682.204 .0298080
682.947 .0298022
683.690 .0297962
684.433 .0297899
685.175 .0297832
685.917 .0297761
686.659 .0297684
687.401 .0297601
688.142 .0297511
688.884 .0297414
689.625 .0297309
690.365 .0297197
691.106 .0297076
691.846 .0296947
692.586 .0296810
693.326 .0296664
694.066 .0296509
694.805 .0296345
695.545 .0296173
696.284 .0295992
697.022 .0295801
697.761 .0295602
698.499 .0295395
699.237 .0295179
699.975 .0294957
700.713 .0294728
701.450 .0294494
702.187 .0294256
702.924 .0294013
703.661 .0293767
704.397 .0293517
705.133 .0293265
705.869 .0293008
706.605 .0292749
707.341 .0292486
708.076 .0292219
708.811 .0291951
709.546 .0291680
710.281 .0291408
711.015 .0291135
711.749 .0290860
712.483 .0290584
713.217 .0290307
713.950 .0290031
714.684 .0289754
715.417 .0289479
716.150 .0289205
716.882 .0288932
717.615 .0288662
718.347 .0288395
719.079 .0288130
719.811 .0287869
720.542 .0287612
721.273 .0287358
722.005 .0287109
722.735 .0286867
723.466 .0286632
724.196 .0286406
724.927 .0286188
725.656 .0285979
726.386 .0285779
727.116 .0285588
727.845 .0285406
728.574 .0285234
729.303 .0285071
730.031 .0284918
730.760 .0284775
731.488 .0284643
732.216 .0284521
732.944 .0284409
733.671 .0284306
734.398 .0284211
735.125 .0284124
735.852 .0284044
736.579 .0283970
737.305 .0283901
738.031 .0283838
738.757 .0283779
739.483 .0283725
740.208 .0283676
740.933 .0283630
741.658 .0283587
742.383 .0283548
743.108 .0283511
743.832 .0283478
744.556 .0283446
745.280 .0283417
746.004 .0283389
746.727 .0283361
747.450 .0283334
748.173 .0283307
748.896 .0283278
749.618 .0283249
750.340 .0283220
751.062 .0283189
751.784 .0283158
752.506 .0283127
753.227 .0283095
753.948 .0283063
754.669 .0283029
755.389 .0282994
756.110 .0282956
756.830 .0282917
757.550 .0282875
758.269 .0282830
758.989 .0282782
759.708 .0282730
760.427 .0282674
761.146 .0282613
761.864 .0282547
762.582 .0282476
763.300 .0282400
764.018 .0282319
764.736 .0282232
765.453 .0282142
766.170 .0282047
766.887 .0281948
767.603 .0281845
768.320 .0281739
769.036 .0281630
769.751 .0281518
770.467 .0281404
771.182 .0281287
771.897 .0281168
772.612 .0281048
773.327 .0280926
774.041 .0280803
774.755 .0280679
775.469 .0280553
776.183 .0280427
776.896 .0280299
777.609 .0280170
778.322 .0280041
779.035 .0279910
779.747 .0279778
780.459 .0279645
781.171 .0279509
781.882 .0279370
782.594 .0279227
783.305 .0279080
784.016 .0278930
784.726 .0278775
785.436 .0278616
786.147 .0278361
786.856 .0278193
787.566 .0278021
788.275 .0277845
788.984 .0277664
789.693 .0277477
790.401 .0277283
791.110 .0277084
791.818 .0276877
792.525 .0276664
793.233 .0276445
793.940 .0276220
794.647 .0276095
795.353 .0275863
796.060 .0275626
796.766 .0275386
797.472 .0275142
798.177 .0274896
798.883 .0274646
799.588 .0274394
800.292 .0274140
800.997 .0273883
801.701 .0273623
802.405 .0273361
803.109 .0273098
803.812 .0272833
804.515 .0272568
805.218 .0272303
805.921 .0272039
806.623 .0271776
807.325 .0271514
808.027 .0271255
808.728 .0270999
809.429 .0270747
810.130 .0270498
810.831 .0270254
811.531 .0270015
812.231 .0269781
812.931 .0269554
813.630 .0269334
814.330 .0269120
815.029 .0268914
815.727 .0268716
816.426 .0268527
817.124 .0268346
817.821 .0268175
818.519 .0268012
819.216 .0267859
819.913 .0267715
820.609 .0267579
821.306 .0267452
822.002 .0267334
822.697 .0267225
823.393 .0267124
824.088 .0267034
824.783 .0266953
825.477 .0266883
826.171 .0266825
826.865 .0266777
827.559 .0266740
828.252 .0266714
828.945 .0266699
829.638 .0266694
830.330 .0266698
831.023 .0266711
831.714 .0266731
832.406 .0266758
833.097 .0266792
833.788 .0266832
834.479 .0266876
835.169 .0266926
835.859 .0266980
836.548 .0267038
837.238 .0267099
837.927 .0267161
838.615 .0267225
839.304 .0267289
839.992 .0267351
840.680 .0267412
841.367 .0267471
842.054 .0267528
842.741 .0267582
843.428 .0267633
844.114 .0267681
844.800 .0267726
845.485 .0267768
846.170 .0267805
846.855 .0267837
847.540 .0267865
848.224 .0267888
848.908 .0267905
849.592 .0267919
850.275 .0267927
850.958 .0267930
851.641 .0267929
852.323 .0267922
853.005 .0267910
853.687 .0267894
854.368 .0267872
855.049 .0267846
855.730 .0267817
856.410 .0267785
857.090 .0267749
857.769 .0267711
858.449 .0267670
859.128 .0267625
859.806 .0267577
860.485 .0267524
861.163 .0267467
861.840 .0267406
862.518 .0267341
863.195 .0267273
863.871 .0267203
864.548 .0267131
865.224 .0267057
865.899 .0266982
866.574 .0266905
867.249 .0266826
867.924 .0266744
868.598 .0266659
869.272 .0266572
869.946 .0266481
870.619 .0266389
871.292 .0266293
871.964 .0266196
872.636 .0266097
873.308 .0265996
873.979 .0265893
874.651 .0265788
875.321 .0265681
875.992 .0265572
876.662 .0265461
877.331 .0265347
878.001 .0265232
878.670 .0265113
879.338 .0264992
880.007 .0264867
880.675 .0264738
881.342 .0264605
882.009 .0264466
882.676 .0264323
883.343 .0264174
884.009 .0264021
884.675 .0263863
885.340 .0263701
886.005 .0263534
886.670 .0263363
887.334 .0263187
887.998 .0263006
888.662 .0262821
889.325 .0262631
889.988 .0262437
890.650 .0262240
891.312 .0262040
891.974 .0261837
892.636 .0261633
893.297 .0261427
893.957 .0261219
894.618 .0261010
895.278 .0260800
895.937 .0260587
896.596 .0260373
897.255 .0260157
897.914 .0259939
898.572 .0259719
899.230 .0259496
899.887 .0259271
900.544 .0259043
901.201 .0258813
901.857 .0258457
902.513 .0258216
903.168 .0257973
903.823 .0257725
904.478 .0257474
905.132 .0257219
905.786 .0256960
906.440 .0256697
907.093 .0256429
907.746 .0256157
908.399 .0255880
909.051 .0255599
909.703 .0255314
910.354 .0255158
911.005 .0254869
911.656 .0254577
912.306 .0254283
912.956 .0253987
913.605 .0253689
914.254 .0253392
914.903 .0253095
915.551 .0252799
916.199 .0252505
916.847 .0252214
917.494 .0251924
918.141 .0251637
918.788 .0251353
919.434 .0251073
920.079 .0250796
920.725 .0250524
921.370 .0250258
922.014 .0249997
922.658 .0249743
923.302 .0249496
923.946 .0249257
924.589 .0249025
925.231 .0248801
925.873 .0248584
926.515 .0248375
927.157 .0248174
927.798 .0247981
928.439 .0247798
929.079 .0247623
929.719 .0247459
930.359 .0247304
930.998 .0247158
931.637 .0247022
932.275 .0246893
932.913 .0246774
933.551 .0246662
934.188 .0246558
934.825 .0246464
935.462 .0246378
936.098 .0246301
936.733 .0246233
937.369 .0246175
938.004 .0246125
938.638 .0246084
939.273 .0246051
939.907 .0246025
940.540 .0246006
941.173 .0245993
941.806 .0245985
942.438 .0245983
943.070 .0245987
943.702 .0245995
944.333 .0246007
944.964 .0246023
945.594 .0246044
946.224 .0246067
946.854 .0246095
947.483 .0246126
948.112 .0246161
948.741 .0246201
949.369 .0246245
949.996 .0246293
950.624 .0246345
951.251 .0246403
951.878 .0246466
952.504 .0246533
953.130 .0246606
953.755 .0246685
954.380 .0246769
955.005 .0246859
955.629 .0246955
956.253 .0247055
956.877 .0247160
957.500 .0247269
958.123 .0247383
958.746 .0247500
959.368 .0247622
959.990 .0247748
960.611 .0247879
961.232 .0248013
961.853 .0248150
962.473 .0248291
963.093 .0248433
963.712 .0248576
964.331 .0248719
964.950 .0248862
965.569 .0249004
966.187 .0249145
966.804 .0249283
967.422 .0249419
968.039 .0249551
968.655 .0249678
969.272 .0249800
969.887 .0249916
970.503 .0250025
971.118 .0250128
971.733 .0250223
972.347 .0250311
972.961 .0250392
973.575 .0250467
974.188 .0250536
974.801 .0250599
975.414 .0250656
976.026 .0250706
976.638 .0250750
977.250 .0250786
977.861 .0250816
978.472 .0250838
979.083 .0250854
979.693 .0250863
980.303 .0250866
980.912 .0250847
981.521 .0250838
982.130 .0250823
982.738 .0250804
983.346 .0250780
983.954 .0250752
984.562 .0250722
985.169 .0250689
985.775 .0250655
986.382 .0250620
986.988 .0250586
987.594 .0250552
988.199 .0250518
988.804 .0250485
989.409 .0250472
990.013 .0250440
990.617 .0250409
991.221 .0250377
991.824 .0250347
992.427 .0250316
993.030 .0250287
993.632 .0250260
994.234 .0250233
994.836 .0250208
995.438 .0250183
996.039 .0250159
996.640 .0250133
997.240 .0250106
997.840 .0250078
998.440 .0250047
999.040 .0250015
999.639 .0249979
1000.238 .0249942
1000.836 .0249902
1001.435 .0249859
1002.033 .0249814
1002.630 .0249766
1003.228 .0249714
1003.825 .0249658
1004.422 .0249598
1005.018 .0249532
1005.614 .0249463
1006.210 .0249389
1006.806 .0249311
1007.401 .0249231
1007.996 .0249148
1008.591 .0249062
1009.186 .0248976
1009.780 .0248887
1010.374 .0248797
1010.967 .0248705
1011.561 .0248610
1012.154 .0248514
1012.746 .0248415
1013.339 .0248314
1013.931 .0248213
1014.523 .0248110
1015.115 .0248007
1015.706 .0247903
1016.298 .0247799
1016.888 .0247695
1017.479 .0247591
1018.069 .0247488
1018.660 .0247385
1019.250 .0247282
1019.839 .0247180
1020.429 .0247078
1021.018 .0246978
1021.607 .0246878
1022.195 .0246780
1022.784 .0246683
1023.372 .0246587
1023.960 .0246493
1024.547 .0246400
1025.135 .0246307
1025.722 .0246215
1026.309 .0246122
1026.896 .0246027
1027.483 .0245931
1028.069 .0245831
1028.655 .0245729
1029.241 .0245624
1029.827 .0245516
1030.412 .0245404
1030.997 .0245289
1031.582 .0245171
1032.167 .0245048
1032.752 .0244922
1033.336 .0244791
1033.921 .0244655
1034.505 .0244515
1035.089 .0244369
1035.672 .0244219
1036.256 .0244065
1036.839 .0243909
1037.422 .0243749
1038.005 .0243587
1038.588 .0243422
1039.171 .0243256
1039.753 .0243087
1040.335 .0242916
1040.918 .0242742
1041.500 .0242566
1042.081 .0242388
1042.663 .0242209
1043.244 .0242029
1043.826 .0241850
1044.407 .0241673
1044.988 .0241499
1045.569 .0241329
1046.150 .0241165
1046.730 .0241007
1047.311 .0240854
1047.891 .0240708
1048.471 .0240567
1049.052 .0240433
1049.632 .0240306
1050.211 .0240185
1050.791 .0240071
1051.371 .0239962
1051.950 .0239860
1052.530 .0239763
1053.109 .0239671
1053.688 .0239583
1054.268 .0239497
1054.847 .0239413
1055.426 .0239331
1056.005 .0239249
1056.583 .0239169
1057.162 .0239091
1057.741 .0239014
1058.319 .0238941
1058.898 .0238870
1059.476 .0238802
1060.055 .0238737
1060.633 .0238675
1061.211 .0238615
1061.790 .0238557
1062.368 .0238501
1062.946 .0238447
1063.524 .0238396
1064.102 .0238347
1064.680 .0238301
1065.258 .0238259
1065.836 .0238221
1066.414 .0238186
1066.992 .0238154
1067.570 .0238125
1068.148 .0238098
1068.726 .0238072
1069.304 .0238047
1069.882 .0238023
1070.460 .0238000
1071.038 .0237980
1071.616 .0237964
1072.194 .0237951
1072.772 .0237943
1073.350 .0237939
1073.928 .0237937
1074.506 .0237937
1075.084 .0237938
1075.662 .0237939
1076.240 .0237940
1076.819 .0237940
1077.397 .0237940
1077.976 .0237941
1078.554 .0237944
1079.133 .0237950
1079.711 .0237960
1080.290 .0237973
1080.869 .0237991
1081.448 .0238014
1082.027 .0238042
1082.606 .0238076
1083.185 .0238117
1083.764 .0238167
1084.343 .0238227
1084.923 .0238298
1085.502 .0238380
1086.082 .0238473
1086.662 .0238580
1087.242 .0238698
1087.822 .0238828
1088.402 .0238969
1088.983 .0239121
1089.563 .0239283
1090.144 .0239456
1090.725 .0239637
1091.306 .0239828
1091.887 .0240026
1092.469 .0240231
1093.050 .0240442
1093.632 .0240659
1094.214 .0240880
1094.796 .0241107
1095.379 .0241339
1095.961 .0241576
1096.544 .0241818
1097.127 .0242068
1097.710 .0242326
1098.294 .0242593
1098.877 .0242870
1099.461 .0243156
1100.046 .0243453
1100.630 .0243760
1101.215 .0244076
1101.800 .0244402
1102.385 .0244738
1102.970 .0245084
1103.556 .0245441
1104.142 .0245808
1104.728 .0246185
1105.315 .0246571
1105.902 .0246966
1106.489 .0247368
1107.077 .0247776
1107.664 .0248190
1108.253 .0248610
1108.841 .0249037
1109.430 .0249472
1110.019 .0249917
1110.609 .0250374
1111.198 .0250844
1111.789 .0251327
1112.379 .0251822
1112.970 .0252328
1113.561 .0252843
1114.153 .0253363
1114.745 .0253888
1115.338 .0254417
1115.931 .0254948
1116.524 .0255484
1117.117 .0256024
1117.712 .0256571
1118.306 .0257125
1118.901 .0257687
1119.496 .0258256
1120.092 .0258834
1120.689 .0259420
1121.285 .0260014
1121.882 .0260618
1122.480 .0261235
1123.078 .0261864
1123.677 .0262508
1124.276 .0263171
1124.875 .0263853
1125.476 .0264558
1126.076 .0265289
1126.677 .0266045
1127.279 .0266830
1127.881 .0267641
1128.484 .0268480
1129.087 .0268841
1129.691 .0269718
1130.295 .0270621
1130.900 .0271552
1131.505 .0272515
1132.111 .0273511
1132.718 .0274545
1133.325 .0275617
1133.933 .0276736
1134.541 .0277900
1135.150 .0279157
1135.760 .0280434
1136.370 .0281681
1136.981 .0282115
1137.592 .0283468
1138.204 .0284793
1138.817 .0286128
1139.431 .0287526
1140.045 .0289040
1140.660 .0290646
1141.275 .0292322
1141.891 .0294240
1142.508 .0296249
1143.126 .0299574
1143.744 .0300949
1144.363 .0300879
1144.983 .0306284
