Measurement Sequence started on: 15-12-46-377
Integration time: 28
Scans to Average: 2 
>>>>>Begin Spectral Data<<<<<
432.689 .0000100
433.621 .0000100
434.552 .0000100
435.482 .0000100
436.410 .0000100
437.337 .0000100
438.262 .0269709
439.187 .0571366
440.110 .0946600
441.031 .1369947
441.952 .1105417
442.871 .1155551
443.789 .1202312
444.705 .1246392
445.621 .1288287
446.535 .1328362
447.447 .1352713
448.359 .1359872
449.269 .1346152
450.178 .1309152
451.086 .1249599
451.993 .1172142
452.898 .1084515
453.803 .0995492
454.706 .0912551
455.608 .0840331
456.508 .0780414
457.408 .0739750
458.306 .0708350
459.204 .0682655
460.100 .0660883
460.995 .0642062
461.888 .0625523
462.781 .0610803
463.673 .0597561
464.563 .0585544
465.452 .0574568
466.340 .0564478
467.228 .0555168
468.114 .0546551
468.999 .0538560
469.882 .0531147
470.765 .0524267
471.647 .0517889
472.528 .0511995
473.407 .0506565
474.286 .0501587
475.163 .0497059
476.040 .0492968
476.915 .0489310
477.790 .0486073
478.663 .0483242
479.535 .0480797
480.407 .0478716
481.277 .0476977
482.147 .0475549
483.015 .0474414
483.883 .0473554
484.749 .0472953
485.615 .0472597
486.479 .0472479
487.343 .0472586
488.206 .0472915
489.067 .0473455
489.928 .0474195
490.788 .0475135
491.647 .0476262
492.505 .0477569
493.362 .0479048
494.218 .0480694
495.073 .0482503
495.928 .0485793
496.781 .0488010
497.634 .0490406
498.486 .0492995
499.337 .0495789
500.187 .0498806
501.036 .0502066
501.884 .0505593
502.731 .0509413
503.578 .0513562
504.424 .0516341
505.268 .0521123
506.113 .0526346
506.956 .0532060
507.798 .0538333
508.640 .0545243
509.480 .0552894
510.320 .0561401
511.160 .0570887
511.998 .0581495
512.836 .0593393
513.672 .0606756
514.508 .0621771
515.344 .0638629
516.178 .0657563
517.012 .0678791
517.845 .0702529
518.677 .0728966
519.508 .0758278
520.339 .0790558
521.169 .0825831
521.998 .0863861
522.826 .0904331
523.654 .0946704
524.481 .0990304
525.307 .1034304
526.133 .1077811
526.958 .1119878
527.782 .1159606
528.605 .1196164
529.428 .1228865
530.250 .1257100
531.072 .1280503
531.892 .1298737
532.712 .1311636
533.532 .1319063
534.350 .1320968
535.168 .1317356
535.986 .1308271
536.802 .1293744
537.618 .1273870
538.434 .1248785
539.249 .1218893
540.063 .1184648
540.876 .1146697
541.689 .1105812
542.501 .1062875
543.313 .1018800
544.124 .0974520
544.934 .0930878
545.744 .0888634
546.553 .0848375
547.361 .0810585
548.169 .0775486
548.976 .0743267
549.783 .0713931
550.589 .0687397
551.395 .0663502
552.200 .0642032
553.004 .0622735
553.808 .0605392
554.611 .0589778
555.414 .0575696
556.216 .0562935
557.018 .0551314
557.819 .0540660
558.619 .0530818
559.419 .0521656
560.218 .0513069
561.017 .0504965
561.815 .0497280
562.613 .0489958
563.410 .0482953
564.207 .0476222
565.003 .0469724
565.799 .0463417
566.594 .0457261
567.388 .0451230
568.182 .0445306
568.976 .0439478
569.769 .0433744
570.562 .0428107
571.354 .0422579
572.145 .0417173
572.936 .0411902
573.727 .0406774
574.517 .0401802
575.307 .0396997
576.096 .0392368
576.885 .0387923
577.673 .0383671
578.461 .0379620
579.248 .0375780
580.035 .0372155
580.821 .0368751
581.607 .0365566
582.392 .0362599
583.177 .0359846
583.962 .0357301
584.746 .0354956
585.529 .0352800
586.313 .0350819
587.095 .0349004
587.878 .0347339
588.660 .0345812
589.441 .0344410
590.222 .0343123
591.003 .0341941
591.783 .0340853
592.563 .0339847
593.342 .0338914
594.121 .0338044
594.899 .0337226
595.678 .0336455
596.455 .0335724
597.233 .0335028
598.009 .0334363
598.786 .0333728
599.562 .0333122
600.338 .0332541
601.113 .0331985
601.888 .0331231
602.663 .0330730
603.437 .0330248
604.211 .0329784
604.984 .0329340
605.757 .0328914
606.530 .0328506
607.302 .0328117
608.074 .0327746
608.845 .0327392
609.616 .0327054
610.387 .0326916
611.158 .0326595
611.928 .0326287
612.697 .0325990
613.467 .0325703
614.236 .0325423
615.004 .0325151
615.773 .0324884
616.541 .0324622
617.308 .0324365
618.076 .0324111
618.843 .0323859
619.609 .0323609
620.375 .0323360
621.141 .0323110
621.907 .0322860
622.672 .0322606
623.437 .0322350
624.202 .0322089
624.966 .0321823
625.730 .0321551
626.493 .0321274
627.257 .0320991
628.020 .0320703
628.782 .0320412
629.545 .0320118
630.307 .0319821
631.068 .0319523
631.830 .0319223
632.591 .0318922
633.352 .0318621
634.112 .0318319
634.872 .0318019
635.632 .0317721
636.392 .0317425
637.151 .0317132
637.910 .0316843
638.668 .0316557
639.427 .0316275
640.185 .0315996
640.943 .0315720
641.700 .0315447
642.457 .0315179
643.214 .0314916
643.971 .0314657
644.727 .0314404
645.483 .0314156
646.239 .0313912
646.994 .0313670
647.750 .0313428
648.505 .0313187
649.259 .0312944
650.014 .0312700
650.768 .0312455
651.521 .0312208
652.275 .0311961
653.028 .0311713
653.781 .0311464
654.534 .0311214
655.286 .0310963
656.039 .0310712
656.791 .0310459
657.542 .0310206
658.294 .0309953
659.045 .0309701
659.796 .0309449
660.546 .0309199
661.297 .0308949
662.047 .0308701
662.796 .0308454
663.546 .0308207
664.295 .0307963
665.044 .0307721
665.793 .0307481
666.542 .0307245
667.290 .0307012
668.038 .0306781
668.786 .0306554
669.533 .0306328
670.281 .0306103
671.028 .0305879
671.774 .0305656
672.521 .0305433
673.267 .0305210
674.013 .0304987
674.759 .0304766
675.505 .0304547
676.250 .0304329
676.995 .0304113
677.740 .0303899
678.484 .0303686
679.229 .0303475
679.973 .0303266
680.717 .0303059
681.460 .0302854
682.204 .0302650
682.947 .0302447
683.690 .0302246
684.433 .0302045
685.175 .0301845
685.917 .0301645
686.659 .0301445
687.401 .0301246
688.142 .0301046
688.884 .0300846
689.625 .0300647
690.365 .0300446
691.106 .0300245
691.846 .0300042
692.586 .0299837
693.326 .0299629
694.066 .0299419
694.805 .0299206
695.545 .0298991
696.284 .0298775
697.022 .0298558
697.761 .0298340
698.499 .0298122
699.237 .0297905
699.975 .0297688
700.713 .0297472
701.450 .0297256
702.187 .0297040
702.924 .0296825
703.661 .0296611
704.397 .0296398
705.133 .0296187
705.869 .0295977
706.605 .0295769
707.341 .0295563
708.076 .0295358
708.811 .0295154
709.546 .0294953
710.281 .0294754
711.015 .0294557
711.749 .0294363
712.483 .0294171
713.217 .0293981
713.950 .0293793
714.684 .0293606
715.417 .0293421
716.150 .0293237
716.882 .0293053
717.615 .0292871
718.347 .0292690
719.079 .0292510
719.811 .0292332
720.542 .0292156
721.273 .0291981
722.005 .0291807
722.735 .0291635
723.466 .0291465
724.196 .0291297
724.927 .0291131
725.656 .0290967
726.386 .0290806
727.116 .0290648
727.845 .0290492
728.574 .0290339
729.303 .0290188
730.031 .0290039
730.760 .0289893
731.488 .0289749
732.216 .0289607
732.944 .0289467
733.671 .0289329
734.398 .0289193
735.125 .0289059
735.852 .0288926
736.579 .0288794
737.305 .0288665
738.031 .0288537
738.757 .0288412
739.483 .0288290
740.208 .0288170
740.933 .0288052
741.658 .0287936
742.383 .0287821
743.108 .0287707
743.832 .0287594
744.556 .0287482
745.280 .0287369
746.004 .0287257
746.727 .0287145
747.450 .0287033
748.173 .0286922
748.896 .0286809
749.618 .0286697
750.340 .0286584
751.062 .0286470
751.784 .0286355
752.506 .0286239
753.227 .0286122
753.948 .0286004
754.669 .0285886
755.389 .0285766
756.110 .0285644
756.830 .0285521
757.550 .0285397
758.269 .0285270
758.989 .0285141
759.708 .0285010
760.427 .0284876
761.146 .0284740
761.864 .0284602
762.582 .0284461
763.300 .0284319
764.018 .0284174
764.736 .0284026
765.453 .0283877
766.170 .0283725
766.887 .0283570
767.603 .0283414
768.320 .0283255
769.036 .0283096
769.751 .0282937
770.467 .0282779
771.182 .0282621
771.897 .0282466
772.612 .0282313
773.327 .0282162
774.041 .0282014
774.755 .0281869
775.469 .0281727
776.183 .0281590
776.896 .0281457
777.609 .0281329
778.322 .0281208
779.035 .0281094
779.747 .0280986
780.459 .0280885
781.171 .0280791
781.882 .0280704
782.594 .0280622
783.305 .0280544
784.016 .0280470
784.726 .0280400
785.436 .0280332
786.147 .0280231
786.856 .0280163
787.566 .0280093
788.275 .0280022
788.984 .0279948
789.693 .0279869
790.401 .0279787
791.110 .0279700
791.818 .0279610
792.525 .0279516
793.233 .0279418
793.940 .0279316
794.647 .0279250
795.353 .0279143
796.060 .0279033
796.766 .0278918
797.472 .0278799
798.177 .0278676
798.883 .0278549
799.588 .0278420
800.292 .0278289
800.997 .0278157
801.701 .0278022
802.405 .0277886
803.109 .0277748
803.812 .0277607
804.515 .0277462
805.218 .0277315
805.921 .0277163
806.623 .0277009
807.325 .0276851
808.027 .0276690
808.728 .0276526
809.429 .0276359
810.130 .0276190
810.831 .0276019
811.531 .0275845
812.231 .0275669
812.931 .0275491
813.630 .0275312
814.330 .0275133
815.029 .0274954
815.727 .0274777
816.426 .0274603
817.124 .0274431
817.821 .0274264
818.519 .0274101
819.216 .0273943
819.913 .0273793
820.609 .0273649
821.306 .0273512
822.002 .0273383
822.697 .0273262
823.393 .0273149
824.088 .0273044
824.783 .0272946
825.477 .0272855
826.171 .0272770
826.865 .0272691
827.559 .0272617
828.252 .0272547
828.945 .0272481
829.638 .0272418
830.330 .0272356
831.023 .0272295
831.714 .0272235
832.406 .0272175
833.097 .0272115
833.788 .0272053
834.479 .0271990
835.169 .0271926
835.859 .0271859
836.548 .0271790
837.238 .0271719
837.927 .0271647
838.615 .0271572
839.304 .0271496
839.992 .0271419
840.680 .0271341
841.367 .0271264
842.054 .0271187
842.741 .0271110
843.428 .0271033
844.114 .0270957
844.800 .0270882
845.485 .0270807
846.170 .0270731
846.855 .0270656
847.540 .0270579
848.224 .0270502
848.908 .0270423
849.592 .0270342
850.275 .0270258
850.958 .0270171
851.641 .0270079
852.323 .0269982
853.005 .0269880
853.687 .0269772
854.368 .0269658
855.049 .0269539
855.730 .0269415
856.410 .0269285
857.090 .0269150
857.769 .0269012
858.449 .0268870
859.128 .0268726
859.806 .0268582
860.485 .0268439
861.163 .0268296
861.840 .0268157
862.518 .0268021
863.195 .0267889
863.871 .0267761
864.548 .0267637
865.224 .0267517
865.899 .0267403
866.574 .0267293
867.249 .0267188
867.924 .0267090
868.598 .0266998
869.272 .0266912
869.946 .0266832
870.619 .0266759
871.292 .0266692
871.964 .0266631
872.636 .0266575
873.308 .0266524
873.979 .0266478
874.651 .0266436
875.321 .0266398
875.992 .0266363
876.662 .0266332
877.331 .0266303
878.001 .0266277
878.670 .0266253
879.338 .0266230
880.007 .0266210
880.675 .0266191
881.342 .0266174
882.009 .0266160
882.676 .0266148
883.343 .0266139
884.009 .0266132
884.675 .0266127
885.340 .0266125
886.005 .0266125
886.670 .0266128
887.334 .0266133
887.998 .0266140
888.662 .0266150
889.325 .0266163
889.988 .0266178
890.650 .0266195
891.312 .0266213
891.974 .0266233
892.636 .0266253
893.297 .0266273
893.957 .0266292
894.618 .0266308
895.278 .0266323
895.937 .0266333
896.596 .0266340
897.255 .0266340
897.914 .0266335
898.572 .0266324
899.230 .0266305
899.887 .0266280
900.544 .0266246
901.201 .0266205
901.857 .0266104
902.513 .0266040
903.168 .0265966
903.823 .0265884
904.478 .0265792
905.132 .0265691
905.786 .0265581
906.440 .0265462
907.093 .0265336
907.746 .0265201
908.399 .0265060
909.051 .0264913
909.703 .0264759
910.354 .0264670
911.005 .0264511
911.656 .0264348
912.306 .0264180
912.956 .0264009
913.605 .0263835
914.254 .0263660
914.903 .0263483
915.551 .0263304
916.199 .0263124
916.847 .0262943
917.494 .0262761
918.141 .0262578
918.788 .0262393
919.434 .0262208
920.079 .0262022
920.725 .0261836
921.370 .0261650
922.014 .0261462
922.658 .0261273
923.302 .0261082
923.946 .0260888
924.589 .0260691
925.231 .0260489
925.873 .0260284
926.515 .0260076
927.157 .0259864
927.798 .0259649
928.439 .0259433
929.079 .0259215
929.719 .0258996
930.359 .0258776
930.998 .0258554
931.637 .0258331
932.275 .0258107
932.913 .0257885
933.551 .0257663
934.188 .0257445
934.825 .0257231
935.462 .0257021
936.098 .0256817
936.733 .0256619
937.369 .0256427
938.004 .0256240
938.638 .0256060
939.273 .0255886
939.907 .0255719
940.540 .0255559
941.173 .0255407
941.806 .0255264
942.438 .0255129
943.070 .0255001
943.702 .0254881
944.333 .0254765
944.964 .0254654
945.594 .0254545
946.224 .0254439
946.854 .0254334
947.483 .0254231
948.112 .0254129
948.741 .0254028
949.369 .0253927
949.996 .0253827
950.624 .0253725
951.251 .0253622
951.878 .0253516
952.504 .0253407
953.130 .0253295
953.755 .0253180
954.380 .0253064
955.005 .0252945
955.629 .0252826
956.253 .0252706
956.877 .0252585
957.500 .0252462
958.123 .0252338
958.746 .0252212
959.368 .0252084
959.990 .0251955
960.611 .0251826
961.232 .0251696
961.853 .0251566
962.473 .0251436
963.093 .0251307
963.712 .0251179
964.331 .0251051
964.950 .0250924
965.569 .0250796
966.187 .0250668
966.804 .0250540
967.422 .0250412
968.039 .0250284
968.655 .0250156
969.272 .0250027
969.887 .0249899
970.503 .0249769
971.118 .0249638
971.733 .0249504
972.347 .0249369
972.961 .0249232
973.575 .0249092
974.188 .0248950
974.801 .0248806
975.414 .0248661
976.026 .0248514
976.638 .0248365
977.250 .0248215
977.861 .0248064
978.472 .0247911
979.083 .0247758
979.693 .0247605
980.303 .0247451
980.912 .0247227
981.521 .0247078
982.130 .0246932
982.738 .0246789
983.346 .0246649
983.954 .0246513
984.562 .0246381
985.169 .0246253
985.775 .0246129
986.382 .0246009
986.988 .0245894
987.594 .0245783
988.199 .0245676
988.804 .0245573
989.409 .0245537
990.013 .0245441
990.617 .0245350
991.221 .0245262
991.824 .0245177
992.427 .0245095
993.030 .0245017
993.632 .0244941
994.234 .0244868
994.836 .0244798
995.438 .0244731
996.039 .0244668
996.640 .0244611
997.240 .0244558
997.840 .0244512
998.440 .0244472
999.040 .0244439
999.639 .0244411
1000.238 .0244390
1000.836 .0244375
1001.435 .0244366
1002.033 .0244361
1002.630 .0244362
1003.228 .0244368
1003.825 .0244378
1004.422 .0244394
1005.018 .0244414
1005.614 .0244438
1006.210 .0244466
1006.806 .0244497
1007.401 .0244530
1007.996 .0244566
1008.591 .0244605
1009.186 .0244646
1009.780 .0244690
1010.374 .0244737
1010.967 .0244788
1011.561 .0244842
1012.154 .0244901
1012.746 .0244963
1013.339 .0245029
1013.931 .0245097
1014.523 .0245168
1015.115 .0245240
1015.706 .0245313
1016.298 .0245386
1016.888 .0245461
1017.479 .0245536
1018.069 .0245612
1018.660 .0245691
1019.250 .0245772
1019.839 .0245856
1020.429 .0245944
1021.018 .0246034
1021.607 .0246128
1022.195 .0246224
1022.784 .0246324
1023.372 .0246428
1023.960 .0246537
1024.547 .0246650
1025.135 .0246768
1025.722 .0246893
1026.309 .0247023
1026.896 .0247159
1027.483 .0247299
1028.069 .0247444
1028.655 .0247590
1029.241 .0247738
1029.827 .0247885
1030.412 .0248033
1030.997 .0248181
1031.582 .0248328
1032.167 .0248477
1032.752 .0248627
1033.336 .0248779
1033.921 .0248932
1034.505 .0249085
1035.089 .0249237
1035.672 .0249388
1036.256 .0249537
1036.839 .0249682
1037.422 .0249823
1038.005 .0249960
1038.588 .0250094
1039.171 .0250225
1039.753 .0250353
1040.335 .0250477
1040.918 .0250597
1041.500 .0250713
1042.081 .0250822
1042.663 .0250925
1043.244 .0251022
1043.826 .0251112
1044.407 .0251197
1044.988 .0251278
1045.569 .0251357
1046.150 .0251436
1046.730 .0251515
1047.311 .0251597
1047.891 .0251681
1048.471 .0251768
1049.052 .0251857
1049.632 .0251947
1050.211 .0252038
1050.791 .0252129
1051.371 .0252221
1051.950 .0252313
1052.530 .0252406
1053.109 .0252499
1053.688 .0252592
1054.268 .0252686
1054.847 .0252779
1055.426 .0252870
1056.005 .0252959
1056.583 .0253045
1057.162 .0253127
1057.741 .0253204
1058.319 .0253278
1058.898 .0253347
1059.476 .0253414
1060.055 .0253478
1060.633 .0253539
1061.211 .0253597
1061.790 .0253654
1062.368 .0253708
1062.946 .0253761
1063.524 .0253811
1064.102 .0253859
1064.680 .0253905
1065.258 .0253949
1065.836 .0253990
1066.414 .0254030
1066.992 .0254067
1067.570 .0254104
1068.148 .0254141
1068.726 .0254177
1069.304 .0254215
1069.882 .0254254
1070.460 .0254295
1071.038 .0254339
1071.616 .0254384
1072.194 .0254431
1072.772 .0254480
1073.350 .0254531
1073.928 .0254583
1074.506 .0254638
1075.084 .0254695
1075.662 .0254754
1076.240 .0254817
1076.819 .0254883
1077.397 .0254952
1077.976 .0255025
1078.554 .0255100
1079.133 .0255176
1079.711 .0255250
1080.290 .0255324
1080.869 .0255395
1081.448 .0255462
1082.027 .0255527
1082.606 .0255589
1083.185 .0255649
1083.764 .0255709
1084.343 .0255769
1084.923 .0255830
1085.502 .0255889
1086.082 .0255948
1086.662 .0256004
1087.242 .0256058
1087.822 .0256109
1088.402 .0256160
1088.983 .0256213
1089.563 .0256272
1090.144 .0256339
1090.725 .0256417
1091.306 .0256507
1091.887 .0256609
1092.469 .0256721
1093.050 .0256842
1093.632 .0256968
1094.214 .0257098
1094.796 .0257231
1095.379 .0257366
1095.961 .0257506
1096.544 .0257651
1097.127 .0257802
1097.710 .0257961
1098.294 .0258126
1098.877 .0258296
1099.461 .0258469
1100.046 .0258642
1100.630 .0258813
1101.215 .0258979
1101.800 .0259142
1102.385 .0259303
1102.970 .0259462
1103.556 .0259625
1104.142 .0259792
1104.728 .0259965
1105.315 .0260144
1105.902 .0260328
1106.489 .0260515
1107.077 .0260703
1107.664 .0260891
1108.253 .0261076
1108.841 .0261259
1109.430 .0261441
1110.019 .0261625
1110.609 .0261812
1111.198 .0262005
1111.789 .0262206
1112.379 .0262416
1112.970 .0262634
1113.561 .0262860
1114.153 .0263097
1114.745 .0263343
1115.338 .0263603
1115.931 .0263877
1116.524 .0264170
1117.117 .0264483
1117.712 .0264819
1118.306 .0265179
1118.901 .0265562
1119.496 .0265967
1120.092 .0266391
1120.689 .0266830
1121.285 .0267283
1121.882 .0267747
1122.480 .0268225
1123.078 .0268717
1123.677 .0269228
1124.276 .0269756
1124.875 .0270306
1125.476 .0270875
1126.076 .0271465
1126.677 .0272073
1127.279 .0272698
1127.881 .0273340
1128.484 .0273999
1129.087 .0274298
1129.691 .0274989
1130.295 .0275704
1130.900 .0276447
1131.505 .0277222
1132.111 .0278028
1132.718 .0278867
1133.325 .0279744
1133.933 .0280663
1134.541 .0281586
1135.150 .0282476
1135.760 .0283515
1136.370 .0284685
1136.981 .0284405
1137.592 .0285315
1138.204 .0286379
1138.817 .0287574
1139.431 .0288923
1140.045 .0290285
1140.660 .0291801
1141.275 .0293445
1141.891 .0295256
1142.508 .0296042
1143.126 .0295838
1143.744 .0300717
1144.363 .0305095
1144.983 .0308174
