Measurement Sequence started on: 15-12-46-377
Integration time: 28
Scans to Average: 2 
>>>>>Begin Spectral Data<<<<<
432.689 .0000100
433.621 .0000100
434.552 .0000100
435.482 .0000100
436.410 .0000100
437.337 .0000100
438.262 .0298747
439.187 .0632685
440.110 .1047135
441.031 .1513709
441.952 .1205762
442.871 .1258457
443.789 .1307435
444.705 .1353465
445.621 .1397080
446.535 .1438689
447.447 .1462874
448.359 .1468027
449.269 .1450119
450.178 .1406567
451.086 .1338261
451.993 .1250440
452.898 .1151739
453.803 .1051930
454.706 .0959288
455.608 .0878928
456.508 .0812532
457.408 .0767736
458.306 .0733400
459.204 .0705507
460.100 .0682052
460.995 .0661945
461.888 .0644444
462.781 .0629041
463.673 .0615345
464.563 .0603077
465.452 .0592012
466.340 .0581965
467.228 .0572802
468.114 .0564414
468.999 .0556723
469.882 .0549666
470.765 .0543183
471.647 .0537237
472.528 .0531792
473.407 .0526813
474.286 .0522269
475.163 .0518136
476.040 .0514385
476.915 .0510997
477.790 .0507954
478.663 .0505244
479.535 .0502860
480.407 .0500792
481.277 .0499032
482.147 .0497562
483.015 .0496363
483.883 .0495410
484.749 .0494681
485.615 .0494157
486.479 .0493821
487.343 .0493663
488.206 .0493679
489.067 .0493864
489.928 .0494222
490.788 .0494757
491.647 .0495472
492.505 .0496369
493.362 .0497448
494.218 .0498705
495.073 .0500144
495.928 .0502951
496.781 .0504880
497.634 .0507010
498.486 .0509351
499.337 .0511915
500.187 .0514721
501.036 .0517786
501.884 .0521132
502.731 .0524790
503.578 .0528782
504.424 .0531495
505.268 .0536082
506.113 .0541088
506.956 .0546562
507.798 .0552549
508.640 .0559115
509.480 .0566345
510.320 .0574372
511.160 .0583338
511.998 .0593424
512.836 .0604846
513.672 .0617831
514.508 .0632637
515.344 .0649559
516.178 .0668881
517.012 .0690887
517.845 .0715862
518.677 .0744082
519.508 .0775740
520.339 .0810936
521.169 .0849657
521.998 .0891640
522.826 .0936479
523.654 .0983552
524.481 .1032062
525.307 .1081168
526.133 .1129920
526.958 .1177299
527.782 .1222324
528.605 .1264099
529.428 .1301818
530.250 .1334746
531.072 .1362373
531.892 .1384256
532.712 .1400094
533.532 .1409724
534.350 .1413070
535.168 .1410149
535.986 .1401019
536.802 .1385752
537.618 .1364479
538.434 .1337409
539.249 .1304975
540.063 .1267710
540.876 .1226342
541.689 .1181733
542.501 .1134777
543.313 .1086440
544.124 .1037752
544.934 .0989638
545.744 .0942920
546.553 .0898292
547.361 .0856327
548.169 .0817348
548.976 .0781576
549.783 .0749045
550.589 .0719650
551.395 .0693196
552.200 .0669382
553.004 .0647874
553.808 .0628391
554.611 .0610688
555.414 .0594545
556.216 .0579774
557.018 .0566218
557.819 .0553737
558.619 .0542215
559.419 .0531559
560.218 .0521681
561.017 .0512483
561.815 .0503888
562.613 .0495824
563.410 .0488210
564.207 .0480984
565.003 .0474092
565.799 .0467489
566.594 .0461137
567.388 .0455012
568.182 .0449091
568.976 .0443366
569.769 .0437834
570.562 .0432492
571.354 .0427336
572.145 .0422367
572.936 .0417581
573.727 .0412971
574.517 .0408535
575.307 .0404267
576.096 .0400156
576.885 .0396201
577.673 .0392402
578.461 .0388759
579.248 .0385276
580.035 .0381957
580.821 .0378807
581.607 .0375828
582.392 .0373021
583.177 .0370388
583.962 .0367926
584.746 .0365630
585.529 .0363489
586.313 .0361494
587.095 .0359638
587.878 .0357913
588.660 .0356311
589.441 .0354823
590.222 .0353444
591.003 .0352167
591.783 .0350986
592.563 .0349895
593.342 .0348886
594.121 .0347950
594.899 .0347080
595.678 .0346264
596.455 .0345493
597.233 .0344760
598.009 .0344056
598.786 .0343376
599.562 .0342715
600.338 .0342071
601.113 .0341441
601.888 .0340543
602.663 .0339950
603.437 .0339373
604.211 .0338809
604.984 .0338260
605.757 .0337723
606.530 .0337199
607.302 .0336685
608.074 .0336183
608.845 .0335692
609.616 .0335213
610.387 .0335010
611.158 .0334555
611.928 .0334117
612.697 .0333696
613.467 .0333294
614.236 .0332911
615.004 .0332547
615.773 .0332201
616.541 .0331869
617.308 .0331551
618.076 .0331244
618.843 .0330947
619.609 .0330659
620.375 .0330379
621.141 .0330107
621.907 .0329844
622.672 .0329588
623.437 .0329341
624.202 .0329099
624.966 .0328862
625.730 .0328629
626.493 .0328397
627.257 .0328164
628.020 .0327929
628.782 .0327691
629.545 .0327450
630.307 .0327206
631.068 .0326958
631.830 .0326708
632.591 .0326456
633.352 .0326202
634.112 .0325947
634.872 .0325692
635.632 .0325436
636.392 .0325179
637.151 .0324922
637.910 .0324663
638.668 .0324402
639.427 .0324141
640.185 .0323879
640.943 .0323618
641.700 .0323358
642.457 .0323100
643.214 .0322845
643.971 .0322593
644.727 .0322345
645.483 .0322100
646.239 .0321857
646.994 .0321616
647.750 .0321373
648.505 .0321128
649.259 .0320881
650.014 .0320630
650.768 .0320376
651.521 .0320118
652.275 .0319857
653.028 .0319594
653.781 .0319327
654.534 .0319055
655.286 .0318779
656.039 .0318498
656.791 .0318211
657.542 .0317916
658.294 .0317615
659.045 .0317307
659.796 .0316992
660.546 .0316672
661.297 .0316347
662.047 .0316019
662.796 .0315687
663.546 .0315354
664.295 .0315020
665.044 .0314687
665.793 .0314355
666.542 .0314026
667.290 .0313701
668.038 .0313380
668.786 .0313064
669.533 .0312754
670.281 .0312450
671.028 .0312152
671.774 .0311862
672.521 .0311579
673.267 .0311303
674.013 .0311036
674.759 .0310777
675.505 .0310525
676.250 .0310280
676.995 .0310041
677.740 .0309807
678.484 .0309579
679.229 .0309355
679.973 .0309136
680.717 .0308921
681.460 .0308709
682.204 .0308501
682.947 .0308295
683.690 .0308090
684.433 .0307886
685.175 .0307681
685.917 .0307475
686.659 .0307267
687.401 .0307058
688.142 .0306847
688.884 .0306634
689.625 .0306419
690.365 .0306202
691.106 .0305983
691.846 .0305762
692.586 .0305541
693.326 .0305319
694.066 .0305098
694.805 .0304878
695.545 .0304660
696.284 .0304446
697.022 .0304235
697.761 .0304028
698.499 .0303826
699.237 .0303628
699.975 .0303435
700.713 .0303247
701.450 .0303063
702.187 .0302884
702.924 .0302710
703.661 .0302541
704.397 .0302378
705.133 .0302220
705.869 .0302068
706.605 .0301920
707.341 .0301776
708.076 .0301635
708.811 .0301496
709.546 .0301358
710.281 .0301220
711.015 .0301080
711.749 .0300938
712.483 .0300794
713.217 .0300647
713.950 .0300495
714.684 .0300340
715.417 .0300180
716.150 .0300015
716.882 .0299845
717.615 .0299670
718.347 .0299489
719.079 .0299303
719.811 .0299113
720.542 .0298919
721.273 .0298722
722.005 .0298522
722.735 .0298320
723.466 .0298119
724.196 .0297918
724.927 .0297719
725.656 .0297523
726.386 .0297330
727.116 .0297141
727.845 .0296956
728.574 .0296776
729.303 .0296599
730.031 .0296425
730.760 .0296253
731.488 .0296084
732.216 .0295917
732.944 .0295753
733.671 .0295591
734.398 .0295432
735.125 .0295275
735.852 .0295120
736.579 .0294967
737.305 .0294815
738.031 .0294664
738.757 .0294513
739.483 .0294360
740.208 .0294206
740.933 .0294050
741.658 .0293891
742.383 .0293730
743.108 .0293568
743.832 .0293403
744.556 .0293235
745.280 .0293065
746.004 .0292893
746.727 .0292717
747.450 .0292537
748.173 .0292355
748.896 .0292169
749.618 .0291979
750.340 .0291787
751.062 .0291592
751.784 .0291395
752.506 .0291196
753.227 .0290996
753.948 .0290794
754.669 .0290592
755.389 .0290388
756.110 .0290183
756.830 .0289978
757.550 .0289772
758.269 .0289565
758.989 .0289358
759.708 .0289151
760.427 .0288943
761.146 .0288736
761.864 .0288529
762.582 .0288323
763.300 .0288118
764.018 .0287914
764.736 .0287712
765.453 .0287512
766.170 .0287314
766.887 .0287119
767.603 .0286927
768.320 .0286738
769.036 .0286554
769.751 .0286374
770.467 .0286199
771.182 .0286031
771.897 .0285870
772.612 .0285716
773.327 .0285571
774.041 .0285436
774.755 .0285310
775.469 .0285194
776.183 .0285088
776.896 .0284993
777.609 .0284908
778.322 .0284834
779.035 .0284771
779.747 .0284717
780.459 .0284673
781.171 .0284637
781.882 .0284610
782.594 .0284589
783.305 .0284574
784.016 .0284565
784.726 .0284561
785.436 .0284560
786.147 .0284563
786.856 .0284566
787.566 .0284569
788.275 .0284573
788.984 .0284576
789.693 .0284578
790.401 .0284577
791.110 .0284574
791.818 .0284567
792.525 .0284557
793.233 .0284543
793.940 .0284524
794.647 .0284507
795.353 .0284484
796.060 .0284456
796.766 .0284425
797.472 .0284389
798.177 .0284349
798.883 .0284304
799.588 .0284256
800.292 .0284204
800.997 .0284147
801.701 .0284087
802.405 .0284023
803.109 .0283956
803.812 .0283885
804.515 .0283811
805.218 .0283734
805.921 .0283655
806.623 .0283572
807.325 .0283487
808.027 .0283398
808.728 .0283307
809.429 .0283213
810.130 .0283116
810.831 .0283016
811.531 .0282913
812.231 .0282808
812.931 .0282699
813.630 .0282588
814.330 .0282476
815.029 .0282363
815.727 .0282249
816.426 .0282136
817.124 .0282025
817.821 .0281914
818.519 .0281805
819.216 .0281697
819.913 .0281590
820.609 .0281484
821.306 .0281379
822.002 .0281275
822.697 .0281171
823.393 .0281069
824.088 .0280968
824.783 .0280867
825.477 .0280767
826.171 .0280668
826.865 .0280568
827.559 .0280467
828.252 .0280366
828.945 .0280264
829.638 .0280161
830.330 .0280057
831.023 .0279952
831.714 .0279847
832.406 .0279740
833.097 .0279632
833.788 .0279522
834.479 .0279409
835.169 .0279295
835.859 .0279179
836.548 .0279062
837.238 .0278944
837.927 .0278824
838.615 .0278704
839.304 .0278582
839.992 .0278457
840.680 .0278329
841.367 .0278197
842.054 .0278061
842.741 .0277921
843.428 .0277777
844.114 .0277629
844.800 .0277478
845.485 .0277323
846.170 .0277165
846.855 .0277003
847.540 .0276835
848.224 .0276662
848.908 .0276483
849.592 .0276298
850.275 .0276106
850.958 .0275909
851.641 .0275705
852.323 .0275496
853.005 .0275281
853.687 .0275060
854.368 .0274834
855.049 .0274603
855.730 .0274366
856.410 .0274124
857.090 .0273877
857.769 .0273626
858.449 .0273371
859.128 .0273114
859.806 .0272855
860.485 .0272596
861.163 .0272335
861.840 .0272075
862.518 .0271816
863.195 .0271559
863.871 .0271304
864.548 .0271052
865.224 .0270804
865.899 .0270560
866.574 .0270322
867.249 .0270090
867.924 .0269863
868.598 .0269643
869.272 .0269430
869.946 .0269224
870.619 .0269025
871.292 .0268833
871.964 .0268649
872.636 .0268473
873.308 .0268307
873.979 .0268149
874.651 .0268000
875.321 .0267861
875.992 .0267731
876.662 .0267610
877.331 .0267498
878.001 .0267394
878.670 .0267299
879.338 .0267212
880.007 .0267133
880.675 .0267063
881.342 .0267000
882.009 .0266945
882.676 .0266898
883.343 .0266858
884.009 .0266827
884.675 .0266802
885.340 .0266785
886.005 .0266776
886.670 .0266775
887.334 .0266780
887.998 .0266793
888.662 .0266812
889.325 .0266837
889.988 .0266869
890.650 .0266906
891.312 .0266948
891.974 .0266994
892.636 .0267044
893.297 .0267097
893.957 .0267152
894.618 .0267207
895.278 .0267263
895.937 .0267317
896.596 .0267369
897.255 .0267417
897.914 .0267461
898.572 .0267501
899.230 .0267535
899.887 .0267564
900.544 .0267586
901.201 .0267601
901.857 .0267585
902.513 .0267580
903.168 .0267567
903.823 .0267547
904.478 .0267519
905.132 .0267484
905.786 .0267443
906.440 .0267394
907.093 .0267340
907.746 .0267282
908.399 .0267218
909.051 .0267151
909.703 .0267081
910.354 .0267045
911.005 .0266974
911.656 .0266901
912.306 .0266829
912.956 .0266756
913.605 .0266684
914.254 .0266614
914.903 .0266545
915.551 .0266479
916.199 .0266414
916.847 .0266352
917.494 .0266293
918.141 .0266235
918.788 .0266178
919.434 .0266123
920.079 .0266068
920.725 .0266013
921.370 .0265957
922.014 .0265899
922.658 .0265838
923.302 .0265775
923.946 .0265709
924.589 .0265639
925.231 .0265567
925.873 .0265491
926.515 .0265411
927.157 .0265329
927.798 .0265242
928.439 .0265152
929.079 .0265058
929.719 .0264960
930.359 .0264859
930.998 .0264754
931.637 .0264648
932.275 .0264540
932.913 .0264432
933.551 .0264325
934.188 .0264219
934.825 .0264113
935.462 .0264009
936.098 .0263907
936.733 .0263806
937.369 .0263706
938.004 .0263608
938.638 .0263512
939.273 .0263419
939.907 .0263329
940.540 .0263242
941.173 .0263158
941.806 .0263076
942.438 .0262997
943.070 .0262918
943.702 .0262841
944.333 .0262763
944.964 .0262686
945.594 .0262608
946.224 .0262530
946.854 .0262452
947.483 .0262373
948.112 .0262293
948.741 .0262211
949.369 .0262128
949.996 .0262042
950.624 .0261952
951.251 .0261860
951.878 .0261763
952.504 .0261663
953.130 .0261560
953.755 .0261453
954.380 .0261343
955.005 .0261229
955.629 .0261112
956.253 .0260991
956.877 .0260866
957.500 .0260737
958.123 .0260604
958.746 .0260466
959.368 .0260323
959.990 .0260177
960.611 .0260028
961.232 .0259875
961.853 .0259719
962.473 .0259559
963.093 .0259397
963.712 .0259231
964.331 .0259062
964.950 .0258889
965.569 .0258713
966.187 .0258532
966.804 .0258348
967.422 .0258160
968.039 .0257968
968.655 .0257773
969.272 .0257574
969.887 .0257373
970.503 .0257168
971.118 .0256962
971.733 .0256753
972.347 .0256543
972.961 .0256330
973.575 .0256116
974.188 .0255899
974.801 .0255680
975.414 .0255459
976.026 .0255235
976.638 .0255009
977.250 .0254780
977.861 .0254550
978.472 .0254317
979.083 .0254082
979.693 .0253845
980.303 .0253605
980.912 .0253235
981.521 .0252990
982.130 .0252743
982.738 .0252495
983.346 .0252247
983.954 .0251998
984.562 .0251751
985.169 .0251504
985.775 .0251259
986.382 .0251016
986.988 .0250776
987.594 .0250540
988.199 .0250306
988.804 .0250077
989.409 .0249977
990.013 .0249757
990.617 .0249542
991.221 .0249332
991.824 .0249129
992.427 .0248930
993.030 .0248737
993.632 .0248550
994.234 .0248369
994.836 .0248192
995.438 .0248021
996.039 .0247856
996.640 .0247697
997.240 .0247545
997.840 .0247399
998.440 .0247262
999.040 .0247132
999.639 .0247009
1000.238 .0246894
1000.836 .0246787
1001.435 .0246686
1002.033 .0246592
1002.630 .0246504
1003.228 .0246422
1003.825 .0246345
1004.422 .0246274
1005.018 .0246208
1005.614 .0246146
1006.210 .0246089
1006.806 .0246036
1007.401 .0245986
1007.996 .0245939
1008.591 .0245894
1009.186 .0245853
1009.780 .0245814
1010.374 .0245779
1010.967 .0245748
1011.561 .0245722
1012.154 .0245702
1012.746 .0245688
1013.339 .0245681
1013.931 .0245680
1014.523 .0245687
1015.115 .0245700
1015.706 .0245720
1016.298 .0245745
1016.888 .0245777
1017.479 .0245815
1018.069 .0245859
1018.660 .0245910
1019.250 .0245966
1019.839 .0246028
1020.429 .0246096
1021.018 .0246168
1021.607 .0246244
1022.195 .0246325
1022.784 .0246410
1023.372 .0246499
1023.960 .0246592
1024.547 .0246691
1025.135 .0246795
1025.722 .0246905
1026.309 .0247022
1026.896 .0247144
1027.483 .0247273
1028.069 .0247406
1028.655 .0247544
1029.241 .0247685
1029.827 .0247829
1030.412 .0247975
1030.997 .0248122
1031.582 .0248271
1032.167 .0248421
1032.752 .0248572
1033.336 .0248723
1033.921 .0248877
1034.505 .0249031
1035.089 .0249186
1035.672 .0249342
1036.256 .0249498
1036.839 .0249655
1037.422 .0249812
1038.005 .0249969
1038.588 .0250126
1039.171 .0250284
1039.753 .0250441
1040.335 .0250597
1040.918 .0250753
1041.500 .0250906
1042.081 .0251058
1042.663 .0251207
1043.244 .0251352
1043.826 .0251494
1044.407 .0251633
1044.988 .0251768
1045.569 .0251901
1046.150 .0252032
1046.730 .0252160
1047.311 .0252288
1047.891 .0252414
1048.471 .0252540
1049.052 .0252667
1049.632 .0252793
1050.211 .0252919
1050.791 .0253046
1051.371 .0253171
1051.950 .0253296
1052.530 .0253418
1053.109 .0253539
1053.688 .0253658
1054.268 .0253773
1054.847 .0253886
1055.426 .0253996
1056.005 .0254103
1056.583 .0254208
1057.162 .0254311
1057.741 .0254413
1058.319 .0254513
1058.898 .0254612
1059.476 .0254712
1060.055 .0254812
1060.633 .0254914
1061.211 .0255018
1061.790 .0255124
1062.368 .0255233
1062.946 .0255344
1063.524 .0255458
1064.102 .0255575
1064.680 .0255693
1065.258 .0255813
1065.836 .0255934
1066.414 .0256056
1066.992 .0256180
1067.570 .0256304
1068.148 .0256430
1068.726 .0256558
1069.304 .0256689
1069.882 .0256822
1070.460 .0256958
1071.038 .0257098
1071.616 .0257241
1072.194 .0257385
1072.772 .0257531
1073.350 .0257679
1073.928 .0257827
1074.506 .0257978
1075.084 .0258130
1075.662 .0258285
1076.240 .0258440
1076.819 .0258597
1077.397 .0258756
1077.976 .0258916
1078.554 .0259076
1079.133 .0259236
1079.711 .0259397
1080.290 .0259559
1080.869 .0259721
1081.448 .0259887
1082.027 .0260056
1082.606 .0260229
1083.185 .0260405
1083.764 .0260583
1084.343 .0260761
1084.923 .0260938
1085.502 .0261112
1086.082 .0261282
1086.662 .0261448
1087.242 .0261608
1087.822 .0261763
1088.402 .0261917
1088.983 .0262070
1089.563 .0262224
1090.144 .0262380
1090.725 .0262539
1091.306 .0262699
1091.887 .0262860
1092.469 .0263023
1093.050 .0263187
1093.632 .0263353
1094.214 .0263519
1094.796 .0263688
1095.379 .0263859
1095.961 .0264034
1096.544 .0264212
1097.127 .0264394
1097.710 .0264579
1098.294 .0264763
1098.877 .0264946
1099.461 .0265126
1100.046 .0265303
1100.630 .0265478
1101.215 .0265652
1101.800 .0265825
1102.385 .0266000
1102.970 .0266180
1103.556 .0266367
1104.142 .0266561
1104.728 .0266765
1105.315 .0266978
1105.902 .0267201
1106.489 .0267432
1107.077 .0267671
1107.664 .0267917
1108.253 .0268169
1108.841 .0268424
1109.430 .0268682
1110.019 .0268940
1110.609 .0269197
1111.198 .0269454
1111.789 .0269711
1112.379 .0269969
1112.970 .0270228
1113.561 .0270488
1114.153 .0270750
1114.745 .0271014
1115.338 .0271282
1115.931 .0271552
1116.524 .0271827
1117.117 .0272108
1117.712 .0272395
1118.306 .0272692
1118.901 .0273001
1119.496 .0273326
1120.092 .0273667
1120.689 .0274028
1121.285 .0274411
1121.882 .0274815
1122.480 .0275241
1123.078 .0275688
1123.677 .0276155
1124.276 .0276641
1124.875 .0277147
1125.476 .0277675
1126.076 .0278227
1126.677 .0278808
1127.279 .0279421
1127.881 .0280069
1128.484 .0280755
1129.087 .0281019
1129.691 .0281761
1130.295 .0282543
1130.900 .0283359
1131.505 .0284210
1132.111 .0285093
1132.718 .0286006
1133.325 .0286949
1133.933 .0287921
1134.541 .0288923
1135.150 .0290009
1135.760 .0291038
1136.370 .0292138
1136.981 .0293065
1137.592 .0294427
1138.204 .0295792
1138.817 .0297109
1139.431 .0298392
1140.045 .0299656
1140.660 .0300841
1141.275 .0302020
1141.891 .0303187
1142.508 .0304350
1143.126 .0307083
1143.744 .0305945
1144.363 .0308453
1144.983 .0309385
