Measurement Sequence started on: 15-12-46-377
Integration time: 28
Scans to Average: 2 
>>>>>Begin Spectral Data<<<<<
432.689 .0000100
433.621 .0000100
434.552 .0000100
435.482 .0000100
436.410 .0000100
437.337 .0000100
438.262 .0285616
439.187 .0604904
440.110 .1000713
441.031 .1446389
441.952 .1149571
442.871 .1199657
443.789 .1246253
444.705 .1290074
445.621 .1331621
446.535 .1371262
447.447 .1394241
448.359 .1398999
449.269 .1381719
450.178 .1339923
451.086 .1274489
451.993 .1190447
452.898 .1096081
453.803 .1000742
454.706 .0912350
455.608 .0835768
456.508 .0772586
457.408 .0730071
458.306 .0697537
459.204 .0671104
460.100 .0648868
460.995 .0629776
461.888 .0613135
462.781 .0598467
463.673 .0585428
464.563 .0573757
465.452 .0563253
466.340 .0553723
467.228 .0545034
468.114 .0537077
468.999 .0529763
469.882 .0523016
470.765 .0516780
471.647 .0511004
472.528 .0505657
473.407 .0500697
474.286 .0496102
475.163 .0491860
476.040 .0487950
476.915 .0484360
477.790 .0481080
478.663 .0478105
479.535 .0475432
480.407 .0473054
481.277 .0470969
482.147 .0469164
483.015 .0467629
483.883 .0466352
484.749 .0465318
485.615 .0464521
486.479 .0463954
487.343 .0463608
488.206 .0463490
489.067 .0463593
489.928 .0463922
490.788 .0464476
491.647 .0465255
492.505 .0466252
493.362 .0467460
494.218 .0468871
495.073 .0470474
495.928 .0473554
496.781 .0475645
497.634 .0477933
498.486 .0480424
499.337 .0483132
500.187 .0486070
501.036 .0489259
501.884 .0492726
502.731 .0496506
503.578 .0500635
504.424 .0503422
505.268 .0508209
506.113 .0513452
506.956 .0519190
507.798 .0525475
508.640 .0532374
509.480 .0539970
510.320 .0548348
511.160 .0557615
511.998 .0567909
512.836 .0579394
513.672 .0592230
514.508 .0606625
515.344 .0622801
516.178 .0640969
517.012 .0661353
517.845 .0684164
518.677 .0709590
519.508 .0737760
520.339 .0768751
521.169 .0802589
521.998 .0839072
522.826 .0877923
523.654 .0918705
524.481 .0960883
525.307 .1003820
526.133 .1046740
526.958 .1088791
527.782 .1129129
528.605 .1166929
529.428 .1201388
530.250 .1231776
531.072 .1257589
531.892 .1278363
532.712 .1293787
533.532 .1303692
534.350 .1308017
535.168 .1306794
535.986 .1300119
536.802 .1288091
537.618 .1270832
538.434 .1248481
539.249 .1221390
540.063 .1189970
540.876 .1154758
541.689 .1116386
542.501 .1075554
543.313 .1033062
544.124 .0989772
544.934 .0946513
545.744 .0904063
546.553 .0863145
547.361 .0824367
548.169 .0788099
548.976 .0754625
549.783 .0724056
550.589 .0696363
551.395 .0671390
552.200 .0648900
553.004 .0628601
553.808 .0610239
554.611 .0593590
555.414 .0578451
556.216 .0564636
557.018 .0551972
557.819 .0540314
558.619 .0529526
559.419 .0519486
560.218 .0510102
561.017 .0501282
561.815 .0492954
562.613 .0485058
563.410 .0477534
564.207 .0470333
565.003 .0463419
565.799 .0456758
566.594 .0450321
567.388 .0444092
568.182 .0438051
568.976 .0432182
569.769 .0426481
570.562 .0420947
571.354 .0415575
572.145 .0410371
572.936 .0405339
573.727 .0400479
574.517 .0395792
575.307 .0391282
576.096 .0386949
576.885 .0382797
577.673 .0378830
578.461 .0375045
579.248 .0371445
580.035 .0368032
580.821 .0364805
581.607 .0361762
582.392 .0358903
583.177 .0356227
583.962 .0353729
584.746 .0351406
585.529 .0349254
586.313 .0347264
587.095 .0345430
587.878 .0343743
588.660 .0342191
589.441 .0340764
590.222 .0339449
591.003 .0338235
591.783 .0337112
592.563 .0336070
593.342 .0335099
594.121 .0334189
594.899 .0333333
595.678 .0332523
596.455 .0331754
597.233 .0331021
598.009 .0330320
598.786 .0329648
599.562 .0329001
600.338 .0328377
601.113 .0327774
601.888 .0326933
602.663 .0326371
603.437 .0325825
604.211 .0325296
604.984 .0324784
605.757 .0324288
606.530 .0323809
607.302 .0323346
608.074 .0322899
608.845 .0322466
609.616 .0322048
610.387 .0321871
611.158 .0321474
611.928 .0321092
612.697 .0320727
613.467 .0320378
614.236 .0320047
615.004 .0319732
615.773 .0319433
616.541 .0319150
617.308 .0318883
618.076 .0318631
618.843 .0318394
619.609 .0318170
620.375 .0317958
621.141 .0317758
621.907 .0317568
622.672 .0317389
623.437 .0317219
624.202 .0317057
624.966 .0316904
625.730 .0316758
626.493 .0316619
627.257 .0316485
628.020 .0316355
628.782 .0316226
629.545 .0316095
630.307 .0315961
631.068 .0315822
631.830 .0315677
632.591 .0315526
633.352 .0315368
634.112 .0315204
634.872 .0315033
635.632 .0314855
636.392 .0314668
637.151 .0314474
637.910 .0314271
638.668 .0314059
639.427 .0313838
640.185 .0313609
640.943 .0313372
641.700 .0313128
642.457 .0312879
643.214 .0312625
643.971 .0312366
644.727 .0312104
645.483 .0311840
646.239 .0311574
646.994 .0311307
647.750 .0311041
648.505 .0310775
649.259 .0310510
650.014 .0310245
650.768 .0309980
651.521 .0309715
652.275 .0309450
653.028 .0309186
653.781 .0308922
654.534 .0308658
655.286 .0308396
656.039 .0308135
656.791 .0307875
657.542 .0307616
658.294 .0307356
659.045 .0307096
659.796 .0306833
660.546 .0306570
661.297 .0306304
662.047 .0306036
662.796 .0305767
663.546 .0305496
664.295 .0305223
665.044 .0304948
665.793 .0304671
666.542 .0304393
667.290 .0304115
668.038 .0303837
668.786 .0303559
669.533 .0303281
670.281 .0303005
671.028 .0302732
671.774 .0302462
672.521 .0302195
673.267 .0301933
674.013 .0301674
674.759 .0301420
675.505 .0301171
676.250 .0300926
676.995 .0300686
677.740 .0300449
678.484 .0300216
679.229 .0299986
679.973 .0299761
680.717 .0299540
681.460 .0299324
682.204 .0299111
682.947 .0298902
683.690 .0298695
684.433 .0298489
685.175 .0298285
685.917 .0298082
686.659 .0297880
687.401 .0297680
688.142 .0297481
688.884 .0297283
689.625 .0297088
690.365 .0296894
691.106 .0296702
691.846 .0296510
692.586 .0296320
693.326 .0296129
694.066 .0295939
694.805 .0295751
695.545 .0295564
696.284 .0295379
697.022 .0295196
697.761 .0295016
698.499 .0294839
699.237 .0294664
699.975 .0294492
700.713 .0294322
701.450 .0294155
702.187 .0293989
702.924 .0293826
703.661 .0293665
704.397 .0293505
705.133 .0293347
705.869 .0293191
706.605 .0293036
707.341 .0292881
708.076 .0292727
708.811 .0292573
709.546 .0292420
710.281 .0292268
711.015 .0292118
711.749 .0291969
712.483 .0291822
713.217 .0291678
713.950 .0291535
714.684 .0291395
715.417 .0291257
716.150 .0291122
716.882 .0290988
717.615 .0290856
718.347 .0290725
719.079 .0290595
719.811 .0290466
720.542 .0290339
721.273 .0290211
722.005 .0290085
722.735 .0289960
723.466 .0289835
724.196 .0289711
724.927 .0289587
725.656 .0289465
726.386 .0289342
727.116 .0289219
727.845 .0289095
728.574 .0288970
729.303 .0288843
730.031 .0288714
730.760 .0288584
731.488 .0288453
732.216 .0288320
732.944 .0288187
733.671 .0288054
734.398 .0287919
735.125 .0287784
735.852 .0287647
736.579 .0287507
737.305 .0287366
738.031 .0287221
738.757 .0287073
739.483 .0286924
740.208 .0286773
740.933 .0286620
741.658 .0286467
742.383 .0286313
743.108 .0286160
743.832 .0286007
744.556 .0285854
745.280 .0285700
746.004 .0285547
746.727 .0285392
747.450 .0285236
748.173 .0285077
748.896 .0284915
749.618 .0284750
750.340 .0284582
751.062 .0284412
751.784 .0284239
752.506 .0284064
753.227 .0283888
753.948 .0283711
754.669 .0283533
755.389 .0283353
756.110 .0283172
756.830 .0282988
757.550 .0282801
758.269 .0282610
758.989 .0282416
759.708 .0282219
760.427 .0282020
761.146 .0281818
761.864 .0281616
762.582 .0281412
763.300 .0281209
764.018 .0281006
764.736 .0280803
765.453 .0280602
766.170 .0280401
766.887 .0280202
767.603 .0280004
768.320 .0279809
769.036 .0279617
769.751 .0279428
770.467 .0279243
771.182 .0279063
771.897 .0278887
772.612 .0278717
773.327 .0278553
774.041 .0278394
774.755 .0278241
775.469 .0278093
776.183 .0277950
776.896 .0277812
777.609 .0277679
778.322 .0277551
779.035 .0277427
779.747 .0277306
780.459 .0277190
781.171 .0277077
781.882 .0276969
782.594 .0276865
783.305 .0276764
784.016 .0276668
784.726 .0276574
785.436 .0276484
786.147 .0276355
786.856 .0276269
787.566 .0276184
788.275 .0276100
788.984 .0276016
789.693 .0275933
790.401 .0275850
791.110 .0275768
791.818 .0275685
792.525 .0275603
793.233 .0275520
793.940 .0275435
794.647 .0275389
795.353 .0275304
796.060 .0275218
796.766 .0275132
797.472 .0275046
798.177 .0274960
798.883 .0274873
799.588 .0274786
800.292 .0274699
800.997 .0274610
801.701 .0274520
802.405 .0274429
803.109 .0274335
803.812 .0274239
804.515 .0274142
805.218 .0274042
805.921 .0273941
806.623 .0273838
807.325 .0273735
808.027 .0273630
808.728 .0273525
809.429 .0273421
810.130 .0273317
810.831 .0273214
811.531 .0273111
812.231 .0273009
812.931 .0272909
813.630 .0272809
814.330 .0272712
815.029 .0272617
815.727 .0272525
816.426 .0272438
817.124 .0272355
817.821 .0272279
818.519 .0272208
819.216 .0272144
819.913 .0272087
820.609 .0272036
821.306 .0271993
822.002 .0271956
822.697 .0271927
823.393 .0271905
824.088 .0271892
824.783 .0271886
825.477 .0271888
826.171 .0271898
826.865 .0271913
827.559 .0271934
828.252 .0271960
828.945 .0271990
829.638 .0272023
830.330 .0272059
831.023 .0272096
831.714 .0272134
832.406 .0272172
833.097 .0272209
833.788 .0272243
834.479 .0272275
835.169 .0272304
835.859 .0272329
836.548 .0272350
837.238 .0272369
837.927 .0272385
838.615 .0272398
839.304 .0272409
839.992 .0272417
840.680 .0272422
841.367 .0272423
842.054 .0272419
842.741 .0272411
843.428 .0272398
844.114 .0272381
844.800 .0272360
845.485 .0272335
846.170 .0272305
846.855 .0272270
847.540 .0272229
848.224 .0272182
848.908 .0272129
849.592 .0272068
850.275 .0272000
850.958 .0271924
851.641 .0271840
852.323 .0271747
853.005 .0271647
853.687 .0271538
854.368 .0271420
855.049 .0271292
855.730 .0271155
856.410 .0271009
857.090 .0270853
857.769 .0270687
858.449 .0270513
859.128 .0270331
859.806 .0270141
860.485 .0269944
861.163 .0269741
861.840 .0269533
862.518 .0269320
863.195 .0269103
863.871 .0268884
864.548 .0268663
865.224 .0268441
865.899 .0268219
866.574 .0267998
867.249 .0267779
867.924 .0267563
868.598 .0267351
869.272 .0267143
869.946 .0266940
870.619 .0266741
871.292 .0266548
871.964 .0266361
872.636 .0266179
873.308 .0266003
873.979 .0265832
874.651 .0265666
875.321 .0265505
875.992 .0265349
876.662 .0265197
877.331 .0265048
878.001 .0264902
878.670 .0264758
879.338 .0264616
880.007 .0264476
880.675 .0264338
881.342 .0264202
882.009 .0264067
882.676 .0263934
883.343 .0263801
884.009 .0263670
884.675 .0263538
885.340 .0263407
886.005 .0263276
886.670 .0263146
887.334 .0263017
887.998 .0262890
888.662 .0262765
889.325 .0262642
889.988 .0262520
890.650 .0262399
891.312 .0262279
891.974 .0262159
892.636 .0262039
893.297 .0261920
893.957 .0261801
894.618 .0261684
895.278 .0261568
895.937 .0261452
896.596 .0261337
897.255 .0261222
897.914 .0261106
898.572 .0260987
899.230 .0260864
899.887 .0260738
900.544 .0260608
901.201 .0260473
901.857 .0260245
902.513 .0260098
903.168 .0259947
903.823 .0259790
904.478 .0259628
905.132 .0259460
905.786 .0259285
906.440 .0259104
907.093 .0258916
907.746 .0258724
908.399 .0258527
909.051 .0258327
909.703 .0258124
910.354 .0258016
911.005 .0257813
911.656 .0257610
912.306 .0257406
912.956 .0257201
913.605 .0256996
914.254 .0256792
914.903 .0256589
915.551 .0256389
916.199 .0256192
916.847 .0255999
917.494 .0255810
918.141 .0255624
918.788 .0255442
919.434 .0255262
920.079 .0255086
920.725 .0254911
921.370 .0254740
922.014 .0254571
922.658 .0254405
923.302 .0254244
923.946 .0254086
924.589 .0253932
925.231 .0253781
925.873 .0253634
926.515 .0253489
927.157 .0253346
927.798 .0253205
928.439 .0253066
929.079 .0252930
929.719 .0252797
930.359 .0252667
930.998 .0252542
931.637 .0252421
932.275 .0252304
932.913 .0252191
933.551 .0252083
934.188 .0251980
934.825 .0251882
935.462 .0251790
936.098 .0251704
936.733 .0251625
937.369 .0251554
938.004 .0251489
938.638 .0251433
939.273 .0251383
939.907 .0251342
940.540 .0251307
941.173 .0251280
941.806 .0251261
942.438 .0251250
943.070 .0251247
943.702 .0251251
944.333 .0251262
944.964 .0251279
945.594 .0251302
946.224 .0251329
946.854 .0251359
947.483 .0251393
948.112 .0251429
948.741 .0251468
949.369 .0251508
949.996 .0251551
950.624 .0251595
951.251 .0251640
951.878 .0251685
952.504 .0251730
953.130 .0251775
953.755 .0251819
954.380 .0251863
955.005 .0251906
955.629 .0251949
956.253 .0251991
956.877 .0252032
957.500 .0252072
958.123 .0252111
958.746 .0252148
959.368 .0252185
959.990 .0252220
960.611 .0252255
961.232 .0252289
961.853 .0252323
962.473 .0252358
963.093 .0252392
963.712 .0252427
964.331 .0252462
964.950 .0252496
965.569 .0252529
966.187 .0252561
966.804 .0252592
967.422 .0252622
968.039 .0252650
968.655 .0252678
969.272 .0252705
969.887 .0252730
970.503 .0252754
971.118 .0252776
971.733 .0252795
972.347 .0252811
972.961 .0252824
973.575 .0252832
974.188 .0252837
974.801 .0252838
975.414 .0252835
976.026 .0252829
976.638 .0252819
977.250 .0252805
977.861 .0252788
978.472 .0252766
979.083 .0252739
979.693 .0252708
980.303 .0252673
980.912 .0252605
981.521 .0252560
982.130 .0252511
982.738 .0252461
983.346 .0252408
983.954 .0252353
984.562 .0252297
985.169 .0252240
985.775 .0252182
986.382 .0252123
986.988 .0252063
987.594 .0252004
988.199 .0251946
988.804 .0251889
989.409 .0251865
990.013 .0251812
990.617 .0251762
991.221 .0251714
991.824 .0251670
992.427 .0251627
993.030 .0251587
993.632 .0251549
994.234 .0251512
994.836 .0251479
995.438 .0251447
996.039 .0251419
996.640 .0251394
997.240 .0251373
997.840 .0251355
998.440 .0251342
999.040 .0251333
999.639 .0251326
1000.238 .0251321
1000.836 .0251318
1001.435 .0251316
1002.033 .0251315
1002.630 .0251316
1003.228 .0251316
1003.825 .0251318
1004.422 .0251320
1005.018 .0251322
1005.614 .0251323
1006.210 .0251323
1006.806 .0251320
1007.401 .0251314
1007.996 .0251305
1008.591 .0251292
1009.186 .0251275
1009.780 .0251256
1010.374 .0251234
1010.967 .0251210
1011.561 .0251183
1012.154 .0251154
1012.746 .0251122
1013.339 .0251087
1013.931 .0251047
1014.523 .0251003
1015.115 .0250954
1015.706 .0250901
1016.298 .0250845
1016.888 .0250787
1017.479 .0250728
1018.069 .0250670
1018.660 .0250613
1019.250 .0250558
1019.839 .0250504
1020.429 .0250453
1021.018 .0250404
1021.607 .0250357
1022.195 .0250311
1022.784 .0250268
1023.372 .0250227
1023.960 .0250189
1024.547 .0250155
1025.135 .0250124
1025.722 .0250096
1026.309 .0250071
1026.896 .0250047
1027.483 .0250025
1028.069 .0250002
1028.655 .0249978
1029.241 .0249953
1029.827 .0249925
1030.412 .0249896
1030.997 .0249864
1031.582 .0249831
1032.167 .0249796
1032.752 .0249759
1033.336 .0249720
1033.921 .0249679
1034.505 .0249634
1035.089 .0249586
1035.672 .0249533
1036.256 .0249477
1036.839 .0249416
1037.422 .0249351
1038.005 .0249280
1038.588 .0249205
1039.171 .0249125
1039.753 .0249041
1040.335 .0248953
1040.918 .0248861
1041.500 .0248766
1042.081 .0248668
1042.663 .0248567
1043.244 .0248463
1043.826 .0248358
1044.407 .0248251
1044.988 .0248141
1045.569 .0248030
1046.150 .0247918
1046.730 .0247804
1047.311 .0247689
1047.891 .0247575
1048.471 .0247460
1049.052 .0247345
1049.632 .0247232
1050.211 .0247119
1050.791 .0247008
1051.371 .0246899
1051.950 .0246790
1052.530 .0246683
1053.109 .0246577
1053.688 .0246473
1054.268 .0246370
1054.847 .0246269
1055.426 .0246171
1056.005 .0246075
1056.583 .0245982
1057.162 .0245891
1057.741 .0245801
1058.319 .0245712
1058.898 .0245623
1059.476 .0245533
1060.055 .0245441
1060.633 .0245347
1061.211 .0245253
1061.790 .0245158
1062.368 .0245064
1062.946 .0244971
1063.524 .0244881
1064.102 .0244794
1064.680 .0244708
1065.258 .0244624
1065.836 .0244541
1066.414 .0244459
1066.992 .0244377
1067.570 .0244296
1068.148 .0244217
1068.726 .0244140
1069.304 .0244067
1069.882 .0243997
1070.460 .0243932
1071.038 .0243872
1071.616 .0243816
1072.194 .0243764
1072.772 .0243716
1073.350 .0243672
1073.928 .0243633
1074.506 .0243598
1075.084 .0243569
1075.662 .0243546
1076.240 .0243531
1076.819 .0243523
1077.397 .0243524
1077.976 .0243531
1078.554 .0243545
1079.133 .0243565
1079.711 .0243590
1080.290 .0243619
1080.869 .0243652
1081.448 .0243689
1082.027 .0243730
1082.606 .0243776
1083.185 .0243824
1083.764 .0243876
1084.343 .0243933
1084.923 .0243993
1085.502 .0244056
1086.082 .0244124
1086.662 .0244196
1087.242 .0244273
1087.822 .0244357
1088.402 .0244446
1088.983 .0244541
1089.563 .0244642
1090.144 .0244747
1090.725 .0244859
1091.306 .0244976
1091.887 .0245100
1092.469 .0245230
1093.050 .0245368
1093.632 .0245513
1094.214 .0245666
1094.796 .0245827
1095.379 .0245994
1095.961 .0246167
1096.544 .0246346
1097.127 .0246531
1097.710 .0246720
1098.294 .0246915
1098.877 .0247117
1099.461 .0247326
1100.046 .0247542
1100.630 .0247767
1101.215 .0247997
1101.800 .0248231
1102.385 .0248468
1102.970 .0248707
1103.556 .0248947
1104.142 .0249189
1104.728 .0249433
1105.315 .0249680
1105.902 .0249932
1106.489 .0250188
1107.077 .0250450
1107.664 .0250717
1108.253 .0250987
1108.841 .0251259
1109.430 .0251534
1110.019 .0251812
1110.609 .0252097
1111.198 .0252392
1111.789 .0252701
1112.379 .0253027
1112.970 .0253374
1113.561 .0253739
1114.153 .0254122
1114.745 .0254524
1115.338 .0254940
1115.931 .0255369
1116.524 .0255811
1117.117 .0256266
1117.712 .0256737
1118.306 .0257228
1118.901 .0257739
1119.496 .0258273
1120.092 .0258826
1120.689 .0259391
1121.285 .0259963
1121.882 .0260539
1122.480 .0261115
1123.078 .0261690
1123.677 .0262268
1124.276 .0262855
1124.875 .0263455
1125.476 .0264075
1126.076 .0264719
1126.677 .0265387
1127.279 .0266076
1127.881 .0266782
1128.484 .0267499
1129.087 .0267841
1129.691 .0268566
1130.295 .0269302
1130.900 .0270055
1131.505 .0270828
1132.111 .0271626
1132.718 .0272457
1133.325 .0273325
1133.933 .0274239
1134.541 .0275141
1135.150 .0276074
1135.760 .0277065
1136.370 .0278167
1136.981 .0278050
1137.592 .0279020
1138.204 .0280108
1138.817 .0281319
1139.431 .0282619
1140.045 .0284031
1140.660 .0285531
1141.275 .0287160
1141.891 .0289040
1142.508 .0289320
1143.126 .0290887
1143.744 .0293294
1144.363 .0297207
1144.983 .0303890
