Measurement Sequence started on: 15-12-46-377
Integration time: 28
Scans to Average: 2 
>>>>>Begin Spectral Data<<<<<
432.689 .0000100
433.621 .0000100
434.552 .0000100
435.482 .0000100
436.410 .0000100
437.337 .0000100
438.262 .0291361
439.187 .0616543
440.110 .1020712
441.031 .1476688
441.952 .1185371
442.871 .1238412
443.789 .1287834
444.705 .1334365
445.621 .1378520
446.535 .1420696
447.447 .1445859
448.359 .1452450
449.269 .1436504
450.178 .1395444
451.086 .1330093
451.993 .1245509
452.898 .1150053
453.803 .1053206
454.706 .0963038
455.608 .0884544
456.508 .0819397
457.408 .0775104
458.306 .0740837
459.204 .0712756
460.100 .0688969
460.995 .0668411
461.888 .0650385
462.781 .0634413
463.673 .0620134
464.563 .0607282
465.452 .0595659
466.340 .0585101
467.228 .0575484
468.114 .0566718
468.999 .0558729
469.882 .0551451
470.765 .0544833
471.647 .0538821
472.528 .0533378
473.407 .0528454
474.286 .0524013
475.163 .0520020
476.040 .0516445
476.915 .0513262
477.790 .0510444
478.663 .0507971
479.535 .0505817
480.407 .0503953
481.277 .0502355
482.147 .0500991
483.015 .0499837
483.883 .0498868
484.749 .0498069
485.615 .0497427
486.479 .0496938
487.343 .0496602
488.206 .0496424
489.067 .0496409
489.928 .0496566
490.788 .0496898
491.647 .0497410
492.505 .0498105
493.362 .0498983
494.218 .0500044
495.073 .0501292
495.928 .0503887
496.781 .0505651
497.634 .0507631
498.486 .0509843
499.337 .0512314
500.187 .0515078
501.036 .0518161
501.884 .0521593
502.731 .0525411
503.578 .0529650
504.424 .0532662
505.268 .0537678
506.113 .0543228
506.956 .0549359
507.798 .0556136
508.640 .0563644
509.480 .0571987
510.320 .0581292
511.160 .0591704
511.998 .0603382
512.836 .0616524
513.672 .0631327
514.508 .0648016
515.344 .0666857
516.178 .0688122
517.012 .0712094
517.845 .0739003
518.677 .0769082
519.508 .0802491
520.339 .0839294
521.169 .0879497
521.998 .0922839
522.826 .0968930
523.654 .1017191
524.481 .1066887
525.307 .1117178
526.133 .1167114
526.958 .1215672
527.782 .1261827
528.605 .1304631
529.428 .1343236
530.250 .1376876
531.072 .1405017
531.892 .1427245
532.712 .1443238
533.532 .1452802
534.350 .1455854
535.168 .1452417
535.986 .1442600
536.802 .1426520
537.618 .1404370
538.434 .1376372
539.249 .1342979
540.063 .1304741
540.876 .1262346
541.689 .1216615
542.501 .1168425
543.313 .1118710
544.124 .1068468
544.934 .1018658
545.744 .0970140
546.553 .0923662
547.361 .0879850
548.169 .0839075
548.976 .0801581
549.783 .0767448
550.589 .0736623
551.395 .0708914
552.200 .0684059
553.004 .0661706
553.808 .0641560
554.611 .0623334
555.414 .0606766
556.216 .0591628
557.018 .0577723
557.819 .0564895
558.619 .0553007
559.419 .0541962
560.218 .0531692
561.017 .0522118
561.815 .0513181
562.613 .0504812
563.410 .0496948
564.207 .0489518
565.003 .0482470
565.799 .0475736
566.594 .0469276
567.388 .0463054
568.182 .0457043
568.976 .0451228
569.769 .0445603
570.562 .0440163
571.354 .0434907
572.145 .0429838
572.936 .0424952
573.727 .0420237
574.517 .0415690
575.307 .0411303
576.096 .0407065
576.885 .0402971
577.673 .0399019
578.461 .0395208
579.248 .0391546
580.035 .0388042
580.821 .0384704
581.607 .0381543
582.392 .0378564
583.177 .0375771
583.962 .0373161
584.746 .0370732
585.529 .0368475
586.313 .0366379
587.095 .0364431
587.878 .0362622
588.660 .0360941
589.441 .0359382
590.222 .0357940
591.003 .0356611
591.783 .0355389
592.563 .0354269
593.342 .0353244
594.121 .0352304
594.899 .0351436
595.678 .0350629
596.455 .0349872
597.233 .0349155
598.009 .0348470
598.786 .0347812
599.562 .0347178
600.338 .0346567
601.113 .0345977
601.888 .0345150
602.663 .0344607
603.437 .0344079
604.211 .0343567
604.984 .0343068
605.757 .0342579
606.530 .0342101
607.302 .0341631
608.074 .0341171
608.845 .0340722
609.616 .0340285
610.387 .0340097
611.158 .0339679
611.928 .0339275
612.697 .0338884
613.467 .0338507
614.236 .0338142
615.004 .0337790
615.773 .0337449
616.541 .0337118
617.308 .0336795
618.076 .0336479
618.843 .0336170
619.609 .0335866
620.375 .0335566
621.141 .0335270
621.907 .0334978
622.672 .0334689
623.437 .0334403
624.202 .0334119
624.966 .0333836
625.730 .0333552
626.493 .0333266
627.257 .0332976
628.020 .0332684
628.782 .0332386
629.545 .0332085
630.307 .0331780
631.068 .0331471
631.830 .0331159
632.591 .0330844
633.352 .0330527
634.112 .0330209
634.872 .0329890
635.632 .0329569
636.392 .0329249
637.151 .0328929
637.910 .0328609
638.668 .0328292
639.427 .0327977
640.185 .0327665
640.943 .0327357
641.700 .0327055
642.457 .0326759
643.214 .0326471
643.971 .0326194
644.727 .0325926
645.483 .0325669
646.239 .0325421
646.994 .0325181
647.750 .0324947
648.505 .0324718
649.259 .0324492
650.014 .0324267
650.768 .0324044
651.521 .0323822
652.275 .0323602
653.028 .0323382
653.781 .0323165
654.534 .0322948
655.286 .0322730
656.039 .0322512
656.791 .0322292
657.542 .0322068
658.294 .0321841
659.045 .0321609
659.796 .0321372
660.546 .0321130
661.297 .0320884
662.047 .0320634
662.796 .0320382
663.546 .0320127
664.295 .0319872
665.044 .0319617
665.793 .0319363
666.542 .0319111
667.290 .0318863
668.038 .0318618
668.786 .0318376
669.533 .0318136
670.281 .0317898
671.028 .0317661
671.774 .0317425
672.521 .0317191
673.267 .0316960
674.013 .0316731
674.759 .0316506
675.505 .0316284
676.250 .0316064
676.995 .0315845
677.740 .0315624
678.484 .0315401
679.229 .0315173
679.973 .0314940
680.717 .0314701
681.460 .0314457
682.204 .0314208
682.947 .0313954
683.690 .0313696
684.433 .0313434
685.175 .0313169
685.917 .0312901
686.659 .0312631
687.401 .0312359
688.142 .0312084
688.884 .0311807
689.625 .0311528
690.365 .0311247
691.106 .0310965
691.846 .0310683
692.586 .0310401
693.326 .0310119
694.066 .0309840
694.805 .0309563
695.545 .0309290
696.284 .0309022
697.022 .0308759
697.761 .0308499
698.499 .0308244
699.237 .0307993
699.975 .0307746
700.713 .0307501
701.450 .0307260
702.187 .0307023
702.924 .0306788
703.661 .0306557
704.397 .0306329
705.133 .0306104
705.869 .0305882
706.605 .0305661
707.341 .0305441
708.076 .0305222
708.811 .0305004
709.546 .0304787
710.281 .0304570
711.015 .0304353
711.749 .0304137
712.483 .0303923
713.217 .0303709
713.950 .0303498
714.684 .0303289
715.417 .0303084
716.150 .0302882
716.882 .0302686
717.615 .0302495
718.347 .0302310
719.079 .0302131
719.811 .0301958
720.542 .0301790
721.273 .0301628
722.005 .0301472
722.735 .0301323
723.466 .0301181
724.196 .0301046
724.927 .0300919
725.656 .0300800
726.386 .0300688
727.116 .0300583
727.845 .0300485
728.574 .0300393
729.303 .0300305
730.031 .0300223
730.760 .0300145
731.488 .0300071
732.216 .0300001
732.944 .0299934
733.671 .0299871
734.398 .0299810
735.125 .0299750
735.852 .0299692
736.579 .0299635
737.305 .0299577
738.031 .0299519
738.757 .0299460
739.483 .0299400
740.208 .0299338
740.933 .0299273
741.658 .0299206
742.383 .0299135
743.108 .0299062
743.832 .0298985
744.556 .0298905
745.280 .0298821
746.004 .0298734
746.727 .0298643
747.450 .0298546
748.173 .0298444
748.896 .0298335
749.618 .0298221
750.340 .0298100
751.062 .0297974
751.784 .0297841
752.506 .0297704
753.227 .0297560
753.948 .0297410
754.669 .0297254
755.389 .0297091
756.110 .0296922
756.830 .0296746
757.550 .0296563
758.269 .0296374
758.989 .0296180
759.708 .0295981
760.427 .0295778
761.146 .0295572
761.864 .0295362
762.582 .0295149
763.300 .0294934
764.018 .0294717
764.736 .0294497
765.453 .0294275
766.170 .0294052
766.887 .0293828
767.603 .0293604
768.320 .0293380
769.036 .0293157
769.751 .0292937
770.467 .0292720
771.182 .0292506
771.897 .0292297
772.612 .0292093
773.327 .0291893
774.041 .0291698
774.755 .0291508
775.469 .0291322
776.183 .0291141
776.896 .0290963
777.609 .0290790
778.322 .0290621
779.035 .0290455
779.747 .0290293
780.459 .0290134
781.171 .0289978
781.882 .0289825
782.594 .0289673
783.305 .0289523
784.016 .0289373
784.726 .0289225
785.436 .0289079
786.147 .0288863
786.856 .0288719
787.566 .0288577
788.275 .0288437
788.984 .0288298
789.693 .0288161
790.401 .0288025
791.110 .0287891
791.818 .0287759
792.525 .0287627
793.233 .0287498
793.940 .0287369
794.647 .0287310
795.353 .0287185
796.060 .0287061
796.766 .0286940
797.472 .0286821
798.177 .0286705
798.883 .0286593
799.588 .0286483
800.292 .0286376
800.997 .0286272
801.701 .0286170
802.405 .0286072
803.109 .0285976
803.812 .0285884
804.515 .0285794
805.218 .0285708
805.921 .0285625
806.623 .0285545
807.325 .0285468
808.027 .0285395
808.728 .0285325
809.429 .0285258
810.130 .0285196
810.831 .0285137
811.531 .0285083
812.231 .0285034
812.931 .0284991
813.630 .0284952
814.330 .0284920
815.029 .0284894
815.727 .0284875
816.426 .0284863
817.124 .0284858
817.821 .0284860
818.519 .0284869
819.216 .0284884
819.913 .0284904
820.609 .0284930
821.306 .0284960
822.002 .0284993
822.697 .0285029
823.393 .0285068
824.088 .0285110
824.783 .0285154
825.477 .0285200
826.171 .0285248
826.865 .0285297
827.559 .0285347
828.252 .0285397
828.945 .0285446
829.638 .0285493
830.330 .0285539
831.023 .0285582
831.714 .0285622
832.406 .0285658
833.097 .0285691
833.788 .0285720
834.479 .0285745
835.169 .0285765
835.859 .0285782
836.548 .0285795
837.238 .0285803
837.927 .0285807
838.615 .0285806
839.304 .0285799
839.992 .0285786
840.680 .0285767
841.367 .0285741
842.054 .0285708
842.741 .0285666
843.428 .0285616
844.114 .0285557
844.800 .0285489
845.485 .0285412
846.170 .0285324
846.855 .0285226
847.540 .0285118
848.224 .0284999
848.908 .0284869
849.592 .0284728
850.275 .0284576
850.958 .0284413
851.641 .0284240
852.323 .0284056
853.005 .0283863
853.687 .0283663
854.368 .0283455
855.049 .0283242
855.730 .0283025
856.410 .0282804
857.090 .0282580
857.769 .0282353
858.449 .0282126
859.128 .0281896
859.806 .0281666
860.485 .0281435
861.163 .0281205
861.840 .0280976
862.518 .0280749
863.195 .0280524
863.871 .0280301
864.548 .0280079
865.224 .0279860
865.899 .0279641
866.574 .0279423
867.249 .0279205
867.924 .0278987
868.598 .0278768
869.272 .0278549
869.946 .0278328
870.619 .0278106
871.292 .0277882
871.964 .0277655
872.636 .0277427
873.308 .0277197
873.979 .0276964
874.651 .0276729
875.321 .0276492
875.992 .0276254
876.662 .0276015
877.331 .0275775
878.001 .0275534
878.670 .0275293
879.338 .0275051
880.007 .0274810
880.675 .0274570
881.342 .0274332
882.009 .0274099
882.676 .0273869
883.343 .0273645
884.009 .0273428
884.675 .0273217
885.340 .0273014
886.005 .0272817
886.670 .0272628
887.334 .0272445
887.998 .0272269
888.662 .0272100
889.325 .0271938
889.988 .0271783
890.650 .0271635
891.312 .0271494
891.974 .0271361
892.636 .0271233
893.297 .0271112
893.957 .0270997
894.618 .0270887
895.278 .0270781
895.937 .0270679
896.596 .0270579
897.255 .0270482
897.914 .0270387
898.572 .0270292
899.230 .0270198
899.887 .0270104
900.544 .0270008
901.201 .0269911
901.857 .0269754
902.513 .0269651
903.168 .0269546
903.823 .0269438
904.478 .0269327
905.132 .0269213
905.786 .0269097
906.440 .0268979
907.093 .0268860
907.746 .0268739
908.399 .0268619
909.051 .0268499
909.703 .0268381
910.354 .0268326
911.005 .0268214
911.656 .0268104
912.306 .0267999
912.956 .0267897
913.605 .0267800
914.254 .0267708
914.903 .0267621
915.551 .0267539
916.199 .0267462
916.847 .0267390
917.494 .0267323
918.141 .0267261
918.788 .0267203
919.434 .0267149
920.079 .0267099
920.725 .0267052
921.370 .0267008
922.014 .0266966
922.658 .0266927
923.302 .0266889
923.946 .0266853
924.589 .0266817
925.231 .0266780
925.873 .0266743
926.515 .0266705
927.157 .0266666
927.798 .0266625
928.439 .0266583
929.079 .0266541
929.719 .0266497
930.359 .0266454
930.998 .0266410
931.637 .0266367
932.275 .0266324
932.913 .0266282
933.551 .0266242
934.188 .0266204
934.825 .0266170
935.462 .0266140
936.098 .0266115
936.733 .0266096
937.369 .0266082
938.004 .0266074
938.638 .0266071
939.273 .0266075
939.907 .0266084
940.540 .0266099
941.173 .0266120
941.806 .0266148
942.438 .0266181
943.070 .0266221
943.702 .0266267
944.333 .0266317
944.964 .0266370
945.594 .0266426
946.224 .0266483
946.854 .0266541
947.483 .0266598
948.112 .0266655
948.741 .0266712
949.369 .0266767
949.996 .0266820
950.624 .0266870
951.251 .0266917
951.878 .0266960
952.504 .0266996
953.130 .0267028
953.755 .0267053
954.380 .0267074
955.005 .0267090
955.629 .0267101
956.253 .0267109
956.877 .0267113
957.500 .0267112
958.123 .0267107
958.746 .0267098
959.368 .0267084
959.990 .0267066
960.611 .0267045
961.232 .0267022
961.853 .0266997
962.473 .0266970
963.093 .0266943
963.712 .0266913
964.331 .0266881
964.950 .0266847
965.569 .0266810
966.187 .0266769
966.804 .0266726
967.422 .0266679
968.039 .0266629
968.655 .0266576
969.272 .0266519
969.887 .0266457
970.503 .0266390
971.118 .0266317
971.733 .0266237
972.347 .0266149
972.961 .0266054
973.575 .0265951
974.188 .0265840
974.801 .0265722
975.414 .0265598
976.026 .0265466
976.638 .0265326
977.250 .0265179
977.861 .0265025
978.472 .0264864
979.083 .0264695
979.693 .0264521
980.303 .0264341
980.912 .0264050
981.521 .0263860
982.130 .0263666
982.738 .0263468
983.346 .0263267
983.954 .0263063
984.562 .0262858
985.169 .0262652
985.775 .0262447
986.382 .0262243
986.988 .0262041
987.594 .0261842
988.199 .0261645
988.804 .0261451
989.409 .0261365
990.013 .0261174
990.617 .0260985
991.221 .0260800
991.824 .0260617
992.427 .0260437
993.030 .0260261
993.632 .0260088
994.234 .0259918
994.836 .0259749
995.438 .0259582
996.039 .0259415
996.640 .0259248
997.240 .0259081
997.840 .0258914
998.440 .0258747
999.040 .0258581
999.639 .0258415
1000.238 .0258250
1000.836 .0258085
1001.435 .0257919
1002.033 .0257752
1002.630 .0257584
1003.228 .0257413
1003.825 .0257239
1004.422 .0257063
1005.018 .0256884
1005.614 .0256702
1006.210 .0256518
1006.806 .0256333
1007.401 .0256145
1007.996 .0255956
1008.591 .0255765
1009.186 .0255572
1009.780 .0255379
1010.374 .0255184
1010.967 .0254990
1011.561 .0254795
1012.154 .0254602
1012.746 .0254411
1013.339 .0254222
1013.931 .0254037
1014.523 .0253856
1015.115 .0253680
1015.706 .0253509
1016.298 .0253343
1016.888 .0253182
1017.479 .0253028
1018.069 .0252880
1018.660 .0252738
1019.250 .0252602
1019.839 .0252473
1020.429 .0252351
1021.018 .0252235
1021.607 .0252126
1022.195 .0252025
1022.784 .0251931
1023.372 .0251844
1023.960 .0251765
1024.547 .0251694
1025.135 .0251630
1025.722 .0251573
1026.309 .0251523
1026.896 .0251479
1027.483 .0251441
1028.069 .0251408
1028.655 .0251380
1029.241 .0251357
1029.827 .0251340
1030.412 .0251326
1030.997 .0251317
1031.582 .0251312
1032.167 .0251309
1032.752 .0251308
1033.336 .0251309
1033.921 .0251309
1034.505 .0251309
1035.089 .0251308
1035.672 .0251306
1036.256 .0251303
1036.839 .0251298
1037.422 .0251291
1038.005 .0251284
1038.588 .0251275
1039.171 .0251266
1039.753 .0251256
1040.335 .0251245
1040.918 .0251234
1041.500 .0251222
1042.081 .0251210
1042.663 .0251200
1043.244 .0251192
1043.826 .0251185
1044.407 .0251182
1044.988 .0251182
1045.569 .0251185
1046.150 .0251190
1046.730 .0251198
1047.311 .0251208
1047.891 .0251220
1048.471 .0251233
1049.052 .0251249
1049.632 .0251269
1050.211 .0251292
1050.791 .0251321
1051.371 .0251354
1051.950 .0251393
1052.530 .0251436
1053.109 .0251483
1053.688 .0251533
1054.268 .0251587
1054.847 .0251645
1055.426 .0251705
1056.005 .0251770
1056.583 .0251839
1057.162 .0251913
1057.741 .0251993
1058.319 .0252076
1058.898 .0252164
1059.476 .0252255
1060.055 .0252349
1060.633 .0252444
1061.211 .0252543
1061.790 .0252645
1062.368 .0252751
1062.946 .0252862
1063.524 .0252979
1064.102 .0253102
1064.680 .0253232
1065.258 .0253368
1065.836 .0253509
1066.414 .0253653
1066.992 .0253800
1067.570 .0253948
1068.148 .0254096
1068.726 .0254245
1069.304 .0254393
1069.882 .0254541
1070.460 .0254689
1071.038 .0254837
1071.616 .0254985
1072.194 .0255133
1072.772 .0255279
1073.350 .0255423
1073.928 .0255567
1074.506 .0255711
1075.084 .0255854
1075.662 .0256000
1076.240 .0256150
1076.819 .0256305
1077.397 .0256466
1077.976 .0256635
1078.554 .0256810
1079.133 .0256993
1079.711 .0257181
1080.290 .0257375
1080.869 .0257573
1081.448 .0257774
1082.027 .0257979
1082.606 .0258186
1083.185 .0258397
1083.764 .0258613
1084.343 .0258834
1084.923 .0259061
1085.502 .0259296
1086.082 .0259539
1086.662 .0259791
1087.242 .0260051
1087.822 .0260319
1088.402 .0260595
1088.983 .0260878
1089.563 .0261170
1090.144 .0261471
1090.725 .0261780
1091.306 .0262098
1091.887 .0262426
1092.469 .0262762
1093.050 .0263106
1093.632 .0263456
1094.214 .0263811
1094.796 .0264169
1095.379 .0264528
1095.961 .0264888
1096.544 .0265247
1097.127 .0265605
1097.710 .0265962
1098.294 .0266319
1098.877 .0266676
1099.461 .0267032
1100.046 .0267387
1100.630 .0267741
1101.215 .0268093
1101.800 .0268441
1102.385 .0268784
1102.970 .0269122
1103.556 .0269456
1104.142 .0269785
1104.728 .0270110
1105.315 .0270433
1105.902 .0270757
1106.489 .0271081
1107.077 .0271409
1107.664 .0271743
1108.253 .0272083
1108.841 .0272429
1109.430 .0272783
1110.019 .0273141
1110.609 .0273506
1111.198 .0273876
1111.789 .0274252
1112.379 .0274636
1112.970 .0275026
1113.561 .0275425
1114.153 .0275831
1114.745 .0276244
1115.338 .0276665
1115.931 .0277093
1116.524 .0277528
1117.117 .0277968
1117.712 .0278415
1118.306 .0278871
1118.901 .0279338
1119.496 .0279820
1120.092 .0280321
1120.689 .0280842
1121.285 .0281386
1121.882 .0281953
1122.480 .0282544
1123.078 .0283157
1123.677 .0283790
1124.276 .0284441
1124.875 .0285108
1125.476 .0285790
1126.076 .0286489
1126.677 .0287204
1127.279 .0287938
1127.881 .0288688
1128.484 .0289454
1129.087 .0289784
1129.691 .0290569
1130.295 .0291365
1130.900 .0292172
1131.505 .0292990
1132.111 .0293826
1132.718 .0294679
1133.325 .0295550
1133.933 .0296440
1134.541 .0297387
1135.150 .0298458
1135.760 .0299400
1136.370 .0300281
1136.981 .0301801
1137.592 .0302816
1138.204 .0303768
1138.817 .0304683
1139.431 .0305608
1140.045 .0306674
1140.660 .0307721
1141.275 .0308759
1141.891 .0309792
1142.508 .0311849
1143.126 .0315801
1143.744 .0312713
1144.363 .0311563
1144.983 .0312596
