Measurement Sequence started on: 15-12-46-377
Integration time: 28
Scans to Average: 2 
>>>>>Begin Spectral Data<<<<<
432.689 .0000100
433.621 .0000100
434.552 .0000100
435.482 .0000100
436.410 .0000100
437.337 .0000100
438.262 .0264913
439.187 .0560977
440.110 .0929027
441.031 .1344189
441.952 .1078639
442.871 .1126921
443.789 .1171928
444.705 .1214324
445.621 .1254554
446.535 .1292975
447.447 .1315902
448.359 .1321899
449.269 .1307349
450.178 .1269907
451.086 .1210326
451.993 .1133222
452.898 .1046207
453.803 .0957930
454.706 .0875728
455.608 .0804159
456.508 .0744742
457.408 .0704294
458.306 .0672974
459.204 .0647269
460.100 .0625446
460.995 .0606545
461.888 .0589929
462.781 .0575191
463.673 .0562002
464.563 .0550134
465.452 .0539407
466.340 .0529673
467.228 .0520818
468.114 .0512762
468.999 .0505432
469.882 .0498764
470.765 .0492698
471.647 .0487188
472.528 .0482194
473.407 .0477682
474.286 .0473623
475.163 .0469989
476.040 .0466755
476.915 .0463897
477.790 .0461383
478.663 .0459189
479.535 .0457295
480.407 .0455680
481.277 .0454329
482.147 .0453226
483.015 .0452356
483.883 .0451712
484.749 .0451284
485.615 .0451067
486.479 .0451053
487.343 .0451232
488.206 .0451598
489.067 .0452142
489.928 .0452858
490.788 .0453745
491.647 .0454805
492.505 .0456043
493.362 .0457469
494.218 .0459088
495.073 .0460912
495.928 .0464357
496.781 .0466702
497.634 .0469252
498.486 .0472005
499.337 .0474966
500.187 .0478144
501.036 .0481555
501.884 .0485222
502.731 .0489183
503.578 .0493478
504.424 .0496356
505.268 .0501312
506.113 .0506736
506.956 .0512670
507.798 .0519171
508.640 .0526302
509.480 .0534148
510.320 .0542814
511.160 .0552409
511.998 .0563070
512.836 .0574981
513.672 .0588329
514.508 .0603324
515.344 .0620177
516.178 .0639120
517.012 .0660376
517.845 .0684165
518.677 .0710674
519.508 .0740089
520.339 .0772489
521.169 .0807889
521.998 .0846047
522.826 .0886626
523.654 .0929076
524.481 .0972697
525.307 .1016723
526.133 .1060277
526.958 .1102427
527.782 .1142300
528.605 .1179098
529.428 .1212160
530.250 .1240865
531.072 .1264795
531.892 .1283580
532.712 .1297007
533.532 .1304931
534.350 .1307261
535.168 .1304035
535.986 .1295321
536.802 .1281162
537.618 .1261674
538.434 .1237024
539.249 .1207603
540.063 .1173886
540.876 .1136519
541.689 .1096265
542.501 .1053928
543.313 .1010391
544.124 .0966552
544.934 .0923243
545.744 .0881201
546.553 .0840998
547.361 .0803109
548.169 .0767805
548.976 .0735280
549.783 .0705567
550.589 .0678594
551.395 .0654239
552.200 .0632249
553.004 .0612368
553.808 .0594354
554.611 .0577988
555.414 .0563062
556.216 .0549385
557.018 .0536782
557.819 .0525106
558.619 .0514239
559.419 .0504086
560.218 .0494568
561.017 .0485620
561.815 .0477175
562.613 .0469176
563.410 .0461573
564.207 .0454326
565.003 .0447400
565.799 .0440757
566.594 .0434369
567.388 .0428223
568.182 .0422302
568.976 .0416591
569.769 .0411075
570.562 .0405746
571.354 .0400596
572.145 .0395622
572.936 .0390825
573.727 .0386206
574.517 .0381771
575.307 .0377530
576.096 .0373483
576.885 .0369637
577.673 .0365998
578.461 .0362562
579.248 .0359327
580.035 .0356291
580.821 .0353446
581.607 .0350782
582.392 .0348297
583.177 .0345982
583.962 .0343831
584.746 .0341839
585.529 .0339999
586.313 .0338304
587.095 .0336749
587.878 .0335324
588.660 .0334020
589.441 .0332825
590.222 .0331728
591.003 .0330716
591.783 .0329781
592.563 .0328912
593.342 .0328101
594.121 .0327340
594.899 .0326626
595.678 .0325951
596.455 .0325312
597.233 .0324705
598.009 .0324127
598.786 .0323574
599.562 .0323044
600.338 .0322533
601.113 .0322039
601.888 .0321344
602.663 .0320882
603.437 .0320433
604.211 .0319997
604.984 .0319575
605.757 .0319168
606.530 .0318775
607.302 .0318398
608.074 .0318037
608.845 .0317692
609.616 .0317365
610.387 .0317240
611.158 .0316939
611.928 .0316654
612.697 .0316385
613.467 .0316130
614.236 .0315890
615.004 .0315663
615.773 .0315449
616.541 .0315247
617.308 .0315056
618.076 .0314876
618.843 .0314706
619.609 .0314545
620.375 .0314391
621.141 .0314242
621.907 .0314096
622.672 .0313950
623.437 .0313803
624.202 .0313654
624.966 .0313500
625.730 .0313341
626.493 .0313177
627.257 .0313006
628.020 .0312830
628.782 .0312648
629.545 .0312461
630.307 .0312267
631.068 .0312068
631.830 .0311863
632.591 .0311652
633.352 .0311437
634.112 .0311216
634.872 .0310991
635.632 .0310763
636.392 .0310532
637.151 .0310297
637.910 .0310060
638.668 .0309821
639.427 .0309581
640.185 .0309340
640.943 .0309097
641.700 .0308855
642.457 .0308612
643.214 .0308368
643.971 .0308124
644.727 .0307879
645.483 .0307632
646.239 .0307384
646.994 .0307132
647.750 .0306879
648.505 .0306622
649.259 .0306363
650.014 .0306101
650.768 .0305835
651.521 .0305567
652.275 .0305295
653.028 .0305020
653.781 .0304743
654.534 .0304463
655.286 .0304180
656.039 .0303896
656.791 .0303609
657.542 .0303321
658.294 .0303033
659.045 .0302743
659.796 .0302454
660.546 .0302164
661.297 .0301876
662.047 .0301589
662.796 .0301305
663.546 .0301023
664.295 .0300745
665.044 .0300472
665.793 .0300203
666.542 .0299941
667.290 .0299686
668.038 .0299439
668.786 .0299200
669.533 .0298968
670.281 .0298746
671.028 .0298531
671.774 .0298326
672.521 .0298130
673.267 .0297944
674.013 .0297766
674.759 .0297599
675.505 .0297440
676.250 .0297292
676.995 .0297153
677.740 .0297022
678.484 .0296899
679.229 .0296785
679.973 .0296676
680.717 .0296575
681.460 .0296479
682.204 .0296388
682.947 .0296301
683.690 .0296217
684.433 .0296136
685.175 .0296057
685.917 .0295979
686.659 .0295902
687.401 .0295826
688.142 .0295750
688.884 .0295674
689.625 .0295597
690.365 .0295518
691.106 .0295437
691.846 .0295353
692.586 .0295265
693.326 .0295173
694.066 .0295076
694.805 .0294976
695.545 .0294871
696.284 .0294762
697.022 .0294648
697.761 .0294529
698.499 .0294405
699.237 .0294276
699.975 .0294141
700.713 .0294002
701.450 .0293857
702.187 .0293708
702.924 .0293554
703.661 .0293396
704.397 .0293234
705.133 .0293067
705.869 .0292896
706.605 .0292720
707.341 .0292540
708.076 .0292356
708.811 .0292168
709.546 .0291977
710.281 .0291783
711.015 .0291585
711.749 .0291383
712.483 .0291177
713.217 .0290967
713.950 .0290751
714.684 .0290531
715.417 .0290305
716.150 .0290075
716.882 .0289839
717.615 .0289598
718.347 .0289351
719.079 .0289098
719.811 .0288839
720.542 .0288574
721.273 .0288303
722.005 .0288026
722.735 .0287746
723.466 .0287462
724.196 .0287175
724.927 .0286886
725.656 .0286596
726.386 .0286304
727.116 .0286012
727.845 .0285722
728.574 .0285433
729.303 .0285146
730.031 .0284864
730.760 .0284586
731.488 .0284315
732.216 .0284049
732.944 .0283790
733.671 .0283539
734.398 .0283296
735.125 .0283062
735.852 .0282838
736.579 .0282625
737.305 .0282424
738.031 .0282235
738.757 .0282058
739.483 .0281893
740.208 .0281740
740.933 .0281598
741.658 .0281466
742.383 .0281344
743.108 .0281232
743.832 .0281129
744.556 .0281034
745.280 .0280946
746.004 .0280864
746.727 .0280788
747.450 .0280717
748.173 .0280650
748.896 .0280585
749.618 .0280523
750.340 .0280463
751.062 .0280404
751.784 .0280345
752.506 .0280286
753.227 .0280225
753.948 .0280163
754.669 .0280099
755.389 .0280031
756.110 .0279961
756.830 .0279889
757.550 .0279815
758.269 .0279738
758.989 .0279662
759.708 .0279584
760.427 .0279506
761.146 .0279427
761.864 .0279347
762.582 .0279267
763.300 .0279185
764.018 .0279102
764.736 .0279019
765.453 .0278936
766.170 .0278854
766.887 .0278774
767.603 .0278697
768.320 .0278624
769.036 .0278554
769.751 .0278489
770.467 .0278429
771.182 .0278372
771.897 .0278319
772.612 .0278269
773.327 .0278223
774.041 .0278178
774.755 .0278135
775.469 .0278095
776.183 .0278056
776.896 .0278018
777.609 .0277983
778.322 .0277949
779.035 .0277916
779.747 .0277884
780.459 .0277853
781.171 .0277823
781.882 .0277791
782.594 .0277759
783.305 .0277723
784.016 .0277684
784.726 .0277641
785.436 .0277594
786.147 .0277507
786.856 .0277450
787.566 .0277388
788.275 .0277322
788.984 .0277251
789.693 .0277174
790.401 .0277090
791.110 .0276999
791.818 .0276900
792.525 .0276793
793.233 .0276677
793.940 .0276553
794.647 .0276470
795.353 .0276332
796.060 .0276186
796.766 .0276031
797.472 .0275868
798.177 .0275695
798.883 .0275515
799.588 .0275326
800.292 .0275131
800.997 .0274928
801.701 .0274718
802.405 .0274501
803.109 .0274278
803.812 .0274047
804.515 .0273809
805.218 .0273564
805.921 .0273312
806.623 .0273053
807.325 .0272789
808.027 .0272520
808.728 .0272247
809.429 .0271972
810.130 .0271696
810.831 .0271418
811.531 .0271139
812.231 .0270860
812.931 .0270581
813.630 .0270302
814.330 .0270025
815.029 .0269750
815.727 .0269478
816.426 .0269210
817.124 .0268947
817.821 .0268689
818.519 .0268438
819.216 .0268192
819.913 .0267951
820.609 .0267717
821.306 .0267489
822.002 .0267267
822.697 .0267052
823.393 .0266845
824.088 .0266646
824.783 .0266456
825.477 .0266275
826.171 .0266103
826.865 .0265939
827.559 .0265784
828.252 .0265637
828.945 .0265497
829.638 .0265365
830.330 .0265240
831.023 .0265122
831.714 .0265011
832.406 .0264907
833.097 .0264809
833.788 .0264716
834.479 .0264629
835.169 .0264545
835.859 .0264465
836.548 .0264389
837.238 .0264317
837.927 .0264248
838.615 .0264182
839.304 .0264120
839.992 .0264060
840.680 .0264004
841.367 .0263949
842.054 .0263897
842.741 .0263847
843.428 .0263800
844.114 .0263754
844.800 .0263712
845.485 .0263673
846.170 .0263637
846.855 .0263603
847.540 .0263573
848.224 .0263545
848.908 .0263520
849.592 .0263497
850.275 .0263475
850.958 .0263455
851.641 .0263437
852.323 .0263420
853.005 .0263404
853.687 .0263390
854.368 .0263377
855.049 .0263365
855.730 .0263355
856.410 .0263345
857.090 .0263337
857.769 .0263330
858.449 .0263324
859.128 .0263320
859.806 .0263316
860.485 .0263313
861.163 .0263311
861.840 .0263312
862.518 .0263314
863.195 .0263319
863.871 .0263326
864.548 .0263336
865.224 .0263348
865.899 .0263362
866.574 .0263378
867.249 .0263397
867.924 .0263418
868.598 .0263441
869.272 .0263468
869.946 .0263497
870.619 .0263528
871.292 .0263561
871.964 .0263596
872.636 .0263632
873.308 .0263668
873.979 .0263705
874.651 .0263742
875.321 .0263781
875.992 .0263819
876.662 .0263858
877.331 .0263897
878.001 .0263934
878.670 .0263968
879.338 .0263999
880.007 .0264026
880.675 .0264048
881.342 .0264066
882.009 .0264081
882.676 .0264091
883.343 .0264099
884.009 .0264103
884.675 .0264104
885.340 .0264101
886.005 .0264093
886.670 .0264081
887.334 .0264063
887.998 .0264041
888.662 .0264015
889.325 .0263984
889.988 .0263951
890.650 .0263914
891.312 .0263875
891.974 .0263832
892.636 .0263785
893.297 .0263733
893.957 .0263676
894.618 .0263614
895.278 .0263547
895.937 .0263473
896.596 .0263394
897.255 .0263307
897.914 .0263214
898.572 .0263112
899.230 .0263001
899.887 .0262881
900.544 .0262751
901.201 .0262611
901.857 .0262354
902.513 .0262185
903.168 .0262004
903.823 .0261813
904.478 .0261611
905.132 .0261398
905.786 .0261174
906.440 .0260939
907.093 .0260693
907.746 .0260436
908.399 .0260170
909.051 .0259894
909.703 .0259609
910.354 .0259444
911.005 .0259149
911.656 .0258847
912.306 .0258538
912.956 .0258222
913.605 .0257901
914.254 .0257575
914.903 .0257245
915.551 .0256912
916.199 .0256576
916.847 .0256237
917.494 .0255896
918.141 .0255554
918.788 .0255211
919.434 .0254867
920.079 .0254523
920.725 .0254179
921.370 .0253835
922.014 .0253493
922.658 .0253151
923.302 .0252810
923.946 .0252470
924.589 .0252132
925.231 .0251796
925.873 .0251461
926.515 .0251129
927.157 .0250799
927.798 .0250472
928.439 .0250148
929.079 .0249827
929.719 .0249509
930.359 .0249195
930.998 .0248885
931.637 .0248580
932.275 .0248279
932.913 .0247984
933.551 .0247695
934.188 .0247412
934.825 .0247137
935.462 .0246870
936.098 .0246610
936.733 .0246359
937.369 .0246116
938.004 .0245882
938.638 .0245656
939.273 .0245439
939.907 .0245232
940.540 .0245035
941.173 .0244847
941.806 .0244670
942.438 .0244502
943.070 .0244344
943.702 .0244195
944.333 .0244056
944.964 .0243924
945.594 .0243801
946.224 .0243686
946.854 .0243579
947.483 .0243479
948.112 .0243386
948.741 .0243300
949.369 .0243221
949.996 .0243148
950.624 .0243080
951.251 .0243018
951.878 .0242960
952.504 .0242907
953.130 .0242859
953.755 .0242814
954.380 .0242773
955.005 .0242735
955.629 .0242701
956.253 .0242670
956.877 .0242641
957.500 .0242615
958.123 .0242591
958.746 .0242569
959.368 .0242549
959.990 .0242531
960.611 .0242515
961.232 .0242503
961.853 .0242493
962.473 .0242486
963.093 .0242483
963.712 .0242484
964.331 .0242488
964.950 .0242496
965.569 .0242508
966.187 .0242524
966.804 .0242544
967.422 .0242568
968.039 .0242597
968.655 .0242630
969.272 .0242666
969.887 .0242707
970.503 .0242752
971.118 .0242800
971.733 .0242851
972.347 .0242906
972.961 .0242965
973.575 .0243027
974.188 .0243092
974.801 .0243161
975.414 .0243233
976.026 .0243307
976.638 .0243385
977.250 .0243464
977.861 .0243544
978.472 .0243626
979.083 .0243709
979.693 .0243792
980.303 .0243876
980.912 .0244003
981.521 .0244089
982.130 .0244176
982.738 .0244263
983.346 .0244352
983.954 .0244441
984.562 .0244531
985.169 .0244622
985.775 .0244713
986.382 .0244806
986.988 .0244899
987.594 .0244994
988.199 .0245090
988.804 .0245187
989.409 .0245239
990.013 .0245337
990.617 .0245435
991.221 .0245533
991.824 .0245632
992.427 .0245731
993.030 .0245831
993.632 .0245932
994.234 .0246033
994.836 .0246136
995.438 .0246238
996.039 .0246342
996.640 .0246446
997.240 .0246551
997.840 .0246657
998.440 .0246763
999.040 .0246871
999.639 .0246979
1000.238 .0247089
1000.836 .0247198
1001.435 .0247307
1002.033 .0247415
1002.630 .0247522
1003.228 .0247628
1003.825 .0247731
1004.422 .0247832
1005.018 .0247930
1005.614 .0248027
1006.210 .0248121
1006.806 .0248213
1007.401 .0248303
1007.996 .0248390
1008.591 .0248474
1009.186 .0248556
1009.780 .0248634
1010.374 .0248709
1010.967 .0248781
1011.561 .0248849
1012.154 .0248915
1012.746 .0248977
1013.339 .0249036
1013.931 .0249093
1014.523 .0249145
1015.115 .0249195
1015.706 .0249240
1016.298 .0249282
1016.888 .0249321
1017.479 .0249356
1018.069 .0249388
1018.660 .0249418
1019.250 .0249445
1019.839 .0249470
1020.429 .0249494
1021.018 .0249516
1021.607 .0249536
1022.195 .0249553
1022.784 .0249569
1023.372 .0249582
1023.960 .0249593
1024.547 .0249602
1025.135 .0249609
1025.722 .0249614
1026.309 .0249617
1026.896 .0249619
1027.483 .0249619
1028.069 .0249618
1028.655 .0249615
1029.241 .0249610
1029.827 .0249601
1030.412 .0249589
1030.997 .0249574
1031.582 .0249555
1032.167 .0249532
1032.752 .0249506
1033.336 .0249476
1033.921 .0249442
1034.505 .0249403
1035.089 .0249359
1035.672 .0249309
1036.256 .0249252
1036.839 .0249186
1037.422 .0249111
1038.005 .0249028
1038.588 .0248936
1039.171 .0248836
1039.753 .0248730
1040.335 .0248620
1040.918 .0248505
1041.500 .0248386
1042.081 .0248263
1042.663 .0248137
1043.244 .0248008
1043.826 .0247875
1044.407 .0247739
1044.988 .0247600
1045.569 .0247459
1046.150 .0247317
1046.730 .0247174
1047.311 .0247031
1047.891 .0246888
1048.471 .0246744
1049.052 .0246598
1049.632 .0246449
1050.211 .0246297
1050.791 .0246140
1051.371 .0245978
1051.950 .0245812
1052.530 .0245642
1053.109 .0245470
1053.688 .0245296
1054.268 .0245122
1054.847 .0244947
1055.426 .0244772
1056.005 .0244598
1056.583 .0244422
1057.162 .0244246
1057.741 .0244069
1058.319 .0243891
1058.898 .0243711
1059.476 .0243531
1060.055 .0243348
1060.633 .0243164
1061.211 .0242978
1061.790 .0242790
1062.368 .0242598
1062.946 .0242404
1063.524 .0242208
1064.102 .0242010
1064.680 .0241810
1065.258 .0241610
1065.836 .0241410
1066.414 .0241210
1066.992 .0241011
1067.570 .0240814
1068.148 .0240620
1068.726 .0240430
1069.304 .0240246
1069.882 .0240069
1070.460 .0239901
1071.038 .0239742
1071.616 .0239593
1072.194 .0239454
1072.772 .0239325
1073.350 .0239205
1073.928 .0239094
1074.506 .0238991
1075.084 .0238895
1075.662 .0238809
1076.240 .0238731
1076.819 .0238664
1077.397 .0238607
1077.976 .0238561
1078.554 .0238526
1079.133 .0238500
1079.711 .0238485
1080.290 .0238480
1080.869 .0238484
1081.448 .0238498
1082.027 .0238522
1082.606 .0238556
1083.185 .0238600
1083.764 .0238654
1084.343 .0238717
1084.923 .0238787
1085.502 .0238864
1086.082 .0238945
1086.662 .0239031
1087.242 .0239119
1087.822 .0239210
1088.402 .0239304
1088.983 .0239400
1089.563 .0239498
1090.144 .0239598
1090.725 .0239699
1091.306 .0239800
1091.887 .0239902
1092.469 .0240002
1093.050 .0240100
1093.632 .0240197
1094.214 .0240292
1094.796 .0240386
1095.379 .0240479
1095.961 .0240573
1096.544 .0240669
1097.127 .0240765
1097.710 .0240863
1098.294 .0240961
1098.877 .0241060
1099.461 .0241161
1100.046 .0241264
1100.630 .0241371
1101.215 .0241483
1101.800 .0241601
1102.385 .0241726
1102.970 .0241858
1103.556 .0241998
1104.142 .0242143
1104.728 .0242294
1105.315 .0242451
1105.902 .0242613
1106.489 .0242781
1107.077 .0242958
1107.664 .0243144
1108.253 .0243340
1108.841 .0243548
1109.430 .0243768
1110.019 .0243999
1110.609 .0244240
1111.198 .0244491
1111.789 .0244751
1112.379 .0245021
1112.970 .0245301
1113.561 .0245591
1114.153 .0245892
1114.745 .0246203
1115.338 .0246524
1115.931 .0246854
1116.524 .0247193
1117.117 .0247539
1117.712 .0247892
1118.306 .0248252
1118.901 .0248621
1119.496 .0249000
1120.092 .0249393
1120.689 .0249801
1121.285 .0250225
1121.882 .0250668
1122.480 .0251132
1123.078 .0251616
1123.677 .0252125
1124.276 .0252658
1124.875 .0253219
1125.476 .0253810
1126.076 .0254435
1126.677 .0255093
1127.279 .0255792
1127.881 .0256532
1128.484 .0257315
1129.087 .0257609
1129.691 .0258450
1130.295 .0259333
1130.900 .0260257
1131.505 .0261224
1132.111 .0262233
1132.718 .0263287
1133.325 .0264391
1133.933 .0265542
1134.541 .0266772
1135.150 .0268026
1135.760 .0269324
1136.370 .0270781
1136.981 .0271399
1137.592 .0273007
1138.204 .0274617
1138.817 .0276222
1139.431 .0277879
1140.045 .0279535
1140.660 .0281229
1141.275 .0283067
1141.891 .0284805
1142.508 .0287429
1143.126 .0288528
1143.744 .0290198
1144.363 .0295161
1144.983 .0291110
