Measurement Sequence started on: 15-12-46-377
Integration time: 28
Scans to Average: 2 
>>>>>Begin Spectral Data<<<<<
432.689 .0000100
433.621 .0000100
434.552 .0000100
435.482 .0000100
436.410 .0000100
437.337 .0000100
438.262 .0274008
439.187 .0581572
440.110 .0964466
441.031 .1395859
441.952 .1122045
442.871 .1172055
443.789 .1218553
444.705 .1262258
445.621 .1303667
446.535 .1343172
447.447 .1366661
448.359 .1372607
449.269 .1357227
450.178 .1318113
451.086 .1256003
451.993 .1175664
452.898 .1084986
453.803 .0992943
454.706 .0907189
455.608 .0832504
456.508 .0770507
457.408 .0728266
458.306 .0695660
459.204 .0669053
460.100 .0646588
460.995 .0627276
461.888 .0610430
462.781 .0595585
463.673 .0582382
464.563 .0570549
465.452 .0559878
466.340 .0550219
467.228 .0541454
468.114 .0533501
468.999 .0526285
469.882 .0519755
470.765 .0513853
471.647 .0508528
472.528 .0503738
473.407 .0499439
474.286 .0495604
475.163 .0492207
476.040 .0489211
476.915 .0486597
477.790 .0484322
478.663 .0482351
479.535 .0480645
480.407 .0479163
481.277 .0477866
482.147 .0476719
483.015 .0475697
483.883 .0474788
484.749 .0473987
485.615 .0473299
486.479 .0472727
487.343 .0472275
488.206 .0471950
489.067 .0471740
489.928 .0471651
490.788 .0471678
491.647 .0471819
492.505 .0472085
493.362 .0472484
494.218 .0473038
495.073 .0473772
495.928 .0475678
496.781 .0476992
497.634 .0478559
498.486 .0480390
499.337 .0482496
500.187 .0484884
501.036 .0487566
501.884 .0490557
502.731 .0493879
503.578 .0497551
504.424 .0500152
505.268 .0504458
506.113 .0509204
506.956 .0514438
507.798 .0520226
508.640 .0526647
509.480 .0533793
510.320 .0541777
511.160 .0550713
511.998 .0560717
512.836 .0571934
513.672 .0584504
514.508 .0598606
515.344 .0614433
516.178 .0632186
517.012 .0652109
517.845 .0674443
518.677 .0699435
519.508 .0727286
520.339 .0758162
521.169 .0792141
521.998 .0829070
522.826 .0868658
523.654 .0910387
524.481 .0953609
525.307 .0997564
526.133 .1041365
526.958 .1084093
527.782 .1124844
528.605 .1162768
529.428 .1197122
530.250 .1227273
531.072 .1252768
531.892 .1273233
532.712 .1288428
533.532 .1298217
534.350 .1302504
535.168 .1301284
535.986 .1294567
536.802 .1282375
537.618 .1264759
538.434 .1241805
539.249 .1213819
540.063 .1181241
540.876 .1144711
541.689 .1104977
542.501 .1062859
543.313 .1019264
544.124 .0975089
544.934 .0931187
545.744 .0888340
546.553 .0847216
547.361 .0808347
548.169 .0772085
548.976 .0738674
549.783 .0708190
550.589 .0680595
551.395 .0655740
552.200 .0633390
553.004 .0613274
553.808 .0595137
554.611 .0578731
555.414 .0563863
556.216 .0550351
557.018 .0538016
557.819 .0526702
558.619 .0516262
559.419 .0506572
560.218 .0497534
561.017 .0489064
561.815 .0481090
562.613 .0473553
563.410 .0466398
564.207 .0459574
565.003 .0453036
565.799 .0446735
566.594 .0440640
567.388 .0434731
568.182 .0429004
568.976 .0423449
569.769 .0418064
570.562 .0412860
571.354 .0407843
572.145 .0403021
572.936 .0398394
573.727 .0393956
574.517 .0389702
575.307 .0385628
576.096 .0381728
576.885 .0378001
577.673 .0374451
578.461 .0371083
579.248 .0367901
580.035 .0364905
580.821 .0362091
581.607 .0359454
582.392 .0356985
583.177 .0354675
583.962 .0352513
584.746 .0350487
585.529 .0348589
586.313 .0346815
587.095 .0345156
587.878 .0343603
588.660 .0342151
589.441 .0340794
590.222 .0339526
591.003 .0338342
591.783 .0337237
592.563 .0336207
593.342 .0335249
594.121 .0334358
594.899 .0333529
595.678 .0332757
596.455 .0332036
597.233 .0331362
598.009 .0330731
598.786 .0330137
599.562 .0329577
600.338 .0329049
601.113 .0328550
601.888 .0327890
602.663 .0327450
603.437 .0327033
604.211 .0326638
604.984 .0326263
605.757 .0325905
606.530 .0325563
607.302 .0325234
608.074 .0324918
608.845 .0324612
609.616 .0324316
610.387 .0324185
611.158 .0323902
611.928 .0323627
612.697 .0323359
613.467 .0323099
614.236 .0322845
615.004 .0322597
615.773 .0322355
616.541 .0322118
617.308 .0321886
618.076 .0321658
618.843 .0321433
619.609 .0321211
620.375 .0320991
621.141 .0320771
621.907 .0320552
622.672 .0320333
623.437 .0320115
624.202 .0319896
624.966 .0319677
625.730 .0319457
626.493 .0319238
627.257 .0319017
628.020 .0318795
628.782 .0318571
629.545 .0318344
630.307 .0318114
631.068 .0317880
631.830 .0317644
632.591 .0317404
633.352 .0317163
634.112 .0316919
634.872 .0316674
635.632 .0316428
636.392 .0316181
637.151 .0315932
637.910 .0315680
638.668 .0315427
639.427 .0315171
640.185 .0314914
640.943 .0314656
641.700 .0314397
642.457 .0314138
643.214 .0313879
643.971 .0313621
644.727 .0313364
645.483 .0313108
646.239 .0312852
646.994 .0312596
647.750 .0312340
648.505 .0312084
649.259 .0311828
650.014 .0311572
650.768 .0311317
651.521 .0311063
652.275 .0310809
653.028 .0310557
653.781 .0310307
654.534 .0310059
655.286 .0309814
656.039 .0309572
656.791 .0309333
657.542 .0309098
658.294 .0308867
659.045 .0308639
659.796 .0308416
660.546 .0308196
661.297 .0307980
662.047 .0307768
662.796 .0307560
663.546 .0307356
664.295 .0307156
665.044 .0306961
665.793 .0306772
666.542 .0306588
667.290 .0306409
668.038 .0306235
668.786 .0306067
669.533 .0305904
670.281 .0305745
671.028 .0305592
671.774 .0305442
672.521 .0305296
673.267 .0305154
674.013 .0305015
674.759 .0304879
675.505 .0304746
676.250 .0304615
676.995 .0304487
677.740 .0304360
678.484 .0304237
679.229 .0304116
679.973 .0303997
680.717 .0303881
681.460 .0303766
682.204 .0303652
682.947 .0303538
683.690 .0303424
684.433 .0303310
685.175 .0303195
685.917 .0303079
686.659 .0302964
687.401 .0302848
688.142 .0302733
688.884 .0302618
689.625 .0302503
690.365 .0302388
691.106 .0302273
691.846 .0302156
692.586 .0302037
693.326 .0301915
694.066 .0301789
694.805 .0301660
695.545 .0301527
696.284 .0301389
697.022 .0301248
697.761 .0301103
698.499 .0300953
699.237 .0300799
699.975 .0300642
700.713 .0300480
701.450 .0300314
702.187 .0300144
702.924 .0299968
703.661 .0299786
704.397 .0299598
705.133 .0299403
705.869 .0299202
706.605 .0298993
707.341 .0298776
708.076 .0298554
708.811 .0298325
709.546 .0298091
710.281 .0297853
711.015 .0297610
711.749 .0297363
712.483 .0297113
713.217 .0296860
713.950 .0296604
714.684 .0296346
715.417 .0296086
716.150 .0295824
716.882 .0295561
717.615 .0295297
718.347 .0295033
719.079 .0294770
719.811 .0294507
720.542 .0294246
721.273 .0293986
722.005 .0293727
722.735 .0293471
723.466 .0293218
724.196 .0292967
724.927 .0292720
725.656 .0292476
726.386 .0292235
727.116 .0291998
727.845 .0291766
728.574 .0291538
729.303 .0291316
730.031 .0291100
730.760 .0290891
731.488 .0290688
732.216 .0290492
732.944 .0290302
733.671 .0290120
734.398 .0289944
735.125 .0289775
735.852 .0289612
736.579 .0289457
737.305 .0289308
738.031 .0289167
738.757 .0289033
739.483 .0288906
740.208 .0288786
740.933 .0288673
741.658 .0288566
742.383 .0288466
743.108 .0288372
743.832 .0288285
744.556 .0288204
745.280 .0288131
746.004 .0288063
746.727 .0288003
747.450 .0287948
748.173 .0287898
748.896 .0287855
749.618 .0287816
750.340 .0287783
751.062 .0287756
751.784 .0287733
752.506 .0287715
753.227 .0287702
753.948 .0287692
754.669 .0287685
755.389 .0287680
756.110 .0287677
756.830 .0287676
757.550 .0287676
758.269 .0287677
758.989 .0287679
759.708 .0287681
760.427 .0287682
761.146 .0287681
761.864 .0287679
762.582 .0287672
763.300 .0287662
764.018 .0287647
764.736 .0287627
765.453 .0287603
766.170 .0287574
766.887 .0287540
767.603 .0287501
768.320 .0287456
769.036 .0287407
769.751 .0287353
770.467 .0287294
771.182 .0287230
771.897 .0287162
772.612 .0287090
773.327 .0287015
774.041 .0286935
774.755 .0286851
775.469 .0286764
776.183 .0286672
776.896 .0286577
777.609 .0286477
778.322 .0286374
779.035 .0286267
779.747 .0286155
780.459 .0286038
781.171 .0285917
781.882 .0285790
782.594 .0285657
783.305 .0285517
784.016 .0285371
784.726 .0285217
785.436 .0285057
786.147 .0284790
786.856 .0284614
787.566 .0284431
788.275 .0284244
788.984 .0284050
789.693 .0283851
790.401 .0283647
791.110 .0283438
791.818 .0283223
792.525 .0283003
793.233 .0282777
793.940 .0282548
794.647 .0282423
795.353 .0282190
796.060 .0281954
796.766 .0281715
797.472 .0281475
798.177 .0281234
798.883 .0280991
799.588 .0280747
800.292 .0280502
800.997 .0280256
801.701 .0280011
802.405 .0279767
803.109 .0279523
803.812 .0279280
804.515 .0279038
805.218 .0278797
805.921 .0278557
806.623 .0278318
807.325 .0278079
808.027 .0277841
808.728 .0277604
809.429 .0277368
810.130 .0277133
810.831 .0276899
811.531 .0276666
812.231 .0276433
812.931 .0276202
813.630 .0275971
814.330 .0275741
815.029 .0275514
815.727 .0275290
816.426 .0275070
817.124 .0274855
817.821 .0274646
818.519 .0274443
819.216 .0274246
819.913 .0274055
820.609 .0273871
821.306 .0273692
822.002 .0273521
822.697 .0273355
823.393 .0273197
824.088 .0273046
824.783 .0272902
825.477 .0272766
826.171 .0272638
826.865 .0272517
827.559 .0272403
828.252 .0272296
828.945 .0272196
829.638 .0272103
830.330 .0272017
831.023 .0271938
831.714 .0271866
832.406 .0271802
833.097 .0271744
833.788 .0271693
834.479 .0271649
835.169 .0271611
835.859 .0271581
836.548 .0271558
837.238 .0271542
837.927 .0271534
838.615 .0271533
839.304 .0271540
839.992 .0271554
840.680 .0271576
841.367 .0271605
842.054 .0271642
842.741 .0271686
843.428 .0271737
844.114 .0271797
844.800 .0271863
845.485 .0271938
846.170 .0272019
846.855 .0272105
847.540 .0272197
848.224 .0272292
848.908 .0272389
849.592 .0272487
850.275 .0272586
850.958 .0272683
851.641 .0272780
852.323 .0272874
853.005 .0272965
853.687 .0273054
854.368 .0273138
855.049 .0273219
855.730 .0273295
856.410 .0273367
857.090 .0273433
857.769 .0273496
858.449 .0273553
859.128 .0273606
859.806 .0273655
860.485 .0273700
861.163 .0273740
861.840 .0273777
862.518 .0273811
863.195 .0273842
863.871 .0273870
864.548 .0273895
865.224 .0273918
865.899 .0273938
866.574 .0273954
867.249 .0273967
867.924 .0273976
868.598 .0273981
869.272 .0273981
869.946 .0273976
870.619 .0273966
871.292 .0273951
871.964 .0273930
872.636 .0273904
873.308 .0273871
873.979 .0273831
874.651 .0273783
875.321 .0273728
875.992 .0273665
876.662 .0273593
877.331 .0273512
878.001 .0273422
878.670 .0273322
879.338 .0273212
880.007 .0273091
880.675 .0272961
881.342 .0272820
882.009 .0272670
882.676 .0272512
883.343 .0272346
884.009 .0272173
884.675 .0271993
885.340 .0271808
886.005 .0271617
886.670 .0271420
887.334 .0271218
887.998 .0271010
888.662 .0270796
889.325 .0270578
889.988 .0270356
890.650 .0270129
891.312 .0269899
891.974 .0269665
892.636 .0269427
893.297 .0269186
893.957 .0268940
894.618 .0268690
895.278 .0268436
895.937 .0268178
896.596 .0267915
897.255 .0267648
897.914 .0267378
898.572 .0267104
899.230 .0266826
899.887 .0266544
900.544 .0266259
901.201 .0265969
901.857 .0265517
902.513 .0265217
903.168 .0264914
903.823 .0264607
904.478 .0264298
905.132 .0263986
905.786 .0263673
906.440 .0263358
907.093 .0263042
907.746 .0262725
908.399 .0262408
909.051 .0262091
909.703 .0261775
910.354 .0261623
911.005 .0261311
911.656 .0261000
912.306 .0260693
912.956 .0260390
913.605 .0260092
914.254 .0259798
914.903 .0259510
915.551 .0259226
916.199 .0258947
916.847 .0258673
917.494 .0258403
918.141 .0258136
918.788 .0257872
919.434 .0257612
920.079 .0257354
920.725 .0257100
921.370 .0256849
922.014 .0256602
922.658 .0256357
923.302 .0256115
923.946 .0255874
924.589 .0255636
925.231 .0255399
925.873 .0255163
926.515 .0254929
927.157 .0254697
927.798 .0254467
928.439 .0254241
929.079 .0254018
929.719 .0253799
930.359 .0253584
930.998 .0253373
931.637 .0253166
932.275 .0252962
932.913 .0252763
933.551 .0252568
934.188 .0252379
934.825 .0252196
935.462 .0252019
936.098 .0251851
936.733 .0251691
937.369 .0251539
938.004 .0251396
938.638 .0251262
939.273 .0251135
939.907 .0251017
940.540 .0250907
941.173 .0250805
941.806 .0250712
942.438 .0250627
943.070 .0250552
943.702 .0250485
944.333 .0250427
944.964 .0250378
945.594 .0250336
946.224 .0250300
946.854 .0250271
947.483 .0250247
948.112 .0250229
948.741 .0250215
949.369 .0250207
949.996 .0250204
950.624 .0250206
951.251 .0250214
951.878 .0250228
952.504 .0250248
953.130 .0250274
953.755 .0250305
954.380 .0250342
955.005 .0250385
955.629 .0250434
956.253 .0250488
956.877 .0250548
957.500 .0250613
958.123 .0250684
958.746 .0250762
959.368 .0250846
959.990 .0250937
960.611 .0251036
961.232 .0251142
961.853 .0251255
962.473 .0251374
963.093 .0251499
963.712 .0251629
964.331 .0251763
964.950 .0251901
965.569 .0252042
966.187 .0252186
966.804 .0252333
967.422 .0252482
968.039 .0252633
968.655 .0252786
969.272 .0252939
969.887 .0253090
970.503 .0253239
971.118 .0253384
971.733 .0253525
972.347 .0253661
972.961 .0253792
973.575 .0253919
974.188 .0254042
974.801 .0254159
975.414 .0254273
976.026 .0254381
976.638 .0254483
977.250 .0254578
977.861 .0254667
978.472 .0254749
979.083 .0254824
979.693 .0254893
980.303 .0254958
980.912 .0255038
981.521 .0255095
982.130 .0255150
982.738 .0255203
983.346 .0255254
983.954 .0255304
984.562 .0255352
985.169 .0255400
985.775 .0255449
986.382 .0255500
986.988 .0255553
987.594 .0255610
988.199 .0255672
988.804 .0255737
989.409 .0255784
990.013 .0255855
990.617 .0255930
991.221 .0256008
991.824 .0256087
992.427 .0256168
993.030 .0256250
993.632 .0256332
994.234 .0256414
994.836 .0256495
995.438 .0256576
996.039 .0256655
996.640 .0256733
997.240 .0256808
997.840 .0256881
998.440 .0256951
999.040 .0257017
999.639 .0257079
1000.238 .0257136
1000.836 .0257187
1001.435 .0257233
1002.033 .0257272
1002.630 .0257303
1003.228 .0257326
1003.825 .0257339
1004.422 .0257342
1005.018 .0257333
1005.614 .0257313
1006.210 .0257282
1006.806 .0257240
1007.401 .0257186
1007.996 .0257122
1008.591 .0257048
1009.186 .0256964
1009.780 .0256870
1010.374 .0256769
1010.967 .0256659
1011.561 .0256541
1012.154 .0256416
1012.746 .0256285
1013.339 .0256149
1013.931 .0256008
1014.523 .0255864
1015.115 .0255717
1015.706 .0255568
1016.298 .0255418
1016.888 .0255266
1017.479 .0255115
1018.069 .0254963
1018.660 .0254811
1019.250 .0254659
1019.839 .0254507
1020.429 .0254357
1021.018 .0254208
1021.607 .0254062
1022.195 .0253918
1022.784 .0253777
1023.372 .0253639
1023.960 .0253505
1024.547 .0253375
1025.135 .0253248
1025.722 .0253125
1026.309 .0253003
1026.896 .0252882
1027.483 .0252762
1028.069 .0252642
1028.655 .0252521
1029.241 .0252398
1029.827 .0252274
1030.412 .0252147
1030.997 .0252016
1031.582 .0251883
1032.167 .0251745
1032.752 .0251603
1033.336 .0251455
1033.921 .0251300
1034.505 .0251138
1035.089 .0250969
1035.672 .0250792
1036.256 .0250609
1036.839 .0250419
1037.422 .0250223
1038.005 .0250022
1038.588 .0249818
1039.171 .0249609
1039.753 .0249398
1040.335 .0249183
1040.918 .0248967
1041.500 .0248751
1042.081 .0248535
1042.663 .0248321
1043.244 .0248109
1043.826 .0247903
1044.407 .0247702
1044.988 .0247506
1045.569 .0247317
1046.150 .0247133
1046.730 .0246954
1047.311 .0246781
1047.891 .0246612
1048.471 .0246448
1049.052 .0246290
1049.632 .0246137
1050.211 .0245989
1050.791 .0245849
1051.371 .0245714
1051.950 .0245586
1052.530 .0245465
1053.109 .0245349
1053.688 .0245238
1054.268 .0245132
1054.847 .0245030
1055.426 .0244931
1056.005 .0244837
1056.583 .0244746
1057.162 .0244659
1057.741 .0244575
1058.319 .0244493
1058.898 .0244414
1059.476 .0244336
1060.055 .0244258
1060.633 .0244180
1061.211 .0244101
1061.790 .0244022
1062.368 .0243942
1062.946 .0243863
1063.524 .0243785
1064.102 .0243710
1064.680 .0243636
1065.258 .0243564
1065.836 .0243495
1066.414 .0243427
1066.992 .0243360
1067.570 .0243294
1068.148 .0243229
1068.726 .0243164
1069.304 .0243101
1069.882 .0243039
1070.460 .0242980
1071.038 .0242924
1071.616 .0242872
1072.194 .0242824
1072.772 .0242780
1073.350 .0242740
1073.928 .0242704
1074.506 .0242671
1075.084 .0242643
1075.662 .0242619
1076.240 .0242599
1076.819 .0242585
1077.397 .0242578
1077.976 .0242578
1078.554 .0242587
1079.133 .0242604
1079.711 .0242630
1080.290 .0242665
1080.869 .0242708
1081.448 .0242758
1082.027 .0242814
1082.606 .0242877
1083.185 .0242945
1083.764 .0243018
1084.343 .0243096
1084.923 .0243178
1085.502 .0243267
1086.082 .0243363
1086.662 .0243465
1087.242 .0243576
1087.822 .0243696
1088.402 .0243824
1088.983 .0243961
1089.563 .0244108
1090.144 .0244263
1090.725 .0244426
1091.306 .0244596
1091.887 .0244772
1092.469 .0244954
1093.050 .0245141
1093.632 .0245333
1094.214 .0245531
1094.796 .0245735
1095.379 .0245946
1095.961 .0246164
1096.544 .0246388
1097.127 .0246617
1097.710 .0246853
1098.294 .0247093
1098.877 .0247338
1099.461 .0247589
1100.046 .0247846
1100.630 .0248110
1101.215 .0248382
1101.800 .0248663
1102.385 .0248954
1102.970 .0249254
1103.556 .0249562
1104.142 .0249877
1104.728 .0250197
1105.315 .0250523
1105.902 .0250856
1106.489 .0251194
1107.077 .0251542
1107.664 .0251899
1108.253 .0252267
1108.841 .0252647
1109.430 .0253039
1110.019 .0253444
1110.609 .0253860
1111.198 .0254289
1111.789 .0254729
1112.379 .0255183
1112.970 .0255652
1113.561 .0256138
1114.153 .0256641
1114.745 .0257162
1115.338 .0257700
1115.931 .0258253
1116.524 .0258819
1117.117 .0259395
1117.712 .0259981
1118.306 .0260574
1118.901 .0261173
1119.496 .0261780
1120.092 .0262393
1120.689 .0263016
1121.285 .0263648
1121.882 .0264291
1122.480 .0264946
1123.078 .0265612
1123.677 .0266291
1124.276 .0266983
1124.875 .0267689
1125.476 .0268415
1126.076 .0269161
1126.677 .0269929
1127.279 .0270721
1127.881 .0271537
1128.484 .0272377
1129.087 .0272756
1129.691 .0273621
1130.295 .0274506
1130.900 .0275411
1131.505 .0276337
1132.111 .0277284
1132.718 .0278255
1133.325 .0279256
1133.933 .0280287
1134.541 .0281386
1135.150 .0282478
1135.760 .0283539
1136.370 .0284778
1136.981 .0285405
1137.592 .0286772
1138.204 .0288159
1138.817 .0289564
1139.431 .0291049
1140.045 .0292540
1140.660 .0294001
1141.275 .0295603
1141.891 .0297134
1142.508 .0299624
1143.126 .0299989
1143.744 .0299669
1144.363 .0305192
1144.983 .0304242
