Measurement Sequence started on: 15-12-46-377
Integration time: 28
Scans to Average: 2 
>>>>>Begin Spectral Data<<<<<
432.689 .0000100
433.621 .0000100
434.552 .0000100
435.482 .0000100
436.410 .0000100
437.337 .0000100
438.262 .0279352
439.187 .0591361
440.110 .0979580
441.031 .1417184
441.952 .1135068
442.871 .1185062
443.789 .1231517
444.705 .1275189
445.621 .1316608
446.535 .1356194
447.447 .1379536
448.359 .1385133
449.269 .1369159
450.178 .1329147
451.086 .1265875
451.993 .1184197
452.898 .1092147
453.803 .0998858
454.706 .0912107
455.608 .0836723
456.508 .0774333
457.408 .0732130
458.306 .0699722
459.204 .0673397
460.100 .0651261
460.995 .0632252
461.888 .0615642
462.781 .0600928
463.673 .0587721
464.563 .0575758
465.452 .0564842
466.340 .0554818
467.228 .0545577
468.114 .0537037
468.999 .0529140
469.882 .0521841
470.765 .0515108
471.647 .0508908
472.528 .0503221
473.407 .0498028
474.286 .0493314
475.163 .0489069
476.040 .0485279
476.915 .0481924
477.790 .0478985
478.663 .0476440
479.535 .0474268
480.407 .0472449
481.277 .0470966
482.147 .0469799
483.015 .0468929
483.883 .0468340
484.749 .0468008
485.615 .0467907
486.479 .0468015
487.343 .0468303
488.206 .0468753
489.067 .0469342
489.928 .0470064
490.788 .0470920
491.647 .0471918
492.505 .0473067
493.362 .0474385
494.218 .0475889
495.073 .0477596
495.928 .0480900
496.781 .0483163
497.634 .0485638
498.486 .0488323
499.337 .0491224
500.187 .0494353
501.036 .0497732
501.884 .0501398
502.731 .0505391
503.578 .0509754
504.424 .0512734
505.268 .0517792
506.113 .0523336
506.956 .0529402
507.798 .0536032
508.640 .0543272
509.480 .0551205
510.320 .0559927
511.160 .0569547
511.998 .0580181
512.836 .0591997
513.672 .0605148
514.508 .0619801
515.344 .0636132
516.178 .0654329
517.012 .0674584
517.845 .0697087
518.677 .0722006
519.508 .0749484
520.339 .0779613
521.169 .0812464
521.998 .0847835
522.826 .0885473
523.654 .0924923
524.481 .0965580
525.307 .1006763
526.133 .1047684
526.958 .1087471
527.782 .1125291
528.605 .1160371
529.428 .1192028
530.250 .1219626
531.072 .1242765
531.892 .1261078
532.712 .1274343
533.532 .1282423
534.350 .1285221
535.168 .1282736
535.986 .1275032
536.802 .1262145
537.618 .1244156
538.434 .1221166
539.249 .1193524
540.063 .1161631
540.876 .1126054
541.689 .1087502
542.501 .1046735
543.313 .1004596
544.124 .0961960
544.934 .0919629
545.744 .0878326
546.553 .0838665
547.361 .0801159
548.169 .0766091
548.976 .0733693
549.783 .0704048
550.589 .0677130
551.395 .0652852
552.200 .0631035
553.004 .0611433
553.808 .0593836
554.611 .0578031
555.414 .0563800
556.216 .0550948
557.018 .0539285
557.819 .0528645
558.619 .0518877
559.419 .0509854
560.218 .0501468
561.017 .0493621
561.815 .0486239
562.613 .0479255
563.410 .0472606
564.207 .0466239
565.003 .0460107
565.799 .0454174
566.594 .0448406
567.388 .0442778
568.182 .0437276
568.976 .0431887
569.769 .0426609
570.562 .0421448
571.354 .0416409
572.145 .0411504
572.936 .0406744
573.727 .0402135
574.517 .0397681
575.307 .0393389
576.096 .0389258
576.885 .0385288
577.673 .0381481
578.461 .0377838
579.248 .0374357
580.035 .0371041
580.821 .0367892
581.607 .0364911
582.392 .0362100
583.177 .0359456
583.962 .0356975
584.746 .0354651
585.529 .0352476
586.313 .0350440
587.095 .0348533
587.878 .0346751
588.660 .0345087
589.441 .0343535
590.222 .0342090
591.003 .0340749
591.783 .0339506
592.563 .0338355
593.342 .0337289
594.121 .0336300
594.899 .0335378
595.678 .0334515
596.455 .0333703
597.233 .0332936
598.009 .0332209
598.786 .0331519
599.562 .0330864
600.338 .0330241
601.113 .0329649
601.888 .0328855
602.663 .0328332
603.437 .0327835
604.211 .0327362
604.984 .0326909
605.757 .0326477
606.530 .0326063
607.302 .0325667
608.074 .0325290
608.845 .0324932
609.616 .0324595
610.387 .0324475
611.158 .0324172
611.928 .0323891
612.697 .0323631
613.467 .0323392
614.236 .0323174
615.004 .0322974
615.773 .0322792
616.541 .0322624
617.308 .0322470
618.076 .0322327
618.843 .0322192
619.609 .0322064
620.375 .0321940
621.141 .0321817
621.907 .0321695
622.672 .0321571
623.437 .0321444
624.202 .0321312
624.966 .0321173
625.730 .0321027
626.493 .0320871
627.257 .0320703
628.020 .0320521
628.782 .0320325
629.545 .0320113
630.307 .0319885
631.068 .0319641
631.830 .0319383
632.591 .0319111
633.352 .0318827
634.112 .0318532
634.872 .0318227
635.632 .0317913
636.392 .0317592
637.151 .0317264
637.910 .0316930
638.668 .0316593
639.427 .0316253
640.185 .0315913
640.943 .0315574
641.700 .0315238
642.457 .0314904
643.214 .0314575
643.971 .0314250
644.727 .0313930
645.483 .0313615
646.239 .0313305
646.994 .0312998
647.750 .0312695
648.505 .0312396
649.259 .0312098
650.014 .0311802
650.768 .0311508
651.521 .0311213
652.275 .0310920
653.028 .0310627
653.781 .0310334
654.534 .0310043
655.286 .0309752
656.039 .0309464
656.791 .0309177
657.542 .0308894
658.294 .0308615
659.045 .0308341
659.796 .0308071
660.546 .0307808
661.297 .0307550
662.047 .0307300
662.796 .0307058
663.546 .0306824
664.295 .0306601
665.044 .0306388
665.793 .0306186
666.542 .0305997
667.290 .0305820
668.038 .0305656
668.786 .0305504
669.533 .0305363
670.281 .0305233
671.028 .0305113
671.774 .0305003
672.521 .0304901
673.267 .0304809
674.013 .0304725
674.759 .0304650
675.505 .0304582
676.250 .0304520
676.995 .0304463
677.740 .0304410
678.484 .0304357
679.229 .0304305
679.973 .0304251
680.717 .0304196
681.460 .0304138
682.204 .0304077
682.947 .0304013
683.690 .0303945
684.433 .0303873
685.175 .0303795
685.917 .0303712
686.659 .0303623
687.401 .0303527
688.142 .0303425
688.884 .0303314
689.625 .0303195
690.365 .0303067
691.106 .0302929
691.846 .0302782
692.586 .0302625
693.326 .0302459
694.066 .0302283
694.805 .0302099
695.545 .0301908
696.284 .0301710
697.022 .0301506
697.761 .0301296
698.499 .0301080
699.237 .0300857
699.975 .0300629
700.713 .0300396
701.450 .0300158
702.187 .0299916
702.924 .0299671
703.661 .0299426
704.397 .0299179
705.133 .0298932
705.869 .0298685
706.605 .0298438
707.341 .0298190
708.076 .0297940
708.811 .0297689
709.546 .0297435
710.281 .0297180
711.015 .0296922
711.749 .0296662
712.483 .0296400
713.217 .0296137
713.950 .0295870
714.684 .0295602
715.417 .0295330
716.150 .0295056
716.882 .0294778
717.615 .0294497
718.347 .0294213
719.079 .0293926
719.811 .0293638
720.542 .0293348
721.273 .0293058
722.005 .0292769
722.735 .0292482
723.466 .0292200
724.196 .0291922
724.927 .0291651
725.656 .0291386
726.386 .0291129
727.116 .0290879
727.845 .0290638
728.574 .0290406
729.303 .0290183
730.031 .0289971
730.760 .0289771
731.488 .0289582
732.216 .0289407
732.944 .0289244
733.671 .0289095
734.398 .0288960
735.125 .0288836
735.852 .0288724
736.579 .0288623
737.305 .0288533
738.031 .0288452
738.757 .0288381
739.483 .0288319
740.208 .0288266
740.933 .0288221
741.658 .0288184
742.383 .0288153
743.108 .0288128
743.832 .0288108
744.556 .0288092
745.280 .0288079
746.004 .0288068
746.727 .0288059
747.450 .0288053
748.173 .0288047
748.896 .0288043
749.618 .0288038
750.340 .0288034
751.062 .0288029
751.784 .0288024
752.506 .0288019
753.227 .0288014
753.948 .0288008
754.669 .0288001
755.389 .0287992
756.110 .0287982
756.830 .0287968
757.550 .0287951
758.269 .0287929
758.989 .0287904
759.708 .0287874
760.427 .0287841
761.146 .0287803
761.864 .0287762
762.582 .0287715
763.300 .0287664
764.018 .0287607
764.736 .0287545
765.453 .0287478
766.170 .0287406
766.887 .0287330
767.603 .0287250
768.320 .0287167
769.036 .0287082
769.751 .0286994
770.467 .0286905
771.182 .0286815
771.897 .0286724
772.612 .0286633
773.327 .0286543
774.041 .0286453
774.755 .0286364
775.469 .0286277
776.183 .0286189
776.896 .0286102
777.609 .0286014
778.322 .0285925
779.035 .0285834
779.747 .0285742
780.459 .0285647
781.171 .0285548
781.882 .0285446
782.594 .0285338
783.305 .0285224
784.016 .0285103
784.726 .0284975
785.436 .0284838
786.147 .0284593
786.856 .0284435
787.566 .0284269
788.275 .0284095
788.984 .0283912
789.693 .0283721
790.401 .0283520
791.110 .0283311
791.818 .0283094
792.525 .0282868
793.233 .0282635
793.940 .0282396
794.647 .0282267
795.353 .0282020
796.060 .0281767
796.766 .0281507
797.472 .0281241
798.177 .0280969
798.883 .0280692
799.588 .0280409
800.292 .0280122
800.997 .0279831
801.701 .0279537
802.405 .0279241
803.109 .0278943
803.812 .0278644
804.515 .0278343
805.218 .0278041
805.921 .0277739
806.623 .0277437
807.325 .0277135
808.027 .0276836
808.728 .0276538
809.429 .0276243
810.130 .0275951
810.831 .0275662
811.531 .0275377
812.231 .0275097
812.931 .0274821
813.630 .0274553
814.330 .0274292
815.029 .0274040
815.727 .0273799
816.426 .0273569
817.124 .0273351
817.821 .0273145
818.519 .0272951
819.216 .0272770
819.913 .0272601
820.609 .0272444
821.306 .0272301
822.002 .0272171
822.697 .0272055
823.393 .0271953
824.088 .0271865
824.783 .0271790
825.477 .0271727
826.171 .0271678
826.865 .0271640
827.559 .0271613
828.252 .0271598
828.945 .0271593
829.638 .0271598
830.330 .0271612
831.023 .0271635
831.714 .0271666
832.406 .0271703
833.097 .0271746
833.788 .0271793
834.479 .0271845
835.169 .0271902
835.859 .0271962
836.548 .0272026
837.238 .0272092
837.927 .0272160
838.615 .0272229
839.304 .0272298
839.992 .0272365
840.680 .0272431
841.367 .0272496
842.054 .0272559
842.741 .0272621
843.428 .0272682
844.114 .0272743
844.800 .0272804
845.485 .0272863
846.170 .0272922
846.855 .0272979
847.540 .0273035
848.224 .0273090
848.908 .0273142
849.592 .0273194
850.275 .0273244
850.958 .0273292
851.641 .0273338
852.323 .0273381
853.005 .0273422
853.687 .0273458
854.368 .0273490
855.049 .0273519
855.730 .0273543
856.410 .0273563
857.090 .0273580
857.769 .0273592
858.449 .0273599
859.128 .0273602
859.806 .0273599
860.485 .0273591
861.163 .0273577
861.840 .0273558
862.518 .0273533
863.195 .0273502
863.871 .0273467
864.548 .0273428
865.224 .0273383
865.899 .0273333
866.574 .0273278
867.249 .0273218
867.924 .0273154
868.598 .0273085
869.272 .0273012
869.946 .0272935
870.619 .0272856
871.292 .0272775
871.964 .0272692
872.636 .0272608
873.308 .0272522
873.979 .0272435
874.651 .0272346
875.321 .0272257
875.992 .0272167
876.662 .0272076
877.331 .0271985
878.001 .0271892
878.670 .0271798
879.338 .0271702
880.007 .0271604
880.675 .0271503
881.342 .0271400
882.009 .0271293
882.676 .0271184
883.343 .0271073
884.009 .0270959
884.675 .0270842
885.340 .0270722
886.005 .0270600
886.670 .0270473
887.334 .0270342
887.998 .0270206
888.662 .0270064
889.325 .0269918
889.988 .0269765
890.650 .0269607
891.312 .0269442
891.974 .0269271
892.636 .0269092
893.297 .0268905
893.957 .0268710
894.618 .0268507
895.278 .0268295
895.937 .0268076
896.596 .0267848
897.255 .0267614
897.914 .0267372
898.572 .0267123
899.230 .0266867
899.887 .0266603
900.544 .0266333
901.201 .0266054
901.857 .0265608
902.513 .0265312
903.168 .0265010
903.823 .0264703
904.478 .0264390
905.132 .0264071
905.786 .0263748
906.440 .0263419
907.093 .0263085
907.746 .0262747
908.399 .0262405
909.051 .0262060
909.703 .0261713
910.354 .0261537
911.005 .0261192
911.656 .0260848
912.306 .0260505
912.956 .0260165
913.605 .0259827
914.254 .0259492
914.903 .0259159
915.551 .0258828
916.199 .0258501
916.847 .0258177
917.494 .0257856
918.141 .0257538
918.788 .0257224
919.434 .0256913
920.079 .0256605
920.725 .0256301
921.370 .0256000
922.014 .0255703
922.658 .0255410
923.302 .0255121
923.946 .0254838
924.589 .0254561
925.231 .0254290
925.873 .0254025
926.515 .0253767
927.157 .0253515
927.798 .0253270
928.439 .0253032
929.079 .0252802
929.719 .0252580
930.359 .0252366
930.998 .0252161
931.637 .0251964
932.275 .0251777
932.913 .0251599
933.551 .0251431
934.188 .0251274
934.825 .0251126
935.462 .0250990
936.098 .0250865
936.733 .0250753
937.369 .0250652
938.004 .0250564
938.638 .0250488
939.273 .0250424
939.907 .0250373
940.540 .0250332
941.173 .0250303
941.806 .0250284
942.438 .0250275
943.070 .0250276
943.702 .0250286
944.333 .0250304
944.964 .0250330
945.594 .0250363
946.224 .0250402
946.854 .0250446
947.483 .0250495
948.112 .0250547
948.741 .0250604
949.369 .0250663
949.996 .0250726
950.624 .0250793
951.251 .0250863
951.878 .0250936
952.504 .0251014
953.130 .0251094
953.755 .0251178
954.380 .0251265
955.005 .0251355
955.629 .0251446
956.253 .0251541
956.877 .0251638
957.500 .0251737
958.123 .0251839
958.746 .0251944
959.368 .0252053
959.990 .0252165
960.611 .0252281
961.232 .0252400
961.853 .0252523
962.473 .0252649
963.093 .0252777
963.712 .0252908
964.331 .0253042
964.950 .0253178
965.569 .0253316
966.187 .0253456
966.804 .0253600
967.422 .0253745
968.039 .0253892
968.655 .0254040
969.272 .0254188
969.887 .0254335
970.503 .0254480
971.118 .0254622
971.733 .0254761
972.347 .0254895
972.961 .0255025
973.575 .0255151
974.188 .0255272
974.801 .0255387
975.414 .0255497
976.026 .0255601
976.638 .0255696
977.250 .0255784
977.861 .0255862
978.472 .0255930
979.083 .0255988
979.693 .0256036
980.303 .0256075
980.912 .0256094
981.521 .0256114
982.130 .0256129
982.738 .0256137
983.346 .0256139
983.954 .0256136
984.562 .0256128
985.169 .0256115
985.775 .0256100
986.382 .0256083
986.988 .0256065
987.594 .0256049
988.199 .0256035
988.804 .0256024
989.409 .0256029
990.013 .0256025
990.617 .0256024
991.221 .0256025
991.824 .0256028
992.427 .0256033
993.030 .0256040
993.632 .0256048
994.234 .0256058
994.836 .0256070
995.438 .0256083
996.039 .0256098
996.640 .0256115
997.240 .0256135
997.840 .0256155
998.440 .0256176
999.040 .0256198
999.639 .0256218
1000.238 .0256238
1000.836 .0256256
1001.435 .0256272
1002.033 .0256285
1002.630 .0256294
1003.228 .0256299
1003.825 .0256299
1004.422 .0256293
1005.018 .0256281
1005.614 .0256262
1006.210 .0256235
1006.806 .0256200
1007.401 .0256156
1007.996 .0256103
1008.591 .0256041
1009.186 .0255972
1009.780 .0255896
1010.374 .0255815
1010.967 .0255729
1011.561 .0255640
1012.154 .0255547
1012.746 .0255453
1013.339 .0255358
1013.931 .0255261
1014.523 .0255163
1015.115 .0255063
1015.706 .0254963
1016.298 .0254861
1016.888 .0254758
1017.479 .0254656
1018.069 .0254555
1018.660 .0254454
1019.250 .0254355
1019.839 .0254257
1020.429 .0254160
1021.018 .0254064
1021.607 .0253967
1022.195 .0253870
1022.784 .0253771
1023.372 .0253673
1023.960 .0253576
1024.547 .0253480
1025.135 .0253386
1025.722 .0253294
1026.309 .0253204
1026.896 .0253114
1027.483 .0253024
1028.069 .0252933
1028.655 .0252839
1029.241 .0252742
1029.827 .0252642
1030.412 .0252538
1030.997 .0252431
1031.582 .0252322
1032.167 .0252209
1032.752 .0252094
1033.336 .0251975
1033.921 .0251853
1034.505 .0251725
1035.089 .0251590
1035.672 .0251450
1036.256 .0251304
1036.839 .0251153
1037.422 .0250997
1038.005 .0250837
1038.588 .0250674
1039.171 .0250509
1039.753 .0250342
1040.335 .0250171
1040.918 .0249998
1041.500 .0249820
1042.081 .0249638
1042.663 .0249451
1043.244 .0249262
1043.826 .0249071
1044.407 .0248878
1044.988 .0248685
1045.569 .0248493
1046.150 .0248300
1046.730 .0248107
1047.311 .0247914
1047.891 .0247720
1048.471 .0247524
1049.052 .0247328
1049.632 .0247132
1050.211 .0246937
1050.791 .0246745
1051.371 .0246556
1051.950 .0246371
1052.530 .0246192
1053.109 .0246018
1053.688 .0245850
1054.268 .0245686
1054.847 .0245529
1055.426 .0245376
1056.005 .0245228
1056.583 .0245085
1057.162 .0244949
1057.741 .0244817
1058.319 .0244691
1058.898 .0244568
1059.476 .0244450
1060.055 .0244335
1060.633 .0244222
1061.211 .0244111
1061.790 .0244002
1062.368 .0243894
1062.946 .0243787
1063.524 .0243682
1064.102 .0243579
1064.680 .0243477
1065.258 .0243377
1065.836 .0243279
1066.414 .0243181
1066.992 .0243086
1067.570 .0242992
1068.148 .0242901
1068.726 .0242812
1069.304 .0242727
1069.882 .0242644
1070.460 .0242565
1071.038 .0242487
1071.616 .0242412
1072.194 .0242339
1072.772 .0242267
1073.350 .0242197
1073.928 .0242130
1074.506 .0242068
1075.084 .0242011
1075.662 .0241962
1076.240 .0241922
1076.819 .0241890
1077.397 .0241866
1077.976 .0241850
1078.554 .0241842
1079.133 .0241842
1079.711 .0241851
1080.290 .0241869
1080.869 .0241898
1081.448 .0241938
1082.027 .0241991
1082.606 .0242055
1083.185 .0242130
1083.764 .0242215
1084.343 .0242307
1084.923 .0242405
1085.502 .0242507
1086.082 .0242613
1086.662 .0242725
1087.242 .0242844
1087.822 .0242973
1088.402 .0243113
1088.983 .0243266
1089.563 .0243431
1090.144 .0243609
1090.725 .0243798
1091.306 .0243997
1091.887 .0244205
1092.469 .0244419
1093.050 .0244639
1093.632 .0244867
1094.214 .0245102
1094.796 .0245348
1095.379 .0245603
1095.961 .0245870
1096.544 .0246145
1097.127 .0246428
1097.710 .0246715
1098.294 .0247005
1098.877 .0247297
1099.461 .0247588
1100.046 .0247881
1100.630 .0248177
1101.215 .0248477
1101.800 .0248786
1102.385 .0249104
1102.970 .0249432
1103.556 .0249769
1104.142 .0250114
1104.728 .0250466
1105.315 .0250824
1105.902 .0251186
1106.489 .0251554
1107.077 .0251929
1107.664 .0252314
1108.253 .0252711
1108.841 .0253119
1109.430 .0253541
1110.019 .0253976
1110.609 .0254421
1111.198 .0254875
1111.789 .0255337
1112.379 .0255805
1112.970 .0256280
1113.561 .0256764
1114.153 .0257258
1114.745 .0257765
1115.338 .0258286
1115.931 .0258823
1116.524 .0259374
1117.117 .0259937
1117.712 .0260508
1118.306 .0261085
1118.901 .0261666
1119.496 .0262252
1120.092 .0262842
1120.689 .0263438
1121.285 .0264044
1121.882 .0264661
1122.480 .0265290
1123.078 .0265932
1123.677 .0266586
1124.276 .0267251
1124.875 .0267927
1125.476 .0268614
1126.076 .0269313
1126.677 .0270030
1127.279 .0270769
1127.881 .0271535
1128.484 .0272337
1129.087 .0272674
1129.691 .0273521
1130.295 .0274409
1130.900 .0275338
1131.505 .0276311
1132.111 .0277330
1132.718 .0278395
1133.325 .0279518
1133.933 .0280697
1134.541 .0281967
1135.150 .0283318
1135.760 .0284638
1136.370 .0286224
1136.981 .0285511
1137.592 .0287197
1138.204 .0288933
1138.817 .0290717
1139.431 .0292601
1140.045 .0294570
1140.660 .0296573
1141.275 .0298839
1141.891 .0301063
1142.508 .0304204
1143.126 .0306978
1143.744 .0306607
1144.363 .0314500
1144.983 .0311117
