Measurement Sequence started on: 15-12-46-377
Integration time: 28
Scans to Average: 2 
>>>>>Begin Spectral Data<<<<<
432.689 .0000100
433.621 .0000100
434.552 .0000100
435.482 .0000100
436.410 .0000100
437.337 .0000100
438.262 .0281461
439.187 .0597092
440.110 .0989374
441.031 .1432424
441.952 .1155934
442.871 .1208287
443.789 .1257134
444.705 .1303204
445.621 .1346993
446.535 .1388876
447.447 .1414313
448.359 .1421710
449.269 .1407214
450.178 .1368294
451.086 .1305694
451.993 .1224301
452.898 .1132208
453.803 .1038621
454.706 .0951394
455.608 .0875408
456.508 .0812339
457.408 .0769460
458.306 .0736357
459.204 .0709268
460.100 .0686338
460.995 .0666533
461.888 .0649145
462.781 .0633704
463.673 .0619865
464.563 .0607384
465.452 .0596082
466.340 .0585805
467.228 .0576436
468.114 .0567889
468.999 .0560077
469.882 .0552924
470.765 .0546362
471.647 .0540329
472.528 .0534782
473.407 .0529670
474.286 .0524965
475.163 .0520647
476.040 .0516706
476.915 .0513129
477.790 .0509905
478.663 .0507021
479.535 .0504460
480.407 .0502201
481.277 .0500217
482.147 .0498480
483.015 .0496966
483.883 .0495655
484.749 .0494534
485.615 .0493597
486.479 .0492845
487.343 .0492280
488.206 .0491913
489.067 .0491739
489.928 .0491760
490.788 .0491968
491.647 .0492358
492.505 .0492928
493.362 .0493676
494.218 .0494605
495.073 .0495724
495.928 .0498156
496.781 .0499839
497.634 .0501763
498.486 .0503949
499.337 .0506419
500.187 .0509199
501.036 .0512319
501.884 .0515813
502.731 .0519730
503.578 .0524120
504.424 .0527352
505.268 .0532637
506.113 .0538520
506.956 .0545048
507.798 .0552278
508.640 .0560292
509.480 .0569192
510.320 .0579094
511.160 .0590134
511.998 .0602479
512.836 .0616309
513.672 .0631810
514.508 .0649178
515.344 .0668619
516.178 .0690332
517.012 .0714512
517.845 .0741352
518.677 .0771046
519.508 .0803795
520.339 .0839697
521.169 .0878811
521.998 .0920932
522.826 .0965725
523.654 .1012625
524.481 .1060906
525.307 .1109692
526.133 .1157964
526.958 .1204666
527.782 .1248787
528.605 .1289390
529.428 .1325695
530.250 .1357010
531.072 .1382910
531.892 .1403036
532.712 .1417172
533.532 .1425191
534.350 .1427085
535.168 .1422910
535.986 .1412732
536.802 .1396573
537.618 .1374549
538.434 .1346793
539.249 .1313686
540.063 .1275710
540.876 .1233554
541.689 .1188047
542.501 .1140139
543.313 .1090858
544.124 .1041246
544.934 .0992263
545.744 .0944766
546.553 .0899422
547.361 .0856784
548.169 .0817133
548.976 .0780671
549.783 .0747441
550.589 .0717389
551.395 .0690336
552.200 .0666031
553.004 .0644200
553.808 .0624590
554.611 .0606944
555.414 .0591021
556.216 .0576602
557.018 .0563488
557.819 .0551511
558.619 .0540515
559.419 .0530368
560.218 .0520978
561.017 .0512245
561.815 .0504090
562.613 .0496439
563.410 .0489226
564.207 .0482394
565.003 .0475885
565.799 .0469647
566.594 .0463637
567.388 .0457826
568.182 .0452192
568.976 .0446718
569.769 .0441392
570.562 .0436208
571.354 .0431162
572.145 .0426252
572.936 .0421476
573.727 .0416834
574.517 .0412327
575.307 .0407960
576.096 .0403734
576.885 .0399654
577.673 .0395725
578.461 .0391956
579.248 .0388353
580.035 .0384920
580.821 .0381658
581.607 .0378568
582.392 .0375650
583.177 .0372904
583.962 .0370325
584.746 .0367907
585.529 .0365647
586.313 .0363538
587.095 .0361575
587.878 .0359751
588.660 .0358062
589.441 .0356501
590.222 .0355060
591.003 .0353730
591.783 .0352503
592.563 .0351369
593.342 .0350320
594.121 .0349350
594.899 .0348449
595.678 .0347612
596.455 .0346832
597.233 .0346103
598.009 .0345422
598.786 .0344784
599.562 .0344183
600.338 .0343615
601.113 .0343075
601.888 .0342332
602.663 .0341841
603.437 .0341367
604.211 .0340907
604.984 .0340460
605.757 .0340022
606.530 .0339593
607.302 .0339172
608.074 .0338759
608.845 .0338354
609.616 .0337956
610.387 .0337776
611.158 .0337391
611.928 .0337013
612.697 .0336643
613.467 .0336282
614.236 .0335928
615.004 .0335581
615.773 .0335241
616.541 .0334908
617.308 .0334581
618.076 .0334259
618.843 .0333943
619.609 .0333632
620.375 .0333326
621.141 .0333024
621.907 .0332726
622.672 .0332430
623.437 .0332137
624.202 .0331844
624.966 .0331551
625.730 .0331258
626.493 .0330963
627.257 .0330667
628.020 .0330370
628.782 .0330073
629.545 .0329776
630.307 .0329479
631.068 .0329183
631.830 .0328888
632.591 .0328594
633.352 .0328300
634.112 .0328007
634.872 .0327715
635.632 .0327423
636.392 .0327133
637.151 .0326843
637.910 .0326555
638.668 .0326270
639.427 .0325987
640.185 .0325708
640.943 .0325433
641.700 .0325162
642.457 .0324896
643.214 .0324634
643.971 .0324376
644.727 .0324121
645.483 .0323868
646.239 .0323615
646.994 .0323364
647.750 .0323112
648.505 .0322859
649.259 .0322606
650.014 .0322354
650.768 .0322101
651.521 .0321849
652.275 .0321596
653.028 .0321343
653.781 .0321088
654.534 .0320829
655.286 .0320566
656.039 .0320298
656.791 .0320025
657.542 .0319747
658.294 .0319465
659.045 .0319179
659.796 .0318891
660.546 .0318602
661.297 .0318312
662.047 .0318021
662.796 .0317731
663.546 .0317439
664.295 .0317148
665.044 .0316855
665.793 .0316562
666.542 .0316269
667.290 .0315976
668.038 .0315684
668.786 .0315394
669.533 .0315109
670.281 .0314828
671.028 .0314554
671.774 .0314285
672.521 .0314023
673.267 .0313766
674.013 .0313513
674.759 .0313265
675.505 .0313020
676.250 .0312778
676.995 .0312538
677.740 .0312301
678.484 .0312067
679.229 .0311837
679.973 .0311609
680.717 .0311386
681.460 .0311165
682.204 .0310947
682.947 .0310731
683.690 .0310515
684.433 .0310298
685.175 .0310080
685.917 .0309860
686.659 .0309639
687.401 .0309416
688.142 .0309191
688.884 .0308965
689.625 .0308738
690.365 .0308511
691.106 .0308284
691.846 .0308055
692.586 .0307826
693.326 .0307596
694.066 .0307365
694.805 .0307133
695.545 .0306902
696.284 .0306672
697.022 .0306444
697.761 .0306218
698.499 .0305995
699.237 .0305777
699.975 .0305563
700.713 .0305354
701.450 .0305151
702.187 .0304952
702.924 .0304759
703.661 .0304570
704.397 .0304387
705.133 .0304208
705.869 .0304033
706.605 .0303863
707.341 .0303696
708.076 .0303532
708.811 .0303372
709.546 .0303215
710.281 .0303061
711.015 .0302908
711.749 .0302757
712.483 .0302607
713.217 .0302457
713.950 .0302307
714.684 .0302156
715.417 .0302005
716.150 .0301852
716.882 .0301699
717.615 .0301545
718.347 .0301390
719.079 .0301233
719.811 .0301076
720.542 .0300917
721.273 .0300757
722.005 .0300596
722.735 .0300435
723.466 .0300274
724.196 .0300114
724.927 .0299956
725.656 .0299801
726.386 .0299650
727.116 .0299501
727.845 .0299357
728.574 .0299215
729.303 .0299076
730.031 .0298939
730.760 .0298804
731.488 .0298671
732.216 .0298539
732.944 .0298408
733.671 .0298278
734.398 .0298149
735.125 .0298020
735.852 .0297891
736.579 .0297761
737.305 .0297631
738.031 .0297499
738.757 .0297365
739.483 .0297228
740.208 .0297087
740.933 .0296941
741.658 .0296791
742.383 .0296635
743.108 .0296475
743.832 .0296309
744.556 .0296140
745.280 .0295966
746.004 .0295788
746.727 .0295607
747.450 .0295421
748.173 .0295232
748.896 .0295039
749.618 .0294843
750.340 .0294644
751.062 .0294442
751.784 .0294238
752.506 .0294032
753.227 .0293825
753.948 .0293616
754.669 .0293406
755.389 .0293196
756.110 .0292986
756.830 .0292776
757.550 .0292568
758.269 .0292362
758.989 .0292158
759.708 .0291957
760.427 .0291758
761.146 .0291561
761.864 .0291366
762.582 .0291172
763.300 .0290979
764.018 .0290788
764.736 .0290598
765.453 .0290411
766.170 .0290227
766.887 .0290046
767.603 .0289870
768.320 .0289697
769.036 .0289528
769.751 .0289363
770.467 .0289201
771.182 .0289044
771.897 .0288890
772.612 .0288740
773.327 .0288595
774.041 .0288454
774.755 .0288318
775.469 .0288187
776.183 .0288062
776.896 .0287943
777.609 .0287830
778.322 .0287723
779.035 .0287624
779.747 .0287532
780.459 .0287446
781.171 .0287368
781.882 .0287296
782.594 .0287229
783.305 .0287167
784.016 .0287110
784.726 .0287057
785.436 .0287007
786.147 .0286945
786.856 .0286902
787.566 .0286861
788.275 .0286823
788.984 .0286787
789.693 .0286752
790.401 .0286719
791.110 .0286685
791.818 .0286650
792.525 .0286615
793.233 .0286578
793.940 .0286541
794.647 .0286518
795.353 .0286479
796.060 .0286439
796.766 .0286399
797.472 .0286358
798.177 .0286316
798.883 .0286273
799.588 .0286229
800.292 .0286184
800.997 .0286137
801.701 .0286090
802.405 .0286042
803.109 .0285993
803.812 .0285943
804.515 .0285893
805.218 .0285841
805.921 .0285788
806.623 .0285733
807.325 .0285677
808.027 .0285619
808.728 .0285560
809.429 .0285500
810.130 .0285439
810.831 .0285378
811.531 .0285316
812.231 .0285253
812.931 .0285189
813.630 .0285124
814.330 .0285058
815.029 .0284990
815.727 .0284922
816.426 .0284853
817.124 .0284784
817.821 .0284714
818.519 .0284644
819.216 .0284575
819.913 .0284505
820.609 .0284435
821.306 .0284365
822.002 .0284296
822.697 .0284227
823.393 .0284158
824.088 .0284090
824.783 .0284022
825.477 .0283954
826.171 .0283886
826.865 .0283818
827.559 .0283748
828.252 .0283677
828.945 .0283603
829.638 .0283527
830.330 .0283449
831.023 .0283368
831.714 .0283283
832.406 .0283195
833.097 .0283102
833.788 .0283005
834.479 .0282904
835.169 .0282798
835.859 .0282686
836.548 .0282570
837.238 .0282449
837.927 .0282323
838.615 .0282192
839.304 .0282056
839.992 .0281915
840.680 .0281769
841.367 .0281617
842.054 .0281460
842.741 .0281298
843.428 .0281128
844.114 .0280953
844.800 .0280770
845.485 .0280580
846.170 .0280382
846.855 .0280178
847.540 .0279967
848.224 .0279751
848.908 .0279529
849.592 .0279303
850.275 .0279072
850.958 .0278837
851.641 .0278599
852.323 .0278358
853.005 .0278114
853.687 .0277868
854.368 .0277621
855.049 .0277373
855.730 .0277126
856.410 .0276881
857.090 .0276638
857.769 .0276398
858.449 .0276161
859.128 .0275927
859.806 .0275698
860.485 .0275474
861.163 .0275255
861.840 .0275042
862.518 .0274836
863.195 .0274636
863.871 .0274442
864.548 .0274255
865.224 .0274074
865.899 .0273897
866.574 .0273726
867.249 .0273558
867.924 .0273395
868.598 .0273236
869.272 .0273081
869.946 .0272930
870.619 .0272782
871.292 .0272637
871.964 .0272494
872.636 .0272352
873.308 .0272210
873.979 .0272068
874.651 .0271926
875.321 .0271785
875.992 .0271644
876.662 .0271505
877.331 .0271369
878.001 .0271236
878.670 .0271107
879.338 .0270983
880.007 .0270863
880.675 .0270748
881.342 .0270638
882.009 .0270534
882.676 .0270436
883.343 .0270344
884.009 .0270259
884.675 .0270183
885.340 .0270114
886.005 .0270055
886.670 .0270003
887.334 .0269960
887.998 .0269924
888.662 .0269897
889.325 .0269877
889.988 .0269865
890.650 .0269860
891.312 .0269861
891.974 .0269870
892.636 .0269884
893.297 .0269902
893.957 .0269924
894.618 .0269948
895.278 .0269974
895.937 .0270001
896.596 .0270028
897.255 .0270054
897.914 .0270080
898.572 .0270104
899.230 .0270126
899.887 .0270145
900.544 .0270161
901.201 .0270172
901.857 .0270165
902.513 .0270163
903.168 .0270155
903.823 .0270142
904.478 .0270124
905.132 .0270101
905.786 .0270073
906.440 .0270041
907.093 .0270004
907.746 .0269963
908.399 .0269918
909.051 .0269869
909.703 .0269818
910.354 .0269787
911.005 .0269734
911.656 .0269680
912.306 .0269624
912.956 .0269568
913.605 .0269510
914.254 .0269452
914.903 .0269393
915.551 .0269332
916.199 .0269270
916.847 .0269207
917.494 .0269144
918.141 .0269079
918.788 .0269014
919.434 .0268947
920.079 .0268879
920.725 .0268809
921.370 .0268737
922.014 .0268663
922.658 .0268587
923.302 .0268508
923.946 .0268427
924.589 .0268344
925.231 .0268259
925.873 .0268172
926.515 .0268083
927.157 .0267991
927.798 .0267897
928.439 .0267802
929.079 .0267704
929.719 .0267604
930.359 .0267503
930.998 .0267401
931.637 .0267300
932.275 .0267199
932.913 .0267099
933.551 .0267001
934.188 .0266905
934.825 .0266811
935.462 .0266719
936.098 .0266630
936.733 .0266543
937.369 .0266460
938.004 .0266380
938.638 .0266303
939.273 .0266231
939.907 .0266163
940.540 .0266098
941.173 .0266037
941.806 .0265978
942.438 .0265921
943.070 .0265865
943.702 .0265809
944.333 .0265754
944.964 .0265698
945.594 .0265642
946.224 .0265584
946.854 .0265526
947.483 .0265465
948.112 .0265401
948.741 .0265334
949.369 .0265263
949.996 .0265187
950.624 .0265105
951.251 .0265018
951.878 .0264925
952.504 .0264826
953.130 .0264721
953.755 .0264611
954.380 .0264495
955.005 .0264374
955.629 .0264246
956.253 .0264112
956.877 .0263972
957.500 .0263826
958.123 .0263673
958.746 .0263516
959.368 .0263355
959.990 .0263191
960.611 .0263024
961.232 .0262854
961.853 .0262683
962.473 .0262509
963.093 .0262332
963.712 .0262153
964.331 .0261972
964.950 .0261788
965.569 .0261603
966.187 .0261417
966.804 .0261231
967.422 .0261045
968.039 .0260860
968.655 .0260673
969.272 .0260486
969.887 .0260298
970.503 .0260108
971.118 .0259916
971.733 .0259722
972.347 .0259525
972.961 .0259327
973.575 .0259126
974.188 .0258923
974.801 .0258717
975.414 .0258508
976.026 .0258295
976.638 .0258077
977.250 .0257855
977.861 .0257629
978.472 .0257398
979.083 .0257163
979.693 .0256926
980.303 .0256687
980.912 .0256321
981.521 .0256082
982.130 .0255844
982.738 .0255605
983.346 .0255368
983.954 .0255132
984.562 .0254898
985.169 .0254666
985.775 .0254438
986.382 .0254214
986.988 .0253995
987.594 .0253782
988.199 .0253575
988.804 .0253374
989.409 .0253296
990.013 .0253105
990.617 .0252919
991.221 .0252740
991.824 .0252567
992.427 .0252401
993.030 .0252241
993.632 .0252089
994.234 .0251944
994.836 .0251806
995.438 .0251675
996.039 .0251552
996.640 .0251434
997.240 .0251323
997.840 .0251219
998.440 .0251120
999.040 .0251026
999.639 .0250936
1000.238 .0250849
1000.836 .0250765
1001.435 .0250682
1002.033 .0250601
1002.630 .0250520
1003.228 .0250439
1003.825 .0250359
1004.422 .0250279
1005.018 .0250199
1005.614 .0250119
1006.210 .0250039
1006.806 .0249958
1007.401 .0249878
1007.996 .0249797
1008.591 .0249715
1009.186 .0249634
1009.780 .0249553
1010.374 .0249474
1010.967 .0249397
1011.561 .0249322
1012.154 .0249251
1012.746 .0249182
1013.339 .0249117
1013.931 .0249056
1014.523 .0248998
1015.115 .0248943
1015.706 .0248892
1016.298 .0248846
1016.888 .0248805
1017.479 .0248771
1018.069 .0248744
1018.660 .0248725
1019.250 .0248714
1019.839 .0248712
1020.429 .0248719
1021.018 .0248734
1021.607 .0248757
1022.195 .0248789
1022.784 .0248831
1023.372 .0248882
1023.960 .0248943
1024.547 .0249015
1025.135 .0249096
1025.722 .0249187
1026.309 .0249287
1026.896 .0249395
1027.483 .0249509
1028.069 .0249630
1028.655 .0249755
1029.241 .0249884
1029.827 .0250018
1030.412 .0250155
1030.997 .0250296
1031.582 .0250441
1032.167 .0250588
1032.752 .0250738
1033.336 .0250888
1033.921 .0251037
1034.505 .0251186
1035.089 .0251333
1035.672 .0251478
1036.256 .0251621
1036.839 .0251762
1037.422 .0251903
1038.005 .0252041
1038.588 .0252179
1039.171 .0252314
1039.753 .0252447
1040.335 .0252576
1040.918 .0252702
1041.500 .0252824
1042.081 .0252942
1042.663 .0253056
1043.244 .0253168
1043.826 .0253277
1044.407 .0253385
1044.988 .0253493
1045.569 .0253600
1046.150 .0253707
1046.730 .0253813
1047.311 .0253918
1047.891 .0254022
1048.471 .0254126
1049.052 .0254228
1049.632 .0254331
1050.211 .0254433
1050.791 .0254537
1051.371 .0254642
1051.950 .0254750
1052.530 .0254859
1053.109 .0254970
1053.688 .0255082
1054.268 .0255196
1054.847 .0255311
1055.426 .0255427
1056.005 .0255544
1056.583 .0255662
1057.162 .0255780
1057.741 .0255900
1058.319 .0256021
1058.898 .0256144
1059.476 .0256269
1060.055 .0256398
1060.633 .0256529
1061.211 .0256663
1061.790 .0256800
1062.368 .0256941
1062.946 .0257084
1063.524 .0257229
1064.102 .0257376
1064.680 .0257524
1065.258 .0257674
1065.836 .0257824
1066.414 .0257977
1066.992 .0258131
1067.570 .0258288
1068.148 .0258447
1068.726 .0258609
1069.304 .0258775
1069.882 .0258945
1070.460 .0259120
1071.038 .0259298
1071.616 .0259479
1072.194 .0259663
1072.772 .0259850
1073.350 .0260040
1073.928 .0260232
1074.506 .0260426
1075.084 .0260621
1075.662 .0260816
1076.240 .0261013
1076.819 .0261209
1077.397 .0261406
1077.976 .0261601
1078.554 .0261794
1079.133 .0261983
1079.711 .0262168
1080.290 .0262348
1080.869 .0262522
1081.448 .0262690
1082.027 .0262854
1082.606 .0263012
1083.185 .0263166
1083.764 .0263318
1084.343 .0263467
1084.923 .0263616
1085.502 .0263763
1086.082 .0263910
1086.662 .0264056
1087.242 .0264201
1087.822 .0264344
1088.402 .0264487
1088.983 .0264629
1089.563 .0264771
1090.144 .0264913
1090.725 .0265057
1091.306 .0265204
1091.887 .0265356
1092.469 .0265513
1093.050 .0265675
1093.632 .0265843
1094.214 .0266017
1094.796 .0266193
1095.379 .0266372
1095.961 .0266553
1096.544 .0266735
1097.127 .0266917
1097.710 .0267099
1098.294 .0267282
1098.877 .0267465
1099.461 .0267649
1100.046 .0267834
1100.630 .0268018
1101.215 .0268199
1101.800 .0268375
1102.385 .0268545
1102.970 .0268708
1103.556 .0268865
1104.142 .0269016
1104.728 .0269162
1105.315 .0269305
1105.902 .0269447
1106.489 .0269591
1107.077 .0269739
1107.664 .0269893
1108.253 .0270054
1108.841 .0270222
1109.430 .0270398
1110.019 .0270580
1110.609 .0270771
1111.198 .0270969
1111.789 .0271177
1112.379 .0271395
1112.970 .0271624
1113.561 .0271865
1114.153 .0272120
1114.745 .0272392
1115.338 .0272682
1115.931 .0272988
1116.524 .0273310
1117.117 .0273645
1117.712 .0273992
1118.306 .0274350
1118.901 .0274719
1119.496 .0275098
1120.092 .0275489
1120.689 .0275890
1121.285 .0276303
1121.882 .0276729
1122.480 .0277170
1123.078 .0277627
1123.677 .0278098
1124.276 .0278583
1124.875 .0279083
1125.476 .0279596
1126.076 .0280125
1126.677 .0280667
1127.279 .0281225
1127.881 .0281798
1128.484 .0282387
1129.087 .0282635
1129.691 .0283245
1130.295 .0283876
1130.900 .0284532
1131.505 .0285214
1132.111 .0285924
1132.718 .0286660
1133.325 .0287425
1133.933 .0288227
1134.541 .0289058
1135.150 .0289957
1135.760 .0290787
1136.370 .0291743
1136.981 .0292006
1137.592 .0293039
1138.204 .0294123
1138.817 .0295272
1139.431 .0296449
1140.045 .0297730
1140.660 .0298984
1141.275 .0300315
1141.891 .0301855
1142.508 .0303081
1143.126 .0305414
1143.744 .0303870
1144.363 .0307718
1144.983 .0314228
