Measurement Sequence started on: 15-12-46-377
Integration time: 28
Scans to Average: 2 
>>>>>Begin Spectral Data<<<<<
432.689 .0000100
433.621 .0000100
434.552 .0000100
435.482 .0000100
436.410 .0000100
437.337 .0000100
438.262 .0274347
439.187 .0582622
440.110 .0966508
441.031 .1400838
441.952 .1131156
442.871 .1181930
443.789 .1229274
444.705 .1273960
445.621 .1316502
446.535 .1357285
447.447 .1382129
448.359 .1389442
449.269 .1375403
450.178 .1337479
451.086 .1276377
451.993 .1196836
452.898 .1106770
453.803 .1015213
454.706 .0929872
455.608 .0855586
456.508 .0794034
457.408 .0752316
458.306 .0720291
459.204 .0694246
460.100 .0672304
460.995 .0653382
461.888 .0636741
462.781 .0621900
463.673 .0608507
464.563 .0596337
465.452 .0585220
466.340 .0575018
467.228 .0565637
468.114 .0556996
468.999 .0549038
469.882 .0541705
470.765 .0534946
471.647 .0528739
472.528 .0523059
473.407 .0517878
474.286 .0513179
475.163 .0508940
476.040 .0505133
476.915 .0501740
477.790 .0498727
478.663 .0496069
479.535 .0493745
480.407 .0491732
481.277 .0490013
482.147 .0488570
483.015 .0487393
483.883 .0486465
484.749 .0485775
485.615 .0485316
486.479 .0485072
487.343 .0485038
488.206 .0485212
489.067 .0485583
489.928 .0486156
490.788 .0486932
491.647 .0487912
492.505 .0489098
493.362 .0490496
494.218 .0492109
495.073 .0493938
495.928 .0497445
496.781 .0499797
497.634 .0502351
498.486 .0505099
499.337 .0508036
500.187 .0511168
501.036 .0514503
501.884 .0518059
502.731 .0521877
503.578 .0526000
504.424 .0528669
505.268 .0533461
506.113 .0538745
506.956 .0544583
507.798 .0551054
508.640 .0558251
509.480 .0566274
510.320 .0575249
511.160 .0585314
511.998 .0596640
512.836 .0609422
513.672 .0623871
514.508 .0640221
515.344 .0658713
516.178 .0679567
517.012 .0703019
517.845 .0729267
518.677 .0758476
519.508 .0790753
520.339 .0826136
521.169 .0864594
521.998 .0905847
522.826 .0949500
523.654 .0994986
524.481 .1041575
525.307 .1088453
526.133 .1134654
526.958 .1179188
527.782 .1221100
528.605 .1259489
529.428 .1293583
530.250 .1322729
531.072 .1346498
531.892 .1364553
532.712 .1376695
533.532 .1382869
534.350 .1383061
535.168 .1377347
535.986 .1365842
536.802 .1348670
537.618 .1325987
538.434 .1297976
539.249 .1265047
540.063 .1227712
540.876 .1186614
541.689 .1142541
542.501 .1096351
543.313 .1048999
544.124 .1001462
544.934 .0954646
545.744 .0909368
546.553 .0866300
547.361 .0825948
548.169 .0788572
548.976 .0754327
549.783 .0723212
550.589 .0695100
551.395 .0669796
552.200 .0647045
553.004 .0626580
553.808 .0608156
554.611 .0591546
555.414 .0576556
556.216 .0562992
557.018 .0550668
557.819 .0539424
558.619 .0529120
559.419 .0519631
560.218 .0510864
561.017 .0502730
561.815 .0495148
562.613 .0488055
563.410 .0481377
564.207 .0475055
565.003 .0469038
565.799 .0463276
566.594 .0457722
567.388 .0452340
568.182 .0447106
568.976 .0441993
569.769 .0436987
570.562 .0432083
571.354 .0427280
572.145 .0422580
572.936 .0417984
573.727 .0413495
574.517 .0409118
575.307 .0404863
576.096 .0400729
576.885 .0396727
577.673 .0392862
578.461 .0389140
579.248 .0385567
580.035 .0382152
580.821 .0378903
581.607 .0375827
582.392 .0372926
583.177 .0370204
583.962 .0367661
584.746 .0365290
585.529 .0363082
586.313 .0361028
587.095 .0359114
587.878 .0357328
588.660 .0355660
589.441 .0354105
590.222 .0352657
591.003 .0351314
591.783 .0350071
592.563 .0348925
593.342 .0347867
594.121 .0346892
594.899 .0345988
595.678 .0345146
596.455 .0344358
597.233 .0343615
598.009 .0342911
598.786 .0342243
599.562 .0341609
600.338 .0341007
601.113 .0340436
601.888 .0339683
602.663 .0339187
603.437 .0338718
604.211 .0338277
604.984 .0337860
605.757 .0337466
606.530 .0337092
607.302 .0336736
608.074 .0336398
608.845 .0336076
609.616 .0335770
610.387 .0335658
611.158 .0335371
611.928 .0335097
612.697 .0334835
613.467 .0334583
614.236 .0334339
615.004 .0334103
615.773 .0333872
616.541 .0333643
617.308 .0333414
618.076 .0333183
618.843 .0332950
619.609 .0332712
620.375 .0332470
621.141 .0332223
621.907 .0331970
622.672 .0331710
623.437 .0331444
624.202 .0331170
624.966 .0330888
625.730 .0330598
626.493 .0330301
627.257 .0329995
628.020 .0329682
628.782 .0329361
629.545 .0329033
630.307 .0328700
631.068 .0328360
631.830 .0328016
632.591 .0327667
633.352 .0327314
634.112 .0326959
634.872 .0326602
635.632 .0326245
636.392 .0325888
637.151 .0325531
637.910 .0325174
638.668 .0324819
639.427 .0324464
640.185 .0324110
640.943 .0323760
641.700 .0323412
642.457 .0323068
643.214 .0322729
643.971 .0322395
644.727 .0322067
645.483 .0321744
646.239 .0321426
646.994 .0321113
647.750 .0320805
648.505 .0320501
649.259 .0320203
650.014 .0319911
650.768 .0319624
651.521 .0319344
652.275 .0319069
653.028 .0318800
653.781 .0318536
654.534 .0318276
655.286 .0318020
656.039 .0317767
656.791 .0317518
657.542 .0317272
658.294 .0317030
659.045 .0316791
659.796 .0316556
660.546 .0316324
661.297 .0316095
662.047 .0315869
662.796 .0315646
663.546 .0315425
664.295 .0315207
665.044 .0314993
665.793 .0314783
666.542 .0314577
667.290 .0314374
668.038 .0314175
668.786 .0313979
669.533 .0313784
670.281 .0313590
671.028 .0313397
671.774 .0313205
672.521 .0313013
673.267 .0312822
674.013 .0312633
674.759 .0312444
675.505 .0312255
676.250 .0312068
676.995 .0311880
677.740 .0311693
678.484 .0311505
679.229 .0311318
679.973 .0311132
680.717 .0310946
681.460 .0310761
682.204 .0310577
682.947 .0310394
683.690 .0310213
684.433 .0310032
685.175 .0309852
685.917 .0309674
686.659 .0309497
687.401 .0309323
688.142 .0309151
688.884 .0308981
689.625 .0308813
690.365 .0308645
691.106 .0308477
691.846 .0308309
692.586 .0308140
693.326 .0307970
694.066 .0307798
694.805 .0307625
695.545 .0307451
696.284 .0307275
697.022 .0307098
697.761 .0306920
698.499 .0306740
699.237 .0306558
699.975 .0306376
700.713 .0306192
701.450 .0306006
702.187 .0305820
702.924 .0305632
703.661 .0305443
704.397 .0305252
705.133 .0305061
705.869 .0304869
706.605 .0304677
707.341 .0304485
708.076 .0304293
708.811 .0304101
709.546 .0303910
710.281 .0303717
711.015 .0303523
711.749 .0303326
712.483 .0303125
713.217 .0302921
713.950 .0302714
714.684 .0302503
715.417 .0302291
716.150 .0302075
716.882 .0301857
717.615 .0301637
718.347 .0301413
719.079 .0301186
719.811 .0300957
720.542 .0300725
721.273 .0300492
722.005 .0300259
722.735 .0300026
723.466 .0299795
724.196 .0299568
724.927 .0299345
725.656 .0299127
726.386 .0298915
727.116 .0298709
727.845 .0298509
728.574 .0298317
729.303 .0298133
730.031 .0297956
730.760 .0297789
731.488 .0297629
732.216 .0297476
732.944 .0297329
733.671 .0297189
734.398 .0297053
735.125 .0296923
735.852 .0296797
736.579 .0296674
737.305 .0296555
738.031 .0296438
738.757 .0296324
739.483 .0296211
740.208 .0296098
740.933 .0295984
741.658 .0295869
742.383 .0295752
743.108 .0295633
743.832 .0295512
744.556 .0295391
745.280 .0295269
746.004 .0295147
746.727 .0295025
747.450 .0294903
748.173 .0294781
748.896 .0294659
749.618 .0294536
750.340 .0294414
751.062 .0294293
751.784 .0294172
752.506 .0294052
753.227 .0293934
753.948 .0293817
754.669 .0293701
755.389 .0293587
756.110 .0293474
756.830 .0293361
757.550 .0293250
758.269 .0293138
758.989 .0293027
759.708 .0292917
760.427 .0292806
761.146 .0292694
761.864 .0292581
762.582 .0292467
763.300 .0292351
764.018 .0292234
764.736 .0292115
765.453 .0291995
766.170 .0291874
766.887 .0291754
767.603 .0291634
768.320 .0291515
769.036 .0291397
769.751 .0291279
770.467 .0291163
771.182 .0291049
771.897 .0290935
772.612 .0290823
773.327 .0290713
774.041 .0290605
774.755 .0290500
775.469 .0290398
776.183 .0290299
776.896 .0290203
777.609 .0290110
778.322 .0290020
779.035 .0289934
779.747 .0289850
780.459 .0289768
781.171 .0289688
781.882 .0289609
782.594 .0289531
783.305 .0289455
784.016 .0289379
784.726 .0289304
785.436 .0289229
786.147 .0289115
786.856 .0289038
787.566 .0288960
788.275 .0288880
788.984 .0288798
789.693 .0288713
790.401 .0288626
791.110 .0288536
791.818 .0288443
792.525 .0288348
793.233 .0288250
793.940 .0288148
794.647 .0288090
795.353 .0287984
796.060 .0287874
796.766 .0287760
797.472 .0287642
798.177 .0287519
798.883 .0287393
799.588 .0287262
800.292 .0287128
800.997 .0286990
801.701 .0286848
802.405 .0286703
803.109 .0286554
803.812 .0286401
804.515 .0286245
805.218 .0286085
805.921 .0285923
806.623 .0285758
807.325 .0285591
808.027 .0285422
808.728 .0285252
809.429 .0285082
810.130 .0284910
810.831 .0284739
811.531 .0284569
812.231 .0284400
812.931 .0284233
813.630 .0284069
814.330 .0283909
815.029 .0283753
815.727 .0283602
816.426 .0283457
817.124 .0283317
817.821 .0283181
818.519 .0283051
819.216 .0282926
819.913 .0282804
820.609 .0282687
821.306 .0282573
822.002 .0282464
822.697 .0282358
823.393 .0282256
824.088 .0282157
824.783 .0282061
825.477 .0281968
826.171 .0281875
826.865 .0281783
827.559 .0281691
828.252 .0281598
828.945 .0281506
829.638 .0281413
830.330 .0281321
831.023 .0281229
831.714 .0281138
832.406 .0281047
833.097 .0280958
833.788 .0280869
834.479 .0280782
835.169 .0280696
835.859 .0280613
836.548 .0280533
837.238 .0280457
837.927 .0280384
838.615 .0280313
839.304 .0280246
839.992 .0280180
840.680 .0280117
841.367 .0280054
842.054 .0279992
842.741 .0279930
843.428 .0279869
844.114 .0279808
844.800 .0279747
845.485 .0279683
846.170 .0279617
846.855 .0279548
847.540 .0279474
848.224 .0279396
848.908 .0279312
849.592 .0279224
850.275 .0279131
850.958 .0279035
851.641 .0278935
852.323 .0278831
853.005 .0278724
853.687 .0278615
854.368 .0278502
855.049 .0278388
855.730 .0278272
856.410 .0278155
857.090 .0278038
857.769 .0277922
858.449 .0277808
859.128 .0277696
859.806 .0277587
860.485 .0277480
861.163 .0277375
861.840 .0277273
862.518 .0277173
863.195 .0277076
863.871 .0276981
864.548 .0276889
865.224 .0276798
865.899 .0276710
866.574 .0276623
867.249 .0276537
867.924 .0276451
868.598 .0276365
869.272 .0276278
869.946 .0276189
870.619 .0276099
871.292 .0276008
871.964 .0275915
872.636 .0275820
873.308 .0275725
873.979 .0275629
874.651 .0275531
875.321 .0275433
875.992 .0275334
876.662 .0275235
877.331 .0275135
878.001 .0275035
878.670 .0274935
879.338 .0274837
880.007 .0274739
880.675 .0274643
881.342 .0274549
882.009 .0274459
882.676 .0274371
883.343 .0274286
884.009 .0274203
884.675 .0274123
885.340 .0274044
886.005 .0273967
886.670 .0273892
887.334 .0273818
887.998 .0273745
888.662 .0273672
889.325 .0273601
889.988 .0273530
890.650 .0273459
891.312 .0273389
891.974 .0273318
892.636 .0273247
893.297 .0273176
893.957 .0273104
894.618 .0273031
895.278 .0272957
895.937 .0272881
896.596 .0272803
897.255 .0272721
897.914 .0272637
898.572 .0272547
899.230 .0272453
899.887 .0272354
900.544 .0272250
901.201 .0272139
901.857 .0271949
902.513 .0271823
903.168 .0271692
903.823 .0271555
904.478 .0271412
905.132 .0271264
905.786 .0271109
906.440 .0270950
907.093 .0270786
907.746 .0270618
908.399 .0270448
909.051 .0270277
909.703 .0270105
910.354 .0270018
911.005 .0269849
911.656 .0269680
912.306 .0269512
912.956 .0269344
913.605 .0269178
914.254 .0269011
914.903 .0268846
915.551 .0268681
916.199 .0268517
916.847 .0268352
917.494 .0268187
918.141 .0268022
918.788 .0267855
919.434 .0267687
920.079 .0267518
920.725 .0267348
921.370 .0267176
922.014 .0267003
922.658 .0266828
923.302 .0266652
923.946 .0266473
924.589 .0266292
925.231 .0266107
925.873 .0265919
926.515 .0265728
927.157 .0265534
927.798 .0265336
928.439 .0265136
929.079 .0264935
929.719 .0264733
930.359 .0264530
930.998 .0264329
931.637 .0264129
932.275 .0263932
932.913 .0263739
933.551 .0263550
934.188 .0263367
934.825 .0263190
935.462 .0263020
936.098 .0262858
936.733 .0262704
937.369 .0262558
938.004 .0262420
938.638 .0262291
939.273 .0262170
939.907 .0262057
940.540 .0261953
941.173 .0261856
941.806 .0261767
942.438 .0261684
943.070 .0261608
943.702 .0261536
944.333 .0261468
944.964 .0261403
945.594 .0261340
946.224 .0261278
946.854 .0261217
947.483 .0261156
948.112 .0261093
948.741 .0261029
949.369 .0260963
949.996 .0260895
950.624 .0260823
951.251 .0260748
951.878 .0260670
952.504 .0260589
953.130 .0260505
953.755 .0260419
954.380 .0260330
955.005 .0260240
955.629 .0260147
956.253 .0260052
956.877 .0259957
957.500 .0259860
958.123 .0259763
958.746 .0259666
959.368 .0259571
959.990 .0259477
960.611 .0259385
961.232 .0259297
961.853 .0259211
962.473 .0259129
963.093 .0259051
963.712 .0258977
964.331 .0258907
964.950 .0258842
965.569 .0258783
966.187 .0258730
966.804 .0258682
967.422 .0258640
968.039 .0258604
968.655 .0258572
969.272 .0258546
969.887 .0258523
970.503 .0258504
971.118 .0258487
971.733 .0258472
972.347 .0258457
972.961 .0258443
973.575 .0258428
974.188 .0258412
974.801 .0258393
975.414 .0258372
976.026 .0258348
976.638 .0258320
977.250 .0258289
977.861 .0258253
978.472 .0258214
979.083 .0258169
979.693 .0258120
980.303 .0258067
980.912 .0257962
981.521 .0257899
982.130 .0257833
982.738 .0257764
983.346 .0257694
983.954 .0257622
984.562 .0257548
985.169 .0257473
985.775 .0257397
986.382 .0257321
986.988 .0257246
987.594 .0257171
988.199 .0257099
988.804 .0257029
989.409 .0257011
990.013 .0256950
990.617 .0256896
991.221 .0256847
991.824 .0256805
992.427 .0256769
993.030 .0256739
993.632 .0256715
994.234 .0256697
994.836 .0256685
995.438 .0256678
996.039 .0256677
996.640 .0256684
997.240 .0256696
997.840 .0256716
998.440 .0256742
999.040 .0256774
999.639 .0256811
1000.238 .0256852
1000.836 .0256895
1001.435 .0256941
1002.033 .0256989
1002.630 .0257038
1003.228 .0257088
1003.825 .0257139
1004.422 .0257191
1005.018 .0257242
1005.614 .0257293
1006.210 .0257342
1006.806 .0257389
1007.401 .0257433
1007.996 .0257474
1008.591 .0257512
1009.186 .0257547
1009.780 .0257580
1010.374 .0257610
1010.967 .0257639
1011.561 .0257666
1012.154 .0257691
1012.746 .0257715
1013.339 .0257737
1013.931 .0257756
1014.523 .0257774
1015.115 .0257789
1015.706 .0257801
1016.298 .0257812
1016.888 .0257822
1017.479 .0257831
1018.069 .0257840
1018.660 .0257849
1019.250 .0257859
1019.839 .0257870
1020.429 .0257882
1021.018 .0257895
1021.607 .0257909
1022.195 .0257924
1022.784 .0257940
1023.372 .0257959
1023.960 .0257979
1024.547 .0258003
1025.135 .0258031
1025.722 .0258061
1026.309 .0258095
1026.896 .0258132
1027.483 .0258171
1028.069 .0258212
1028.655 .0258253
1029.241 .0258295
1029.827 .0258336
1030.412 .0258376
1030.997 .0258416
1031.582 .0258455
1032.167 .0258494
1032.752 .0258532
1033.336 .0258570
1033.921 .0258606
1034.505 .0258640
1035.089 .0258672
1035.672 .0258700
1036.256 .0258725
1036.839 .0258745
1037.422 .0258762
1038.005 .0258775
1038.588 .0258785
1039.171 .0258791
1039.753 .0258794
1040.335 .0258794
1040.918 .0258789
1041.500 .0258780
1042.081 .0258766
1042.663 .0258746
1043.244 .0258722
1043.826 .0258692
1044.407 .0258659
1044.988 .0258622
1045.569 .0258584
1046.150 .0258543
1046.730 .0258501
1047.311 .0258459
1047.891 .0258414
1048.471 .0258368
1049.052 .0258321
1049.632 .0258272
1050.211 .0258222
1050.791 .0258171
1051.371 .0258121
1051.950 .0258071
1052.530 .0258023
1053.109 .0257976
1053.688 .0257929
1054.268 .0257884
1054.847 .0257840
1055.426 .0257797
1056.005 .0257755
1056.583 .0257714
1057.162 .0257673
1057.741 .0257633
1058.319 .0257593
1058.898 .0257553
1059.476 .0257513
1060.055 .0257471
1060.633 .0257427
1061.211 .0257380
1061.790 .0257330
1062.368 .0257277
1062.946 .0257222
1063.524 .0257164
1064.102 .0257104
1064.680 .0257039
1065.258 .0256971
1065.836 .0256899
1066.414 .0256820
1066.992 .0256735
1067.570 .0256643
1068.148 .0256545
1068.726 .0256443
1069.304 .0256337
1069.882 .0256230
1070.460 .0256124
1071.038 .0256018
1071.616 .0255914
1072.194 .0255811
1072.772 .0255708
1073.350 .0255606
1073.928 .0255503
1074.506 .0255401
1075.084 .0255300
1075.662 .0255202
1076.240 .0255108
1076.819 .0255020
1077.397 .0254939
1077.976 .0254864
1078.554 .0254797
1079.133 .0254737
1079.711 .0254682
1080.290 .0254635
1080.869 .0254595
1081.448 .0254563
1082.027 .0254541
1082.606 .0254531
1083.185 .0254533
1083.764 .0254548
1084.343 .0254575
1084.923 .0254612
1085.502 .0254659
1086.082 .0254712
1086.662 .0254772
1087.242 .0254835
1087.822 .0254901
1088.402 .0254970
1088.983 .0255042
1089.563 .0255117
1090.144 .0255197
1090.725 .0255281
1091.306 .0255369
1091.887 .0255462
1092.469 .0255558
1093.050 .0255656
1093.632 .0255755
1094.214 .0255855
1094.796 .0255957
1095.379 .0256061
1095.961 .0256169
1096.544 .0256281
1097.127 .0256400
1097.710 .0256525
1098.294 .0256656
1098.877 .0256793
1099.461 .0256932
1100.046 .0257072
1100.630 .0257213
1101.215 .0257353
1101.800 .0257495
1102.385 .0257639
1102.970 .0257788
1103.556 .0257943
1104.142 .0258108
1104.728 .0258285
1105.315 .0258475
1105.902 .0258680
1106.489 .0258899
1107.077 .0259132
1107.664 .0259379
1108.253 .0259638
1108.841 .0259910
1109.430 .0260195
1110.019 .0260493
1110.609 .0260806
1111.198 .0261132
1111.789 .0261474
1112.379 .0261829
1112.970 .0262198
1113.561 .0262578
1114.153 .0262967
1114.745 .0263363
1115.338 .0263763
1115.931 .0264167
1116.524 .0264574
1117.117 .0264986
1117.712 .0265404
1118.306 .0265831
1118.901 .0266269
1119.496 .0266720
1120.092 .0267185
1120.689 .0267664
1121.285 .0268156
1121.882 .0268660
1122.480 .0269172
1123.078 .0269693
1123.677 .0270219
1124.276 .0270750
1124.875 .0271288
1125.476 .0271835
1126.076 .0272396
1126.677 .0272976
1127.279 .0273577
1127.881 .0274204
1128.484 .0274859
1129.087 .0275130
1129.691 .0275817
1130.295 .0276532
1130.900 .0277273
1131.505 .0278041
1132.111 .0278837
1132.718 .0279665
1133.325 .0280523
1133.933 .0281416
1134.541 .0282342
1135.150 .0283397
1135.760 .0284442
1136.370 .0285430
1136.981 .0285711
1137.592 .0287062
1138.204 .0288404
1138.817 .0289685
1139.431 .0290913
1140.045 .0292195
1140.660 .0293481
1141.275 .0294736
1141.891 .0295991
1142.508 .0297252
1143.126 .0301188
1143.744 .0301300
1144.363 .0300209
1144.983 .0300434
