Measurement Sequence started on: 15-12-46-377
Integration time: 28
Scans to Average: 2 
>>>>>Begin Spectral Data<<<<<
432.689 .0000100
433.621 .0000100
434.552 .0000100
435.482 .0000100
436.410 .0000100
437.337 .0000100
438.262 .0277484
439.187 .0587252
440.110 .0973197
441.031 .1407932
441.952 .1129317
442.871 .1179756
443.789 .1226823
444.705 .1271245
445.621 .1313508
446.535 .1353976
447.447 .1378309
448.359 .1385002
449.269 .1370212
450.178 .1331485
451.086 .1269576
451.993 .1189317
452.898 .1098696
453.803 .1006770
454.706 .0921261
455.608 .0846946
456.508 .0785436
457.408 .0743853
458.306 .0711845
459.204 .0685735
460.100 .0663625
460.995 .0644481
461.888 .0627600
462.781 .0612519
463.673 .0598906
464.563 .0586528
465.452 .0575223
466.340 .0564855
467.228 .0555339
468.114 .0546599
468.999 .0538570
469.882 .0531185
470.765 .0524387
471.647 .0518115
472.528 .0512333
473.407 .0507000
474.286 .0502088
475.163 .0497588
476.040 .0493486
476.915 .0489771
477.790 .0486434
478.663 .0483462
479.535 .0480839
480.407 .0478541
481.277 .0476547
482.147 .0474830
483.015 .0473371
483.883 .0472156
484.749 .0471175
485.615 .0470422
486.479 .0469894
487.343 .0469591
488.206 .0469520
489.067 .0469680
489.928 .0470075
490.788 .0470704
491.647 .0471572
492.505 .0472675
493.362 .0474013
494.218 .0475586
495.073 .0477395
495.928 .0480994
496.781 .0483422
497.634 .0486109
498.486 .0489068
499.337 .0492315
500.187 .0495863
501.036 .0499736
501.884 .0503952
502.731 .0508533
503.578 .0513505
504.424 .0516824
505.268 .0522492
506.113 .0528647
506.956 .0535332
507.798 .0542607
508.640 .0550548
509.480 .0559241
510.320 .0568789
511.160 .0579309
511.998 .0590942
512.836 .0603837
513.672 .0618160
514.508 .0634094
515.344 .0651839
516.178 .0671591
517.012 .0693555
517.845 .0717938
518.677 .0744922
519.508 .0774692
520.339 .0807323
521.169 .0842882
521.998 .0881198
522.826 .0921984
523.654 .0964797
524.481 .1009025
525.307 .1053942
526.133 .1098684
526.958 .1142329
527.782 .1183976
528.605 .1222750
529.428 .1257883
530.250 .1288665
531.072 .1314628
531.892 .1335383
532.712 .1350644
533.532 .1360262
534.350 .1364186
535.168 .1362413
535.986 .1355003
536.802 .1341991
537.618 .1323494
538.434 .1299646
539.249 .1270782
540.063 .1237344
540.876 .1199879
541.689 .1159100
542.501 .1115788
543.313 .1070814
544.124 .1025108
544.934 .0979535
545.744 .0934912
546.553 .0891930
547.361 .0851197
548.169 .0813055
548.976 .0777752
549.783 .0745407
550.589 .0715983
551.395 .0689337
552.200 .0665264
553.004 .0643511
553.808 .0623841
554.611 .0606042
555.414 .0589889
556.216 .0575182
557.018 .0561731
557.819 .0549374
558.619 .0537961
559.419 .0527377
560.218 .0517533
561.017 .0508331
561.815 .0499704
562.613 .0491591
563.410 .0483922
564.207 .0476643
565.003 .0469704
565.799 .0463054
566.594 .0456650
567.388 .0450463
568.182 .0444465
568.976 .0438640
569.769 .0432981
570.562 .0427486
571.354 .0422148
572.145 .0416974
572.936 .0411962
573.727 .0407118
574.517 .0402447
575.307 .0397952
576.096 .0393628
576.885 .0389476
577.673 .0385497
578.461 .0381688
579.248 .0378048
580.035 .0374579
580.821 .0371284
581.607 .0368165
582.392 .0365223
583.177 .0362461
583.962 .0359877
584.746 .0357471
585.529 .0355234
586.313 .0353157
587.095 .0351233
587.878 .0349455
588.660 .0347810
589.441 .0346293
590.222 .0344894
591.003 .0343606
591.783 .0342420
592.563 .0341329
593.342 .0340322
594.121 .0339391
594.899 .0338530
595.678 .0337730
596.455 .0336984
597.233 .0336286
598.009 .0335631
598.786 .0335015
599.562 .0334433
600.338 .0333880
601.113 .0333354
601.888 .0332643
602.663 .0332167
603.437 .0331709
604.211 .0331265
604.984 .0330834
605.757 .0330416
606.530 .0330012
607.302 .0329620
608.074 .0329240
608.845 .0328872
609.616 .0328515
610.387 .0328353
611.158 .0328013
611.928 .0327681
612.697 .0327359
613.467 .0327045
614.236 .0326740
615.004 .0326445
615.773 .0326160
616.541 .0325884
617.308 .0325619
618.076 .0325361
618.843 .0325112
619.609 .0324868
620.375 .0324630
621.141 .0324397
621.907 .0324168
622.672 .0323943
623.437 .0323722
624.202 .0323503
624.966 .0323285
625.730 .0323067
626.493 .0322847
627.257 .0322622
628.020 .0322392
628.782 .0322154
629.545 .0321908
630.307 .0321654
631.068 .0321393
631.830 .0321125
632.591 .0320849
633.352 .0320566
634.112 .0320276
634.872 .0319978
635.632 .0319674
636.392 .0319362
637.151 .0319045
637.910 .0318724
638.668 .0318399
639.427 .0318074
640.185 .0317750
640.943 .0317429
641.700 .0317112
642.457 .0316801
643.214 .0316496
643.971 .0316199
644.727 .0315909
645.483 .0315627
646.239 .0315354
646.994 .0315090
647.750 .0314834
648.505 .0314585
649.259 .0314344
650.014 .0314108
650.768 .0313878
651.521 .0313652
652.275 .0313429
653.028 .0313209
653.781 .0312992
654.534 .0312777
655.286 .0312565
656.039 .0312353
656.791 .0312142
657.542 .0311931
658.294 .0311719
659.045 .0311504
659.796 .0311287
660.546 .0311067
661.297 .0310845
662.047 .0310621
662.796 .0310397
663.546 .0310171
664.295 .0309945
665.044 .0309720
665.793 .0309494
666.542 .0309270
667.290 .0309045
668.038 .0308821
668.786 .0308598
669.533 .0308376
670.281 .0308154
671.028 .0307935
671.774 .0307718
672.521 .0307504
673.267 .0307292
674.013 .0307081
674.759 .0306872
675.505 .0306663
676.250 .0306454
676.995 .0306244
677.740 .0306032
678.484 .0305818
679.229 .0305603
679.973 .0305386
680.717 .0305168
681.460 .0304949
682.204 .0304728
682.947 .0304505
683.690 .0304281
684.433 .0304056
685.175 .0303829
685.917 .0303603
686.659 .0303376
687.401 .0303149
688.142 .0302923
688.884 .0302698
689.625 .0302473
690.365 .0302250
691.106 .0302027
691.846 .0301805
692.586 .0301584
693.326 .0301365
694.066 .0301148
694.805 .0300933
695.545 .0300721
696.284 .0300510
697.022 .0300300
697.761 .0300092
698.499 .0299884
699.237 .0299678
699.975 .0299472
700.713 .0299268
701.450 .0299066
702.187 .0298867
702.924 .0298669
703.661 .0298474
704.397 .0298281
705.133 .0298090
705.869 .0297901
706.605 .0297712
707.341 .0297524
708.076 .0297338
708.811 .0297152
709.546 .0296968
710.281 .0296785
711.015 .0296603
711.749 .0296421
712.483 .0296239
713.217 .0296057
713.950 .0295875
714.684 .0295693
715.417 .0295510
716.150 .0295326
716.882 .0295141
717.615 .0294955
718.347 .0294767
719.079 .0294578
719.811 .0294386
720.542 .0294193
721.273 .0293998
722.005 .0293802
722.735 .0293607
723.466 .0293413
724.196 .0293220
724.927 .0293029
725.656 .0292840
726.386 .0292656
727.116 .0292476
727.845 .0292302
728.574 .0292134
729.303 .0291973
730.031 .0291820
730.760 .0291674
731.488 .0291537
732.216 .0291407
732.944 .0291284
733.671 .0291167
734.398 .0291056
735.125 .0290950
735.852 .0290847
736.579 .0290749
737.305 .0290655
738.031 .0290563
738.757 .0290474
739.483 .0290385
740.208 .0290297
740.933 .0290209
741.658 .0290119
742.383 .0290028
743.108 .0289934
743.832 .0289837
744.556 .0289738
745.280 .0289635
746.004 .0289529
746.727 .0289420
747.450 .0289308
748.173 .0289192
748.896 .0289072
749.618 .0288950
750.340 .0288825
751.062 .0288697
751.784 .0288568
752.506 .0288435
753.227 .0288301
753.948 .0288163
754.669 .0288024
755.389 .0287881
756.110 .0287736
756.830 .0287589
757.550 .0287440
758.269 .0287290
758.989 .0287138
759.708 .0286985
760.427 .0286831
761.146 .0286674
761.864 .0286516
762.582 .0286355
763.300 .0286193
764.018 .0286027
764.736 .0285860
765.453 .0285692
766.170 .0285522
766.887 .0285353
767.603 .0285185
768.320 .0285018
769.036 .0284854
769.751 .0284693
770.467 .0284536
771.182 .0284382
771.897 .0284233
772.612 .0284089
773.327 .0283948
774.041 .0283812
774.755 .0283681
775.469 .0283555
776.183 .0283435
776.896 .0283321
777.609 .0283213
778.322 .0283111
779.035 .0283015
779.747 .0282924
780.459 .0282838
781.171 .0282756
781.882 .0282677
782.594 .0282602
783.305 .0282529
784.016 .0282458
784.726 .0282389
785.436 .0282322
786.147 .0282222
786.856 .0282154
787.566 .0282086
788.275 .0282016
788.984 .0281944
789.693 .0281871
790.401 .0281795
791.110 .0281716
791.818 .0281634
792.525 .0281549
793.233 .0281460
793.940 .0281368
794.647 .0281311
795.353 .0281212
796.060 .0281109
796.766 .0281003
797.472 .0280892
798.177 .0280779
798.883 .0280664
799.588 .0280547
800.292 .0280428
800.997 .0280307
801.701 .0280183
802.405 .0280056
803.109 .0279925
803.812 .0279791
804.515 .0279652
805.218 .0279510
805.921 .0279365
806.623 .0279216
807.325 .0279065
808.027 .0278911
808.728 .0278754
809.429 .0278594
810.130 .0278431
810.831 .0278265
811.531 .0278096
812.231 .0277925
812.931 .0277751
813.630 .0277577
814.330 .0277403
815.029 .0277230
815.727 .0277057
816.426 .0276887
817.124 .0276718
817.821 .0276551
818.519 .0276388
819.216 .0276228
819.913 .0276073
820.609 .0275923
821.306 .0275780
822.002 .0275644
822.697 .0275517
823.393 .0275398
824.088 .0275287
824.783 .0275184
825.477 .0275088
826.171 .0275000
826.865 .0274919
827.559 .0274845
828.252 .0274778
828.945 .0274717
829.638 .0274663
830.330 .0274614
831.023 .0274569
831.714 .0274528
832.406 .0274489
833.097 .0274451
833.788 .0274414
834.479 .0274376
835.169 .0274339
835.859 .0274300
836.548 .0274262
837.238 .0274222
837.927 .0274181
838.615 .0274139
839.304 .0274094
839.992 .0274046
840.680 .0273996
841.367 .0273943
842.054 .0273888
842.741 .0273830
843.428 .0273770
844.114 .0273709
844.800 .0273645
845.485 .0273579
846.170 .0273510
846.855 .0273439
847.540 .0273364
848.224 .0273285
848.908 .0273203
849.592 .0273118
850.275 .0273030
850.958 .0272939
851.641 .0272844
852.323 .0272747
853.005 .0272647
853.687 .0272544
854.368 .0272437
855.049 .0272328
855.730 .0272215
856.410 .0272098
857.090 .0271977
857.769 .0271852
858.449 .0271724
859.128 .0271591
859.806 .0271454
860.485 .0271314
861.163 .0271171
861.840 .0271027
862.518 .0270881
863.195 .0270735
863.871 .0270589
864.548 .0270445
865.224 .0270303
865.899 .0270163
866.574 .0270026
867.249 .0269893
867.924 .0269765
868.598 .0269642
869.272 .0269524
869.946 .0269413
870.619 .0269308
871.292 .0269210
871.964 .0269119
872.636 .0269035
873.308 .0268958
873.979 .0268888
874.651 .0268825
875.321 .0268768
875.992 .0268719
876.662 .0268675
877.331 .0268638
878.001 .0268607
878.670 .0268581
879.338 .0268560
880.007 .0268544
880.675 .0268532
881.342 .0268525
882.009 .0268521
882.676 .0268520
883.343 .0268523
884.009 .0268528
884.675 .0268535
885.340 .0268543
886.005 .0268552
886.670 .0268562
887.334 .0268571
887.998 .0268580
888.662 .0268589
889.325 .0268598
889.988 .0268607
890.650 .0268616
891.312 .0268625
891.974 .0268634
892.636 .0268642
893.297 .0268648
893.957 .0268652
894.618 .0268653
895.278 .0268651
895.937 .0268644
896.596 .0268633
897.255 .0268616
897.914 .0268593
898.572 .0268562
899.230 .0268524
899.887 .0268478
900.544 .0268423
901.201 .0268358
901.857 .0268217
902.513 .0268129
903.168 .0268032
903.823 .0267925
904.478 .0267810
905.132 .0267684
905.786 .0267549
906.440 .0267404
907.093 .0267250
907.746 .0267088
908.399 .0266919
909.051 .0266745
909.703 .0266565
910.354 .0266466
911.005 .0266284
911.656 .0266100
912.306 .0265912
912.956 .0265722
913.605 .0265530
914.254 .0265337
914.903 .0265143
915.551 .0264949
916.199 .0264757
916.847 .0264567
917.494 .0264380
918.141 .0264195
918.788 .0264012
919.434 .0263830
920.079 .0263648
920.725 .0263466
921.370 .0263283
922.014 .0263099
922.658 .0262913
923.302 .0262725
923.946 .0262535
924.589 .0262342
925.231 .0262145
925.873 .0261946
926.515 .0261741
927.157 .0261533
927.798 .0261319
928.439 .0261102
929.079 .0260881
929.719 .0260657
930.359 .0260432
930.998 .0260205
931.637 .0259977
932.275 .0259750
932.913 .0259522
933.551 .0259296
934.188 .0259071
934.825 .0258848
935.462 .0258628
936.098 .0258412
936.733 .0258201
937.369 .0257997
938.004 .0257799
938.638 .0257608
939.273 .0257426
939.907 .0257252
940.540 .0257086
941.173 .0256929
941.806 .0256780
942.438 .0256641
943.070 .0256510
943.702 .0256387
944.333 .0256272
944.964 .0256164
945.594 .0256062
946.224 .0255964
946.854 .0255871
947.483 .0255781
948.112 .0255693
948.741 .0255608
949.369 .0255523
949.996 .0255440
950.624 .0255357
951.251 .0255273
951.878 .0255188
952.504 .0255101
953.130 .0255012
953.755 .0254920
954.380 .0254825
955.005 .0254728
955.629 .0254629
956.253 .0254529
956.877 .0254427
957.500 .0254324
958.123 .0254220
958.746 .0254115
959.368 .0254010
959.990 .0253904
960.611 .0253798
961.232 .0253691
961.853 .0253583
962.473 .0253476
963.093 .0253368
963.712 .0253260
964.331 .0253153
964.950 .0253045
965.569 .0252937
966.187 .0252828
966.804 .0252719
967.422 .0252609
968.039 .0252498
968.655 .0252386
969.272 .0252272
969.887 .0252158
970.503 .0252041
971.118 .0251924
971.733 .0251805
972.347 .0251684
972.961 .0251560
973.575 .0251434
974.188 .0251306
974.801 .0251174
975.414 .0251039
976.026 .0250901
976.638 .0250761
977.250 .0250618
977.861 .0250474
978.472 .0250328
979.083 .0250181
979.693 .0250034
980.303 .0249886
980.912 .0249665
981.521 .0249519
982.130 .0249375
982.738 .0249234
983.346 .0249096
983.954 .0248963
984.562 .0248835
985.169 .0248713
985.775 .0248597
986.382 .0248489
986.988 .0248389
987.594 .0248296
988.199 .0248211
988.804 .0248133
989.409 .0248119
990.013 .0248053
990.617 .0247993
991.221 .0247939
991.824 .0247891
992.427 .0247848
993.030 .0247811
993.632 .0247779
994.234 .0247753
994.836 .0247732
995.438 .0247715
996.039 .0247703
996.640 .0247695
997.240 .0247690
997.840 .0247688
998.440 .0247690
999.040 .0247693
999.639 .0247699
1000.238 .0247708
1000.836 .0247719
1001.435 .0247732
1002.033 .0247747
1002.630 .0247763
1003.228 .0247780
1003.825 .0247797
1004.422 .0247813
1005.018 .0247829
1005.614 .0247842
1006.210 .0247855
1006.806 .0247866
1007.401 .0247878
1007.996 .0247890
1008.591 .0247905
1009.186 .0247923
1009.780 .0247945
1010.374 .0247972
1010.967 .0248003
1011.561 .0248039
1012.154 .0248080
1012.746 .0248125
1013.339 .0248175
1013.931 .0248232
1014.523 .0248294
1015.115 .0248364
1015.706 .0248440
1016.298 .0248523
1016.888 .0248613
1017.479 .0248708
1018.069 .0248808
1018.660 .0248910
1019.250 .0249015
1019.839 .0249123
1020.429 .0249232
1021.018 .0249344
1021.607 .0249458
1022.195 .0249576
1022.784 .0249697
1023.372 .0249822
1023.960 .0249950
1024.547 .0250082
1025.135 .0250216
1025.722 .0250353
1026.309 .0250491
1026.896 .0250631
1027.483 .0250771
1028.069 .0250911
1028.655 .0251052
1029.241 .0251192
1029.827 .0251332
1030.412 .0251471
1030.997 .0251609
1031.582 .0251745
1032.167 .0251880
1032.752 .0252014
1033.336 .0252145
1033.921 .0252275
1034.505 .0252402
1035.089 .0252528
1035.672 .0252653
1036.256 .0252775
1036.839 .0252895
1037.422 .0253013
1038.005 .0253128
1038.588 .0253239
1039.171 .0253346
1039.753 .0253448
1040.335 .0253545
1040.918 .0253637
1041.500 .0253724
1042.081 .0253806
1042.663 .0253882
1043.244 .0253952
1043.826 .0254017
1044.407 .0254077
1044.988 .0254131
1045.569 .0254180
1046.150 .0254224
1046.730 .0254265
1047.311 .0254304
1047.891 .0254340
1048.471 .0254375
1049.052 .0254409
1049.632 .0254443
1050.211 .0254476
1050.791 .0254509
1051.371 .0254543
1051.950 .0254576
1052.530 .0254610
1053.109 .0254644
1053.688 .0254679
1054.268 .0254716
1054.847 .0254756
1055.426 .0254799
1056.005 .0254846
1056.583 .0254897
1057.162 .0254953
1057.741 .0255015
1058.319 .0255083
1058.898 .0255155
1059.476 .0255231
1060.055 .0255312
1060.633 .0255394
1061.211 .0255480
1061.790 .0255567
1062.368 .0255655
1062.946 .0255744
1063.524 .0255832
1064.102 .0255920
1064.680 .0256007
1065.258 .0256092
1065.836 .0256174
1066.414 .0256254
1066.992 .0256330
1067.570 .0256402
1068.148 .0256470
1068.726 .0256534
1069.304 .0256593
1069.882 .0256649
1070.460 .0256700
1071.038 .0256747
1071.616 .0256791
1072.194 .0256831
1072.772 .0256869
1073.350 .0256904
1073.928 .0256937
1074.506 .0256966
1075.084 .0256991
1075.662 .0257012
1076.240 .0257027
1076.819 .0257037
1077.397 .0257043
1077.976 .0257046
1078.554 .0257049
1079.133 .0257053
1079.711 .0257061
1080.290 .0257076
1080.869 .0257098
1081.448 .0257128
1082.027 .0257165
1082.606 .0257208
1083.185 .0257256
1083.764 .0257309
1084.343 .0257365
1084.923 .0257427
1085.502 .0257494
1086.082 .0257568
1086.662 .0257650
1087.242 .0257740
1087.822 .0257837
1088.402 .0257942
1088.983 .0258051
1089.563 .0258162
1090.144 .0258274
1090.725 .0258387
1091.306 .0258500
1091.887 .0258615
1092.469 .0258733
1093.050 .0258855
1093.632 .0258983
1094.214 .0259116
1094.796 .0259252
1095.379 .0259390
1095.961 .0259529
1096.544 .0259666
1097.127 .0259799
1097.710 .0259927
1098.294 .0260050
1098.877 .0260169
1099.461 .0260283
1100.046 .0260395
1100.630 .0260504
1101.215 .0260613
1101.800 .0260722
1102.385 .0260831
1102.970 .0260942
1103.556 .0261056
1104.142 .0261173
1104.728 .0261295
1105.315 .0261423
1105.902 .0261559
1106.489 .0261707
1107.077 .0261868
1107.664 .0262045
1108.253 .0262239
1108.841 .0262450
1109.430 .0262679
1110.019 .0262925
1110.609 .0263186
1111.198 .0263461
1111.789 .0263749
1112.379 .0264048
1112.970 .0264357
1113.561 .0264675
1114.153 .0265001
1114.745 .0265335
1115.338 .0265677
1115.931 .0266025
1116.524 .0266379
1117.117 .0266740
1117.712 .0267107
1118.306 .0267479
1118.901 .0267855
1119.496 .0268232
1120.092 .0268610
1120.689 .0268983
1121.285 .0269350
1121.882 .0269711
1122.480 .0270065
1123.078 .0270411
1123.677 .0270752
1124.276 .0271090
1124.875 .0271426
1125.476 .0271764
1126.076 .0272104
1126.677 .0272450
1127.279 .0272803
1127.881 .0273164
1128.484 .0273539
1129.087 .0273689
1129.691 .0274080
1130.295 .0274493
1130.900 .0274935
1131.505 .0275412
1132.111 .0275929
1132.718 .0276494
1133.325 .0277111
1133.933 .0277783
1134.541 .0278523
1135.150 .0279309
1135.760 .0280173
1136.370 .0281097
1136.981 .0279719
1137.592 .0280659
1138.204 .0281677
1138.817 .0282820
1139.431 .0284122
1140.045 .0285569
1140.660 .0287182
1141.275 .0288928
1141.891 .0290753
1142.508 .0292910
1143.126 .0294461
1143.744 .0296920
1144.363 .0298813
1144.983 .0300094
