Measurement Sequence started on: 15-12-46-377
Integration time: 28
Scans to Average: 2 
>>>>>Begin Spectral Data<<<<<
432.689 .0000100
433.621 .0000100
434.552 .0000100
435.482 .0000100
436.410 .0000100
437.337 .0000100
438.262 .0254308
439.187 .0536646
440.110 .0889305
441.031 .1287162
441.952 .1036123
442.871 .1082401
443.789 .1125432
444.705 .1165906
445.621 .1204297
446.535 .1240985
447.447 .1262859
448.359 .1268637
449.269 .1254771
450.178 .1218994
451.086 .1161969
451.993 .1088078
452.898 .1004573
453.803 .0919718
454.706 .0840586
455.608 .0771589
456.508 .0714252
457.408 .0675193
458.306 .0644961
459.204 .0620311
460.100 .0599543
460.995 .0581701
461.888 .0566113
462.781 .0552330
463.673 .0540004
464.563 .0528893
465.452 .0518827
466.340 .0509683
467.228 .0501369
468.114 .0493822
468.999 .0486989
469.882 .0480812
470.765 .0475238
471.647 .0470204
472.528 .0465652
473.407 .0461526
474.286 .0457773
475.163 .0454361
476.040 .0451255
476.915 .0448436
477.790 .0445877
478.663 .0443558
479.535 .0441462
480.407 .0439562
481.277 .0437836
482.147 .0436266
483.015 .0434832
483.883 .0433525
484.749 .0432340
485.615 .0431277
486.479 .0430340
487.343 .0429540
488.206 .0428893
489.067 .0428408
489.928 .0428100
490.788 .0427990
491.647 .0428094
492.505 .0428433
493.362 .0429022
494.218 .0429879
495.073 .0431024
495.928 .0433850
496.781 .0435761
497.634 .0437976
498.486 .0440496
499.337 .0443325
500.187 .0446469
501.036 .0449936
501.884 .0453736
502.731 .0457895
503.578 .0462428
504.424 .0465443
505.268 .0470610
506.113 .0476227
506.956 .0482329
507.798 .0488962
508.640 .0496178
509.480 .0504047
510.320 .0512673
511.160 .0522175
511.998 .0532687
512.836 .0544366
513.672 .0557375
514.508 .0571912
515.344 .0588167
516.178 .0606326
517.012 .0626590
517.845 .0649172
518.677 .0674240
519.508 .0701936
520.339 .0732340
521.169 .0765486
521.998 .0801162
522.826 .0839057
523.654 .0878699
524.481 .0919497
525.307 .0960743
526.133 .1001630
526.958 .1041335
527.782 .1079060
528.605 .1114019
529.428 .1145534
530.250 .1173008
531.072 .1196039
531.892 .1214238
532.712 .1227357
533.532 .1235258
534.350 .1237880
535.168 .1235200
535.986 .1227255
536.802 .1214125
537.618 .1195942
538.434 .1172861
539.249 .1145259
540.063 .1113608
540.876 .1078498
541.689 .1040588
542.501 .1000635
543.313 .0959450
544.124 .0917847
544.934 .0876564
545.744 .0836317
546.553 .0797702
547.361 .0761218
548.169 .0727151
548.976 .0695742
549.783 .0667083
550.589 .0641146
551.395 .0617785
552.200 .0596804
553.004 .0577977
553.808 .0561057
554.611 .0545791
555.414 .0531968
556.216 .0519387
557.018 .0507855
557.819 .0497219
558.619 .0487368
559.419 .0478203
560.218 .0469650
561.017 .0461637
561.815 .0454105
562.613 .0447002
563.410 .0440266
564.207 .0433838
565.003 .0427671
565.799 .0421721
566.594 .0415956
567.388 .0410362
568.182 .0404936
568.976 .0399676
569.769 .0394591
570.562 .0389688
571.354 .0384977
572.145 .0380462
572.936 .0376145
573.727 .0372021
574.517 .0368087
575.307 .0364336
576.096 .0360756
576.885 .0357349
577.673 .0354112
578.461 .0351044
579.248 .0348142
580.035 .0345403
580.821 .0342819
581.607 .0340385
582.392 .0338094
583.177 .0335935
583.962 .0333901
584.746 .0331987
585.529 .0330185
586.313 .0328490
587.095 .0326899
587.878 .0325407
588.660 .0324010
589.441 .0322704
590.222 .0321485
591.003 .0320348
591.783 .0319289
592.563 .0318304
593.342 .0317386
594.121 .0316532
594.899 .0315735
595.678 .0314987
596.455 .0314282
597.233 .0313614
598.009 .0312976
598.786 .0312364
599.562 .0311773
600.338 .0311201
601.113 .0310647
601.888 .0309873
602.663 .0309361
603.437 .0308867
604.211 .0308392
604.984 .0307933
605.757 .0307491
606.530 .0307063
607.302 .0306651
608.074 .0306253
608.845 .0305870
609.616 .0305504
610.387 .0305366
611.158 .0305030
611.928 .0304714
612.697 .0304418
613.467 .0304143
614.236 .0303889
615.004 .0303656
615.773 .0303443
616.541 .0303249
617.308 .0303072
618.076 .0302913
618.843 .0302771
619.609 .0302644
620.375 .0302530
621.141 .0302428
621.907 .0302335
622.672 .0302250
623.437 .0302170
624.202 .0302094
624.966 .0302020
625.730 .0301946
626.493 .0301871
627.257 .0301792
628.020 .0301710
628.782 .0301621
629.545 .0301525
630.307 .0301421
631.068 .0301306
631.830 .0301182
632.591 .0301046
633.352 .0300900
634.112 .0300743
634.872 .0300576
635.632 .0300399
636.392 .0300212
637.151 .0300017
637.910 .0299813
638.668 .0299603
639.427 .0299387
640.185 .0299167
640.943 .0298942
641.700 .0298715
642.457 .0298485
643.214 .0298252
643.971 .0298016
644.727 .0297777
645.483 .0297535
646.239 .0297291
646.994 .0297044
647.750 .0296797
648.505 .0296549
649.259 .0296302
650.014 .0296056
650.768 .0295810
651.521 .0295565
652.275 .0295319
653.028 .0295072
653.781 .0294823
654.534 .0294571
655.286 .0294317
656.039 .0294061
656.791 .0293803
657.542 .0293544
658.294 .0293284
659.045 .0293024
659.796 .0292763
660.546 .0292503
661.297 .0292244
662.047 .0291986
662.796 .0291730
663.546 .0291476
664.295 .0291224
665.044 .0290977
665.793 .0290735
666.542 .0290499
667.290 .0290271
668.038 .0290050
668.786 .0289837
669.533 .0289634
670.281 .0289440
671.028 .0289255
671.774 .0289079
672.521 .0288912
673.267 .0288753
674.013 .0288603
674.759 .0288461
675.505 .0288327
676.250 .0288201
676.995 .0288083
677.740 .0287973
678.484 .0287870
679.229 .0287774
679.973 .0287685
680.717 .0287601
681.460 .0287521
682.204 .0287445
682.947 .0287372
683.690 .0287300
684.433 .0287231
685.175 .0287162
685.917 .0287095
686.659 .0287029
687.401 .0286964
688.142 .0286900
688.884 .0286837
689.625 .0286775
690.365 .0286714
691.106 .0286652
691.846 .0286590
692.586 .0286527
693.326 .0286462
694.066 .0286397
694.805 .0286331
695.545 .0286263
696.284 .0286195
697.022 .0286126
697.761 .0286056
698.499 .0285985
699.237 .0285911
699.975 .0285834
700.713 .0285753
701.450 .0285666
702.187 .0285574
702.924 .0285476
703.661 .0285371
704.397 .0285259
705.133 .0285141
705.869 .0285016
706.605 .0284884
707.341 .0284744
708.076 .0284596
708.811 .0284439
709.546 .0284275
710.281 .0284101
711.015 .0283920
711.749 .0283730
712.483 .0283534
713.217 .0283330
713.950 .0283120
714.684 .0282904
715.417 .0282683
716.150 .0282456
716.882 .0282224
717.615 .0281986
718.347 .0281744
719.079 .0281497
719.811 .0281245
720.542 .0280990
721.273 .0280730
722.005 .0280467
722.735 .0280202
723.466 .0279936
724.196 .0279670
724.927 .0279404
725.656 .0279141
726.386 .0278879
727.116 .0278620
727.845 .0278363
728.574 .0278110
729.303 .0277860
730.031 .0277613
730.760 .0277371
731.488 .0277133
732.216 .0276902
732.944 .0276677
733.671 .0276459
734.398 .0276250
735.125 .0276049
735.852 .0275856
736.579 .0275673
737.305 .0275499
738.031 .0275333
738.757 .0275176
739.483 .0275027
740.208 .0274887
740.933 .0274754
741.658 .0274629
742.383 .0274513
743.108 .0274404
743.832 .0274304
744.556 .0274212
745.280 .0274128
746.004 .0274051
746.727 .0273980
747.450 .0273913
748.173 .0273850
748.896 .0273788
749.618 .0273728
750.340 .0273669
751.062 .0273611
751.784 .0273553
752.506 .0273496
753.227 .0273440
753.948 .0273385
754.669 .0273331
755.389 .0273277
756.110 .0273223
756.830 .0273168
757.550 .0273113
758.269 .0273058
758.989 .0273003
759.708 .0272948
760.427 .0272895
761.146 .0272843
761.864 .0272793
762.582 .0272745
763.300 .0272700
764.018 .0272659
764.736 .0272622
765.453 .0272589
766.170 .0272560
766.887 .0272537
767.603 .0272518
768.320 .0272504
769.036 .0272495
769.751 .0272491
770.467 .0272492
771.182 .0272498
771.897 .0272510
772.612 .0272527
773.327 .0272549
774.041 .0272575
774.755 .0272604
775.469 .0272635
776.183 .0272666
776.896 .0272698
777.609 .0272728
778.322 .0272755
779.035 .0272779
779.747 .0272799
780.459 .0272815
781.171 .0272826
781.882 .0272832
782.594 .0272830
783.305 .0272822
784.016 .0272805
784.726 .0272780
785.436 .0272745
786.147 .0272654
786.856 .0272595
787.566 .0272525
788.275 .0272445
788.984 .0272355
789.693 .0272254
790.401 .0272143
791.110 .0272021
791.818 .0271888
792.525 .0271744
793.233 .0271589
793.940 .0271425
794.647 .0271319
795.353 .0271143
796.060 .0270958
796.766 .0270764
797.472 .0270561
798.177 .0270350
798.883 .0270130
799.588 .0269902
800.292 .0269666
800.997 .0269423
801.701 .0269174
802.405 .0268918
803.109 .0268657
803.812 .0268389
804.515 .0268117
805.218 .0267839
805.921 .0267558
806.623 .0267272
807.325 .0266984
808.027 .0266694
808.728 .0266403
809.429 .0266112
810.130 .0265821
810.831 .0265531
811.531 .0265242
812.231 .0264953
812.931 .0264667
813.630 .0264383
814.330 .0264103
815.029 .0263828
815.727 .0263559
816.426 .0263296
817.124 .0263040
817.821 .0262792
818.519 .0262550
819.216 .0262316
819.913 .0262089
820.609 .0261869
821.306 .0261657
822.002 .0261453
822.697 .0261258
823.393 .0261071
824.088 .0260893
824.783 .0260723
825.477 .0260562
826.171 .0260409
826.865 .0260263
827.559 .0260124
828.252 .0259992
828.945 .0259867
829.638 .0259749
830.330 .0259638
831.023 .0259533
831.714 .0259435
832.406 .0259343
833.097 .0259257
833.788 .0259176
834.479 .0259102
835.169 .0259034
835.859 .0258972
836.548 .0258916
837.238 .0258867
837.927 .0258824
838.615 .0258788
839.304 .0258757
839.992 .0258731
840.680 .0258710
841.367 .0258693
842.054 .0258680
842.741 .0258670
843.428 .0258664
844.114 .0258661
844.800 .0258661
845.485 .0258663
846.170 .0258668
846.855 .0258676
847.540 .0258686
848.224 .0258698
848.908 .0258713
849.592 .0258729
850.275 .0258748
850.958 .0258768
851.641 .0258789
852.323 .0258812
853.005 .0258836
853.687 .0258861
854.368 .0258888
855.049 .0258916
855.730 .0258946
856.410 .0258977
857.090 .0259011
857.769 .0259046
858.449 .0259082
859.128 .0259120
859.806 .0259160
860.485 .0259201
861.163 .0259243
861.840 .0259287
862.518 .0259333
863.195 .0259380
863.871 .0259429
864.548 .0259478
865.224 .0259528
865.899 .0259578
866.574 .0259629
867.249 .0259679
867.924 .0259728
868.598 .0259778
869.272 .0259826
869.946 .0259874
870.619 .0259920
871.292 .0259965
871.964 .0260008
872.636 .0260048
873.308 .0260086
873.979 .0260121
874.651 .0260155
875.321 .0260187
875.992 .0260217
876.662 .0260246
877.331 .0260274
878.001 .0260299
878.670 .0260322
879.338 .0260342
880.007 .0260360
880.675 .0260376
881.342 .0260388
882.009 .0260397
882.676 .0260404
883.343 .0260407
884.009 .0260407
884.675 .0260402
885.340 .0260394
886.005 .0260382
886.670 .0260365
887.334 .0260343
887.998 .0260318
888.662 .0260287
889.325 .0260252
889.988 .0260212
890.650 .0260166
891.312 .0260114
891.974 .0260056
892.636 .0259991
893.297 .0259920
893.957 .0259842
894.618 .0259757
895.278 .0259666
895.937 .0259566
896.596 .0259459
897.255 .0259344
897.914 .0259219
898.572 .0259085
899.230 .0258940
899.887 .0258785
900.544 .0258619
901.201 .0258443
901.857 .0258134
902.513 .0257928
903.168 .0257711
903.823 .0257483
904.478 .0257242
905.132 .0256991
905.786 .0256728
906.440 .0256455
907.093 .0256172
907.746 .0255880
908.399 .0255580
909.051 .0255272
909.703 .0254958
910.354 .0254781
911.005 .0254460
911.656 .0254135
912.306 .0253804
912.956 .0253470
913.605 .0253132
914.254 .0252792
914.903 .0252450
915.551 .0252106
916.199 .0251760
916.847 .0251414
917.494 .0251067
918.141 .0250720
918.788 .0250372
919.434 .0250024
920.079 .0249677
920.725 .0249332
921.370 .0248988
922.014 .0248647
922.658 .0248309
923.302 .0247973
923.946 .0247641
924.589 .0247312
925.231 .0246985
925.873 .0246661
926.515 .0246340
927.157 .0246021
927.798 .0245706
928.439 .0245394
929.079 .0245086
929.719 .0244782
930.359 .0244484
930.998 .0244190
931.637 .0243902
932.275 .0243619
932.913 .0243342
933.551 .0243071
934.188 .0242808
934.825 .0242553
935.462 .0242307
936.098 .0242071
936.733 .0241845
937.369 .0241629
938.004 .0241424
938.638 .0241228
939.273 .0241041
939.907 .0240863
940.540 .0240693
941.173 .0240532
941.806 .0240380
942.438 .0240236
943.070 .0240101
943.702 .0239975
944.333 .0239858
944.964 .0239748
945.594 .0239646
946.224 .0239551
946.854 .0239463
947.483 .0239381
948.112 .0239306
948.741 .0239237
949.369 .0239176
949.996 .0239122
950.624 .0239076
951.251 .0239038
951.878 .0239006
952.504 .0238981
953.130 .0238961
953.755 .0238947
954.380 .0238938
955.005 .0238934
955.629 .0238937
956.253 .0238945
956.877 .0238960
957.500 .0238981
958.123 .0239009
958.746 .0239044
959.368 .0239086
959.990 .0239135
960.611 .0239190
961.232 .0239253
961.853 .0239323
962.473 .0239401
963.093 .0239485
963.712 .0239577
964.331 .0239675
964.950 .0239779
965.569 .0239887
966.187 .0240001
966.804 .0240118
967.422 .0240238
968.039 .0240360
968.655 .0240485
969.272 .0240611
969.887 .0240737
970.503 .0240864
971.118 .0240990
971.733 .0241115
972.347 .0241238
972.961 .0241359
973.575 .0241476
974.188 .0241591
974.801 .0241702
975.414 .0241809
976.026 .0241913
976.638 .0242012
977.250 .0242106
977.861 .0242194
978.472 .0242278
979.083 .0242356
979.693 .0242428
980.303 .0242494
980.912 .0242572
981.521 .0242630
982.130 .0242684
982.738 .0242736
983.346 .0242785
983.954 .0242833
984.562 .0242879
985.169 .0242924
985.775 .0242970
986.382 .0243016
986.988 .0243065
987.594 .0243117
988.199 .0243173
988.804 .0243235
989.409 .0243284
990.013 .0243357
990.617 .0243436
991.221 .0243522
991.824 .0243615
992.427 .0243714
993.030 .0243818
993.632 .0243928
994.234 .0244042
994.836 .0244161
995.438 .0244284
996.039 .0244412
996.640 .0244543
997.240 .0244679
997.840 .0244818
998.440 .0244960
999.040 .0245105
999.639 .0245251
1000.238 .0245400
1000.836 .0245549
1001.435 .0245699
1002.033 .0245848
1002.630 .0245998
1003.228 .0246147
1003.825 .0246294
1004.422 .0246440
1005.018 .0246583
1005.614 .0246722
1006.210 .0246857
1006.806 .0246986
1007.401 .0247107
1007.996 .0247222
1008.591 .0247328
1009.186 .0247426
1009.780 .0247517
1010.374 .0247600
1010.967 .0247676
1011.561 .0247746
1012.154 .0247809
1012.746 .0247867
1013.339 .0247920
1013.931 .0247968
1014.523 .0248012
1015.115 .0248051
1015.706 .0248087
1016.298 .0248118
1016.888 .0248147
1017.479 .0248171
1018.069 .0248192
1018.660 .0248209
1019.250 .0248222
1019.839 .0248232
1020.429 .0248237
1021.018 .0248238
1021.607 .0248235
1022.195 .0248228
1022.784 .0248217
1023.372 .0248202
1023.960 .0248186
1024.547 .0248167
1025.135 .0248147
1025.722 .0248125
1026.309 .0248102
1026.896 .0248077
1027.483 .0248051
1028.069 .0248021
1028.655 .0247988
1029.241 .0247952
1029.827 .0247911
1030.412 .0247867
1030.997 .0247818
1031.582 .0247765
1032.167 .0247708
1032.752 .0247647
1033.336 .0247580
1033.921 .0247508
1034.505 .0247430
1035.089 .0247346
1035.672 .0247256
1036.256 .0247160
1036.839 .0247058
1037.422 .0246951
1038.005 .0246840
1038.588 .0246724
1039.171 .0246605
1039.753 .0246482
1040.335 .0246355
1040.918 .0246223
1041.500 .0246086
1042.081 .0245945
1042.663 .0245798
1043.244 .0245647
1043.826 .0245490
1044.407 .0245328
1044.988 .0245161
1045.569 .0244990
1046.150 .0244815
1046.730 .0244636
1047.311 .0244453
1047.891 .0244267
1048.471 .0244079
1049.052 .0243889
1049.632 .0243697
1050.211 .0243503
1050.791 .0243307
1051.371 .0243111
1051.950 .0242912
1052.530 .0242711
1053.109 .0242509
1053.688 .0242305
1054.268 .0242101
1054.847 .0241896
1055.426 .0241692
1056.005 .0241489
1056.583 .0241288
1057.162 .0241089
1057.741 .0240892
1058.319 .0240698
1058.898 .0240506
1059.476 .0240316
1060.055 .0240128
1060.633 .0239941
1061.211 .0239757
1061.790 .0239577
1062.368 .0239401
1062.946 .0239229
1063.524 .0239062
1064.102 .0238900
1064.680 .0238741
1065.258 .0238586
1065.836 .0238434
1066.414 .0238284
1066.992 .0238135
1067.570 .0237989
1068.148 .0237844
1068.726 .0237702
1069.304 .0237563
1069.882 .0237427
1070.460 .0237294
1071.038 .0237165
1071.616 .0237039
1072.194 .0236918
1072.772 .0236800
1073.350 .0236686
1073.928 .0236576
1074.506 .0236471
1075.084 .0236372
1075.662 .0236279
1076.240 .0236193
1076.819 .0236114
1077.397 .0236044
1077.976 .0235982
1078.554 .0235928
1079.133 .0235882
1079.711 .0235844
1080.290 .0235813
1080.869 .0235787
1081.448 .0235767
1082.027 .0235752
1082.606 .0235742
1083.185 .0235737
1083.764 .0235737
1084.343 .0235741
1084.923 .0235751
1085.502 .0235765
1086.082 .0235785
1086.662 .0235810
1087.242 .0235839
1087.822 .0235872
1088.402 .0235908
1088.983 .0235948
1089.563 .0235992
1090.144 .0236040
1090.725 .0236091
1091.306 .0236146
1091.887 .0236205
1092.469 .0236269
1093.050 .0236338
1093.632 .0236411
1094.214 .0236487
1094.796 .0236566
1095.379 .0236647
1095.961 .0236732
1096.544 .0236822
1097.127 .0236916
1097.710 .0237016
1098.294 .0237124
1098.877 .0237238
1099.461 .0237359
1100.046 .0237489
1100.630 .0237627
1101.215 .0237773
1101.800 .0237927
1102.385 .0238088
1102.970 .0238256
1103.556 .0238432
1104.142 .0238615
1104.728 .0238807
1105.315 .0239007
1105.902 .0239217
1106.489 .0239439
1107.077 .0239673
1107.664 .0239921
1108.253 .0240186
1108.841 .0240470
1109.430 .0240774
1110.019 .0241098
1110.609 .0241442
1111.198 .0241807
1111.789 .0242193
1112.379 .0242598
1112.970 .0243022
1113.561 .0243464
1114.153 .0243925
1114.745 .0244402
1115.338 .0244897
1115.931 .0245408
1116.524 .0245932
1117.117 .0246470
1117.712 .0247019
1118.306 .0247577
1118.901 .0248142
1119.496 .0248716
1120.092 .0249299
1120.689 .0249891
1121.285 .0250496
1121.882 .0251118
1122.480 .0251758
1123.078 .0252420
1123.677 .0253102
1124.276 .0253804
1124.875 .0254526
1125.476 .0255263
1126.076 .0256012
1126.677 .0256771
1127.279 .0257539
1127.881 .0258312
1128.484 .0259092
1129.087 .0259449
1129.691 .0260238
1130.295 .0261034
1130.900 .0261832
1131.505 .0262629
1132.111 .0263419
1132.718 .0264198
1133.325 .0264962
1133.933 .0265705
1134.541 .0266446
1135.150 .0267131
1135.760 .0267831
1136.370 .0268523
1136.981 .0270971
1137.592 .0271946
1138.204 .0272860
1138.817 .0273664
1139.431 .0274391
1140.045 .0274953
1140.660 .0275414
1141.275 .0275723
1141.891 .0275790
1142.508 .0276394
1143.126 .0275441
1143.744 .0276364
1144.363 .0276574
1144.983 .0272730
