Measurement Sequence started on: 15-12-46-377
Integration time: 28
Scans to Average: 2 
>>>>>Begin Spectral Data<<<<<
432.689 .0000100
433.621 .0000100
434.552 .0000100
435.482 .0000100
436.410 .0000100
437.337 .0000100
438.262 .0254770
439.187 .0541571
440.110 .0898242
441.031 .1300740
441.952 .1051494
442.871 .1099475
443.789 .1144331
444.705 .1186713
445.621 .1227085
446.535 .1265788
447.447 .1289669
448.359 .1297232
449.269 .1284952
450.178 .1250521
451.086 .1194599
451.993 .1121555
452.898 .1038717
453.803 .0954416
454.706 .0875756
455.608 .0807169
456.508 .0750163
457.408 .0711315
458.306 .0681235
459.204 .0656499
460.100 .0635407
460.995 .0617036
461.888 .0600772
462.781 .0586181
463.673 .0572955
464.563 .0560874
465.452 .0549777
466.340 .0539540
467.228 .0530093
468.114 .0521383
468.999 .0513382
469.882 .0506062
470.765 .0499390
471.647 .0493345
472.528 .0487901
473.407 .0483024
474.286 .0478679
475.163 .0474838
476.040 .0471462
476.915 .0468509
477.790 .0465947
478.663 .0463745
479.535 .0461877
480.407 .0460322
481.277 .0459055
482.147 .0458052
483.015 .0457287
483.883 .0456738
484.749 .0456378
485.615 .0456188
486.479 .0456144
487.343 .0456235
488.206 .0456455
489.067 .0456797
489.928 .0457263
490.788 .0457864
491.647 .0458613
492.505 .0459517
493.362 .0460586
494.218 .0461823
495.073 .0463227
495.928 .0465948
496.781 .0467775
497.634 .0469769
498.486 .0471938
499.337 .0474294
500.187 .0476854
501.036 .0479640
501.884 .0482680
502.731 .0486006
503.578 .0489654
504.424 .0492143
505.268 .0496425
506.113 .0501159
506.956 .0506405
507.798 .0512228
508.640 .0518714
509.480 .0525950
510.320 .0534065
511.160 .0543188
511.998 .0553467
512.836 .0565079
513.672 .0578233
514.508 .0593142
515.344 .0610038
516.178 .0629139
517.012 .0650710
517.845 .0674958
518.677 .0702062
519.508 .0732154
520.339 .0765313
521.169 .0801548
521.998 .0840616
522.826 .0882141
523.654 .0925579
524.481 .0970221
525.307 .1015277
526.133 .1059810
526.958 .1102888
527.782 .1143589
528.605 .1181058
529.428 .1214553
530.250 .1243430
531.072 .1267255
531.892 .1285678
532.712 .1298476
533.532 .1305535
534.350 .1306775
535.168 .1302242
535.986 .1292040
536.802 .1276284
537.618 .1255106
538.434 .1228672
539.249 .1197382
540.063 .1161746
540.876 .1122413
541.689 .1080152
542.501 .1035796
543.313 .0990274
544.124 .0944510
544.934 .0899365
545.744 .0855627
546.553 .0813961
547.361 .0774899
548.169 .0738727
548.976 .0705636
549.783 .0675658
550.589 .0648717
551.395 .0624631
552.200 .0603147
553.004 .0583966
553.808 .0566820
554.611 .0551463
555.414 .0537680
556.216 .0525269
557.018 .0514047
557.819 .0503848
558.619 .0494537
559.419 .0485990
560.218 .0478111
561.017 .0470806
561.815 .0464001
562.613 .0457625
563.410 .0451606
564.207 .0445879
565.003 .0440388
565.799 .0435079
566.594 .0429911
567.388 .0424859
568.182 .0419908
568.976 .0415043
569.769 .0410263
570.562 .0405567
571.354 .0400960
572.145 .0396452
572.936 .0392045
573.727 .0387745
574.517 .0383555
575.307 .0379484
576.096 .0375537
576.885 .0371729
577.673 .0368069
578.461 .0364568
579.248 .0361235
580.035 .0358073
580.821 .0355081
581.607 .0352258
582.392 .0349600
583.177 .0347102
583.962 .0344758
584.746 .0342561
585.529 .0340507
586.313 .0338594
587.095 .0336815
587.878 .0335167
588.660 .0333644
589.441 .0332240
590.222 .0330949
591.003 .0329765
591.783 .0328684
592.563 .0327697
593.342 .0326797
594.121 .0325977
594.899 .0325227
595.678 .0324537
596.455 .0323900
597.233 .0323309
598.009 .0322757
598.786 .0322240
599.562 .0321751
600.338 .0321286
601.113 .0320844
601.888 .0320224
602.663 .0319817
603.437 .0319421
604.211 .0319035
604.984 .0318655
605.757 .0318279
606.530 .0317907
607.302 .0317539
608.074 .0317174
608.845 .0316814
609.616 .0316460
610.387 .0316302
611.158 .0315961
611.928 .0315629
612.697 .0315307
613.467 .0314995
614.236 .0314695
615.004 .0314407
615.773 .0314130
616.541 .0313865
617.308 .0313609
618.076 .0313363
618.843 .0313126
619.609 .0312896
620.375 .0312674
621.141 .0312457
621.907 .0312245
622.672 .0312036
623.437 .0311829
624.202 .0311622
624.966 .0311414
625.730 .0311204
626.493 .0310990
627.257 .0310771
628.020 .0310545
628.782 .0310313
629.545 .0310074
630.307 .0309826
631.068 .0309570
631.830 .0309306
632.591 .0309036
633.352 .0308759
634.112 .0308479
634.872 .0308195
635.632 .0307911
636.392 .0307627
637.151 .0307345
637.910 .0307065
638.668 .0306789
639.427 .0306516
640.185 .0306248
640.943 .0305986
641.700 .0305729
642.457 .0305479
643.214 .0305237
643.971 .0305001
644.727 .0304773
645.483 .0304552
646.239 .0304338
646.994 .0304129
647.750 .0303926
648.505 .0303726
649.259 .0303529
650.014 .0303333
650.768 .0303137
651.521 .0302940
652.275 .0302739
653.028 .0302534
653.781 .0302324
654.534 .0302106
655.286 .0301882
656.039 .0301652
656.791 .0301417
657.542 .0301176
658.294 .0300932
659.045 .0300684
659.796 .0300433
660.546 .0300180
661.297 .0299925
662.047 .0299669
662.796 .0299413
663.546 .0299157
664.295 .0298903
665.044 .0298653
665.793 .0298407
666.542 .0298169
667.290 .0297940
668.038 .0297719
668.786 .0297508
669.533 .0297305
670.281 .0297112
671.028 .0296926
671.774 .0296749
672.521 .0296579
673.267 .0296416
674.013 .0296260
674.759 .0296109
675.505 .0295964
676.250 .0295825
676.995 .0295689
677.740 .0295558
678.484 .0295431
679.229 .0295305
679.973 .0295183
680.717 .0295062
681.460 .0294941
682.204 .0294821
682.947 .0294700
683.690 .0294577
684.433 .0294452
685.175 .0294325
685.917 .0294194
686.659 .0294060
687.401 .0293924
688.142 .0293786
688.884 .0293645
689.625 .0293503
690.365 .0293357
691.106 .0293209
691.846 .0293058
692.586 .0292903
693.326 .0292744
694.066 .0292581
694.805 .0292416
695.545 .0292247
696.284 .0292075
697.022 .0291901
697.761 .0291726
698.499 .0291548
699.237 .0291368
699.975 .0291186
700.713 .0291001
701.450 .0290813
702.187 .0290621
702.924 .0290426
703.661 .0290227
704.397 .0290024
705.133 .0289817
705.869 .0289607
706.605 .0289393
707.341 .0289175
708.076 .0288955
708.811 .0288732
709.546 .0288507
710.281 .0288280
711.015 .0288051
711.749 .0287819
712.483 .0287586
713.217 .0287351
713.950 .0287114
714.684 .0286875
715.417 .0286635
716.150 .0286394
716.882 .0286152
717.615 .0285908
718.347 .0285664
719.079 .0285419
719.811 .0285173
720.542 .0284926
721.273 .0284679
722.005 .0284430
722.735 .0284182
723.466 .0283934
724.196 .0283688
724.927 .0283444
725.656 .0283203
726.386 .0282966
727.116 .0282734
727.845 .0282508
728.574 .0282289
729.303 .0282077
730.031 .0281872
730.760 .0281677
731.488 .0281491
732.216 .0281314
732.944 .0281147
733.671 .0280991
734.398 .0280845
735.125 .0280710
735.852 .0280585
736.579 .0280473
737.305 .0280371
738.031 .0280280
738.757 .0280199
739.483 .0280127
740.208 .0280062
740.933 .0280005
741.658 .0279954
742.383 .0279909
743.108 .0279868
743.832 .0279830
744.556 .0279795
745.280 .0279762
746.004 .0279729
746.727 .0279694
747.450 .0279658
748.173 .0279619
748.896 .0279575
749.618 .0279528
750.340 .0279477
751.062 .0279421
751.784 .0279362
752.506 .0279299
753.227 .0279232
753.948 .0279160
754.669 .0279084
755.389 .0279004
756.110 .0278920
756.830 .0278834
757.550 .0278746
758.269 .0278656
758.989 .0278567
759.708 .0278477
760.427 .0278388
761.146 .0278299
761.864 .0278212
762.582 .0278125
763.300 .0278039
764.018 .0277953
764.736 .0277869
765.453 .0277786
766.170 .0277703
766.887 .0277621
767.603 .0277538
768.320 .0277454
769.036 .0277369
769.751 .0277283
770.467 .0277197
771.182 .0277110
771.897 .0277023
772.612 .0276935
773.327 .0276848
774.041 .0276759
774.755 .0276670
775.469 .0276578
776.183 .0276484
776.896 .0276387
777.609 .0276287
778.322 .0276184
779.035 .0276080
779.747 .0275973
780.459 .0275866
781.171 .0275758
781.882 .0275649
782.594 .0275539
783.305 .0275427
784.016 .0275314
784.726 .0275198
785.436 .0275080
786.147 .0274894
786.856 .0274767
787.566 .0274637
788.275 .0274505
788.984 .0274368
789.693 .0274228
790.401 .0274085
791.110 .0273936
791.818 .0273783
792.525 .0273624
793.233 .0273459
793.940 .0273289
794.647 .0273185
795.353 .0273006
796.060 .0272821
796.766 .0272630
797.472 .0272434
798.177 .0272232
798.883 .0272025
799.588 .0271813
800.292 .0271596
800.997 .0271376
801.701 .0271153
802.405 .0270928
803.109 .0270701
803.812 .0270472
804.515 .0270243
805.218 .0270013
805.921 .0269783
806.623 .0269553
807.325 .0269325
808.027 .0269099
808.728 .0268876
809.429 .0268655
810.130 .0268437
810.831 .0268223
811.531 .0268013
812.231 .0267806
812.931 .0267604
813.630 .0267406
814.330 .0267213
815.029 .0267026
815.727 .0266845
816.426 .0266671
817.124 .0266503
817.821 .0266343
818.519 .0266189
819.216 .0266043
819.913 .0265905
820.609 .0265774
821.306 .0265652
822.002 .0265538
822.697 .0265433
823.393 .0265336
824.088 .0265249
824.783 .0265171
825.477 .0265102
826.171 .0265042
826.865 .0264991
827.559 .0264948
828.252 .0264915
828.945 .0264890
829.638 .0264875
830.330 .0264868
831.023 .0264869
831.714 .0264879
832.406 .0264896
833.097 .0264919
833.788 .0264948
834.479 .0264982
835.169 .0265021
835.859 .0265065
836.548 .0265112
837.238 .0265163
837.927 .0265217
838.615 .0265273
839.304 .0265332
839.992 .0265391
840.680 .0265451
841.367 .0265511
842.054 .0265570
842.741 .0265627
843.428 .0265682
844.114 .0265734
844.800 .0265784
845.485 .0265830
846.170 .0265872
846.855 .0265909
847.540 .0265941
848.224 .0265967
848.908 .0265987
849.592 .0266000
850.275 .0266007
850.958 .0266006
851.641 .0265999
852.323 .0265985
853.005 .0265965
853.687 .0265940
854.368 .0265909
855.049 .0265874
855.730 .0265834
856.410 .0265791
857.090 .0265743
857.769 .0265691
858.449 .0265636
859.128 .0265579
859.806 .0265519
860.485 .0265457
861.163 .0265393
861.840 .0265329
862.518 .0265264
863.195 .0265198
863.871 .0265131
864.548 .0265063
865.224 .0264995
865.899 .0264924
866.574 .0264853
867.249 .0264780
867.924 .0264707
868.598 .0264632
869.272 .0264556
869.946 .0264480
870.619 .0264401
871.292 .0264322
871.964 .0264241
872.636 .0264158
873.308 .0264073
873.979 .0263985
874.651 .0263895
875.321 .0263802
875.992 .0263707
876.662 .0263609
877.331 .0263509
878.001 .0263407
878.670 .0263303
879.338 .0263196
880.007 .0263088
880.675 .0262979
881.342 .0262869
882.009 .0262759
882.676 .0262648
883.343 .0262539
884.009 .0262430
884.675 .0262324
885.340 .0262218
886.005 .0262115
886.670 .0262012
887.334 .0261910
887.998 .0261808
888.662 .0261705
889.325 .0261601
889.988 .0261497
890.650 .0261391
891.312 .0261283
891.974 .0261174
892.636 .0261062
893.297 .0260947
893.957 .0260827
894.618 .0260703
895.278 .0260574
895.937 .0260437
896.596 .0260293
897.255 .0260140
897.914 .0259978
898.572 .0259807
899.230 .0259626
899.887 .0259434
900.544 .0259232
901.201 .0259018
901.857 .0258649
902.513 .0258408
903.168 .0258157
903.823 .0257896
904.478 .0257626
905.132 .0257347
905.786 .0257060
906.440 .0256765
907.093 .0256465
907.746 .0256159
908.399 .0255848
909.051 .0255535
909.703 .0255220
910.354 .0255064
911.005 .0254753
911.656 .0254443
912.306 .0254135
912.956 .0253831
913.605 .0253531
914.254 .0253237
914.903 .0252948
915.551 .0252664
916.199 .0252386
916.847 .0252114
917.494 .0251847
918.141 .0251585
918.788 .0251328
919.434 .0251076
920.079 .0250827
920.725 .0250582
921.370 .0250341
922.014 .0250103
922.658 .0249867
923.302 .0249634
923.946 .0249404
924.589 .0249175
925.231 .0248948
925.873 .0248724
926.515 .0248501
927.157 .0248281
927.798 .0248065
928.439 .0247852
929.079 .0247643
929.719 .0247439
930.359 .0247241
930.998 .0247048
931.637 .0246862
932.275 .0246683
932.913 .0246512
933.551 .0246349
934.188 .0246195
934.825 .0246051
935.462 .0245917
936.098 .0245794
936.733 .0245681
937.369 .0245580
938.004 .0245489
938.638 .0245410
939.273 .0245341
939.907 .0245283
940.540 .0245237
941.173 .0245202
941.806 .0245180
942.438 .0245168
943.070 .0245167
943.702 .0245176
944.333 .0245193
944.964 .0245217
945.594 .0245248
946.224 .0245284
946.854 .0245324
947.483 .0245367
948.112 .0245414
948.741 .0245465
949.369 .0245518
949.996 .0245574
950.624 .0245633
951.251 .0245694
951.878 .0245756
952.504 .0245820
953.130 .0245884
953.755 .0245950
954.380 .0246017
955.005 .0246087
955.629 .0246159
956.253 .0246233
956.877 .0246310
957.500 .0246388
958.123 .0246469
958.746 .0246551
959.368 .0246634
959.990 .0246719
960.611 .0246805
961.232 .0246894
961.853 .0246985
962.473 .0247079
963.093 .0247174
963.712 .0247270
964.331 .0247367
964.950 .0247464
965.569 .0247561
966.187 .0247657
966.804 .0247751
967.422 .0247845
968.039 .0247937
968.655 .0248029
969.272 .0248118
969.887 .0248206
970.503 .0248291
971.118 .0248373
971.733 .0248452
972.347 .0248528
972.961 .0248600
973.575 .0248669
974.188 .0248734
974.801 .0248796
975.414 .0248853
976.026 .0248906
976.638 .0248954
977.250 .0248998
977.861 .0249037
978.472 .0249072
979.083 .0249103
979.693 .0249129
980.303 .0249152
980.912 .0249173
981.521 .0249189
982.130 .0249200
982.738 .0249209
983.346 .0249215
983.954 .0249219
984.562 .0249221
985.169 .0249222
985.775 .0249224
986.382 .0249227
986.988 .0249231
987.594 .0249236
988.199 .0249243
988.804 .0249250
989.409 .0249258
990.013 .0249267
990.617 .0249275
991.221 .0249285
991.824 .0249295
992.427 .0249307
993.030 .0249319
993.632 .0249333
994.234 .0249346
994.836 .0249360
995.438 .0249372
996.039 .0249383
996.640 .0249392
997.240 .0249399
997.840 .0249404
998.440 .0249407
999.040 .0249408
999.639 .0249408
1000.238 .0249407
1000.836 .0249403
1001.435 .0249395
1002.033 .0249385
1002.630 .0249370
1003.228 .0249349
1003.825 .0249324
1004.422 .0249292
1005.018 .0249254
1005.614 .0249211
1006.210 .0249162
1006.806 .0249107
1007.401 .0249046
1007.996 .0248980
1008.591 .0248908
1009.186 .0248832
1009.780 .0248750
1010.374 .0248664
1010.967 .0248575
1011.561 .0248481
1012.154 .0248385
1012.746 .0248286
1013.339 .0248186
1013.931 .0248086
1014.523 .0247985
1015.115 .0247885
1015.706 .0247787
1016.298 .0247689
1016.888 .0247593
1017.479 .0247498
1018.069 .0247406
1018.660 .0247315
1019.250 .0247226
1019.839 .0247140
1020.429 .0247056
1021.018 .0246975
1021.607 .0246897
1022.195 .0246822
1022.784 .0246750
1023.372 .0246680
1023.960 .0246614
1024.547 .0246550
1025.135 .0246488
1025.722 .0246429
1026.309 .0246371
1026.896 .0246316
1027.483 .0246261
1028.069 .0246208
1028.655 .0246156
1029.241 .0246103
1029.827 .0246050
1030.412 .0245996
1030.997 .0245939
1031.582 .0245880
1032.167 .0245818
1032.752 .0245752
1033.336 .0245681
1033.921 .0245605
1034.505 .0245522
1035.089 .0245433
1035.672 .0245337
1036.256 .0245234
1036.839 .0245123
1037.422 .0245005
1038.005 .0244879
1038.588 .0244746
1039.171 .0244607
1039.753 .0244463
1040.335 .0244313
1040.918 .0244158
1041.500 .0243998
1042.081 .0243835
1042.663 .0243668
1043.244 .0243498
1043.826 .0243325
1044.407 .0243150
1044.988 .0242974
1045.569 .0242797
1046.150 .0242621
1046.730 .0242445
1047.311 .0242272
1047.891 .0242101
1048.471 .0241933
1049.052 .0241767
1049.632 .0241604
1050.211 .0241443
1050.791 .0241284
1051.371 .0241128
1051.950 .0240974
1052.530 .0240824
1053.109 .0240677
1053.688 .0240535
1054.268 .0240398
1054.847 .0240268
1055.426 .0240144
1056.005 .0240027
1056.583 .0239916
1057.162 .0239810
1057.741 .0239708
1058.319 .0239610
1058.898 .0239515
1059.476 .0239422
1060.055 .0239333
1060.633 .0239246
1061.211 .0239162
1061.790 .0239079
1062.368 .0238999
1062.946 .0238920
1063.524 .0238843
1064.102 .0238766
1064.680 .0238688
1065.258 .0238610
1065.836 .0238532
1066.414 .0238456
1066.992 .0238382
1067.570 .0238313
1068.148 .0238249
1068.726 .0238193
1069.304 .0238145
1069.882 .0238107
1070.460 .0238077
1071.038 .0238056
1071.616 .0238043
1072.194 .0238037
1072.772 .0238036
1073.350 .0238041
1073.928 .0238052
1074.506 .0238068
1075.084 .0238088
1075.662 .0238113
1076.240 .0238142
1076.819 .0238174
1077.397 .0238208
1077.976 .0238245
1078.554 .0238284
1079.133 .0238326
1079.711 .0238371
1080.290 .0238420
1080.869 .0238476
1081.448 .0238538
1082.027 .0238609
1082.606 .0238687
1083.185 .0238773
1083.764 .0238865
1084.343 .0238964
1084.923 .0239069
1085.502 .0239178
1086.082 .0239292
1086.662 .0239408
1087.242 .0239526
1087.822 .0239645
1088.402 .0239765
1088.983 .0239885
1089.563 .0240004
1090.144 .0240123
1090.725 .0240243
1091.306 .0240365
1091.887 .0240491
1092.469 .0240622
1093.050 .0240762
1093.632 .0240911
1094.214 .0241070
1094.796 .0241241
1095.379 .0241424
1095.961 .0241618
1096.544 .0241824
1097.127 .0242042
1097.710 .0242270
1098.294 .0242511
1098.877 .0242765
1099.461 .0243031
1100.046 .0243311
1100.630 .0243606
1101.215 .0243914
1101.800 .0244236
1102.385 .0244570
1102.970 .0244914
1103.556 .0245265
1104.142 .0245624
1104.728 .0245989
1105.315 .0246362
1105.902 .0246745
1106.489 .0247138
1107.077 .0247544
1107.664 .0247964
1108.253 .0248398
1108.841 .0248844
1109.430 .0249301
1110.019 .0249765
1110.609 .0250233
1111.198 .0250705
1111.789 .0251178
1112.379 .0251655
1112.970 .0252135
1113.561 .0252620
1114.153 .0253109
1114.745 .0253601
1115.338 .0254096
1115.931 .0254590
1116.524 .0255084
1117.117 .0255576
1117.712 .0256063
1118.306 .0256549
1118.901 .0257035
1119.496 .0257526
1120.092 .0258029
1120.689 .0258546
1121.285 .0259079
1121.882 .0259629
1122.480 .0260194
1123.078 .0260773
1123.677 .0261367
1124.276 .0261976
1124.875 .0262601
1125.476 .0263245
1126.076 .0263911
1126.677 .0264603
1127.279 .0265323
1127.881 .0266073
1128.484 .0266850
1129.087 .0267174
1129.691 .0267986
1130.295 .0268814
1130.900 .0269655
1131.505 .0270507
1132.111 .0271366
1132.718 .0272233
1133.325 .0273109
1133.933 .0273995
1134.541 .0274961
1135.150 .0275820
1135.760 .0276739
1136.370 .0277663
1136.981 .0279901
1137.592 .0280968
1138.204 .0281902
1138.817 .0282754
1139.431 .0283620
1140.045 .0284366
1140.660 .0285129
1141.275 .0285911
1141.891 .0286715
1142.508 .0289474
1143.126 .0286955
1143.744 .0289204
1144.363 .0289946
1144.983 .0291496
