Measurement Sequence started on: 15-12-46-377
Integration time: 28
Scans to Average: 2 
>>>>>Begin Spectral Data<<<<<
432.689 .0000100
433.621 .0000100
434.552 .0000100
435.482 .0000100
436.410 .0000100
437.337 .0000100
438.262 .0283302
439.187 .0601450
440.110 .0996508
441.031 .1442705
441.952 .1156945
442.871 .1207851
443.789 .1255128
444.705 .1299559
445.621 .1341684
446.535 .1381926
447.447 .1405674
448.359 .1411325
449.269 .1395024
450.178 .1354228
451.086 .1289722
451.993 .1206450
452.898 .1112603
453.803 .1017504
454.706 .0929085
455.608 .0852305
456.508 .0788857
457.408 .0746051
458.306 .0713392
459.204 .0687028
460.100 .0665046
460.995 .0646338
461.888 .0630137
462.781 .0615930
463.673 .0603319
464.563 .0592032
465.452 .0581860
466.340 .0572631
467.228 .0564221
468.114 .0556534
468.999 .0549483
469.882 .0542993
470.765 .0536997
471.647 .0531447
472.528 .0526299
473.407 .0521518
474.286 .0517087
475.163 .0512995
476.040 .0509231
476.915 .0505793
477.790 .0502669
478.663 .0499851
479.535 .0497322
480.407 .0495067
481.277 .0493064
482.147 .0491291
483.015 .0489730
483.883 .0488366
484.749 .0487187
485.615 .0486192
486.479 .0485373
487.343 .0484736
488.206 .0484286
489.067 .0484019
489.928 .0483940
490.788 .0484054
491.647 .0484366
492.505 .0484881
493.362 .0485605
494.218 .0486549
495.073 .0487724
495.928 .0490380
496.781 .0492207
497.634 .0494301
498.486 .0496680
499.337 .0499366
500.187 .0502388
501.036 .0505768
501.884 .0509533
502.731 .0513725
503.578 .0518376
504.424 .0521694
505.268 .0527159
506.113 .0533185
506.956 .0539813
507.798 .0547091
508.640 .0555082
509.480 .0563873
510.320 .0573580
511.160 .0584330
511.998 .0596286
512.836 .0609611
513.672 .0624475
514.508 .0641056
515.344 .0659546
516.178 .0680123
517.012 .0702979
517.845 .0728284
518.677 .0756183
519.508 .0786786
520.339 .0820141
521.169 .0856217
521.998 .0894779
522.826 .0935464
523.654 .0977719
524.481 .1020874
525.307 .1064184
526.133 .1106783
526.958 .1147788
527.782 .1186347
528.605 .1221653
529.428 .1252978
530.250 .1279711
531.072 .1301429
531.892 .1317791
532.712 .1328603
533.532 .1333761
534.350 .1333249
535.168 .1327145
535.986 .1315582
536.802 .1298705
537.618 .1276698
538.434 .1249785
539.249 .1218368
540.063 .1182949
540.876 .1144175
541.689 .1102780
542.501 .1059562
543.313 .1015396
544.124 .0971155
544.934 .0927628
545.744 .0885550
546.553 .0845525
547.361 .0808041
548.169 .0773371
548.976 .0741696
549.783 .0713023
550.589 .0687267
551.395 .0664240
552.200 .0643671
553.004 .0625255
553.808 .0608713
554.611 .0593768
555.414 .0580192
556.216 .0567784
557.018 .0556361
557.819 .0545779
558.619 .0535922
559.419 .0526685
560.218 .0517987
561.017 .0509746
561.815 .0501901
562.613 .0494392
563.410 .0487175
564.207 .0480203
565.003 .0473446
565.799 .0466875
566.594 .0460478
567.388 .0454248
568.182 .0448181
568.976 .0442272
569.769 .0436526
570.562 .0430948
571.354 .0425546
572.145 .0420322
572.936 .0415280
573.727 .0410418
574.517 .0405745
575.307 .0401263
576.096 .0396968
576.885 .0392861
577.673 .0388942
578.461 .0385210
579.248 .0381663
580.035 .0378296
580.821 .0375108
581.607 .0372099
582.392 .0369267
583.177 .0366611
583.962 .0364130
584.746 .0361821
585.529 .0359680
586.313 .0357698
587.095 .0355868
587.878 .0354179
588.660 .0352622
589.441 .0351191
590.222 .0349880
591.003 .0348680
591.783 .0347583
592.563 .0346582
593.342 .0345668
594.121 .0344828
594.899 .0344052
595.678 .0343331
596.455 .0342654
597.233 .0342015
598.009 .0341407
598.786 .0340827
599.562 .0340270
600.338 .0339734
601.113 .0339215
601.888 .0338474
602.663 .0337986
603.437 .0337508
604.211 .0337041
604.984 .0336583
605.757 .0336136
606.530 .0335698
607.302 .0335272
608.074 .0334858
608.845 .0334458
609.616 .0334071
610.387 .0333916
611.158 .0333554
611.928 .0333208
612.697 .0332878
613.467 .0332565
614.236 .0332269
615.004 .0331990
615.773 .0331728
616.541 .0331481
617.308 .0331250
618.076 .0331031
618.843 .0330825
619.609 .0330629
620.375 .0330441
621.141 .0330259
621.907 .0330080
622.672 .0329902
623.437 .0329723
624.202 .0329540
624.966 .0329351
625.730 .0329154
626.493 .0328948
627.257 .0328730
628.020 .0328502
628.782 .0328261
629.545 .0328007
630.307 .0327739
631.068 .0327458
631.830 .0327162
632.591 .0326853
633.352 .0326531
634.112 .0326198
634.872 .0325856
635.632 .0325505
636.392 .0325149
637.151 .0324790
637.910 .0324429
638.668 .0324069
639.427 .0323711
640.185 .0323358
640.943 .0323010
641.700 .0322667
642.457 .0322332
643.214 .0322003
643.971 .0321682
644.727 .0321367
645.483 .0321059
646.239 .0320757
646.994 .0320461
647.750 .0320170
648.505 .0319885
649.259 .0319605
650.014 .0319328
650.768 .0319055
651.521 .0318783
652.275 .0318511
653.028 .0318237
653.781 .0317962
654.534 .0317683
655.286 .0317401
656.039 .0317115
656.791 .0316826
657.542 .0316533
658.294 .0316239
659.045 .0315944
659.796 .0315648
660.546 .0315354
661.297 .0315062
662.047 .0314772
662.796 .0314487
663.546 .0314206
664.295 .0313931
665.044 .0313663
665.793 .0313403
666.542 .0313151
667.290 .0312908
668.038 .0312675
668.786 .0312451
669.533 .0312237
670.281 .0312032
671.028 .0311836
671.774 .0311648
672.521 .0311468
673.267 .0311295
674.013 .0311129
674.759 .0310968
675.505 .0310813
676.250 .0310663
676.995 .0310516
677.740 .0310372
678.484 .0310231
679.229 .0310092
679.973 .0309954
680.717 .0309818
681.460 .0309681
682.204 .0309544
682.947 .0309407
683.690 .0309267
684.433 .0309125
685.175 .0308980
685.917 .0308832
686.659 .0308681
687.401 .0308527
688.142 .0308369
688.884 .0308208
689.625 .0308043
690.365 .0307875
691.106 .0307703
691.846 .0307526
692.586 .0307345
693.326 .0307159
694.066 .0306970
694.805 .0306777
695.545 .0306581
696.284 .0306382
697.022 .0306178
697.761 .0305971
698.499 .0305760
699.237 .0305543
699.975 .0305322
700.713 .0305096
701.450 .0304865
702.187 .0304630
702.924 .0304391
703.661 .0304149
704.397 .0303903
705.133 .0303654
705.869 .0303402
706.605 .0303147
707.341 .0302888
708.076 .0302627
708.811 .0302363
709.546 .0302096
710.281 .0301829
711.015 .0301561
711.749 .0301292
712.483 .0301023
713.217 .0300754
713.950 .0300485
714.684 .0300217
715.417 .0299949
716.150 .0299683
716.882 .0299417
717.615 .0299153
718.347 .0298891
719.079 .0298631
719.811 .0298373
720.542 .0298117
721.273 .0297864
722.005 .0297614
722.735 .0297367
723.466 .0297124
724.196 .0296884
724.927 .0296648
725.656 .0296416
726.386 .0296189
727.116 .0295965
727.845 .0295746
728.574 .0295530
729.303 .0295318
730.031 .0295110
730.760 .0294907
731.488 .0294709
732.216 .0294517
732.944 .0294331
733.671 .0294151
734.398 .0293978
735.125 .0293812
735.852 .0293653
736.579 .0293501
737.305 .0293356
738.031 .0293218
738.757 .0293088
739.483 .0292966
740.208 .0292852
740.933 .0292747
741.658 .0292648
742.383 .0292557
743.108 .0292471
743.832 .0292391
744.556 .0292316
745.280 .0292246
746.004 .0292180
746.727 .0292118
747.450 .0292060
748.173 .0292005
748.896 .0291952
749.618 .0291901
750.340 .0291851
751.062 .0291799
751.784 .0291747
752.506 .0291692
753.227 .0291634
753.948 .0291573
754.669 .0291509
755.389 .0291441
756.110 .0291370
756.830 .0291295
757.550 .0291216
758.269 .0291134
758.989 .0291048
759.708 .0290959
760.427 .0290867
761.146 .0290772
761.864 .0290673
762.582 .0290571
763.300 .0290467
764.018 .0290361
764.736 .0290253
765.453 .0290143
766.170 .0290033
766.887 .0289922
767.603 .0289812
768.320 .0289702
769.036 .0289593
769.751 .0289485
770.467 .0289377
771.182 .0289270
771.897 .0289163
772.612 .0289058
773.327 .0288953
774.041 .0288848
774.755 .0288744
775.469 .0288640
776.183 .0288535
776.896 .0288431
777.609 .0288325
778.322 .0288219
779.035 .0288111
779.747 .0288003
780.459 .0287892
781.171 .0287780
781.882 .0287666
782.594 .0287550
783.305 .0287432
784.016 .0287311
784.726 .0287187
785.436 .0287059
786.147 .0286855
786.856 .0286718
787.566 .0286577
788.275 .0286432
788.984 .0286283
789.693 .0286129
790.401 .0285970
791.110 .0285806
791.818 .0285636
792.525 .0285461
793.233 .0285280
793.940 .0285094
794.647 .0284985
795.353 .0284791
796.060 .0284592
796.766 .0284388
797.472 .0284179
798.177 .0283965
798.883 .0283746
799.588 .0283522
800.292 .0283295
800.997 .0283064
801.701 .0282830
802.405 .0282594
803.109 .0282357
803.812 .0282119
804.515 .0281879
805.218 .0281639
805.921 .0281397
806.623 .0281154
807.325 .0280909
808.027 .0280664
808.728 .0280419
809.429 .0280174
810.130 .0279930
810.831 .0279688
811.531 .0279447
812.231 .0279210
812.931 .0278975
813.630 .0278744
814.330 .0278517
815.029 .0278295
815.727 .0278078
816.426 .0277868
817.124 .0277663
817.821 .0277465
818.519 .0277274
819.216 .0277090
819.913 .0276913
820.609 .0276745
821.306 .0276587
822.002 .0276437
822.697 .0276298
823.393 .0276169
824.088 .0276051
824.783 .0275943
825.477 .0275845
826.171 .0275756
826.865 .0275675
827.559 .0275604
828.252 .0275540
828.945 .0275483
829.638 .0275434
830.330 .0275391
831.023 .0275355
831.714 .0275324
832.406 .0275298
833.097 .0275276
833.788 .0275259
834.479 .0275245
835.169 .0275235
835.859 .0275228
836.548 .0275224
837.238 .0275222
837.927 .0275222
838.615 .0275224
839.304 .0275226
839.992 .0275229
840.680 .0275234
841.367 .0275239
842.054 .0275246
842.741 .0275254
843.428 .0275263
844.114 .0275273
844.800 .0275282
845.485 .0275290
846.170 .0275296
846.855 .0275300
847.540 .0275300
848.224 .0275297
848.908 .0275291
849.592 .0275280
850.275 .0275267
850.958 .0275250
851.641 .0275228
852.323 .0275203
853.005 .0275172
853.687 .0275136
854.368 .0275094
855.049 .0275046
855.730 .0274992
856.410 .0274932
857.090 .0274866
857.769 .0274794
858.449 .0274717
859.128 .0274634
859.806 .0274548
860.485 .0274458
861.163 .0274365
861.840 .0274270
862.518 .0274174
863.195 .0274079
863.871 .0273985
864.548 .0273894
865.224 .0273805
865.899 .0273718
866.574 .0273634
867.249 .0273553
867.924 .0273474
868.598 .0273398
869.272 .0273325
869.946 .0273257
870.619 .0273191
871.292 .0273129
871.964 .0273070
872.636 .0273014
873.308 .0272960
873.979 .0272906
874.651 .0272853
875.321 .0272800
875.992 .0272746
876.662 .0272691
877.331 .0272635
878.001 .0272578
878.670 .0272521
879.338 .0272461
880.007 .0272400
880.675 .0272337
881.342 .0272271
882.009 .0272204
882.676 .0272134
883.343 .0272063
884.009 .0271990
884.675 .0271914
885.340 .0271837
886.005 .0271758
886.670 .0271675
887.334 .0271591
887.998 .0271503
888.662 .0271414
889.325 .0271321
889.988 .0271227
890.650 .0271131
891.312 .0271033
891.974 .0270933
892.636 .0270829
893.297 .0270722
893.957 .0270611
894.618 .0270494
895.278 .0270371
895.937 .0270242
896.596 .0270105
897.255 .0269961
897.914 .0269809
898.572 .0269648
899.230 .0269479
899.887 .0269301
900.544 .0269114
901.201 .0268918
901.857 .0268583
902.513 .0268364
903.168 .0268137
903.823 .0267902
904.478 .0267658
905.132 .0267407
905.786 .0267148
906.440 .0266881
907.093 .0266608
907.746 .0266327
908.399 .0266041
909.051 .0265750
909.703 .0265454
910.354 .0265301
911.005 .0265002
911.656 .0264701
912.306 .0264398
912.956 .0264094
913.605 .0263789
914.254 .0263484
914.903 .0263178
915.551 .0262873
916.199 .0262568
916.847 .0262264
917.494 .0261963
918.141 .0261664
918.788 .0261367
919.434 .0261073
920.079 .0260781
920.725 .0260492
921.370 .0260205
922.014 .0259920
922.658 .0259638
923.302 .0259358
923.946 .0259081
924.589 .0258808
925.231 .0258538
925.873 .0258273
926.515 .0258012
927.157 .0257756
927.798 .0257504
928.439 .0257258
929.079 .0257017
929.719 .0256782
930.359 .0256553
930.998 .0256331
931.637 .0256117
932.275 .0255910
932.913 .0255712
933.551 .0255522
934.188 .0255340
934.825 .0255167
935.462 .0255002
936.098 .0254846
936.733 .0254699
937.369 .0254561
938.004 .0254432
938.638 .0254313
939.273 .0254204
939.907 .0254105
940.540 .0254015
941.173 .0253935
941.806 .0253864
942.438 .0253801
943.070 .0253747
943.702 .0253702
944.333 .0253665
944.964 .0253636
945.594 .0253614
946.224 .0253600
946.854 .0253593
947.483 .0253592
948.112 .0253597
948.741 .0253605
949.369 .0253618
949.996 .0253634
950.624 .0253653
951.251 .0253675
951.878 .0253699
952.504 .0253725
953.130 .0253753
953.755 .0253783
954.380 .0253815
955.005 .0253847
955.629 .0253882
956.253 .0253917
956.877 .0253953
957.500 .0253990
958.123 .0254028
958.746 .0254067
959.368 .0254108
959.990 .0254148
960.611 .0254189
961.232 .0254230
961.853 .0254270
962.473 .0254310
963.093 .0254349
963.712 .0254387
964.331 .0254425
964.950 .0254463
965.569 .0254501
966.187 .0254540
966.804 .0254580
967.422 .0254619
968.039 .0254659
968.655 .0254698
969.272 .0254736
969.887 .0254774
970.503 .0254811
971.118 .0254847
971.733 .0254882
972.347 .0254916
972.961 .0254950
973.575 .0254983
974.188 .0255016
974.801 .0255047
975.414 .0255076
976.026 .0255102
976.638 .0255127
977.250 .0255148
977.861 .0255166
978.472 .0255180
979.083 .0255191
979.693 .0255199
980.303 .0255204
980.912 .0255199
981.521 .0255199
982.130 .0255198
982.738 .0255195
983.346 .0255192
983.954 .0255188
984.562 .0255183
985.169 .0255180
985.775 .0255176
986.382 .0255173
986.988 .0255171
987.594 .0255170
988.199 .0255170
988.804 .0255170
989.409 .0255175
990.013 .0255176
990.617 .0255177
991.221 .0255177
991.824 .0255176
992.427 .0255174
993.030 .0255171
993.632 .0255168
994.234 .0255164
994.836 .0255161
995.438 .0255158
996.039 .0255157
996.640 .0255159
997.240 .0255162
997.840 .0255168
998.440 .0255178
999.040 .0255189
999.639 .0255204
1000.238 .0255221
1000.836 .0255239
1001.435 .0255260
1002.033 .0255282
1002.630 .0255305
1003.228 .0255328
1003.825 .0255351
1004.422 .0255373
1005.018 .0255393
1005.614 .0255409
1006.210 .0255423
1006.806 .0255431
1007.401 .0255435
1007.996 .0255434
1008.591 .0255427
1009.186 .0255415
1009.780 .0255397
1010.374 .0255375
1010.967 .0255347
1011.561 .0255315
1012.154 .0255278
1012.746 .0255237
1013.339 .0255191
1013.931 .0255142
1014.523 .0255089
1015.115 .0255032
1015.706 .0254974
1016.298 .0254912
1016.888 .0254849
1017.479 .0254784
1018.069 .0254717
1018.660 .0254649
1019.250 .0254579
1019.839 .0254509
1020.429 .0254439
1021.018 .0254369
1021.607 .0254300
1022.195 .0254233
1022.784 .0254169
1023.372 .0254108
1023.960 .0254051
1024.547 .0253997
1025.135 .0253946
1025.722 .0253899
1026.309 .0253854
1026.896 .0253813
1027.483 .0253775
1028.069 .0253741
1028.655 .0253711
1029.241 .0253684
1029.827 .0253659
1030.412 .0253636
1030.997 .0253613
1031.582 .0253589
1032.167 .0253563
1032.752 .0253533
1033.336 .0253500
1033.921 .0253462
1034.505 .0253420
1035.089 .0253373
1035.672 .0253320
1036.256 .0253262
1036.839 .0253198
1037.422 .0253126
1038.005 .0253047
1038.588 .0252961
1039.171 .0252867
1039.753 .0252766
1040.335 .0252659
1040.918 .0252545
1041.500 .0252426
1042.081 .0252303
1042.663 .0252176
1043.244 .0252046
1043.826 .0251913
1044.407 .0251777
1044.988 .0251639
1045.569 .0251498
1046.150 .0251355
1046.730 .0251209
1047.311 .0251061
1047.891 .0250911
1048.471 .0250760
1049.052 .0250608
1049.632 .0250457
1050.211 .0250307
1050.791 .0250158
1051.371 .0250010
1051.950 .0249863
1052.530 .0249717
1053.109 .0249571
1053.688 .0249425
1054.268 .0249280
1054.847 .0249136
1055.426 .0248994
1056.005 .0248855
1056.583 .0248720
1057.162 .0248588
1057.741 .0248460
1058.319 .0248337
1058.898 .0248217
1059.476 .0248100
1060.055 .0247986
1060.633 .0247873
1061.211 .0247763
1061.790 .0247656
1062.368 .0247552
1062.946 .0247451
1063.524 .0247355
1064.102 .0247264
1064.680 .0247177
1065.258 .0247093
1065.836 .0247013
1066.414 .0246936
1066.992 .0246862
1067.570 .0246790
1068.148 .0246721
1068.726 .0246657
1069.304 .0246597
1069.882 .0246542
1070.460 .0246494
1071.038 .0246453
1071.616 .0246418
1072.194 .0246388
1072.772 .0246362
1073.350 .0246339
1073.928 .0246319
1074.506 .0246301
1075.084 .0246285
1075.662 .0246273
1076.240 .0246264
1076.819 .0246262
1077.397 .0246265
1077.976 .0246275
1078.554 .0246290
1079.133 .0246311
1079.711 .0246335
1080.290 .0246362
1080.869 .0246393
1081.448 .0246426
1082.027 .0246462
1082.606 .0246502
1083.185 .0246544
1083.764 .0246590
1084.343 .0246638
1084.923 .0246687
1085.502 .0246737
1086.082 .0246787
1086.662 .0246836
1087.242 .0246886
1087.822 .0246938
1088.402 .0246992
1088.983 .0247050
1089.563 .0247113
1090.144 .0247182
1090.725 .0247258
1091.306 .0247342
1091.887 .0247434
1092.469 .0247536
1093.050 .0247647
1093.632 .0247766
1094.214 .0247895
1094.796 .0248033
1095.379 .0248179
1095.961 .0248331
1096.544 .0248489
1097.127 .0248652
1097.710 .0248817
1098.294 .0248985
1098.877 .0249155
1099.461 .0249326
1100.046 .0249501
1100.630 .0249678
1101.215 .0249860
1101.800 .0250049
1102.385 .0250247
1102.970 .0250454
1103.556 .0250674
1104.142 .0250907
1104.728 .0251153
1105.315 .0251415
1105.902 .0251694
1106.489 .0251991
1107.077 .0252307
1107.664 .0252644
1108.253 .0253002
1108.841 .0253379
1109.430 .0253778
1110.019 .0254196
1110.609 .0254633
1111.198 .0255085
1111.789 .0255552
1112.379 .0256029
1112.970 .0256517
1113.561 .0257014
1114.153 .0257517
1114.745 .0258029
1115.338 .0258549
1115.931 .0259077
1116.524 .0259614
1117.117 .0260160
1117.712 .0260717
1118.306 .0261284
1118.901 .0261861
1119.496 .0262447
1120.092 .0263043
1120.689 .0263646
1121.285 .0264257
1121.882 .0264875
1122.480 .0265499
1123.078 .0266129
1123.677 .0266764
1124.276 .0267407
1124.875 .0268056
1125.476 .0268713
1126.076 .0269379
1126.677 .0270053
1127.279 .0270739
1127.881 .0271439
1128.484 .0272157
1129.087 .0272440
1129.691 .0273186
1130.295 .0273966
1130.900 .0274787
1131.505 .0275657
1132.111 .0276584
1132.718 .0277576
1133.325 .0278640
1133.933 .0279781
1134.541 .0280987
1135.150 .0282296
1135.760 .0283688
1136.370 .0285185
1136.981 .0284337
1137.592 .0285778
1138.204 .0287272
1138.817 .0288912
1139.431 .0290681
1140.045 .0292665
1140.660 .0294827
1141.275 .0297175
1141.891 .0299741
1142.508 .0301956
1143.126 .0305324
1143.744 .0308152
1144.363 .0311611
1144.983 .0315128
