Measurement Sequence started on: 15-12-46-377
Integration time: 28
Scans to Average: 2 
>>>>>Begin Spectral Data<<<<<
432.689 .0000100
433.621 .0000100
434.552 .0000100
435.482 .0000100
436.410 .0000100
437.337 .0000100
438.262 .0293578
439.187 .0621185
440.110 .1027437
441.031 .1484963
441.952 .1180512
442.871 .1231371
443.789 .1278505
444.705 .1322742
445.621 .1364639
446.535 .1404630
447.447 .1427568
448.359 .1431890
449.269 .1413627
450.178 .1370214
451.086 .1302484
451.993 .1215587
452.898 .1118002
453.803 .1019341
454.706 .0927765
455.608 .0848351
456.508 .0782779
457.408 .0738589
458.306 .0704820
459.204 .0677520
460.100 .0654698
460.995 .0635232
461.888 .0618316
462.781 .0603415
463.673 .0590125
464.563 .0578169
465.452 .0567341
466.340 .0557496
467.228 .0548518
468.114 .0540320
468.999 .0532815
469.882 .0525928
470.765 .0519582
471.647 .0513709
472.528 .0508246
473.407 .0503149
474.286 .0498391
475.163 .0493956
476.040 .0489826
476.915 .0485995
477.790 .0482455
478.663 .0479195
479.535 .0476202
480.407 .0473461
481.277 .0470957
482.147 .0468670
483.015 .0466590
483.883 .0464712
484.749 .0463035
485.615 .0461570
486.479 .0460323
487.343 .0459308
488.206 .0458537
489.067 .0458019
489.928 .0457765
490.788 .0457785
491.647 .0458089
492.505 .0458681
493.362 .0459565
494.218 .0460741
495.073 .0462209
495.928 .0465482
496.781 .0467669
497.634 .0470137
498.486 .0472883
499.337 .0475906
500.187 .0479202
501.036 .0482767
501.884 .0486609
502.731 .0490737
503.578 .0495165
504.424 .0497933
505.268 .0502883
506.113 .0508222
506.956 .0513989
507.798 .0520237
508.640 .0527039
509.480 .0534495
510.320 .0542731
511.160 .0551888
511.998 .0562144
512.836 .0573694
513.672 .0586726
514.508 .0601466
515.344 .0618131
516.178 .0636927
517.012 .0658068
517.845 .0681746
518.677 .0708146
519.508 .0737396
520.339 .0769583
521.169 .0804720
521.998 .0842607
522.826 .0882923
523.654 .0925148
524.481 .0968620
525.307 .1012583
526.133 .1056145
526.958 .1098392
527.782 .1138438
528.605 .1175496
529.428 .1208856
530.250 .1237919
531.072 .1262294
531.892 .1281641
532.712 .1295737
533.532 .1304460
534.350 .1307721
535.168 .1305523
535.986 .1297887
536.802 .1284866
537.618 .1266532
538.434 .1243020
539.249 .1214673
540.063 .1181929
540.876 .1145400
541.689 .1105824
542.501 .1064018
543.313 .1020894
544.124 .0977353
544.934 .0934232
545.744 .0892247
546.553 .0852006
547.361 .0813969
548.169 .0778384
548.976 .0745422
549.783 .0715133
550.589 .0687466
551.395 .0662323
552.200 .0639533
553.004 .0618901
553.808 .0600240
554.611 .0583376
555.414 .0568127
556.216 .0554315
557.018 .0541769
557.819 .0530335
558.619 .0519866
559.419 .0510232
560.218 .0501314
561.017 .0493014
561.815 .0485251
562.613 .0477947
563.410 .0471025
564.207 .0464425
565.003 .0458092
565.799 .0451972
566.594 .0446023
567.388 .0440218
568.182 .0434534
568.976 .0428956
569.769 .0423478
570.562 .0418098
571.354 .0412823
572.145 .0407669
572.936 .0402645
573.727 .0397768
574.517 .0393050
575.307 .0388508
576.096 .0384149
576.885 .0379987
577.673 .0376027
578.461 .0372270
579.248 .0368718
580.035 .0365374
580.821 .0362234
581.607 .0359298
582.392 .0356564
583.177 .0354029
583.962 .0351682
584.746 .0349514
585.529 .0347512
586.313 .0345663
587.095 .0343958
587.878 .0342386
588.660 .0340935
589.441 .0339598
590.222 .0338363
591.003 .0337224
591.783 .0336174
592.563 .0335205
593.342 .0334310
594.121 .0333481
594.899 .0332712
595.678 .0331996
596.455 .0331329
597.233 .0330707
598.009 .0330125
598.786 .0329580
599.562 .0329067
600.338 .0328584
601.113 .0328128
601.888 .0327516
602.663 .0327114
603.437 .0326732
604.211 .0326367
604.984 .0326018
605.757 .0325683
606.530 .0325360
607.302 .0325050
608.074 .0324752
608.845 .0324465
609.616 .0324191
610.387 .0324085
611.158 .0323832
611.928 .0323592
612.697 .0323364
613.467 .0323149
614.236 .0322944
615.004 .0322749
615.773 .0322562
616.541 .0322382
617.308 .0322208
618.076 .0322037
618.843 .0321869
619.609 .0321702
620.375 .0321535
621.141 .0321366
621.907 .0321196
622.672 .0321022
623.437 .0320845
624.202 .0320662
624.966 .0320474
625.730 .0320279
626.493 .0320075
627.257 .0319864
628.020 .0319643
628.782 .0319412
629.545 .0319173
630.307 .0318925
631.068 .0318669
631.830 .0318407
632.591 .0318138
633.352 .0317864
634.112 .0317586
634.872 .0317304
635.632 .0317019
636.392 .0316731
637.151 .0316441
637.910 .0316149
638.668 .0315857
639.427 .0315564
640.185 .0315269
640.943 .0314975
641.700 .0314679
642.457 .0314384
643.214 .0314089
643.971 .0313795
644.727 .0313503
645.483 .0313213
646.239 .0312925
646.994 .0312639
647.750 .0312354
648.505 .0312072
649.259 .0311790
650.014 .0311509
650.768 .0311230
651.521 .0310952
652.275 .0310676
653.028 .0310402
653.781 .0310132
654.534 .0309865
655.286 .0309603
656.039 .0309345
656.791 .0309093
657.542 .0308848
658.294 .0308609
659.045 .0308379
659.796 .0308157
660.546 .0307943
661.297 .0307736
662.047 .0307538
662.796 .0307346
663.546 .0307160
664.295 .0306981
665.044 .0306808
665.793 .0306642
666.542 .0306483
667.290 .0306334
668.038 .0306193
668.786 .0306062
669.533 .0305938
670.281 .0305822
671.028 .0305712
671.774 .0305606
672.521 .0305504
673.267 .0305404
674.013 .0305306
674.759 .0305211
675.505 .0305117
676.250 .0305025
676.995 .0304935
677.740 .0304845
678.484 .0304755
679.229 .0304664
679.973 .0304571
680.717 .0304474
681.460 .0304373
682.204 .0304268
682.947 .0304156
683.690 .0304039
684.433 .0303916
685.175 .0303787
685.917 .0303652
686.659 .0303512
687.401 .0303367
688.142 .0303217
688.884 .0303062
689.625 .0302903
690.365 .0302740
691.106 .0302572
691.846 .0302401
692.586 .0302225
693.326 .0302047
694.066 .0301865
694.805 .0301681
695.545 .0301496
696.284 .0301310
697.022 .0301124
697.761 .0300939
698.499 .0300754
699.237 .0300569
699.975 .0300385
700.713 .0300201
701.450 .0300016
702.187 .0299830
702.924 .0299643
703.661 .0299453
704.397 .0299262
705.133 .0299067
705.869 .0298869
706.605 .0298668
707.341 .0298464
708.076 .0298256
708.811 .0298046
709.546 .0297831
710.281 .0297613
711.015 .0297391
711.749 .0297165
712.483 .0296936
713.217 .0296702
713.950 .0296465
714.684 .0296223
715.417 .0295979
716.150 .0295730
716.882 .0295479
717.615 .0295224
718.347 .0294966
719.079 .0294706
719.811 .0294444
720.542 .0294181
721.273 .0293917
722.005 .0293654
722.735 .0293393
723.466 .0293134
724.196 .0292877
724.927 .0292623
725.656 .0292373
726.386 .0292126
727.116 .0291883
727.845 .0291646
728.574 .0291414
729.303 .0291190
730.031 .0290974
730.760 .0290766
731.488 .0290567
732.216 .0290377
732.944 .0290196
733.671 .0290025
734.398 .0289862
735.125 .0289708
735.852 .0289563
736.579 .0289426
737.305 .0289298
738.031 .0289178
738.757 .0289065
739.483 .0288959
740.208 .0288859
740.933 .0288766
741.658 .0288677
742.383 .0288593
743.108 .0288514
743.832 .0288439
744.556 .0288367
745.280 .0288298
746.004 .0288233
746.727 .0288169
747.450 .0288108
748.173 .0288048
748.896 .0287992
749.618 .0287938
750.340 .0287887
751.062 .0287841
751.784 .0287798
752.506 .0287759
753.227 .0287723
753.948 .0287692
754.669 .0287665
755.389 .0287641
756.110 .0287622
756.830 .0287605
757.550 .0287593
758.269 .0287584
758.989 .0287579
759.708 .0287577
760.427 .0287576
761.146 .0287577
761.864 .0287577
762.582 .0287577
763.300 .0287574
764.018 .0287569
764.736 .0287561
765.453 .0287549
766.170 .0287533
766.887 .0287512
767.603 .0287487
768.320 .0287457
769.036 .0287421
769.751 .0287379
770.467 .0287331
771.182 .0287274
771.897 .0287211
772.612 .0287139
773.327 .0287060
774.041 .0286972
774.755 .0286876
775.469 .0286773
776.183 .0286663
776.896 .0286546
777.609 .0286423
778.322 .0286292
779.035 .0286155
779.747 .0286012
780.459 .0285862
781.171 .0285706
781.882 .0285543
782.594 .0285374
783.305 .0285198
784.016 .0285015
784.726 .0284826
785.436 .0284631
786.147 .0284315
786.856 .0284104
787.566 .0283886
788.275 .0283664
788.984 .0283436
789.693 .0283205
790.401 .0282971
791.110 .0282732
791.818 .0282490
792.525 .0282245
793.233 .0281995
793.940 .0281742
794.647 .0281609
795.353 .0281354
796.060 .0281098
796.766 .0280842
797.472 .0280587
798.177 .0280332
798.883 .0280079
799.588 .0279828
800.292 .0279578
800.997 .0279331
801.701 .0279085
802.405 .0278842
803.109 .0278601
803.812 .0278362
804.515 .0278126
805.218 .0277891
805.921 .0277659
806.623 .0277429
807.325 .0277200
808.027 .0276974
808.728 .0276749
809.429 .0276526
810.130 .0276305
810.831 .0276087
811.531 .0275870
812.231 .0275655
812.931 .0275442
813.630 .0275232
814.330 .0275024
815.029 .0274819
815.727 .0274618
816.426 .0274422
817.124 .0274232
817.821 .0274047
818.519 .0273868
819.216 .0273697
819.913 .0273532
820.609 .0273375
821.306 .0273225
822.002 .0273084
822.697 .0272952
823.393 .0272828
824.088 .0272713
824.783 .0272607
825.477 .0272508
826.171 .0272416
826.865 .0272330
827.559 .0272251
828.252 .0272177
828.945 .0272110
829.638 .0272049
830.330 .0271994
831.023 .0271946
831.714 .0271902
832.406 .0271864
833.097 .0271829
833.788 .0271797
834.479 .0271768
835.169 .0271743
835.859 .0271721
836.548 .0271703
837.238 .0271691
837.927 .0271684
838.615 .0271683
839.304 .0271687
839.992 .0271698
840.680 .0271713
841.367 .0271734
842.054 .0271761
842.741 .0271794
843.428 .0271834
844.114 .0271880
844.800 .0271934
845.485 .0271995
846.170 .0272061
846.855 .0272134
847.540 .0272210
848.224 .0272291
848.908 .0272373
849.592 .0272458
850.275 .0272544
850.958 .0272631
851.641 .0272717
852.323 .0272803
853.005 .0272887
853.687 .0272969
854.368 .0273046
855.049 .0273119
855.730 .0273187
856.410 .0273250
857.090 .0273307
857.769 .0273360
858.449 .0273408
859.128 .0273452
859.806 .0273491
860.485 .0273526
861.163 .0273556
861.840 .0273582
862.518 .0273604
863.195 .0273622
863.871 .0273637
864.548 .0273648
865.224 .0273656
865.899 .0273661
866.574 .0273662
867.249 .0273659
867.924 .0273652
868.598 .0273640
869.272 .0273623
869.946 .0273600
870.619 .0273571
871.292 .0273536
871.964 .0273495
872.636 .0273448
873.308 .0273394
873.979 .0273334
874.651 .0273267
875.321 .0273193
875.992 .0273111
876.662 .0273021
877.331 .0272923
878.001 .0272816
878.670 .0272701
879.338 .0272577
880.007 .0272444
880.675 .0272304
881.342 .0272155
882.009 .0271999
882.676 .0271837
883.343 .0271668
884.009 .0271493
884.675 .0271313
885.340 .0271129
886.005 .0270940
886.670 .0270747
887.334 .0270551
887.998 .0270352
888.662 .0270150
889.325 .0269945
889.988 .0269737
890.650 .0269527
891.312 .0269314
891.974 .0269099
892.636 .0268881
893.297 .0268660
893.957 .0268435
894.618 .0268205
895.278 .0267970
895.937 .0267730
896.596 .0267485
897.255 .0267232
897.914 .0266973
898.572 .0266707
899.230 .0266434
899.887 .0266155
900.544 .0265869
901.201 .0265577
901.857 .0265111
902.513 .0264804
903.168 .0264492
903.823 .0264175
904.478 .0263854
905.132 .0263529
905.786 .0263200
906.440 .0262868
907.093 .0262534
907.746 .0262197
908.399 .0261859
909.051 .0261520
909.703 .0261182
910.354 .0261020
911.005 .0260686
911.656 .0260355
912.306 .0260028
912.956 .0259707
913.605 .0259391
914.254 .0259081
914.903 .0258778
915.551 .0258483
916.199 .0258194
916.847 .0257913
917.494 .0257638
918.141 .0257371
918.788 .0257111
919.434 .0256857
920.079 .0256610
920.725 .0256369
921.370 .0256134
922.014 .0255903
922.658 .0255677
923.302 .0255455
923.946 .0255237
924.589 .0255023
925.231 .0254811
925.873 .0254603
926.515 .0254398
927.157 .0254196
927.798 .0253998
928.439 .0253803
929.079 .0253613
929.719 .0253427
930.359 .0253245
930.998 .0253067
931.637 .0252894
932.275 .0252725
932.913 .0252559
933.551 .0252398
934.188 .0252240
934.825 .0252088
935.462 .0251940
936.098 .0251799
936.733 .0251663
937.369 .0251534
938.004 .0251412
938.638 .0251296
939.273 .0251188
939.907 .0251087
940.540 .0250994
941.173 .0250909
941.806 .0250831
942.438 .0250763
943.070 .0250703
943.702 .0250652
944.333 .0250609
944.964 .0250574
945.594 .0250545
946.224 .0250523
946.854 .0250506
947.483 .0250494
948.112 .0250487
948.741 .0250485
949.369 .0250489
949.996 .0250498
950.624 .0250512
951.251 .0250532
951.878 .0250557
952.504 .0250586
953.130 .0250621
953.755 .0250662
954.380 .0250708
955.005 .0250760
955.629 .0250819
956.253 .0250885
956.877 .0250958
957.500 .0251037
958.123 .0251122
958.746 .0251214
959.368 .0251311
959.990 .0251414
960.611 .0251521
961.232 .0251634
961.853 .0251750
962.473 .0251871
963.093 .0251995
963.712 .0252123
964.331 .0252252
964.950 .0252384
965.569 .0252517
966.187 .0252651
966.804 .0252786
967.422 .0252922
968.039 .0253058
968.655 .0253195
969.272 .0253332
969.887 .0253468
970.503 .0253604
971.118 .0253740
971.733 .0253875
972.347 .0254008
972.961 .0254139
973.575 .0254267
974.188 .0254392
974.801 .0254514
975.414 .0254632
976.026 .0254745
976.638 .0254855
977.250 .0254960
977.861 .0255060
978.472 .0255156
979.083 .0255249
979.693 .0255337
980.303 .0255421
980.912 .0255533
981.521 .0255610
982.130 .0255684
982.738 .0255758
983.346 .0255831
983.954 .0255905
984.562 .0255979
985.169 .0256053
985.775 .0256128
986.382 .0256204
986.988 .0256279
987.594 .0256354
988.199 .0256428
988.804 .0256500
989.409 .0256540
990.013 .0256609
990.617 .0256676
991.221 .0256741
991.824 .0256802
992.427 .0256859
993.030 .0256913
993.632 .0256963
994.234 .0257008
994.836 .0257048
995.438 .0257085
996.039 .0257118
996.640 .0257147
997.240 .0257173
997.840 .0257197
998.440 .0257220
999.040 .0257241
999.639 .0257260
1000.238 .0257276
1000.836 .0257288
1001.435 .0257294
1002.033 .0257294
1002.630 .0257286
1003.228 .0257271
1003.825 .0257247
1004.422 .0257214
1005.018 .0257173
1005.614 .0257123
1006.210 .0257065
1006.806 .0256998
1007.401 .0256923
1007.996 .0256839
1008.591 .0256746
1009.186 .0256645
1009.780 .0256537
1010.374 .0256423
1010.967 .0256303
1011.561 .0256179
1012.154 .0256051
1012.746 .0255920
1013.339 .0255787
1013.931 .0255652
1014.523 .0255514
1015.115 .0255374
1015.706 .0255230
1016.298 .0255084
1016.888 .0254936
1017.479 .0254785
1018.069 .0254632
1018.660 .0254479
1019.250 .0254326
1019.839 .0254173
1020.429 .0254020
1021.018 .0253869
1021.607 .0253718
1022.195 .0253568
1022.784 .0253418
1023.372 .0253270
1023.960 .0253123
1024.547 .0252978
1025.135 .0252836
1025.722 .0252696
1026.309 .0252559
1026.896 .0252424
1027.483 .0252291
1028.069 .0252159
1028.655 .0252026
1029.241 .0251892
1029.827 .0251755
1030.412 .0251616
1030.997 .0251473
1031.582 .0251326
1032.167 .0251176
1032.752 .0251021
1033.336 .0250862
1033.921 .0250698
1034.505 .0250530
1035.089 .0250358
1035.672 .0250183
1036.256 .0250004
1036.839 .0249822
1037.422 .0249639
1038.005 .0249455
1038.588 .0249270
1039.171 .0249086
1039.753 .0248902
1040.335 .0248720
1040.918 .0248539
1041.500 .0248360
1042.081 .0248183
1042.663 .0248009
1043.244 .0247838
1043.826 .0247670
1044.407 .0247506
1044.988 .0247344
1045.569 .0247185
1046.150 .0247028
1046.730 .0246873
1047.311 .0246721
1047.891 .0246569
1048.471 .0246420
1049.052 .0246271
1049.632 .0246124
1050.211 .0245979
1050.791 .0245835
1051.371 .0245693
1051.950 .0245553
1052.530 .0245414
1053.109 .0245276
1053.688 .0245139
1054.268 .0245003
1054.847 .0244868
1055.426 .0244734
1056.005 .0244601
1056.583 .0244470
1057.162 .0244339
1057.741 .0244209
1058.319 .0244079
1058.898 .0243948
1059.476 .0243818
1060.055 .0243688
1060.633 .0243558
1061.211 .0243430
1061.790 .0243305
1062.368 .0243184
1062.946 .0243069
1063.524 .0242960
1064.102 .0242857
1064.680 .0242760
1065.258 .0242669
1065.836 .0242586
1066.414 .0242509
1066.992 .0242442
1067.570 .0242383
1068.148 .0242334
1068.726 .0242296
1069.304 .0242266
1069.882 .0242246
1070.460 .0242233
1071.038 .0242226
1071.616 .0242224
1072.194 .0242224
1072.772 .0242227
1073.350 .0242231
1073.928 .0242239
1074.506 .0242248
1075.084 .0242260
1075.662 .0242275
1076.240 .0242292
1076.819 .0242311
1077.397 .0242332
1077.976 .0242355
1078.554 .0242379
1079.133 .0242406
1079.711 .0242436
1080.290 .0242472
1080.869 .0242516
1081.448 .0242568
1082.027 .0242631
1082.606 .0242704
1083.185 .0242787
1083.764 .0242878
1084.343 .0242979
1084.923 .0243086
1085.502 .0243202
1086.082 .0243325
1086.662 .0243458
1087.242 .0243600
1087.822 .0243754
1088.402 .0243918
1088.983 .0244093
1089.563 .0244278
1090.144 .0244472
1090.725 .0244674
1091.306 .0244883
1091.887 .0245100
1092.469 .0245322
1093.050 .0245552
1093.632 .0245788
1094.214 .0246032
1094.796 .0246282
1095.379 .0246538
1095.961 .0246799
1096.544 .0247063
1097.127 .0247331
1097.710 .0247600
1098.294 .0247872
1098.877 .0248145
1099.461 .0248420
1100.046 .0248697
1100.630 .0248975
1101.215 .0249254
1101.800 .0249534
1102.385 .0249813
1102.970 .0250092
1103.556 .0250369
1104.142 .0250647
1104.728 .0250926
1105.315 .0251206
1105.902 .0251489
1106.489 .0251775
1107.077 .0252066
1107.664 .0252363
1108.253 .0252666
1108.841 .0252978
1109.430 .0253301
1110.019 .0253637
1110.609 .0253988
1111.198 .0254358
1111.789 .0254745
1112.379 .0255152
1112.970 .0255577
1113.561 .0256017
1114.153 .0256470
1114.745 .0256933
1115.338 .0257405
1115.931 .0257883
1116.524 .0258366
1117.117 .0258852
1117.712 .0259344
1118.306 .0259840
1118.901 .0260339
1119.496 .0260840
1120.092 .0261341
1120.689 .0261841
1121.285 .0262339
1121.882 .0262838
1122.480 .0263340
1123.078 .0263850
1123.677 .0264374
1124.276 .0264914
1124.875 .0265475
1125.476 .0266058
1126.076 .0266662
1126.677 .0267286
1127.279 .0267927
1127.881 .0268586
1128.484 .0269261
1129.087 .0269553
1129.691 .0270247
1130.295 .0270965
1130.900 .0271710
1131.505 .0272485
1132.111 .0273292
1132.718 .0274134
1133.325 .0275020
1133.933 .0275960
1134.541 .0276855
1135.150 .0277826
1135.760 .0278916
1136.370 .0280238
1136.981 .0279955
1137.592 .0281253
1138.204 .0282650
1138.817 .0284083
1139.431 .0285529
1140.045 .0287020
1140.660 .0288539
1141.275 .0290278
1141.891 .0292314
1142.508 .0291515
1143.126 .0294168
1143.744 .0297974
1144.363 .0304929
1144.983 .0310185
