Measurement Sequence started on: 15-12-46-377
Integration time: 28
Scans to Average: 2 
>>>>>Begin Spectral Data<<<<<
432.689 .0000100
433.621 .0000100
434.552 .0000100
435.482 .0000100
436.410 .0000100
437.337 .0000100
438.262 .0267624
439.187 .0568005
440.110 .0940611
441.031 .1360693
441.952 .1089468
442.871 .1137552
443.789 .1182255
444.705 .1224284
445.621 .1264151
446.535 .1302226
447.447 .1324727
448.359 .1330158
449.269 .1314906
450.178 .1276612
451.086 .1216029
451.993 .1137822
452.898 .1049727
453.803 .0960487
454.706 .0877558
455.608 .0805561
456.508 .0746042
457.408 .0705868
458.306 .0675110
459.204 .0650137
460.100 .0629161
460.995 .0611177
461.888 .0595501
462.781 .0581641
463.673 .0569250
464.563 .0558056
465.452 .0547857
466.340 .0538499
467.228 .0529871
468.114 .0521892
468.999 .0514508
469.882 .0507675
470.765 .0501370
471.647 .0495561
472.528 .0490239
473.407 .0485379
474.286 .0480972
475.163 .0477009
476.040 .0473478
476.915 .0470366
477.790 .0467662
478.663 .0465352
479.535 .0463421
480.407 .0461847
481.277 .0460610
482.147 .0459678
483.015 .0459023
483.883 .0458614
484.749 .0458425
485.615 .0458424
486.479 .0458592
487.343 .0458906
488.206 .0459360
489.067 .0459949
489.928 .0460674
490.788 .0461541
491.647 .0462561
492.505 .0463740
493.362 .0465084
494.218 .0466597
495.073 .0468282
495.928 .0471480
496.781 .0473630
497.634 .0475970
498.486 .0478518
499.337 .0481296
500.187 .0484330
501.036 .0487648
501.884 .0491285
502.731 .0495269
503.578 .0499631
504.424 .0502597
505.268 .0507630
506.113 .0513137
506.956 .0519148
507.798 .0525720
508.640 .0532927
509.480 .0540860
510.320 .0549630
511.160 .0559379
511.998 .0570275
512.836 .0582500
513.672 .0596243
514.508 .0611724
515.344 .0629162
516.178 .0648771
517.012 .0670798
517.845 .0695451
518.677 .0722948
519.508 .0753452
520.339 .0787047
521.169 .0823784
521.998 .0863462
522.826 .0905745
523.654 .0950086
524.481 .0995830
525.307 .1042169
526.133 .1088130
526.958 .1132748
527.782 .1175065
528.605 .1214198
529.428 .1249371
530.250 .1279899
531.072 .1305347
531.892 .1325363
532.712 .1339719
533.532 .1348284
534.350 .1351003
535.168 .1347926
535.986 .1339090
536.802 .1324555
537.618 .1304445
538.434 .1278890
539.249 .1248253
540.063 .1213015
540.876 .1173801
541.689 .1131360
542.501 .1086544
543.313 .1040336
544.124 .0993702
544.934 .0947564
545.744 .0902742
546.553 .0859916
547.361 .0819656
548.169 .0782253
548.976 .0747880
549.783 .0716581
550.589 .0688286
551.395 .0662805
552.200 .0639870
553.004 .0619203
553.808 .0600563
554.611 .0583713
555.414 .0568443
556.216 .0554559
557.018 .0541882
557.819 .0530280
558.619 .0519613
559.419 .0509768
560.218 .0500649
561.017 .0492156
561.815 .0484205
562.613 .0476716
563.410 .0469609
564.207 .0462822
565.003 .0456305
565.799 .0450017
566.594 .0443919
567.388 .0437983
568.182 .0432199
568.976 .0426563
569.769 .0421078
570.562 .0415744
571.354 .0410569
572.145 .0405561
572.936 .0400723
573.727 .0396051
574.517 .0391552
575.307 .0387231
576.096 .0383089
576.885 .0379127
577.673 .0375347
578.461 .0371754
579.248 .0368350
580.035 .0365139
580.821 .0362120
581.607 .0359292
582.392 .0356651
583.177 .0354194
583.962 .0351915
584.746 .0349804
585.529 .0347852
586.313 .0346049
587.095 .0344387
587.878 .0342854
588.660 .0341440
589.441 .0340139
590.222 .0338944
591.003 .0337847
591.783 .0336841
592.563 .0335915
593.342 .0335061
594.121 .0334270
594.899 .0333531
595.678 .0332836
596.455 .0332178
597.233 .0331550
598.009 .0330949
598.786 .0330372
599.562 .0329816
600.338 .0329281
601.113 .0328764
601.888 .0328043
602.663 .0327567
603.437 .0327106
604.211 .0326658
604.984 .0326224
605.757 .0325803
606.530 .0325396
607.302 .0325004
608.074 .0324626
608.845 .0324264
609.616 .0323920
610.387 .0323788
611.158 .0323467
611.928 .0323162
612.697 .0322872
613.467 .0322595
614.236 .0322329
615.004 .0322073
615.773 .0321825
616.541 .0321583
617.308 .0321346
618.076 .0321112
618.843 .0320880
619.609 .0320648
620.375 .0320415
621.141 .0320179
621.907 .0319937
622.672 .0319690
623.437 .0319435
624.202 .0319173
624.966 .0318903
625.730 .0318627
626.493 .0318344
627.257 .0318054
628.020 .0317757
628.782 .0317454
629.545 .0317145
630.307 .0316830
631.068 .0316509
631.830 .0316184
632.591 .0315856
633.352 .0315526
634.112 .0315195
634.872 .0314865
635.632 .0314536
636.392 .0314210
637.151 .0313888
637.910 .0313569
638.668 .0313255
639.427 .0312947
640.185 .0312645
640.943 .0312350
641.700 .0312062
642.457 .0311782
643.214 .0311510
643.971 .0311247
644.727 .0310992
645.483 .0310746
646.239 .0310509
646.994 .0310280
647.750 .0310058
648.505 .0309844
649.259 .0309635
650.014 .0309431
650.768 .0309230
651.521 .0309032
652.275 .0308835
653.028 .0308639
653.781 .0308444
654.534 .0308250
655.286 .0308058
656.039 .0307866
656.791 .0307675
657.542 .0307483
658.294 .0307292
659.045 .0307099
659.796 .0306904
660.546 .0306707
661.297 .0306507
662.047 .0306304
662.796 .0306097
663.546 .0305887
664.295 .0305675
665.044 .0305461
665.793 .0305245
666.542 .0305028
667.290 .0304812
668.038 .0304596
668.786 .0304380
669.533 .0304165
670.281 .0303952
671.028 .0303738
671.774 .0303525
672.521 .0303312
673.267 .0303100
674.013 .0302889
674.759 .0302679
675.505 .0302471
676.250 .0302264
676.995 .0302059
677.740 .0301855
678.484 .0301653
679.229 .0301452
679.973 .0301253
680.717 .0301054
681.460 .0300857
682.204 .0300660
682.947 .0300465
683.690 .0300271
684.433 .0300079
685.175 .0299889
685.917 .0299701
686.659 .0299514
687.401 .0299329
688.142 .0299146
688.884 .0298964
689.625 .0298783
690.365 .0298602
691.106 .0298422
691.846 .0298241
692.586 .0298059
693.326 .0297877
694.066 .0297693
694.805 .0297508
695.545 .0297322
696.284 .0297135
697.022 .0296946
697.761 .0296757
698.499 .0296568
699.237 .0296377
699.975 .0296185
700.713 .0295993
701.450 .0295801
702.187 .0295608
702.924 .0295415
703.661 .0295222
704.397 .0295030
705.133 .0294838
705.869 .0294647
706.605 .0294458
707.341 .0294271
708.076 .0294086
708.811 .0293904
709.546 .0293725
710.281 .0293548
711.015 .0293374
711.749 .0293202
712.483 .0293032
713.217 .0292864
713.950 .0292696
714.684 .0292530
715.417 .0292364
716.150 .0292198
716.882 .0292034
717.615 .0291869
718.347 .0291704
719.079 .0291539
719.811 .0291372
720.542 .0291205
721.273 .0291035
722.005 .0290864
722.735 .0290691
723.466 .0290518
724.196 .0290345
724.927 .0290172
725.656 .0290001
726.386 .0289831
727.116 .0289663
727.845 .0289497
728.574 .0289333
729.303 .0289172
730.031 .0289014
730.760 .0288858
731.488 .0288706
732.216 .0288558
732.944 .0288413
733.671 .0288272
734.398 .0288136
735.125 .0288003
735.852 .0287875
736.579 .0287750
737.305 .0287629
738.031 .0287512
738.757 .0287398
739.483 .0287288
740.208 .0287179
740.933 .0287073
741.658 .0286969
742.383 .0286865
743.108 .0286761
743.832 .0286657
744.556 .0286551
745.280 .0286445
746.004 .0286337
746.727 .0286227
747.450 .0286115
748.173 .0286002
748.896 .0285886
749.618 .0285768
750.340 .0285648
751.062 .0285526
751.784 .0285401
752.506 .0285275
753.227 .0285148
753.948 .0285019
754.669 .0284889
755.389 .0284759
756.110 .0284628
756.830 .0284497
757.550 .0284367
758.269 .0284238
758.989 .0284110
759.708 .0283984
760.427 .0283858
761.146 .0283734
761.864 .0283611
762.582 .0283488
763.300 .0283365
764.018 .0283243
764.736 .0283119
765.453 .0282995
766.170 .0282870
766.887 .0282744
767.603 .0282617
768.320 .0282491
769.036 .0282364
769.751 .0282237
770.467 .0282109
771.182 .0281982
771.897 .0281853
772.612 .0281724
773.327 .0281594
774.041 .0281463
774.755 .0281331
775.469 .0281200
776.183 .0281069
776.896 .0280940
777.609 .0280813
778.322 .0280689
779.035 .0280569
779.747 .0280453
780.459 .0280341
781.171 .0280234
781.882 .0280131
782.594 .0280032
783.305 .0279938
784.016 .0279849
784.726 .0279764
785.436 .0279683
786.147 .0279579
786.856 .0279508
787.566 .0279440
788.275 .0279375
788.984 .0279314
789.693 .0279255
790.401 .0279197
791.110 .0279140
791.818 .0279082
792.525 .0279022
793.233 .0278960
793.940 .0278894
794.647 .0278852
795.353 .0278782
796.060 .0278708
796.766 .0278632
797.472 .0278552
798.177 .0278469
798.883 .0278382
799.588 .0278291
800.292 .0278195
800.997 .0278094
801.701 .0277989
802.405 .0277880
803.109 .0277768
803.812 .0277653
804.515 .0277536
805.218 .0277416
805.921 .0277294
806.623 .0277170
807.325 .0277044
808.027 .0276916
808.728 .0276787
809.429 .0276658
810.130 .0276529
810.831 .0276401
811.531 .0276274
812.231 .0276149
812.931 .0276026
813.630 .0275905
814.330 .0275788
815.029 .0275673
815.727 .0275562
816.426 .0275454
817.124 .0275352
817.821 .0275254
818.519 .0275160
819.216 .0275071
819.913 .0274985
820.609 .0274903
821.306 .0274824
822.002 .0274749
822.697 .0274677
823.393 .0274609
824.088 .0274545
824.783 .0274486
825.477 .0274432
826.171 .0274381
826.865 .0274333
827.559 .0274288
828.252 .0274246
828.945 .0274206
829.638 .0274167
830.330 .0274131
831.023 .0274096
831.714 .0274063
832.406 .0274031
833.097 .0274000
833.788 .0273969
834.479 .0273937
835.169 .0273903
835.859 .0273869
836.548 .0273833
837.238 .0273796
837.927 .0273757
838.615 .0273717
839.304 .0273674
839.992 .0273627
840.680 .0273577
841.367 .0273522
842.054 .0273463
842.741 .0273398
843.428 .0273328
844.114 .0273254
844.800 .0273175
845.485 .0273092
846.170 .0273004
846.855 .0272911
847.540 .0272813
848.224 .0272709
848.908 .0272599
849.592 .0272483
850.275 .0272361
850.958 .0272235
851.641 .0272104
852.323 .0271968
853.005 .0271829
853.687 .0271686
854.368 .0271538
855.049 .0271386
855.730 .0271229
856.410 .0271068
857.090 .0270903
857.769 .0270734
858.449 .0270563
859.128 .0270390
859.806 .0270215
860.485 .0270039
861.163 .0269861
861.840 .0269681
862.518 .0269501
863.195 .0269319
863.871 .0269135
864.548 .0268952
865.224 .0268769
865.899 .0268587
866.574 .0268405
867.249 .0268225
867.924 .0268047
868.598 .0267870
869.272 .0267695
869.946 .0267522
870.619 .0267351
871.292 .0267183
871.964 .0267018
872.636 .0266855
873.308 .0266697
873.979 .0266541
874.651 .0266389
875.321 .0266241
875.992 .0266097
876.662 .0265957
877.331 .0265823
878.001 .0265694
878.670 .0265571
879.338 .0265454
880.007 .0265343
880.675 .0265238
881.342 .0265138
882.009 .0265045
882.676 .0264957
883.343 .0264875
884.009 .0264799
884.675 .0264729
885.340 .0264666
886.005 .0264608
886.670 .0264555
887.334 .0264507
887.998 .0264463
888.662 .0264423
889.325 .0264387
889.988 .0264356
890.650 .0264328
891.312 .0264304
891.974 .0264283
892.636 .0264265
893.297 .0264250
893.957 .0264235
894.618 .0264221
895.278 .0264208
895.937 .0264193
896.596 .0264177
897.255 .0264160
897.914 .0264140
898.572 .0264117
899.230 .0264090
899.887 .0264059
900.544 .0264022
901.201 .0263979
901.857 .0263886
902.513 .0263824
903.168 .0263753
903.823 .0263675
904.478 .0263589
905.132 .0263497
905.786 .0263398
906.440 .0263293
907.093 .0263183
907.746 .0263068
908.399 .0262949
909.051 .0262827
909.703 .0262702
910.354 .0262632
911.005 .0262507
911.656 .0262382
912.306 .0262257
912.956 .0262133
913.605 .0262009
914.254 .0261887
914.903 .0261765
915.551 .0261645
916.199 .0261526
916.847 .0261407
917.494 .0261290
918.141 .0261172
918.788 .0261056
919.434 .0260940
920.079 .0260825
920.725 .0260712
921.370 .0260600
922.014 .0260489
922.658 .0260379
923.302 .0260270
923.946 .0260162
924.589 .0260054
925.231 .0259946
925.873 .0259836
926.515 .0259726
927.157 .0259614
927.798 .0259500
928.439 .0259386
929.079 .0259270
929.719 .0259154
930.359 .0259036
930.998 .0258919
931.637 .0258801
932.275 .0258684
932.913 .0258567
933.551 .0258452
934.188 .0258340
934.825 .0258232
935.462 .0258128
936.098 .0258030
936.733 .0257938
937.369 .0257853
938.004 .0257774
938.638 .0257701
939.273 .0257634
939.907 .0257574
940.540 .0257518
941.173 .0257468
941.806 .0257423
942.438 .0257383
943.070 .0257347
943.702 .0257317
944.333 .0257290
944.964 .0257266
945.594 .0257244
946.224 .0257223
946.854 .0257202
947.483 .0257181
948.112 .0257159
948.741 .0257136
949.369 .0257112
949.996 .0257088
950.624 .0257065
951.251 .0257041
951.878 .0257016
952.504 .0256990
953.130 .0256961
953.755 .0256929
954.380 .0256892
955.005 .0256851
955.629 .0256805
956.253 .0256755
956.877 .0256702
957.500 .0256645
958.123 .0256584
958.746 .0256521
959.368 .0256455
959.990 .0256386
960.611 .0256313
961.232 .0256239
961.853 .0256162
962.473 .0256083
963.093 .0256003
963.712 .0255923
964.331 .0255843
964.950 .0255764
965.569 .0255685
966.187 .0255605
966.804 .0255525
967.422 .0255444
968.039 .0255360
968.655 .0255274
969.272 .0255185
969.887 .0255093
970.503 .0255000
971.118 .0254904
971.733 .0254807
972.347 .0254707
972.961 .0254605
973.575 .0254499
974.188 .0254390
974.801 .0254277
975.414 .0254160
976.026 .0254038
976.638 .0253913
977.250 .0253783
977.861 .0253650
978.472 .0253514
979.083 .0253375
979.693 .0253233
980.303 .0253088
980.912 .0252853
981.521 .0252702
982.130 .0252546
982.738 .0252388
983.346 .0252227
983.954 .0252063
984.562 .0251898
985.169 .0251733
985.775 .0251569
986.382 .0251406
986.988 .0251247
987.594 .0251090
988.199 .0250938
988.804 .0250789
989.409 .0250731
990.013 .0250590
990.617 .0250453
991.221 .0250320
991.824 .0250192
992.427 .0250068
993.030 .0249950
993.632 .0249835
994.234 .0249724
994.836 .0249616
995.438 .0249510
996.039 .0249405
996.640 .0249301
997.240 .0249197
997.840 .0249094
998.440 .0248991
999.040 .0248890
999.639 .0248790
1000.238 .0248692
1000.836 .0248597
1001.435 .0248503
1002.033 .0248412
1002.630 .0248322
1003.228 .0248233
1003.825 .0248145
1004.422 .0248056
1005.018 .0247967
1005.614 .0247877
1006.210 .0247787
1006.806 .0247696
1007.401 .0247605
1007.996 .0247514
1008.591 .0247422
1009.186 .0247331
1009.780 .0247240
1010.374 .0247148
1010.967 .0247057
1011.561 .0246967
1012.154 .0246878
1012.746 .0246791
1013.339 .0246707
1013.931 .0246628
1014.523 .0246554
1015.115 .0246485
1015.706 .0246423
1016.298 .0246366
1016.888 .0246315
1017.479 .0246269
1018.069 .0246228
1018.660 .0246192
1019.250 .0246160
1019.839 .0246131
1020.429 .0246106
1021.018 .0246084
1021.607 .0246068
1022.195 .0246055
1022.784 .0246048
1023.372 .0246045
1023.960 .0246048
1024.547 .0246058
1025.135 .0246074
1025.722 .0246097
1026.309 .0246126
1026.896 .0246163
1027.483 .0246207
1028.069 .0246259
1028.655 .0246316
1029.241 .0246380
1029.827 .0246450
1030.412 .0246524
1030.997 .0246602
1031.582 .0246683
1032.167 .0246766
1032.752 .0246849
1033.336 .0246933
1033.921 .0247017
1034.505 .0247100
1035.089 .0247183
1035.672 .0247264
1036.256 .0247344
1036.839 .0247423
1037.422 .0247500
1038.005 .0247574
1038.588 .0247647
1039.171 .0247717
1039.753 .0247786
1040.335 .0247853
1040.918 .0247920
1041.500 .0247985
1042.081 .0248049
1042.663 .0248113
1043.244 .0248175
1043.826 .0248235
1044.407 .0248295
1044.988 .0248353
1045.569 .0248410
1046.150 .0248467
1046.730 .0248524
1047.311 .0248583
1047.891 .0248643
1048.471 .0248704
1049.052 .0248768
1049.632 .0248833
1050.211 .0248900
1050.791 .0248968
1051.371 .0249037
1051.950 .0249107
1052.530 .0249180
1053.109 .0249255
1053.688 .0249333
1054.268 .0249415
1054.847 .0249501
1055.426 .0249592
1056.005 .0249685
1056.583 .0249782
1057.162 .0249879
1057.741 .0249977
1058.319 .0250075
1058.898 .0250172
1059.476 .0250268
1060.055 .0250363
1060.633 .0250458
1061.211 .0250552
1061.790 .0250646
1062.368 .0250739
1062.946 .0250830
1063.524 .0250919
1064.102 .0251006
1064.680 .0251091
1065.258 .0251175
1065.836 .0251258
1066.414 .0251341
1066.992 .0251425
1067.570 .0251512
1068.148 .0251601
1068.726 .0251692
1069.304 .0251786
1069.882 .0251882
1070.460 .0251979
1071.038 .0252078
1071.616 .0252177
1072.194 .0252278
1072.772 .0252381
1073.350 .0252485
1073.928 .0252590
1074.506 .0252698
1075.084 .0252808
1075.662 .0252920
1076.240 .0253035
1076.819 .0253153
1077.397 .0253274
1077.976 .0253399
1078.554 .0253528
1079.133 .0253660
1079.711 .0253797
1080.290 .0253937
1080.869 .0254079
1081.448 .0254223
1082.027 .0254369
1082.606 .0254515
1083.185 .0254661
1083.764 .0254804
1084.343 .0254946
1084.923 .0255083
1085.502 .0255217
1086.082 .0255346
1086.662 .0255471
1087.242 .0255592
1087.822 .0255708
1088.402 .0255821
1088.983 .0255931
1089.563 .0256040
1090.144 .0256149
1090.725 .0256261
1091.306 .0256378
1091.887 .0256500
1092.469 .0256629
1093.050 .0256765
1093.632 .0256908
1094.214 .0257058
1094.796 .0257215
1095.379 .0257377
1095.961 .0257544
1096.544 .0257717
1097.127 .0257896
1097.710 .0258079
1098.294 .0258268
1098.877 .0258460
1099.461 .0258656
1100.046 .0258853
1100.630 .0259052
1101.215 .0259252
1101.800 .0259453
1102.385 .0259654
1102.970 .0259858
1103.556 .0260064
1104.142 .0260274
1104.728 .0260489
1105.315 .0260710
1105.902 .0260937
1106.489 .0261170
1107.077 .0261407
1107.664 .0261648
1108.253 .0261891
1108.841 .0262135
1109.430 .0262378
1110.019 .0262620
1110.609 .0262859
1111.198 .0263095
1111.789 .0263328
1112.379 .0263559
1112.970 .0263788
1113.561 .0264017
1114.153 .0264246
1114.745 .0264480
1115.338 .0264721
1115.931 .0264973
1116.524 .0265240
1117.117 .0265526
1117.712 .0265835
1118.306 .0266170
1118.901 .0266532
1119.496 .0266923
1120.092 .0267346
1120.689 .0267797
1121.285 .0268280
1121.882 .0268791
1122.480 .0269335
1123.078 .0269908
1123.677 .0270513
1124.276 .0271150
1124.875 .0271816
1125.476 .0272511
1126.076 .0273233
1126.677 .0273980
1127.279 .0274750
1127.881 .0275540
1128.484 .0276352
1129.087 .0276698
1129.691 .0277552
1130.295 .0278431
1130.900 .0279337
1131.505 .0280269
1132.111 .0281227
1132.718 .0282205
1133.325 .0283195
1133.933 .0284199
1134.541 .0285236
1135.150 .0286243
1135.760 .0287201
1136.370 .0288105
1136.981 .0289957
1137.592 .0290861
1138.204 .0291847
1138.817 .0292895
1139.431 .0293999
1140.045 .0295110
1140.660 .0296169
1141.275 .0297076
1141.891 .0298117
1142.508 .0299726
1143.126 .0299713
1143.744 .0299163
1144.363 .0298533
1144.983 .0306376
