Measurement Sequence started on: 15-12-46-377
Integration time: 28
Scans to Average: 2 
>>>>>Begin Spectral Data<<<<<
432.689 .0000100
433.621 .0000100
434.552 .0000100
435.482 .0000100
436.410 .0000100
437.337 .0000100
438.262 .0278735
439.187 .0591620
440.110 .0979352
441.031 .1415878
441.952 .1130899
442.871 .1180703
443.789 .1226997
444.705 .1270488
445.621 .1311659
446.535 .1350893
447.447 .1373810
448.359 .1378830
449.269 .1362186
450.178 .1321453
451.086 .1257437
451.993 .1175039
452.898 .1082323
453.803 .0988427
454.706 .0901116
455.608 .0825197
456.508 .0762256
457.408 .0719441
458.306 .0686413
459.204 .0659400
460.100 .0636555
460.995 .0616886
461.888 .0599714
462.781 .0584592
463.673 .0571170
464.563 .0559197
465.452 .0548479
466.340 .0538863
467.228 .0530228
468.114 .0522476
468.999 .0515509
469.882 .0509241
470.765 .0503597
471.647 .0498510
472.528 .0493927
473.407 .0489806
474.286 .0486122
475.163 .0482858
476.040 .0479986
476.915 .0477488
477.790 .0475333
478.663 .0473497
479.535 .0471950
480.407 .0470660
481.277 .0469599
482.147 .0468740
483.015 .0468064
483.883 .0467557
484.749 .0467215
485.615 .0467035
486.479 .0467015
487.343 .0467152
488.206 .0467448
489.067 .0467896
489.928 .0468492
490.788 .0469237
491.647 .0470126
492.505 .0471159
493.362 .0472342
494.218 .0473677
495.073 .0475175
495.928 .0478052
496.781 .0479999
497.634 .0482131
498.486 .0484459
499.337 .0486996
500.187 .0489763
501.036 .0492783
501.884 .0496079
502.731 .0499684
503.578 .0503637
504.424 .0506353
505.268 .0510971
506.113 .0516053
506.956 .0521647
507.798 .0527815
508.640 .0534633
509.480 .0542188
510.320 .0550600
511.160 .0559993
511.998 .0570517
512.836 .0582345
513.672 .0595667
514.508 .0610698
515.344 .0627670
516.178 .0646811
517.012 .0668370
517.845 .0692571
518.677 .0719615
519.508 .0749664
520.339 .0782826
521.169 .0819106
521.998 .0858302
522.826 .0900092
523.654 .0943963
524.481 .0989260
525.307 .1035223
526.133 .1080965
526.958 .1125559
527.782 .1168078
528.605 .1207642
529.428 .1243469
530.250 .1274891
531.072 .1301418
531.892 .1322633
532.712 .1338260
533.532 .1348142
534.350 .1352179
535.168 .1350365
535.986 .1342735
536.802 .1329348
537.618 .1310301
538.434 .1285756
539.249 .1256071
540.063 .1221719
540.876 .1183342
541.689 .1141701
542.501 .1097627
543.313 .1052038
544.124 .1005864
544.934 .0959983
545.744 .0915207
546.553 .0872215
547.361 .0831553
548.169 .0793562
548.976 .0758488
549.783 .0726411
550.589 .0697290
551.395 .0670994
552.200 .0647307
553.004 .0625977
553.808 .0606764
554.611 .0589415
555.414 .0573721
556.216 .0559470
557.018 .0546461
557.819 .0534517
558.619 .0523480
559.419 .0513220
560.218 .0503635
561.017 .0494643
561.815 .0486179
562.613 .0478189
563.410 .0470628
564.207 .0463440
565.003 .0456586
565.799 .0450015
566.594 .0443681
567.388 .0437548
568.182 .0431591
568.976 .0425789
569.769 .0420135
570.562 .0414632
571.354 .0409296
572.145 .0404141
572.936 .0399186
573.727 .0394443
574.517 .0389915
575.307 .0385606
576.096 .0381508
576.885 .0377615
577.673 .0373918
578.461 .0370407
579.248 .0367075
580.035 .0363918
580.821 .0360937
581.607 .0358127
582.392 .0355491
583.177 .0353030
583.962 .0350743
584.746 .0348623
585.529 .0346665
586.313 .0344864
587.095 .0343209
587.878 .0341694
588.660 .0340307
589.441 .0339038
590.222 .0337875
591.003 .0336807
591.783 .0335824
592.563 .0334917
593.342 .0334076
594.121 .0333292
594.899 .0332559
595.678 .0331868
596.455 .0331216
597.233 .0330595
598.009 .0330001
598.786 .0329433
599.562 .0328887
600.338 .0328358
601.113 .0327848
601.888 .0327141
602.663 .0326673
603.437 .0326222
604.211 .0325787
604.984 .0325369
605.757 .0324965
606.530 .0324576
607.302 .0324203
608.074 .0323845
608.845 .0323501
609.616 .0323172
610.387 .0323038
611.158 .0322725
611.928 .0322424
612.697 .0322133
613.467 .0321851
614.236 .0321577
615.004 .0321308
615.773 .0321043
616.541 .0320782
617.308 .0320523
618.076 .0320266
618.843 .0320012
619.609 .0319759
620.375 .0319506
621.141 .0319253
621.907 .0318998
622.672 .0318740
623.437 .0318480
624.202 .0318217
624.966 .0317952
625.730 .0317684
626.493 .0317414
627.257 .0317143
628.020 .0316870
628.782 .0316595
629.545 .0316317
630.307 .0316037
631.068 .0315755
631.830 .0315471
632.591 .0315186
633.352 .0314902
634.112 .0314618
634.872 .0314336
635.632 .0314055
636.392 .0313776
637.151 .0313497
637.910 .0313220
638.668 .0312943
639.427 .0312668
640.185 .0312394
640.943 .0312122
641.700 .0311854
642.457 .0311591
643.214 .0311333
643.971 .0311081
644.727 .0310834
645.483 .0310593
646.239 .0310356
646.994 .0310123
647.750 .0309893
648.505 .0309666
649.259 .0309440
650.014 .0309215
650.768 .0308990
651.521 .0308765
652.275 .0308539
653.028 .0308311
653.781 .0308080
654.534 .0307845
655.286 .0307604
656.039 .0307359
656.791 .0307108
657.542 .0306851
658.294 .0306589
659.045 .0306323
659.796 .0306052
660.546 .0305777
661.297 .0305499
662.047 .0305218
662.796 .0304935
663.546 .0304652
664.295 .0304369
665.044 .0304090
665.793 .0303814
666.542 .0303544
667.290 .0303281
668.038 .0303025
668.786 .0302777
669.533 .0302536
670.281 .0302303
671.028 .0302079
671.774 .0301864
672.521 .0301658
673.267 .0301461
674.013 .0301275
674.759 .0301098
675.505 .0300929
676.250 .0300768
676.995 .0300612
677.740 .0300461
678.484 .0300313
679.229 .0300168
679.973 .0300026
680.717 .0299886
681.460 .0299748
682.204 .0299611
682.947 .0299474
683.690 .0299336
684.433 .0299194
685.175 .0299050
685.917 .0298900
686.659 .0298747
687.401 .0298589
688.142 .0298428
688.884 .0298264
689.625 .0298099
690.365 .0297932
691.106 .0297764
691.846 .0297595
692.586 .0297425
693.326 .0297256
694.066 .0297087
694.805 .0296919
695.545 .0296755
696.284 .0296595
697.022 .0296439
697.761 .0296288
698.499 .0296142
699.237 .0296002
699.975 .0295866
700.713 .0295734
701.450 .0295607
702.187 .0295484
702.924 .0295365
703.661 .0295251
704.397 .0295139
705.133 .0295030
705.869 .0294921
706.605 .0294813
707.341 .0294703
708.076 .0294591
708.811 .0294476
709.546 .0294357
710.281 .0294233
711.015 .0294105
711.749 .0293971
712.483 .0293831
713.217 .0293685
713.950 .0293531
714.684 .0293371
715.417 .0293204
716.150 .0293030
716.882 .0292849
717.615 .0292662
718.347 .0292468
719.079 .0292269
719.811 .0292064
720.542 .0291854
721.273 .0291640
722.005 .0291421
722.735 .0291201
723.466 .0290979
724.196 .0290758
724.927 .0290538
725.656 .0290322
726.386 .0290109
727.116 .0289901
727.845 .0289697
728.574 .0289499
729.303 .0289304
730.031 .0289114
730.760 .0288929
731.488 .0288749
732.216 .0288573
732.944 .0288402
733.671 .0288236
734.398 .0288076
735.125 .0287920
735.852 .0287770
736.579 .0287624
737.305 .0287482
738.031 .0287344
738.757 .0287207
739.483 .0287072
740.208 .0286937
740.933 .0286802
741.658 .0286665
742.383 .0286526
743.108 .0286385
743.832 .0286242
744.556 .0286095
745.280 .0285945
746.004 .0285792
746.727 .0285636
747.450 .0285477
748.173 .0285313
748.896 .0285145
749.618 .0284972
750.340 .0284793
751.062 .0284609
751.784 .0284418
752.506 .0284222
753.227 .0284021
753.948 .0283815
754.669 .0283606
755.389 .0283394
756.110 .0283179
756.830 .0282962
757.550 .0282743
758.269 .0282523
758.989 .0282301
759.708 .0282078
760.427 .0281853
761.146 .0281627
761.864 .0281401
762.582 .0281174
763.300 .0280948
764.018 .0280723
764.736 .0280500
765.453 .0280279
766.170 .0280060
766.887 .0279843
767.603 .0279631
768.320 .0279423
769.036 .0279219
769.751 .0279021
770.467 .0278829
771.182 .0278644
771.897 .0278466
772.612 .0278295
773.327 .0278132
774.041 .0277977
774.755 .0277830
775.469 .0277691
776.183 .0277560
776.896 .0277437
777.609 .0277322
778.322 .0277215
779.035 .0277117
779.747 .0277025
780.459 .0276941
781.171 .0276865
781.882 .0276794
782.594 .0276729
783.305 .0276668
784.016 .0276611
784.726 .0276556
785.436 .0276502
786.147 .0276423
786.856 .0276369
787.566 .0276315
788.275 .0276260
788.984 .0276206
789.693 .0276151
790.401 .0276095
791.110 .0276039
791.818 .0275983
792.525 .0275926
793.233 .0275867
793.940 .0275808
794.647 .0275773
795.353 .0275713
796.060 .0275652
796.766 .0275590
797.472 .0275527
798.177 .0275463
798.883 .0275397
799.588 .0275331
800.292 .0275264
800.997 .0275195
801.701 .0275126
802.405 .0275056
803.109 .0274986
803.812 .0274914
804.515 .0274842
805.218 .0274768
805.921 .0274692
806.623 .0274614
807.325 .0274533
808.027 .0274450
808.728 .0274365
809.429 .0274278
810.130 .0274190
810.831 .0274102
811.531 .0274014
812.231 .0273926
812.931 .0273839
813.630 .0273752
814.330 .0273666
815.029 .0273581
815.727 .0273498
816.426 .0273417
817.124 .0273339
817.821 .0273264
818.519 .0273194
819.216 .0273129
819.913 .0273068
820.609 .0273014
821.306 .0272965
822.002 .0272923
822.697 .0272888
823.393 .0272860
824.088 .0272840
824.783 .0272828
825.477 .0272824
826.171 .0272826
826.865 .0272835
827.559 .0272849
828.252 .0272868
828.945 .0272889
829.638 .0272913
830.330 .0272939
831.023 .0272967
831.714 .0272996
832.406 .0273025
833.097 .0273054
833.788 .0273083
834.479 .0273109
835.169 .0273133
835.859 .0273154
836.548 .0273171
837.238 .0273184
837.927 .0273192
838.615 .0273195
839.304 .0273194
839.992 .0273187
840.680 .0273174
841.367 .0273156
842.054 .0273132
842.741 .0273101
843.428 .0273065
844.114 .0273022
844.800 .0272974
845.485 .0272920
846.170 .0272859
846.855 .0272793
847.540 .0272720
848.224 .0272640
848.908 .0272553
849.592 .0272458
850.275 .0272356
850.958 .0272247
851.641 .0272130
852.323 .0272007
853.005 .0271876
853.687 .0271739
854.368 .0271595
855.049 .0271446
855.730 .0271290
856.410 .0271129
857.090 .0270962
857.769 .0270790
858.449 .0270612
859.128 .0270429
859.806 .0270241
860.485 .0270049
861.163 .0269853
861.840 .0269654
862.518 .0269454
863.195 .0269252
863.871 .0269051
864.548 .0268849
865.224 .0268649
865.899 .0268449
866.574 .0268251
867.249 .0268054
867.924 .0267859
868.598 .0267665
869.272 .0267474
869.946 .0267286
870.619 .0267100
871.292 .0266918
871.964 .0266739
872.636 .0266563
873.308 .0266391
873.979 .0266222
874.651 .0266056
875.321 .0265893
875.992 .0265734
876.662 .0265577
877.331 .0265425
878.001 .0265276
878.670 .0265130
879.338 .0264987
880.007 .0264848
880.675 .0264712
881.342 .0264579
882.009 .0264448
882.676 .0264321
883.343 .0264197
884.009 .0264077
884.675 .0263960
885.340 .0263847
886.005 .0263738
886.670 .0263632
887.334 .0263530
887.998 .0263430
888.662 .0263332
889.325 .0263235
889.988 .0263140
890.650 .0263045
891.312 .0262951
891.974 .0262857
892.636 .0262762
893.297 .0262665
893.957 .0262566
894.618 .0262464
895.278 .0262358
895.937 .0262246
896.596 .0262128
897.255 .0262001
897.914 .0261867
898.572 .0261723
899.230 .0261570
899.887 .0261408
900.544 .0261237
901.201 .0261057
901.857 .0260749
902.513 .0260550
903.168 .0260343
903.823 .0260129
904.478 .0259908
905.132 .0259681
905.786 .0259449
906.440 .0259213
907.093 .0258974
907.746 .0258732
908.399 .0258490
909.051 .0258248
909.703 .0258005
910.354 .0257891
911.005 .0257651
911.656 .0257412
912.306 .0257173
912.956 .0256934
913.605 .0256697
914.254 .0256463
914.903 .0256231
915.551 .0256003
916.199 .0255780
916.847 .0255561
917.494 .0255345
918.141 .0255133
918.788 .0254924
919.434 .0254716
920.079 .0254511
920.725 .0254307
921.370 .0254106
922.014 .0253907
922.658 .0253709
923.302 .0253513
923.946 .0253317
924.589 .0253122
925.231 .0252926
925.873 .0252728
926.515 .0252529
927.157 .0252328
927.798 .0252126
928.439 .0251924
929.079 .0251722
929.719 .0251523
930.359 .0251326
930.998 .0251133
931.637 .0250944
932.275 .0250761
932.913 .0250582
933.551 .0250411
934.188 .0250247
934.825 .0250090
935.462 .0249943
936.098 .0249806
936.733 .0249678
937.369 .0249560
938.004 .0249452
938.638 .0249353
939.273 .0249264
939.907 .0249183
940.540 .0249112
941.173 .0249050
941.806 .0248996
942.438 .0248951
943.070 .0248914
943.702 .0248884
944.333 .0248862
944.964 .0248846
945.594 .0248836
946.224 .0248832
946.854 .0248832
947.483 .0248835
948.112 .0248842
948.741 .0248851
949.369 .0248861
949.996 .0248872
950.624 .0248882
951.251 .0248892
951.878 .0248900
952.504 .0248908
953.130 .0248914
953.755 .0248920
954.380 .0248925
955.005 .0248929
955.629 .0248932
956.253 .0248935
956.877 .0248936
957.500 .0248937
958.123 .0248938
958.746 .0248938
959.368 .0248940
959.990 .0248943
960.611 .0248949
961.232 .0248958
961.853 .0248970
962.473 .0248985
963.093 .0249002
963.712 .0249022
964.331 .0249044
964.950 .0249068
965.569 .0249094
966.187 .0249122
966.804 .0249153
967.422 .0249185
968.039 .0249219
968.655 .0249254
969.272 .0249289
969.887 .0249323
970.503 .0249356
971.118 .0249389
971.733 .0249420
972.347 .0249450
972.961 .0249481
973.575 .0249511
974.188 .0249541
974.801 .0249571
975.414 .0249599
976.026 .0249627
976.638 .0249652
977.250 .0249674
977.861 .0249693
978.472 .0249710
979.083 .0249724
979.693 .0249738
980.303 .0249750
980.912 .0249768
981.521 .0249780
982.130 .0249792
982.738 .0249803
983.346 .0249812
983.954 .0249821
984.562 .0249828
985.169 .0249835
985.775 .0249843
986.382 .0249852
986.988 .0249866
987.594 .0249883
988.199 .0249904
988.804 .0249929
989.409 .0249952
990.013 .0249984
990.617 .0250020
991.221 .0250058
991.824 .0250098
992.427 .0250140
993.030 .0250184
993.632 .0250231
994.234 .0250279
994.836 .0250329
995.438 .0250381
996.039 .0250435
996.640 .0250490
997.240 .0250547
997.840 .0250604
998.440 .0250663
999.040 .0250724
999.639 .0250785
1000.238 .0250848
1000.836 .0250912
1001.435 .0250978
1002.033 .0251045
1002.630 .0251113
1003.228 .0251182
1003.825 .0251251
1004.422 .0251320
1005.018 .0251389
1005.614 .0251456
1006.210 .0251522
1006.806 .0251585
1007.401 .0251645
1007.996 .0251703
1008.591 .0251758
1009.186 .0251810
1009.780 .0251862
1010.374 .0251913
1010.967 .0251965
1011.561 .0252018
1012.154 .0252072
1012.746 .0252128
1013.339 .0252186
1013.931 .0252246
1014.523 .0252307
1015.115 .0252368
1015.706 .0252431
1016.298 .0252494
1016.888 .0252558
1017.479 .0252624
1018.069 .0252692
1018.660 .0252762
1019.250 .0252834
1019.839 .0252908
1020.429 .0252985
1021.018 .0253062
1021.607 .0253141
1022.195 .0253221
1022.784 .0253301
1023.372 .0253381
1023.960 .0253463
1024.547 .0253546
1025.135 .0253631
1025.722 .0253716
1026.309 .0253802
1026.896 .0253888
1027.483 .0253972
1028.069 .0254053
1028.655 .0254131
1029.241 .0254205
1029.827 .0254275
1030.412 .0254339
1030.997 .0254399
1031.582 .0254454
1032.167 .0254506
1032.752 .0254554
1033.336 .0254598
1033.921 .0254638
1034.505 .0254675
1035.089 .0254708
1035.672 .0254738
1036.256 .0254766
1036.839 .0254791
1037.422 .0254814
1038.005 .0254834
1038.588 .0254852
1039.171 .0254867
1039.753 .0254879
1040.335 .0254887
1040.918 .0254891
1041.500 .0254890
1042.081 .0254884
1042.663 .0254874
1043.244 .0254861
1043.826 .0254846
1044.407 .0254830
1044.988 .0254813
1045.569 .0254797
1046.150 .0254779
1046.730 .0254761
1047.311 .0254742
1047.891 .0254719
1048.471 .0254694
1049.052 .0254666
1049.632 .0254634
1050.211 .0254599
1050.791 .0254561
1051.371 .0254520
1051.950 .0254474
1052.530 .0254423
1053.109 .0254365
1053.688 .0254299
1054.268 .0254223
1054.847 .0254138
1055.426 .0254044
1056.005 .0253941
1056.583 .0253833
1057.162 .0253719
1057.741 .0253603
1058.319 .0253484
1058.898 .0253365
1059.476 .0253244
1060.055 .0253121
1060.633 .0252996
1061.211 .0252869
1061.790 .0252740
1062.368 .0252610
1062.946 .0252480
1063.524 .0252349
1064.102 .0252220
1064.680 .0252093
1065.258 .0251968
1065.836 .0251846
1066.414 .0251726
1066.992 .0251609
1067.570 .0251495
1068.148 .0251382
1068.726 .0251274
1069.304 .0251169
1069.882 .0251071
1070.460 .0250979
1071.038 .0250895
1071.616 .0250818
1072.194 .0250749
1072.772 .0250688
1073.350 .0250632
1073.928 .0250581
1074.506 .0250533
1075.084 .0250487
1075.662 .0250443
1076.240 .0250402
1076.819 .0250362
1077.397 .0250326
1077.976 .0250293
1078.554 .0250260
1079.133 .0250229
1079.711 .0250197
1080.290 .0250163
1080.869 .0250128
1081.448 .0250091
1082.027 .0250051
1082.606 .0250011
1083.185 .0249970
1083.764 .0249929
1084.343 .0249889
1084.923 .0249851
1085.502 .0249812
1086.082 .0249771
1086.662 .0249728
1087.242 .0249681
1087.822 .0249631
1088.402 .0249579
1088.983 .0249524
1089.563 .0249469
1090.144 .0249415
1090.725 .0249365
1091.306 .0249318
1091.887 .0249276
1092.469 .0249239
1093.050 .0249206
1093.632 .0249177
1094.214 .0249151
1094.796 .0249127
1095.379 .0249107
1095.961 .0249088
1096.544 .0249072
1097.127 .0249059
1097.710 .0249049
1098.294 .0249043
1098.877 .0249040
1099.461 .0249041
1100.046 .0249044
1100.630 .0249051
1101.215 .0249061
1101.800 .0249076
1102.385 .0249096
1102.970 .0249122
1103.556 .0249157
1104.142 .0249200
1104.728 .0249253
1105.315 .0249315
1105.902 .0249388
1106.489 .0249472
1107.077 .0249567
1107.664 .0249672
1108.253 .0249787
1108.841 .0249913
1109.430 .0250047
1110.019 .0250189
1110.609 .0250339
1111.198 .0250497
1111.789 .0250663
1112.379 .0250838
1112.970 .0251024
1113.561 .0251219
1114.153 .0251425
1114.745 .0251645
1115.338 .0251879
1115.931 .0252127
1116.524 .0252394
1117.117 .0252678
1117.712 .0252982
1118.306 .0253305
1118.901 .0253649
1119.496 .0254013
1120.092 .0254397
1120.689 .0254801
1121.285 .0255223
1121.882 .0255665
1122.480 .0256125
1123.078 .0256606
1123.677 .0257108
1124.276 .0257632
1124.875 .0258177
1125.476 .0258742
1126.076 .0259324
1126.677 .0259922
1127.279 .0260533
1127.881 .0261156
1128.484 .0261791
1129.087 .0262068
1129.691 .0262730
1130.295 .0263407
1130.900 .0264105
1131.505 .0264827
1132.111 .0265572
1132.718 .0266339
1133.325 .0267131
1133.933 .0267948
1134.541 .0268788
1135.150 .0269580
1135.760 .0270380
1136.370 .0271417
1136.981 .0272158
1137.592 .0272875
1138.204 .0273640
1138.817 .0274520
1139.431 .0275513
1140.045 .0276516
1140.660 .0277532
1141.275 .0278694
1141.891 .0279887
1142.508 .0281101
1143.126 .0280358
1143.744 .0281295
1144.363 .0288587
1144.983 .0288463
