Measurement Sequence started on: 15-12-46-377
Integration time: 28
Scans to Average: 2 
>>>>>Begin Spectral Data<<<<<
432.689 .0000100
433.621 .0000100
434.552 .0000100
435.482 .0000100
436.410 .0000100
437.337 .0000100
438.262 .0279630
439.187 .0592707
440.110 .0982591
441.031 .1422062
441.952 .1139284
442.871 .1189589
443.789 .1236385
444.705 .1280406
445.621 .1322151
446.535 .1362004
447.447 .1385539
448.359 .1391229
449.269 .1375227
450.178 .1335081
451.086 .1271594
451.993 .1189663
452.898 .1097374
453.803 .1003897
454.706 .0917041
455.608 .0841657
456.508 .0779367
457.408 .0737347
458.306 .0705193
459.204 .0679165
460.100 .0657345
460.995 .0638684
461.888 .0622473
462.781 .0608239
463.673 .0595628
464.563 .0584374
465.452 .0574263
466.340 .0565123
467.228 .0556815
468.114 .0549227
468.999 .0542271
469.882 .0535877
470.765 .0529996
471.647 .0524591
472.528 .0519640
473.407 .0515122
474.286 .0511023
475.163 .0507332
476.040 .0504029
476.915 .0501100
477.790 .0498520
478.663 .0496275
479.535 .0494349
480.407 .0492720
481.277 .0491368
482.147 .0490269
483.015 .0489402
483.883 .0488744
484.749 .0488274
485.615 .0487974
486.479 .0487837
487.343 .0487858
488.206 .0488036
489.067 .0488370
489.928 .0488864
490.788 .0489520
491.647 .0490333
492.505 .0491298
493.362 .0492408
494.218 .0493659
495.073 .0495058
495.928 .0497766
496.781 .0499631
497.634 .0501717
498.486 .0504045
499.337 .0506634
500.187 .0509495
501.036 .0512644
501.884 .0516098
502.731 .0519876
503.578 .0523991
504.424 .0526793
505.268 .0531532
506.113 .0536723
506.956 .0542410
507.798 .0548660
508.640 .0555558
509.480 .0563216
510.320 .0571743
511.160 .0581281
511.998 .0591976
512.836 .0604013
513.672 .0617571
514.508 .0632862
515.344 .0650103
516.178 .0669506
517.012 .0691357
517.845 .0715937
518.677 .0743489
519.508 .0774231
520.339 .0808296
521.169 .0845742
521.998 .0886319
522.826 .0929632
523.654 .0975080
524.481 .1021932
525.307 .1069374
526.133 .1116433
526.958 .1162148
527.782 .1205645
528.605 .1246086
529.428 .1282708
530.250 .1314827
531.072 .1341960
531.892 .1363665
532.712 .1379630
533.532 .1389661
534.350 .1393598
535.168 .1391410
535.986 .1383128
536.802 .1368791
537.618 .1348498
538.434 .1322404
539.249 .1290925
540.063 .1254611
540.876 .1214174
541.689 .1170428
542.501 .1124247
543.313 .1076629
544.124 .1028527
544.934 .0980798
545.744 .0934217
546.553 .0889466
547.361 .0847103
548.169 .0807467
548.976 .0770821
549.783 .0737283
550.589 .0706852
551.395 .0679417
552.200 .0654744
553.004 .0632561
553.808 .0612601
554.611 .0594612
555.414 .0578357
556.216 .0563635
557.018 .0550246
557.819 .0538032
558.619 .0526854
559.419 .0516596
560.218 .0507150
561.017 .0498414
561.815 .0490297
562.613 .0482722
563.410 .0475605
564.207 .0468871
565.003 .0462462
565.799 .0456326
566.594 .0450420
567.388 .0444719
568.182 .0439199
568.976 .0433845
569.769 .0428653
570.562 .0423623
571.354 .0418752
572.145 .0414040
572.936 .0409485
573.727 .0405076
574.517 .0400811
575.307 .0396690
576.096 .0392706
576.885 .0388864
577.673 .0385169
578.461 .0381628
579.248 .0378249
580.035 .0375040
580.821 .0372006
581.607 .0369151
582.392 .0366474
583.177 .0363968
583.962 .0361623
584.746 .0359431
585.529 .0357385
586.313 .0355474
587.095 .0353693
587.878 .0352038
588.660 .0350507
589.441 .0349098
590.222 .0347808
591.003 .0346628
591.783 .0345549
592.563 .0344557
593.342 .0343640
594.121 .0342784
594.899 .0341980
595.678 .0341216
596.455 .0340486
597.233 .0339787
598.009 .0339115
598.786 .0338470
599.562 .0337849
600.338 .0337253
601.113 .0336679
601.888 .0335891
602.663 .0335370
603.437 .0334867
604.211 .0334384
604.984 .0333919
605.757 .0333472
606.530 .0333044
607.302 .0332633
608.074 .0332241
608.845 .0331867
609.616 .0331511
610.387 .0331376
611.158 .0331045
611.928 .0330731
612.697 .0330433
613.467 .0330151
614.236 .0329882
615.004 .0329624
615.773 .0329374
616.541 .0329133
617.308 .0328898
618.076 .0328668
618.843 .0328443
619.609 .0328221
620.375 .0328002
621.141 .0327784
621.907 .0327566
622.672 .0327347
623.437 .0327125
624.202 .0326899
624.966 .0326668
625.730 .0326434
626.493 .0326195
627.257 .0325951
628.020 .0325704
628.782 .0325452
629.545 .0325195
630.307 .0324933
631.068 .0324664
631.830 .0324390
632.591 .0324110
633.352 .0323825
634.112 .0323536
634.872 .0323242
635.632 .0322945
636.392 .0322645
637.151 .0322343
637.910 .0322038
638.668 .0321732
639.427 .0321424
640.185 .0321116
640.943 .0320808
641.700 .0320502
642.457 .0320196
643.214 .0319891
643.971 .0319586
644.727 .0319282
645.483 .0318978
646.239 .0318674
646.994 .0318371
647.750 .0318069
648.505 .0317767
649.259 .0317467
650.014 .0317168
650.768 .0316869
651.521 .0316571
652.275 .0316273
653.028 .0315974
653.781 .0315675
654.534 .0315376
655.286 .0315077
656.039 .0314778
656.791 .0314480
657.542 .0314184
658.294 .0313888
659.045 .0313595
659.796 .0313305
660.546 .0313018
661.297 .0312736
662.047 .0312459
662.796 .0312188
663.546 .0311923
664.295 .0311665
665.044 .0311415
665.793 .0311172
666.542 .0310937
667.290 .0310711
668.038 .0310494
668.786 .0310286
669.533 .0310089
670.281 .0309900
671.028 .0309722
671.774 .0309554
672.521 .0309394
673.267 .0309242
674.013 .0309098
674.759 .0308961
675.505 .0308830
676.250 .0308706
676.995 .0308587
677.740 .0308472
678.484 .0308361
679.229 .0308252
679.973 .0308146
680.717 .0308042
681.460 .0307938
682.204 .0307834
682.947 .0307730
683.690 .0307623
684.433 .0307515
685.175 .0307403
685.917 .0307287
686.659 .0307168
687.401 .0307043
688.142 .0306912
688.884 .0306776
689.625 .0306634
690.365 .0306486
691.106 .0306333
691.846 .0306173
692.586 .0306007
693.326 .0305835
694.066 .0305658
694.805 .0305475
695.545 .0305288
696.284 .0305097
697.022 .0304903
697.761 .0304705
698.499 .0304504
699.237 .0304302
699.975 .0304097
700.713 .0303892
701.450 .0303686
702.187 .0303479
702.924 .0303271
703.661 .0303062
704.397 .0302853
705.133 .0302643
705.869 .0302432
706.605 .0302220
707.341 .0302006
708.076 .0301791
708.811 .0301573
709.546 .0301354
710.281 .0301132
711.015 .0300909
711.749 .0300683
712.483 .0300453
713.217 .0300220
713.950 .0299984
714.684 .0299743
715.417 .0299497
716.150 .0299246
716.882 .0298990
717.615 .0298729
718.347 .0298462
719.079 .0298192
719.811 .0297918
720.542 .0297640
721.273 .0297361
722.005 .0297080
722.735 .0296799
723.466 .0296519
724.196 .0296240
724.927 .0295964
725.656 .0295692
726.386 .0295425
727.116 .0295163
727.845 .0294907
728.574 .0294658
729.303 .0294417
730.031 .0294184
730.760 .0293961
731.488 .0293747
732.216 .0293543
732.944 .0293349
733.671 .0293164
734.398 .0292989
735.125 .0292822
735.852 .0292664
736.579 .0292513
737.305 .0292368
738.031 .0292230
738.757 .0292097
739.483 .0291971
740.208 .0291850
740.933 .0291734
741.658 .0291624
742.383 .0291518
743.108 .0291416
743.832 .0291318
744.556 .0291223
745.280 .0291131
746.004 .0291042
746.727 .0290955
747.450 .0290872
748.173 .0290791
748.896 .0290715
749.618 .0290642
750.340 .0290574
751.062 .0290510
751.784 .0290450
752.506 .0290394
753.227 .0290342
753.948 .0290295
754.669 .0290251
755.389 .0290212
756.110 .0290176
756.830 .0290144
757.550 .0290116
758.269 .0290090
758.989 .0290067
759.708 .0290045
760.427 .0290024
761.146 .0290005
761.864 .0289986
762.582 .0289966
763.300 .0289946
764.018 .0289925
764.736 .0289902
765.453 .0289876
766.170 .0289848
766.887 .0289816
767.603 .0289781
768.320 .0289743
769.036 .0289703
769.751 .0289660
770.467 .0289616
771.182 .0289569
771.897 .0289521
772.612 .0289472
773.327 .0289420
774.041 .0289366
774.755 .0289310
775.469 .0289251
776.183 .0289190
776.896 .0289127
777.609 .0289062
778.322 .0288995
779.035 .0288927
779.747 .0288857
780.459 .0288783
781.171 .0288707
781.882 .0288628
782.594 .0288544
783.305 .0288457
784.016 .0288364
784.726 .0288266
785.436 .0288163
786.147 .0287983
786.856 .0287861
787.566 .0287732
788.275 .0287594
788.984 .0287449
789.693 .0287294
790.401 .0287131
791.110 .0286960
791.818 .0286780
792.525 .0286592
793.233 .0286395
793.940 .0286190
794.647 .0286064
795.353 .0285847
796.060 .0285624
796.766 .0285393
797.472 .0285156
798.177 .0284914
798.883 .0284667
799.588 .0284415
800.292 .0284160
800.997 .0283902
801.701 .0283640
802.405 .0283376
803.109 .0283110
803.812 .0282843
804.515 .0282575
805.218 .0282306
805.921 .0282038
806.623 .0281770
807.325 .0281503
808.027 .0281236
808.728 .0280970
809.429 .0280706
810.130 .0280443
810.831 .0280183
811.531 .0279925
812.231 .0279670
812.931 .0279419
813.630 .0279173
814.330 .0278930
815.029 .0278693
815.727 .0278460
816.426 .0278232
817.124 .0278011
817.821 .0277796
818.519 .0277589
819.216 .0277389
819.913 .0277198
820.609 .0277017
821.306 .0276845
822.002 .0276684
822.697 .0276532
823.393 .0276391
824.088 .0276260
824.783 .0276140
825.477 .0276031
826.171 .0275932
826.865 .0275843
827.559 .0275765
828.252 .0275697
828.945 .0275638
829.638 .0275588
830.330 .0275547
831.023 .0275514
831.714 .0275489
832.406 .0275470
833.097 .0275459
833.788 .0275453
834.479 .0275452
835.169 .0275456
835.859 .0275465
836.548 .0275478
837.238 .0275495
837.927 .0275516
838.615 .0275541
839.304 .0275569
839.992 .0275601
840.680 .0275634
841.367 .0275670
842.054 .0275707
842.741 .0275746
843.428 .0275787
844.114 .0275829
844.800 .0275872
845.485 .0275918
846.170 .0275965
846.855 .0276013
847.540 .0276062
848.224 .0276111
848.908 .0276160
849.592 .0276208
850.275 .0276256
850.958 .0276303
851.641 .0276350
852.323 .0276396
853.005 .0276442
853.687 .0276488
854.368 .0276533
855.049 .0276578
855.730 .0276622
856.410 .0276665
857.090 .0276708
857.769 .0276750
858.449 .0276790
859.128 .0276830
859.806 .0276869
860.485 .0276906
861.163 .0276942
861.840 .0276976
862.518 .0277008
863.195 .0277037
863.871 .0277064
864.548 .0277086
865.224 .0277105
865.899 .0277118
866.574 .0277127
867.249 .0277130
867.924 .0277128
868.598 .0277121
869.272 .0277108
869.946 .0277089
870.619 .0277065
871.292 .0277034
871.964 .0276998
872.636 .0276955
873.308 .0276906
873.979 .0276851
874.651 .0276790
875.321 .0276722
875.992 .0276648
876.662 .0276570
877.331 .0276486
878.001 .0276397
878.670 .0276302
879.338 .0276202
880.007 .0276097
880.675 .0275986
881.342 .0275871
882.009 .0275752
882.676 .0275630
883.343 .0275504
884.009 .0275376
884.675 .0275246
885.340 .0275114
886.005 .0274980
886.670 .0274843
887.334 .0274704
887.998 .0274562
888.662 .0274417
889.325 .0274270
889.988 .0274121
890.650 .0273969
891.312 .0273814
891.974 .0273656
892.636 .0273494
893.297 .0273328
893.957 .0273158
894.618 .0272983
895.278 .0272802
895.937 .0272617
896.596 .0272427
897.255 .0272231
897.914 .0272029
898.572 .0271821
899.230 .0271606
899.887 .0271384
900.544 .0271154
901.201 .0270916
901.857 .0270523
902.513 .0270264
903.168 .0269997
903.823 .0269723
904.478 .0269442
905.132 .0269155
905.786 .0268861
906.440 .0268562
907.093 .0268258
907.746 .0267951
908.399 .0267639
909.051 .0267325
909.703 .0267009
910.354 .0266849
911.005 .0266535
911.656 .0266220
912.306 .0265905
912.956 .0265590
913.605 .0265277
914.254 .0264964
914.903 .0264653
915.551 .0264343
916.199 .0264034
916.847 .0263727
917.494 .0263421
918.141 .0263116
918.788 .0262813
919.434 .0262511
920.079 .0262210
920.725 .0261911
921.370 .0261613
922.014 .0261317
922.658 .0261021
923.302 .0260727
923.946 .0260435
924.589 .0260144
925.231 .0259854
925.873 .0259566
926.515 .0259279
927.157 .0258995
927.798 .0258713
928.439 .0258435
929.079 .0258160
929.719 .0257890
930.359 .0257626
930.998 .0257369
931.637 .0257118
932.275 .0256875
932.913 .0256642
933.551 .0256418
934.188 .0256205
934.825 .0256005
935.462 .0255817
936.098 .0255643
936.733 .0255483
937.369 .0255336
938.004 .0255203
938.638 .0255084
939.273 .0254979
939.907 .0254886
940.540 .0254807
941.173 .0254740
941.806 .0254686
942.438 .0254643
943.070 .0254612
943.702 .0254590
944.333 .0254578
944.964 .0254574
945.594 .0254576
946.224 .0254584
946.854 .0254596
947.483 .0254611
948.112 .0254629
948.741 .0254650
949.369 .0254672
949.996 .0254697
950.624 .0254723
951.251 .0254751
951.878 .0254779
952.504 .0254808
953.130 .0254836
953.755 .0254864
954.380 .0254892
955.005 .0254920
955.629 .0254948
956.253 .0254977
956.877 .0255007
957.500 .0255040
958.123 .0255076
958.746 .0255114
959.368 .0255155
959.990 .0255200
960.611 .0255248
961.232 .0255300
961.853 .0255356
962.473 .0255417
963.093 .0255483
963.712 .0255555
964.331 .0255632
964.950 .0255716
965.569 .0255805
966.187 .0255898
966.804 .0255996
967.422 .0256098
968.039 .0256202
968.655 .0256310
969.272 .0256420
969.887 .0256533
970.503 .0256649
971.118 .0256767
971.733 .0256887
972.347 .0257006
972.961 .0257125
973.575 .0257242
974.188 .0257355
974.801 .0257465
975.414 .0257572
976.026 .0257675
976.638 .0257776
977.250 .0257874
977.861 .0257970
978.472 .0258064
979.083 .0258154
979.693 .0258240
980.303 .0258322
980.912 .0258427
981.521 .0258498
982.130 .0258566
982.738 .0258632
983.346 .0258697
983.954 .0258761
984.562 .0258824
985.169 .0258888
985.775 .0258952
986.382 .0259016
986.988 .0259080
987.594 .0259143
988.199 .0259208
988.804 .0259273
989.409 .0259312
990.013 .0259381
990.617 .0259451
991.221 .0259524
991.824 .0259599
992.427 .0259675
993.030 .0259752
993.632 .0259828
994.234 .0259902
994.836 .0259974
995.438 .0260042
996.039 .0260107
996.640 .0260168
997.240 .0260226
997.840 .0260282
998.440 .0260334
999.040 .0260384
999.639 .0260430
1000.238 .0260472
1000.836 .0260510
1001.435 .0260544
1002.033 .0260573
1002.630 .0260597
1003.228 .0260617
1003.825 .0260633
1004.422 .0260644
1005.018 .0260651
1005.614 .0260654
1006.210 .0260652
1006.806 .0260646
1007.401 .0260633
1007.996 .0260615
1008.591 .0260591
1009.186 .0260560
1009.780 .0260524
1010.374 .0260481
1010.967 .0260433
1011.561 .0260379
1012.154 .0260321
1012.746 .0260258
1013.339 .0260192
1013.931 .0260123
1014.523 .0260052
1015.115 .0259978
1015.706 .0259903
1016.298 .0259826
1016.888 .0259748
1017.479 .0259669
1018.069 .0259589
1018.660 .0259509
1019.250 .0259428
1019.839 .0259347
1020.429 .0259266
1021.018 .0259184
1021.607 .0259101
1022.195 .0259016
1022.784 .0258929
1023.372 .0258839
1023.960 .0258746
1024.547 .0258650
1025.135 .0258550
1025.722 .0258448
1026.309 .0258343
1026.896 .0258236
1027.483 .0258128
1028.069 .0258017
1028.655 .0257904
1029.241 .0257790
1029.827 .0257673
1030.412 .0257555
1030.997 .0257435
1031.582 .0257314
1032.167 .0257193
1032.752 .0257070
1033.336 .0256947
1033.921 .0256821
1034.505 .0256694
1035.089 .0256564
1035.672 .0256429
1036.256 .0256291
1036.839 .0256147
1037.422 .0256000
1038.005 .0255847
1038.588 .0255692
1039.171 .0255533
1039.753 .0255372
1040.335 .0255209
1040.918 .0255043
1041.500 .0254876
1042.081 .0254706
1042.663 .0254534
1043.244 .0254360
1043.826 .0254185
1044.407 .0254009
1044.988 .0253833
1045.569 .0253656
1046.150 .0253479
1046.730 .0253302
1047.311 .0253124
1047.891 .0252945
1048.471 .0252765
1049.052 .0252583
1049.632 .0252398
1050.211 .0252212
1050.791 .0252025
1051.371 .0251836
1051.950 .0251646
1052.530 .0251458
1053.109 .0251269
1053.688 .0251083
1054.268 .0250898
1054.847 .0250716
1055.426 .0250538
1056.005 .0250365
1056.583 .0250196
1057.162 .0250031
1057.741 .0249872
1058.319 .0249717
1058.898 .0249567
1059.476 .0249422
1060.055 .0249281
1060.633 .0249144
1061.211 .0249010
1061.790 .0248880
1062.368 .0248754
1062.946 .0248631
1063.524 .0248513
1064.102 .0248399
1064.680 .0248288
1065.258 .0248182
1065.836 .0248080
1066.414 .0247982
1066.992 .0247889
1067.570 .0247800
1068.148 .0247715
1068.726 .0247634
1069.304 .0247558
1069.882 .0247486
1070.460 .0247418
1071.038 .0247354
1071.616 .0247293
1072.194 .0247235
1072.772 .0247180
1073.350 .0247127
1073.928 .0247075
1074.506 .0247026
1075.084 .0246981
1075.662 .0246940
1076.240 .0246904
1076.819 .0246875
1077.397 .0246855
1077.976 .0246844
1078.554 .0246842
1079.133 .0246849
1079.711 .0246864
1080.290 .0246888
1080.869 .0246919
1081.448 .0246958
1082.027 .0247006
1082.606 .0247064
1083.185 .0247132
1083.764 .0247211
1084.343 .0247302
1084.923 .0247405
1085.502 .0247517
1086.082 .0247638
1086.662 .0247766
1087.242 .0247901
1087.822 .0248040
1088.402 .0248186
1088.983 .0248340
1089.563 .0248502
1090.144 .0248674
1090.725 .0248857
1091.306 .0249051
1091.887 .0249254
1092.469 .0249465
1093.050 .0249680
1093.632 .0249896
1094.214 .0250111
1094.796 .0250323
1095.379 .0250532
1095.961 .0250738
1096.544 .0250942
1097.127 .0251145
1097.710 .0251350
1098.294 .0251556
1098.877 .0251765
1099.461 .0251977
1100.046 .0252190
1100.630 .0252406
1101.215 .0252625
1101.800 .0252848
1102.385 .0253077
1102.970 .0253314
1103.556 .0253561
1104.142 .0253820
1104.728 .0254092
1105.315 .0254379
1105.902 .0254682
1106.489 .0255001
1107.077 .0255336
1107.664 .0255683
1108.253 .0256044
1108.841 .0256415
1109.430 .0256796
1110.019 .0257187
1110.609 .0257589
1111.198 .0258003
1111.789 .0258432
1112.379 .0258878
1112.970 .0259344
1113.561 .0259830
1114.153 .0260339
1114.745 .0260869
1115.338 .0261417
1115.931 .0261982
1116.524 .0262560
1117.117 .0263149
1117.712 .0263746
1118.306 .0264351
1118.901 .0264962
1119.496 .0265578
1120.092 .0266200
1120.689 .0266827
1121.285 .0267461
1121.882 .0268099
1122.480 .0268741
1123.078 .0269386
1123.677 .0270033
1124.276 .0270681
1124.875 .0271334
1125.476 .0271993
1126.076 .0272662
1126.677 .0273344
1127.279 .0274041
1127.881 .0274757
1128.484 .0275494
1129.087 .0275839
1129.691 .0276605
1130.295 .0277390
1130.900 .0278193
1131.505 .0279011
1132.111 .0279844
1132.718 .0280691
1133.325 .0281552
1133.933 .0282428
1134.541 .0283317
1135.150 .0284217
1135.760 .0285113
1136.370 .0286065
1136.981 .0286716
1137.592 .0287863
1138.204 .0289063
1138.817 .0290255
1139.431 .0291464
1140.045 .0292636
1140.660 .0293761
1141.275 .0294851
1141.891 .0295937
1142.508 .0296903
1143.126 .0297829
1143.744 .0298306
1144.363 .0300460
1144.983 .0302308
