Measurement Sequence started on: 15-12-46-377
Integration time: 28
Scans to Average: 2 
>>>>>Begin Spectral Data<<<<<
432.689 .0000100
433.621 .0000100
434.552 .0000100
435.482 .0000100
436.410 .0000100
437.337 .0000100
438.262 .0278879
439.187 .0590892
440.110 .0979810
441.031 .1419083
441.952 .1144665
442.871 .1196219
443.789 .1244249
444.705 .1289478
445.621 .1332412
446.535 .1373431
447.447 .1398140
448.359 .1405032
449.269 .1390253
450.178 .1351305
451.086 .1288945
451.993 .1208007
452.898 .1116520
453.803 .1023597
454.706 .0937005
455.608 .0861602
456.508 .0799041
457.408 .0756539
458.306 .0723752
459.204 .0697008
460.100 .0674447
460.995 .0655032
461.888 .0638068
462.781 .0623085
463.673 .0609731
464.563 .0597757
465.452 .0586950
466.340 .0577143
467.228 .0568204
468.114 .0560040
468.999 .0552567
469.882 .0545722
470.765 .0539449
471.647 .0533715
472.528 .0528489
473.407 .0523747
474.286 .0519462
475.163 .0515620
476.040 .0512196
476.915 .0509171
477.790 .0506513
478.663 .0504197
479.535 .0502193
480.407 .0500473
481.277 .0499011
482.147 .0497780
483.015 .0496751
483.883 .0495910
484.749 .0495236
485.615 .0494720
486.479 .0494348
487.343 .0494115
488.206 .0494022
489.067 .0494063
489.928 .0494244
490.788 .0494568
491.647 .0495044
492.505 .0495685
493.362 .0496502
494.218 .0497515
495.073 .0498741
495.928 .0501471
496.781 .0503352
497.634 .0505506
498.486 .0507945
499.337 .0510681
500.187 .0513730
501.036 .0517108
501.884 .0520831
502.731 .0524925
503.578 .0529416
504.424 .0532516
505.268 .0537707
506.113 .0543402
506.956 .0549641
507.798 .0556472
508.640 .0563965
509.480 .0572202
510.320 .0581286
511.160 .0591346
511.998 .0602533
512.836 .0615030
513.672 .0629043
514.508 .0644809
515.344 .0662574
516.178 .0682586
517.012 .0705119
517.845 .0730378
518.677 .0758555
519.508 .0789771
520.339 .0824037
521.169 .0861323
521.998 .0901338
522.826 .0943675
523.654 .0987745
524.481 .1032868
525.307 .1078250
526.133 .1122971
526.958 .1166119
527.782 .1206784
528.605 .1244132
529.428 .1277437
530.250 .1306041
531.072 .1329501
531.892 .1347454
532.712 .1359666
533.532 .1366000
534.350 .1366403
535.168 .1360940
535.986 .1349697
536.802 .1332809
537.618 .1310488
538.434 .1282947
539.249 .1250637
540.063 .1214110
540.876 .1174044
541.689 .1131200
542.501 .1086414
543.313 .1040616
544.124 .0994708
544.934 .0949552
545.744 .0905899
546.553 .0864361
547.361 .0825456
548.169 .0789446
548.976 .0756490
549.783 .0726597
550.589 .0699672
551.395 .0675506
552.200 .0653829
553.004 .0634350
553.808 .0616798
554.611 .0600922
555.414 .0586512
556.216 .0573375
557.018 .0561325
557.819 .0550219
558.619 .0539928
559.419 .0530349
560.218 .0521392
561.017 .0512971
561.815 .0505020
562.613 .0497480
563.410 .0490303
564.207 .0483435
565.003 .0476831
565.799 .0470452
566.594 .0464266
567.388 .0458251
568.182 .0452392
568.976 .0446679
569.769 .0441111
570.562 .0435692
571.354 .0430428
572.145 .0425318
572.936 .0420364
573.727 .0415567
574.517 .0410928
575.307 .0406451
576.096 .0402135
576.885 .0397985
577.673 .0394007
578.461 .0390204
579.248 .0386577
580.035 .0383128
580.821 .0379856
581.607 .0376763
582.392 .0373849
583.177 .0371112
583.962 .0368548
584.746 .0366154
585.529 .0363924
586.313 .0361851
587.095 .0359926
587.878 .0358141
588.660 .0356488
589.441 .0354962
590.222 .0353554
591.003 .0352259
591.783 .0351070
592.563 .0349981
593.342 .0348983
594.121 .0348068
594.899 .0347225
595.678 .0346444
596.455 .0345717
597.233 .0345038
598.009 .0344401
598.786 .0343800
599.562 .0343230
600.338 .0342690
601.113 .0342175
601.888 .0341484
602.663 .0341023
603.437 .0340582
604.211 .0340159
604.984 .0339752
605.757 .0339361
606.530 .0338984
607.302 .0338620
608.074 .0338267
608.845 .0337924
609.616 .0337588
610.387 .0337438
611.158 .0337110
611.928 .0336787
612.697 .0336470
613.467 .0336157
614.236 .0335849
615.004 .0335544
615.773 .0335243
616.541 .0334942
617.308 .0334642
618.076 .0334340
618.843 .0334035
619.609 .0333726
620.375 .0333413
621.141 .0333096
621.907 .0332775
622.672 .0332450
623.437 .0332121
624.202 .0331787
624.966 .0331448
625.730 .0331106
626.493 .0330760
627.257 .0330411
628.020 .0330060
628.782 .0329707
629.545 .0329353
630.307 .0328997
631.068 .0328640
631.830 .0328281
632.591 .0327920
633.352 .0327558
634.112 .0327194
634.872 .0326830
635.632 .0326468
636.392 .0326108
637.151 .0325750
637.910 .0325396
638.668 .0325046
639.427 .0324699
640.185 .0324356
640.943 .0324017
641.700 .0323683
642.457 .0323353
643.214 .0323030
643.971 .0322713
644.727 .0322402
645.483 .0322099
646.239 .0321803
646.994 .0321514
647.750 .0321232
648.505 .0320958
649.259 .0320693
650.014 .0320437
650.768 .0320191
651.521 .0319956
652.275 .0319731
653.028 .0319517
653.781 .0319312
654.534 .0319115
655.286 .0318925
656.039 .0318740
656.791 .0318559
657.542 .0318383
658.294 .0318209
659.045 .0318037
659.796 .0317867
660.546 .0317699
661.297 .0317533
662.047 .0317367
662.796 .0317202
663.546 .0317036
664.295 .0316868
665.044 .0316699
665.793 .0316528
666.542 .0316353
667.290 .0316176
668.038 .0315996
668.786 .0315814
669.533 .0315630
670.281 .0315445
671.028 .0315260
671.774 .0315077
672.521 .0314896
673.267 .0314717
674.013 .0314542
674.759 .0314368
675.505 .0314197
676.250 .0314027
676.995 .0313857
677.740 .0313687
678.484 .0313514
679.229 .0313340
679.973 .0313164
680.717 .0312985
681.460 .0312803
682.204 .0312617
682.947 .0312427
683.690 .0312232
684.433 .0312029
685.175 .0311818
685.917 .0311598
686.659 .0311368
687.401 .0311129
688.142 .0310879
688.884 .0310620
689.625 .0310352
690.365 .0310076
691.106 .0309792
691.846 .0309501
692.586 .0309205
693.326 .0308903
694.066 .0308598
694.805 .0308290
695.545 .0307981
696.284 .0307671
697.022 .0307362
697.761 .0307055
698.499 .0306750
699.237 .0306449
699.975 .0306153
700.713 .0305861
701.450 .0305575
702.187 .0305294
702.924 .0305019
703.661 .0304749
704.397 .0304484
705.133 .0304224
705.869 .0303966
706.605 .0303712
707.341 .0303461
708.076 .0303212
708.811 .0302964
709.546 .0302719
710.281 .0302475
711.015 .0302231
711.749 .0301988
712.483 .0301744
713.217 .0301499
713.950 .0301252
714.684 .0301004
715.417 .0300755
716.150 .0300506
716.882 .0300256
717.615 .0300007
718.347 .0299760
719.079 .0299514
719.811 .0299272
720.542 .0299032
721.273 .0298797
722.005 .0298567
722.735 .0298343
723.466 .0298126
724.196 .0297916
724.927 .0297716
725.656 .0297525
726.386 .0297346
727.116 .0297178
727.845 .0297024
728.574 .0296882
729.303 .0296755
730.031 .0296642
730.760 .0296542
731.488 .0296456
732.216 .0296383
732.944 .0296321
733.671 .0296271
734.398 .0296231
735.125 .0296200
735.852 .0296178
736.579 .0296164
737.305 .0296157
738.031 .0296156
738.757 .0296161
739.483 .0296169
740.208 .0296180
740.933 .0296193
741.658 .0296207
742.383 .0296219
743.108 .0296231
743.832 .0296241
744.556 .0296248
745.280 .0296253
746.004 .0296254
746.727 .0296251
747.450 .0296244
748.173 .0296234
748.896 .0296220
749.618 .0296201
750.340 .0296179
751.062 .0296153
751.784 .0296123
752.506 .0296087
753.227 .0296047
753.948 .0296000
754.669 .0295948
755.389 .0295889
756.110 .0295824
756.830 .0295754
757.550 .0295678
758.269 .0295597
758.989 .0295511
759.708 .0295418
760.427 .0295319
761.146 .0295212
761.864 .0295098
762.582 .0294975
763.300 .0294843
764.018 .0294703
764.736 .0294556
765.453 .0294400
766.170 .0294238
766.887 .0294069
767.603 .0293894
768.320 .0293714
769.036 .0293528
769.751 .0293337
770.467 .0293142
771.182 .0292943
771.897 .0292741
772.612 .0292536
773.327 .0292328
774.041 .0292118
774.755 .0291906
775.469 .0291692
776.183 .0291476
776.896 .0291259
777.609 .0291041
778.322 .0290823
779.035 .0290604
779.747 .0290384
780.459 .0290163
781.171 .0289942
781.882 .0289720
782.594 .0289495
783.305 .0289269
784.016 .0289041
784.726 .0288811
785.436 .0288579
786.147 .0288225
786.856 .0287989
787.566 .0287751
788.275 .0287513
788.984 .0287273
789.693 .0287031
790.401 .0286789
791.110 .0286545
791.818 .0286300
792.525 .0286054
793.233 .0285807
793.940 .0285561
794.647 .0285439
795.353 .0285197
796.060 .0284957
796.766 .0284720
797.472 .0284486
798.177 .0284255
798.883 .0284028
799.588 .0283804
800.292 .0283584
800.997 .0283367
801.701 .0283154
802.405 .0282946
803.109 .0282743
803.812 .0282546
804.515 .0282355
805.218 .0282170
805.921 .0281991
806.623 .0281819
807.325 .0281654
808.027 .0281495
808.728 .0281343
809.429 .0281197
810.130 .0281058
810.831 .0280927
811.531 .0280803
812.231 .0280686
812.931 .0280576
813.630 .0280473
814.330 .0280378
815.029 .0280292
815.727 .0280214
816.426 .0280146
817.124 .0280088
817.821 .0280041
818.519 .0280003
819.216 .0279976
819.913 .0279959
820.609 .0279952
821.306 .0279954
822.002 .0279967
822.697 .0279990
823.393 .0280024
824.088 .0280069
824.783 .0280126
825.477 .0280193
826.171 .0280269
826.865 .0280355
827.559 .0280447
828.252 .0280546
828.945 .0280650
829.638 .0280758
830.330 .0280869
831.023 .0280984
831.714 .0281100
832.406 .0281217
833.097 .0281335
833.788 .0281452
834.479 .0281567
835.169 .0281680
835.859 .0281790
836.548 .0281896
837.238 .0281998
837.927 .0282097
838.615 .0282191
839.304 .0282280
839.992 .0282365
840.680 .0282443
841.367 .0282515
842.054 .0282579
842.741 .0282636
843.428 .0282686
844.114 .0282729
844.800 .0282765
845.485 .0282795
846.170 .0282820
846.855 .0282838
847.540 .0282850
848.224 .0282856
848.908 .0282855
849.592 .0282848
850.275 .0282834
850.958 .0282816
851.641 .0282791
852.323 .0282762
853.005 .0282729
853.687 .0282690
854.368 .0282646
855.049 .0282597
855.730 .0282542
856.410 .0282479
857.090 .0282410
857.769 .0282333
858.449 .0282248
859.128 .0282155
859.806 .0282055
860.485 .0281949
861.163 .0281835
861.840 .0281715
862.518 .0281588
863.195 .0281456
863.871 .0281316
864.548 .0281170
865.224 .0281017
865.899 .0280857
866.574 .0280690
867.249 .0280515
867.924 .0280333
868.598 .0280145
869.272 .0279949
869.946 .0279748
870.619 .0279541
871.292 .0279328
871.964 .0279110
872.636 .0278887
873.308 .0278659
873.979 .0278426
874.651 .0278189
875.321 .0277946
875.992 .0277699
876.662 .0277448
877.331 .0277193
878.001 .0276935
878.670 .0276673
879.338 .0276408
880.007 .0276140
880.675 .0275870
881.342 .0275597
882.009 .0275322
882.676 .0275044
883.343 .0274765
884.009 .0274485
884.675 .0274204
885.340 .0273922
886.005 .0273640
886.670 .0273359
887.334 .0273078
887.998 .0272798
888.662 .0272519
889.325 .0272243
889.988 .0271968
890.650 .0271696
891.312 .0271428
891.974 .0271163
892.636 .0270902
893.297 .0270646
893.957 .0270392
894.618 .0270142
895.278 .0269895
895.937 .0269650
896.596 .0269407
897.255 .0269165
897.914 .0268925
898.572 .0268687
899.230 .0268449
899.887 .0268213
900.544 .0267977
901.201 .0267741
901.857 .0267382
902.513 .0267145
903.168 .0266906
903.823 .0266667
904.478 .0266427
905.132 .0266186
905.786 .0265945
906.440 .0265705
907.093 .0265466
907.746 .0265229
908.399 .0264994
909.051 .0264761
909.703 .0264532
910.354 .0264428
911.005 .0264207
911.656 .0263991
912.306 .0263781
912.956 .0263575
913.605 .0263376
914.254 .0263183
914.903 .0262997
915.551 .0262817
916.199 .0262643
916.847 .0262476
917.494 .0262315
918.141 .0262159
918.788 .0262010
919.434 .0261867
920.079 .0261728
920.725 .0261596
921.370 .0261468
922.014 .0261345
922.658 .0261226
923.302 .0261111
923.946 .0261000
924.589 .0260893
925.231 .0260789
925.873 .0260690
926.515 .0260594
927.157 .0260502
927.798 .0260413
928.439 .0260329
929.079 .0260249
929.719 .0260173
930.359 .0260101
930.998 .0260035
931.637 .0259973
932.275 .0259918
932.913 .0259869
933.551 .0259826
934.188 .0259792
934.825 .0259766
935.462 .0259748
936.098 .0259740
936.733 .0259740
937.369 .0259750
938.004 .0259770
938.638 .0259799
939.273 .0259837
939.907 .0259885
940.540 .0259942
941.173 .0260007
941.806 .0260081
942.438 .0260162
943.070 .0260250
943.702 .0260345
944.333 .0260445
944.964 .0260551
945.594 .0260661
946.224 .0260776
946.854 .0260894
947.483 .0261015
948.112 .0261138
948.741 .0261264
949.369 .0261391
949.996 .0261520
950.624 .0261650
951.251 .0261780
951.878 .0261911
952.504 .0262042
953.130 .0262172
953.755 .0262302
954.380 .0262430
955.005 .0262557
955.629 .0262683
956.253 .0262806
956.877 .0262928
957.500 .0263047
958.123 .0263165
958.746 .0263281
959.368 .0263396
959.990 .0263509
960.611 .0263621
961.232 .0263730
961.853 .0263837
962.473 .0263942
963.093 .0264044
963.712 .0264144
964.331 .0264241
964.950 .0264335
965.569 .0264426
966.187 .0264515
966.804 .0264601
967.422 .0264683
968.039 .0264762
968.655 .0264836
969.272 .0264905
969.887 .0264969
970.503 .0265027
971.118 .0265079
971.733 .0265125
972.347 .0265164
972.961 .0265198
973.575 .0265225
974.188 .0265245
974.801 .0265258
975.414 .0265264
976.026 .0265262
976.638 .0265252
977.250 .0265234
977.861 .0265208
978.472 .0265173
979.083 .0265129
979.693 .0265077
980.303 .0265018
980.912 .0264893
981.521 .0264815
982.130 .0264730
982.738 .0264638
983.346 .0264540
983.954 .0264436
984.562 .0264328
985.169 .0264215
985.775 .0264100
986.382 .0263983
986.988 .0263864
987.594 .0263746
988.199 .0263628
988.804 .0263509
989.409 .0263454
990.013 .0263336
990.617 .0263218
991.221 .0263099
991.824 .0262980
992.427 .0262859
993.030 .0262736
993.632 .0262613
994.234 .0262488
994.836 .0262362
995.438 .0262234
996.039 .0262105
996.640 .0261974
997.240 .0261841
997.840 .0261706
998.440 .0261570
999.040 .0261431
999.639 .0261291
1000.238 .0261149
1000.836 .0261004
1001.435 .0260856
1002.033 .0260705
1002.630 .0260550
1003.228 .0260390
1003.825 .0260227
1004.422 .0260058
1005.018 .0259883
1005.614 .0259704
1006.210 .0259519
1006.806 .0259329
1007.401 .0259133
1007.996 .0258933
1008.591 .0258727
1009.186 .0258517
1009.780 .0258303
1010.374 .0258086
1010.967 .0257866
1011.561 .0257645
1012.154 .0257423
1012.746 .0257200
1013.339 .0256978
1013.931 .0256757
1014.523 .0256536
1015.115 .0256316
1015.706 .0256098
1016.298 .0255880
1016.888 .0255664
1017.479 .0255449
1018.069 .0255237
1018.660 .0255029
1019.250 .0254824
1019.839 .0254622
1020.429 .0254425
1021.018 .0254230
1021.607 .0254040
1022.195 .0253852
1022.784 .0253667
1023.372 .0253485
1023.960 .0253306
1024.547 .0253132
1025.135 .0252962
1025.722 .0252798
1026.309 .0252640
1026.896 .0252487
1027.483 .0252338
1028.069 .0252194
1028.655 .0252052
1029.241 .0251911
1029.827 .0251773
1030.412 .0251635
1030.997 .0251499
1031.582 .0251365
1032.167 .0251234
1032.752 .0251105
1033.336 .0250979
1033.921 .0250854
1034.505 .0250730
1035.089 .0250605
1035.672 .0250478
1036.256 .0250349
1036.839 .0250217
1037.422 .0250082
1038.005 .0249944
1038.588 .0249804
1039.171 .0249663
1039.753 .0249521
1040.335 .0249379
1040.918 .0249238
1041.500 .0249097
1042.081 .0248956
1042.663 .0248815
1043.244 .0248673
1043.826 .0248533
1044.407 .0248394
1044.988 .0248258
1045.569 .0248124
1046.150 .0247996
1046.730 .0247872
1047.311 .0247752
1047.891 .0247638
1048.471 .0247527
1049.052 .0247420
1049.632 .0247316
1050.211 .0247216
1050.791 .0247120
1051.371 .0247029
1051.950 .0246942
1052.530 .0246862
1053.109 .0246789
1053.688 .0246722
1054.268 .0246663
1054.847 .0246611
1055.426 .0246567
1056.005 .0246532
1056.583 .0246505
1057.162 .0246486
1057.741 .0246475
1058.319 .0246473
1058.898 .0246480
1059.476 .0246495
1060.055 .0246517
1060.633 .0246546
1061.211 .0246582
1061.790 .0246624
1062.368 .0246673
1062.946 .0246727
1063.524 .0246788
1064.102 .0246853
1064.680 .0246924
1065.258 .0247000
1065.836 .0247079
1066.414 .0247162
1066.992 .0247248
1067.570 .0247336
1068.148 .0247426
1068.726 .0247518
1069.304 .0247610
1069.882 .0247703
1070.460 .0247796
1071.038 .0247889
1071.616 .0247980
1072.194 .0248069
1072.772 .0248156
1073.350 .0248241
1073.928 .0248322
1074.506 .0248401
1075.084 .0248478
1075.662 .0248554
1076.240 .0248629
1076.819 .0248707
1077.397 .0248788
1077.976 .0248873
1078.554 .0248964
1079.133 .0249062
1079.711 .0249167
1080.290 .0249279
1080.869 .0249400
1081.448 .0249530
1082.027 .0249669
1082.606 .0249818
1083.185 .0249976
1083.764 .0250145
1084.343 .0250325
1084.923 .0250516
1085.502 .0250719
1086.082 .0250935
1086.662 .0251165
1087.242 .0251409
1087.822 .0251670
1088.402 .0251946
1088.983 .0252238
1089.563 .0252546
1090.144 .0252868
1090.725 .0253206
1091.306 .0253558
1091.887 .0253924
1092.469 .0254303
1093.050 .0254694
1093.632 .0255096
1094.214 .0255506
1094.796 .0255923
1095.379 .0256344
1095.961 .0256768
1096.544 .0257192
1097.127 .0257615
1097.710 .0258036
1098.294 .0258455
1098.877 .0258871
1099.461 .0259286
1100.046 .0259699
1100.630 .0260112
1101.215 .0260523
1101.800 .0260935
1102.385 .0261346
1102.970 .0261755
1103.556 .0262163
1104.142 .0262570
1104.728 .0262976
1105.315 .0263381
1105.902 .0263786
1106.489 .0264192
1107.077 .0264600
1107.664 .0265009
1108.253 .0265420
1108.841 .0265831
1109.430 .0266244
1110.019 .0266657
1110.609 .0267071
1111.198 .0267490
1111.789 .0267913
1112.379 .0268345
1112.970 .0268788
1113.561 .0269244
1114.153 .0269716
1114.745 .0270203
1115.338 .0270705
1115.931 .0271222
1116.524 .0271753
1117.117 .0272298
1117.712 .0272857
1118.306 .0273432
1118.901 .0274023
1119.496 .0274633
1120.092 .0275264
1120.689 .0275916
1121.285 .0276589
1121.882 .0277283
1122.480 .0277995
1123.078 .0278723
1123.677 .0279464
1124.276 .0280218
1124.875 .0280983
1125.476 .0281758
1126.076 .0282542
1126.677 .0283337
1127.279 .0284143
1127.881 .0284958
1128.484 .0285783
1129.087 .0286190
1129.691 .0287030
1130.295 .0287876
1130.900 .0288727
1131.505 .0289583
1132.111 .0290445
1132.718 .0291319
1133.325 .0292209
1133.933 .0293123
1134.541 .0294013
1135.150 .0294966
1135.760 .0296009
1136.370 .0297067
1136.981 .0297726
1137.592 .0298606
1138.204 .0299494
1138.817 .0300375
1139.431 .0301283
1140.045 .0302253
1140.660 .0303342
1141.275 .0304557
1141.891 .0305933
1142.508 .0306035
1143.126 .0308557
1143.744 .0311881
1144.363 .0313168
1144.983 .0315005
