Measurement Sequence started on: 15-12-46-377
Integration time: 28
Scans to Average: 2 
>>>>>Begin Spectral Data<<<<<
432.689 .0000100
433.621 .0000100
434.552 .0000100
435.482 .0000100
436.410 .0000100
437.337 .0000100
438.262 .0258879
439.187 .0548206
440.110 .0908781
441.031 .1315650
441.952 .1066856
442.871 .1116147
443.789 .1162261
444.705 .1205848
445.621 .1247364
446.535 .1287154
447.447 .1311853
448.359 .1320054
449.269 .1308183
450.178 .1273929
451.086 .1217952
451.993 .1144690
452.898 .1061530
453.803 .0976867
454.706 .0897866
455.608 .0828980
456.508 .0771731
457.408 .0732820
458.306 .0702674
459.204 .0677929
460.100 .0656901
460.995 .0638676
461.888 .0622624
462.781 .0608307
463.673 .0595396
464.563 .0583648
465.452 .0572875
466.340 .0562923
467.228 .0553691
468.114 .0545106
468.999 .0537125
469.882 .0529713
470.765 .0522850
471.647 .0516510
472.528 .0510668
473.407 .0505284
474.286 .0500330
475.163 .0495782
476.040 .0491618
476.915 .0487816
477.790 .0484369
478.663 .0481273
479.535 .0478529
480.407 .0476137
481.277 .0474094
482.147 .0472385
483.015 .0470997
483.883 .0469901
484.749 .0469072
485.615 .0468484
486.479 .0468118
487.343 .0467960
488.206 .0468009
489.067 .0468262
489.928 .0468722
490.788 .0469388
491.647 .0470268
492.505 .0471361
493.362 .0472661
494.218 .0474167
495.073 .0475883
495.928 .0479248
496.781 .0481573
497.634 .0484155
498.486 .0487018
499.337 .0490188
500.187 .0493687
501.036 .0497547
501.884 .0501797
502.731 .0506470
503.578 .0511596
504.424 .0515167
505.268 .0521112
506.113 .0527620
506.956 .0534743
507.798 .0542537
508.640 .0551069
509.480 .0560416
510.320 .0570679
511.160 .0581967
511.998 .0594399
512.836 .0608112
513.672 .0623248
514.508 .0639978
515.344 .0658476
516.178 .0678919
517.012 .0701505
517.845 .0726404
518.677 .0753759
519.508 .0783674
520.339 .0816164
521.169 .0851185
521.998 .0888467
522.826 .0927629
523.654 .0968139
524.481 .1009368
525.307 .1050621
526.133 .1091116
526.958 .1130048
527.782 .1166667
528.605 .1200240
529.428 .1230141
530.250 .1255770
531.072 .1276739
531.892 .1292707
532.712 .1303450
533.532 .1308825
534.350 .1308775
535.168 .1303347
535.986 .1292635
536.802 .1276730
537.618 .1255807
538.434 .1230062
539.249 .1199910
540.063 .1165836
540.876 .1128465
541.689 .1088477
542.501 .1046608
543.313 .1003645
544.124 .0960389
544.934 .0917549
545.744 .0875797
546.553 .0835697
547.361 .0797769
548.169 .0762308
548.976 .0729532
549.783 .0699531
550.589 .0672305
551.395 .0647727
552.200 .0625586
553.004 .0605629
553.808 .0587641
554.611 .0571396
555.414 .0556702
556.216 .0543363
557.018 .0531223
557.819 .0520134
558.619 .0509981
559.419 .0500661
560.218 .0492092
561.017 .0484180
561.815 .0476856
562.613 .0470057
563.410 .0463701
564.207 .0457706
565.003 .0452001
565.799 .0446522
566.594 .0441214
567.388 .0436031
568.182 .0430948
568.976 .0425951
569.769 .0421043
570.562 .0416225
571.354 .0411508
572.145 .0406905
572.936 .0402423
573.727 .0398070
574.517 .0393852
575.307 .0389773
576.096 .0385829
576.885 .0382028
577.673 .0378380
578.461 .0374892
579.248 .0371571
580.035 .0368427
580.821 .0365466
581.607 .0362694
582.392 .0360107
583.177 .0357700
583.962 .0355465
584.746 .0353390
585.529 .0351462
586.313 .0349669
587.095 .0347999
587.878 .0346444
588.660 .0344995
589.441 .0343644
590.222 .0342387
591.003 .0341218
591.783 .0340131
592.563 .0339120
593.342 .0338181
594.121 .0337304
594.899 .0336484
595.678 .0335715
596.455 .0334990
597.233 .0334305
598.009 .0333655
598.786 .0333036
599.562 .0332445
600.338 .0331879
601.113 .0331336
601.888 .0330584
602.663 .0330088
603.437 .0329609
604.211 .0329145
604.984 .0328694
605.757 .0328255
606.530 .0327826
607.302 .0327407
608.074 .0326997
608.845 .0326597
609.616 .0326207
610.387 .0326038
611.158 .0325665
611.928 .0325304
612.697 .0324953
613.467 .0324614
614.236 .0324284
615.004 .0323964
615.773 .0323654
616.541 .0323351
617.308 .0323056
618.076 .0322768
618.843 .0322486
619.609 .0322208
620.375 .0321935
621.141 .0321666
621.907 .0321400
622.672 .0321136
623.437 .0320874
624.202 .0320612
624.966 .0320352
625.730 .0320091
626.493 .0319829
627.257 .0319565
628.020 .0319299
628.782 .0319029
629.545 .0318756
630.307 .0318481
631.068 .0318202
631.830 .0317922
632.591 .0317640
633.352 .0317358
634.112 .0317077
634.872 .0316796
635.632 .0316516
636.392 .0316236
637.151 .0315958
637.910 .0315679
638.668 .0315402
639.427 .0315127
640.185 .0314853
640.943 .0314584
641.700 .0314318
642.457 .0314058
643.214 .0313802
643.971 .0313552
644.727 .0313308
645.483 .0313069
646.239 .0312836
646.994 .0312609
647.750 .0312387
648.505 .0312170
649.259 .0311958
650.014 .0311749
650.768 .0311543
651.521 .0311340
652.275 .0311137
653.028 .0310935
653.781 .0310733
654.534 .0310531
655.286 .0310329
656.039 .0310127
656.791 .0309924
657.542 .0309719
658.294 .0309511
659.045 .0309299
659.796 .0309082
660.546 .0308862
661.297 .0308638
662.047 .0308410
662.796 .0308180
663.546 .0307949
664.295 .0307718
665.044 .0307486
665.793 .0307256
666.542 .0307027
667.290 .0306799
668.038 .0306573
668.786 .0306351
669.533 .0306131
670.281 .0305914
671.028 .0305701
671.774 .0305492
672.521 .0305286
673.267 .0305083
674.013 .0304884
674.759 .0304688
675.505 .0304495
676.250 .0304306
676.995 .0304118
677.740 .0303933
678.484 .0303748
679.229 .0303563
679.973 .0303377
680.717 .0303189
681.460 .0302998
682.204 .0302804
682.947 .0302608
683.690 .0302409
684.433 .0302208
685.175 .0302005
685.917 .0301800
686.659 .0301593
687.401 .0301384
688.142 .0301173
688.884 .0300961
689.625 .0300749
690.365 .0300537
691.106 .0300325
691.846 .0300115
692.586 .0299906
693.326 .0299699
694.066 .0299494
694.805 .0299292
695.545 .0299094
696.284 .0298900
697.022 .0298710
697.761 .0298524
698.499 .0298343
699.237 .0298167
699.975 .0297995
700.713 .0297825
701.450 .0297659
702.187 .0297494
702.924 .0297330
703.661 .0297168
704.397 .0297008
705.133 .0296848
705.869 .0296690
706.605 .0296531
707.341 .0296372
708.076 .0296213
708.811 .0296052
709.546 .0295889
710.281 .0295725
711.015 .0295560
711.749 .0295393
712.483 .0295224
713.217 .0295054
713.950 .0294882
714.684 .0294707
715.417 .0294531
716.150 .0294351
716.882 .0294169
717.615 .0293984
718.347 .0293796
719.079 .0293607
719.811 .0293416
720.542 .0293225
721.273 .0293033
722.005 .0292842
722.735 .0292651
723.466 .0292460
724.196 .0292270
724.927 .0292082
725.656 .0291896
726.386 .0291713
727.116 .0291534
727.845 .0291358
728.574 .0291187
729.303 .0291022
730.031 .0290861
730.760 .0290705
731.488 .0290554
732.216 .0290407
732.944 .0290264
733.671 .0290125
734.398 .0289989
735.125 .0289856
735.852 .0289726
736.579 .0289597
737.305 .0289470
738.031 .0289343
738.757 .0289217
739.483 .0289091
740.208 .0288966
740.933 .0288840
741.658 .0288715
742.383 .0288589
743.108 .0288464
743.832 .0288338
744.556 .0288211
745.280 .0288083
746.004 .0287953
746.727 .0287821
747.450 .0287687
748.173 .0287552
748.896 .0287415
749.618 .0287278
750.340 .0287140
751.062 .0287004
751.784 .0286868
752.506 .0286733
753.227 .0286599
753.948 .0286466
754.669 .0286335
755.389 .0286204
756.110 .0286073
756.830 .0285943
757.550 .0285814
758.269 .0285685
758.989 .0285558
759.708 .0285431
760.427 .0285306
761.146 .0285181
761.864 .0285057
762.582 .0284933
763.300 .0284810
764.018 .0284687
764.736 .0284563
765.453 .0284439
766.170 .0284314
766.887 .0284190
767.603 .0284065
768.320 .0283940
769.036 .0283816
769.751 .0283692
770.467 .0283570
771.182 .0283449
771.897 .0283331
772.612 .0283215
773.327 .0283102
774.041 .0282993
774.755 .0282888
775.469 .0282786
776.183 .0282687
776.896 .0282591
777.609 .0282498
778.322 .0282407
779.035 .0282320
779.747 .0282236
780.459 .0282155
781.171 .0282079
781.882 .0282007
782.594 .0281939
783.305 .0281875
784.016 .0281814
784.726 .0281755
785.436 .0281697
786.147 .0281612
786.856 .0281554
787.566 .0281497
788.275 .0281441
788.984 .0281385
789.693 .0281330
790.401 .0281275
791.110 .0281220
791.818 .0281164
792.525 .0281107
793.233 .0281049
793.940 .0280990
794.647 .0280956
795.353 .0280894
796.060 .0280831
796.766 .0280766
797.472 .0280700
798.177 .0280631
798.883 .0280560
799.588 .0280485
800.292 .0280407
800.997 .0280326
801.701 .0280241
802.405 .0280154
803.109 .0280063
803.812 .0279969
804.515 .0279873
805.218 .0279773
805.921 .0279670
806.623 .0279564
807.325 .0279453
808.027 .0279340
808.728 .0279222
809.429 .0279102
810.130 .0278980
810.831 .0278855
811.531 .0278730
812.231 .0278603
812.931 .0278476
813.630 .0278348
814.330 .0278219
815.029 .0278091
815.727 .0277964
816.426 .0277837
817.124 .0277712
817.821 .0277588
818.519 .0277468
819.216 .0277350
819.913 .0277235
820.609 .0277124
821.306 .0277017
822.002 .0276914
822.697 .0276813
823.393 .0276716
824.088 .0276623
824.783 .0276532
825.477 .0276444
826.171 .0276359
826.865 .0276276
827.559 .0276195
828.252 .0276116
828.945 .0276038
829.638 .0275961
830.330 .0275884
831.023 .0275807
831.714 .0275731
832.406 .0275653
833.097 .0275575
833.788 .0275495
834.479 .0275414
835.169 .0275332
835.859 .0275248
836.548 .0275163
837.238 .0275077
837.927 .0274989
838.615 .0274900
839.304 .0274810
839.992 .0274718
840.680 .0274623
841.367 .0274526
842.054 .0274426
842.741 .0274323
843.428 .0274218
844.114 .0274109
844.800 .0273998
845.485 .0273884
846.170 .0273767
846.855 .0273646
847.540 .0273521
848.224 .0273392
848.908 .0273258
849.592 .0273119
850.275 .0272975
850.958 .0272826
851.641 .0272672
852.323 .0272513
853.005 .0272350
853.687 .0272182
854.368 .0272010
855.049 .0271834
855.730 .0271656
856.410 .0271474
857.090 .0271291
857.769 .0271106
858.449 .0270919
859.128 .0270732
859.806 .0270543
860.485 .0270353
861.163 .0270164
861.840 .0269974
862.518 .0269786
863.195 .0269600
863.871 .0269418
864.548 .0269240
865.224 .0269066
865.899 .0268898
866.574 .0268735
867.249 .0268578
867.924 .0268426
868.598 .0268280
869.272 .0268140
869.946 .0268007
870.619 .0267879
871.292 .0267759
871.964 .0267645
872.636 .0267537
873.308 .0267434
873.979 .0267337
874.651 .0267245
875.321 .0267158
875.992 .0267075
876.662 .0266997
877.331 .0266924
878.001 .0266855
878.670 .0266790
879.338 .0266729
880.007 .0266673
880.675 .0266619
881.342 .0266570
882.009 .0266523
882.676 .0266481
883.343 .0266442
884.009 .0266409
884.675 .0266380
885.340 .0266357
886.005 .0266340
886.670 .0266328
887.334 .0266322
887.998 .0266319
888.662 .0266321
889.325 .0266327
889.988 .0266335
890.650 .0266347
891.312 .0266361
891.974 .0266378
892.636 .0266399
893.297 .0266421
893.957 .0266447
894.618 .0266474
895.278 .0266503
895.937 .0266531
896.596 .0266557
897.255 .0266581
897.914 .0266600
898.572 .0266615
899.230 .0266624
899.887 .0266628
900.544 .0266625
901.201 .0266616
901.857 .0266569
902.513 .0266543
903.168 .0266509
903.823 .0266467
904.478 .0266416
905.132 .0266358
905.786 .0266292
906.440 .0266220
907.093 .0266143
907.746 .0266060
908.399 .0265974
909.051 .0265885
909.703 .0265792
910.354 .0265741
911.005 .0265647
911.656 .0265550
912.306 .0265451
912.956 .0265352
913.605 .0265252
914.254 .0265153
914.903 .0265055
915.551 .0264958
916.199 .0264864
916.847 .0264770
917.494 .0264677
918.141 .0264584
918.788 .0264490
919.434 .0264394
920.079 .0264297
920.725 .0264198
921.370 .0264098
922.014 .0263997
922.658 .0263893
923.302 .0263787
923.946 .0263679
924.589 .0263567
925.231 .0263452
925.873 .0263332
926.515 .0263207
927.157 .0263079
927.798 .0262946
928.439 .0262809
929.079 .0262669
929.719 .0262526
930.359 .0262380
930.998 .0262232
931.637 .0262082
932.275 .0261930
932.913 .0261777
933.551 .0261624
934.188 .0261472
934.825 .0261320
935.462 .0261171
936.098 .0261025
936.733 .0260881
937.369 .0260741
938.004 .0260604
938.638 .0260471
939.273 .0260342
939.907 .0260217
940.540 .0260097
941.173 .0259983
941.806 .0259875
942.438 .0259773
943.070 .0259676
943.702 .0259584
944.333 .0259496
944.964 .0259413
945.594 .0259333
946.224 .0259255
946.854 .0259180
947.483 .0259106
948.112 .0259033
948.741 .0258959
949.369 .0258885
949.996 .0258809
950.624 .0258731
951.251 .0258650
951.878 .0258565
952.504 .0258477
953.130 .0258386
953.755 .0258290
954.380 .0258191
955.005 .0258088
955.629 .0257982
956.253 .0257871
956.877 .0257755
957.500 .0257634
958.123 .0257508
958.746 .0257378
959.368 .0257244
959.990 .0257107
960.611 .0256967
961.232 .0256825
961.853 .0256680
962.473 .0256534
963.093 .0256386
963.712 .0256235
964.331 .0256082
964.950 .0255927
965.569 .0255771
966.187 .0255615
966.804 .0255459
967.422 .0255303
968.039 .0255147
968.655 .0254992
969.272 .0254836
969.887 .0254679
970.503 .0254522
971.118 .0254364
971.733 .0254206
972.347 .0254047
972.961 .0253888
973.575 .0253727
974.188 .0253564
974.801 .0253400
975.414 .0253233
976.026 .0253062
976.638 .0252888
977.250 .0252711
977.861 .0252531
978.472 .0252349
979.083 .0252164
979.693 .0251978
980.303 .0251790
980.912 .0251504
981.521 .0251317
982.130 .0251130
982.738 .0250945
983.346 .0250762
983.954 .0250581
984.562 .0250403
985.169 .0250228
985.775 .0250057
986.382 .0249891
986.988 .0249729
987.594 .0249571
988.199 .0249418
988.804 .0249269
989.409 .0249216
990.013 .0249075
990.617 .0248940
991.221 .0248811
991.824 .0248689
992.427 .0248572
993.030 .0248462
993.632 .0248357
994.234 .0248259
994.836 .0248165
995.438 .0248077
996.039 .0247994
996.640 .0247916
997.240 .0247844
997.840 .0247778
998.440 .0247718
999.040 .0247664
999.639 .0247615
1000.238 .0247571
1000.836 .0247531
1001.435 .0247494
1002.033 .0247461
1002.630 .0247429
1003.228 .0247400
1003.825 .0247374
1004.422 .0247350
1005.018 .0247329
1005.614 .0247311
1006.210 .0247296
1006.806 .0247283
1007.401 .0247273
1007.996 .0247266
1008.591 .0247260
1009.186 .0247256
1009.780 .0247255
1010.374 .0247256
1010.967 .0247260
1011.561 .0247266
1012.154 .0247277
1012.746 .0247291
1013.339 .0247309
1013.931 .0247332
1014.523 .0247358
1015.115 .0247388
1015.706 .0247421
1016.298 .0247458
1016.888 .0247499
1017.479 .0247543
1018.069 .0247591
1018.660 .0247643
1019.250 .0247701
1019.839 .0247765
1020.429 .0247834
1021.018 .0247909
1021.607 .0247990
1022.195 .0248077
1022.784 .0248169
1023.372 .0248266
1023.960 .0248368
1024.547 .0248476
1025.135 .0248588
1025.722 .0248706
1026.309 .0248828
1026.896 .0248956
1027.483 .0249087
1028.069 .0249223
1028.655 .0249362
1029.241 .0249504
1029.827 .0249649
1030.412 .0249796
1030.997 .0249945
1031.582 .0250096
1032.167 .0250248
1032.752 .0250402
1033.336 .0250557
1033.921 .0250713
1034.505 .0250868
1035.089 .0251024
1035.672 .0251178
1036.256 .0251332
1036.839 .0251483
1037.422 .0251632
1038.005 .0251779
1038.588 .0251922
1039.171 .0252061
1039.753 .0252197
1040.335 .0252328
1040.918 .0252455
1041.500 .0252577
1042.081 .0252695
1042.663 .0252809
1043.244 .0252919
1043.826 .0253027
1044.407 .0253132
1044.988 .0253235
1045.569 .0253336
1046.150 .0253437
1046.730 .0253537
1047.311 .0253636
1047.891 .0253736
1048.471 .0253837
1049.052 .0253939
1049.632 .0254042
1050.211 .0254146
1050.791 .0254251
1051.371 .0254359
1051.950 .0254467
1052.530 .0254576
1053.109 .0254685
1053.688 .0254793
1054.268 .0254899
1054.847 .0255003
1055.426 .0255104
1056.005 .0255203
1056.583 .0255300
1057.162 .0255396
1057.741 .0255491
1058.319 .0255584
1058.898 .0255677
1059.476 .0255769
1060.055 .0255859
1060.633 .0255944
1061.211 .0256026
1061.790 .0256103
1062.368 .0256175
1062.946 .0256242
1063.524 .0256306
1064.102 .0256366
1064.680 .0256422
1065.258 .0256475
1065.836 .0256526
1066.414 .0256572
1066.992 .0256614
1067.570 .0256652
1068.148 .0256683
1068.726 .0256710
1069.304 .0256732
1069.882 .0256752
1070.460 .0256771
1071.038 .0256791
1071.616 .0256814
1072.194 .0256841
1072.772 .0256873
1073.350 .0256910
1073.928 .0256953
1074.506 .0257003
1075.084 .0257058
1075.662 .0257120
1076.240 .0257187
1076.819 .0257261
1077.397 .0257342
1077.976 .0257430
1078.554 .0257524
1079.133 .0257625
1079.711 .0257731
1080.290 .0257843
1080.869 .0257959
1081.448 .0258077
1082.027 .0258197
1082.606 .0258318
1083.185 .0258440
1083.764 .0258561
1084.343 .0258683
1084.923 .0258804
1085.502 .0258924
1086.082 .0259043
1086.662 .0259161
1087.242 .0259277
1087.822 .0259393
1088.402 .0259507
1088.983 .0259619
1089.563 .0259730
1090.144 .0259839
1090.725 .0259948
1091.306 .0260057
1091.887 .0260167
1092.469 .0260276
1093.050 .0260386
1093.632 .0260497
1094.214 .0260608
1094.796 .0260721
1095.379 .0260837
1095.961 .0260954
1096.544 .0261074
1097.127 .0261197
1097.710 .0261321
1098.294 .0261449
1098.877 .0261582
1099.461 .0261718
1100.046 .0261861
1100.630 .0262011
1101.215 .0262170
1101.800 .0262340
1102.385 .0262522
1102.970 .0262715
1103.556 .0262919
1104.142 .0263136
1104.728 .0263363
1105.315 .0263600
1105.902 .0263846
1106.489 .0264103
1107.077 .0264367
1107.664 .0264641
1108.253 .0264922
1108.841 .0265209
1109.430 .0265503
1110.019 .0265802
1110.609 .0266105
1111.198 .0266413
1111.789 .0266726
1112.379 .0267042
1112.970 .0267364
1113.561 .0267691
1114.153 .0268023
1114.745 .0268363
1115.338 .0268710
1115.931 .0269066
1116.524 .0269431
1117.117 .0269806
1117.712 .0270191
1118.306 .0270586
1118.901 .0270989
1119.496 .0271401
1120.092 .0271823
1120.689 .0272253
1121.285 .0272693
1121.882 .0273142
1122.480 .0273601
1123.078 .0274070
1123.677 .0274548
1124.276 .0275035
1124.875 .0275533
1125.476 .0276043
1126.076 .0276567
1126.677 .0277111
1127.279 .0277677
1127.881 .0278267
1128.484 .0278887
1129.087 .0279151
1129.691 .0279811
1130.295 .0280500
1130.900 .0281218
1131.505 .0281963
1132.111 .0282739
1132.718 .0283544
1133.325 .0284376
1133.933 .0285220
1134.541 .0286126
1135.150 .0287146
1135.760 .0288066
1136.370 .0288986
1136.981 .0289171
1137.592 .0290339
1138.204 .0291511
1138.817 .0292669
1139.431 .0293843
1140.045 .0295129
1140.660 .0296379
1141.275 .0297636
1141.891 .0298488
1142.508 .0300788
1143.126 .0304542
1143.744 .0302314
1144.363 .0302905
1144.983 .0293317
