Measurement Sequence started on: 15-12-46-377
Integration time: 28
Scans to Average: 2 
>>>>>Begin Spectral Data<<<<<
432.689 .0000100
433.621 .0000100
434.552 .0000100
435.482 .0000100
436.410 .0000100
437.337 .0000100
438.262 .0288996
439.187 .0611941
440.110 .1013782
441.031 .1467258
441.952 .1178111
442.871 .1230632
443.789 .1279562
444.705 .1325650
445.621 .1369413
446.535 .1411236
447.447 .1436189
448.359 .1442690
449.269 .1426768
450.178 .1385842
451.086 .1320718
451.993 .1236418
452.898 .1141267
453.803 .1044708
454.706 .0954797
455.608 .0876526
456.508 .0811585
457.408 .0767416
458.306 .0733275
459.204 .0705317
460.100 .0681615
460.995 .0661081
461.888 .0642997
462.781 .0626882
463.673 .0612388
464.563 .0599272
465.452 .0587360
466.340 .0576499
467.228 .0566583
468.114 .0557520
468.999 .0549240
469.882 .0541672
470.765 .0534764
471.647 .0528468
472.528 .0522753
473.407 .0517582
474.286 .0512933
475.163 .0508789
476.040 .0505127
476.915 .0501918
477.790 .0499132
478.663 .0496743
479.535 .0494717
480.407 .0493026
481.277 .0491641
482.147 .0490535
483.015 .0489686
483.883 .0489068
484.749 .0488658
485.615 .0488435
486.479 .0488385
487.343 .0488486
488.206 .0488727
489.067 .0489096
489.928 .0489584
490.788 .0490183
491.647 .0490889
492.505 .0491702
493.362 .0492627
494.218 .0493661
495.073 .0494805
495.928 .0496938
496.781 .0498394
497.634 .0499996
498.486 .0501762
499.337 .0503715
500.187 .0505880
501.036 .0508287
501.884 .0510968
502.731 .0513970
503.578 .0517337
504.424 .0519836
505.268 .0523958
506.113 .0528618
506.956 .0533892
507.798 .0539882
508.640 .0546706
509.480 .0554491
510.320 .0563379
511.160 .0573520
511.998 .0585074
512.836 .0598224
513.672 .0613154
514.508 .0630081
515.344 .0649230
516.178 .0670847
517.012 .0695175
517.845 .0722483
518.677 .0752990
519.508 .0786884
520.339 .0824235
521.169 .0865056
521.998 .0909065
522.826 .0955828
523.654 .1004725
524.481 .1054979
525.307 .1105696
526.133 .1155887
526.958 .1204481
527.782 .1250484
528.605 .1292968
529.428 .1331132
530.250 .1364250
531.072 .1391864
531.892 .1413595
532.712 .1429205
533.532 .1438563
534.350 .1441629
535.168 .1438410
535.986 .1429003
536.802 .1413466
537.618 .1391905
538.434 .1364480
539.249 .1331604
540.063 .1293813
540.876 .1251800
541.689 .1206403
542.501 .1158541
543.313 .1109188
544.124 .1059390
544.934 .1010083
545.744 .0962129
546.553 .0916253
547.361 .0873059
548.169 .0832877
548.976 .0795918
549.783 .0762223
550.589 .0731691
551.395 .0704132
552.200 .0679269
553.004 .0656775
553.808 .0636384
554.611 .0617887
555.414 .0601073
556.216 .0585767
557.018 .0571803
557.819 .0559038
558.619 .0547327
559.419 .0536534
560.218 .0526549
561.017 .0517263
561.815 .0508588
562.613 .0500444
563.410 .0492749
564.207 .0485445
565.003 .0478475
565.799 .0471791
566.594 .0465355
567.388 .0459139
568.182 .0453109
568.976 .0447249
569.769 .0441547
570.562 .0435998
571.354 .0430595
572.145 .0425346
572.936 .0420253
573.727 .0415317
574.517 .0410542
575.307 .0405940
576.096 .0401515
576.885 .0397277
577.673 .0393233
578.461 .0389387
579.248 .0385744
580.035 .0382303
580.821 .0379059
581.607 .0376010
582.392 .0373148
583.177 .0370467
583.962 .0367961
584.746 .0365625
585.529 .0363452
586.313 .0361437
587.095 .0359571
587.878 .0357848
588.660 .0356255
589.441 .0354781
590.222 .0353418
591.003 .0352156
591.783 .0350989
592.563 .0349909
593.342 .0348911
594.121 .0347991
594.899 .0347141
595.678 .0346355
596.455 .0345627
597.233 .0344951
598.009 .0344320
598.786 .0343729
599.562 .0343171
600.338 .0342643
601.113 .0342141
601.888 .0341473
602.663 .0341022
603.437 .0340591
604.211 .0340176
604.984 .0339777
605.757 .0339392
606.530 .0339019
607.302 .0338656
608.074 .0338302
608.845 .0337956
609.616 .0337616
610.387 .0337448
611.158 .0337113
611.928 .0336781
612.697 .0336451
613.467 .0336122
614.236 .0335794
615.004 .0335464
615.773 .0335134
616.541 .0334803
617.308 .0334472
618.076 .0334140
618.843 .0333808
619.609 .0333475
620.375 .0333142
621.141 .0332809
621.907 .0332475
622.672 .0332139
623.437 .0331802
624.202 .0331463
624.966 .0331123
625.730 .0330782
626.493 .0330439
627.257 .0330095
628.020 .0329749
628.782 .0329400
629.545 .0329050
630.307 .0328697
631.068 .0328341
631.830 .0327983
632.591 .0327625
633.352 .0327265
634.112 .0326907
634.872 .0326550
635.632 .0326195
636.392 .0325843
637.151 .0325493
637.910 .0325146
638.668 .0324802
639.427 .0324462
640.185 .0324127
640.943 .0323797
641.700 .0323473
642.457 .0323156
643.214 .0322847
643.971 .0322545
644.727 .0322251
645.483 .0321964
646.239 .0321683
646.994 .0321408
647.750 .0321139
648.505 .0320875
649.259 .0320617
650.014 .0320363
650.768 .0320115
651.521 .0319871
652.275 .0319631
653.028 .0319396
653.781 .0319166
654.534 .0318940
655.286 .0318720
656.039 .0318504
656.791 .0318293
657.542 .0318087
658.294 .0317884
659.045 .0317684
659.796 .0317487
660.546 .0317291
661.297 .0317096
662.047 .0316903
662.796 .0316711
663.546 .0316523
664.295 .0316337
665.044 .0316156
665.793 .0315978
666.542 .0315805
667.290 .0315636
668.038 .0315469
668.786 .0315305
669.533 .0315142
670.281 .0314979
671.028 .0314817
671.774 .0314654
672.521 .0314490
673.267 .0314324
674.013 .0314158
674.759 .0313989
675.505 .0313818
676.250 .0313646
676.995 .0313470
677.740 .0313292
678.484 .0313110
679.229 .0312925
679.973 .0312736
680.717 .0312542
681.460 .0312344
682.204 .0312142
682.947 .0311936
683.690 .0311724
684.433 .0311507
685.175 .0311286
685.917 .0311060
686.659 .0310828
687.401 .0310590
688.142 .0310347
688.884 .0310098
689.625 .0309842
690.365 .0309581
691.106 .0309314
691.846 .0309043
692.586 .0308767
693.326 .0308488
694.066 .0308206
694.805 .0307922
695.545 .0307637
696.284 .0307351
697.022 .0307065
697.761 .0306778
698.499 .0306491
699.237 .0306204
699.975 .0305917
700.713 .0305632
701.450 .0305348
702.187 .0305066
702.924 .0304787
703.661 .0304511
704.397 .0304239
705.133 .0303970
705.869 .0303705
706.605 .0303443
707.341 .0303183
708.076 .0302925
708.811 .0302669
709.546 .0302415
710.281 .0302162
711.015 .0301912
711.749 .0301663
712.483 .0301416
713.217 .0301172
713.950 .0300930
714.684 .0300690
715.417 .0300454
716.150 .0300221
716.882 .0299991
717.615 .0299765
718.347 .0299542
719.079 .0299322
719.811 .0299107
720.542 .0298897
721.273 .0298692
722.005 .0298492
722.735 .0298300
723.466 .0298116
724.196 .0297941
724.927 .0297775
725.656 .0297619
726.386 .0297472
727.116 .0297336
727.845 .0297210
728.574 .0297094
729.303 .0296988
730.031 .0296893
730.760 .0296808
731.488 .0296732
732.216 .0296667
732.944 .0296610
733.671 .0296562
734.398 .0296522
735.125 .0296490
735.852 .0296465
736.579 .0296445
737.305 .0296431
738.031 .0296422
738.757 .0296416
739.483 .0296413
740.208 .0296411
740.933 .0296409
741.658 .0296407
742.383 .0296404
743.108 .0296399
743.832 .0296391
744.556 .0296379
745.280 .0296363
746.004 .0296343
746.727 .0296319
747.450 .0296289
748.173 .0296254
748.896 .0296213
749.618 .0296168
750.340 .0296116
751.062 .0296058
751.784 .0295993
752.506 .0295921
753.227 .0295841
753.948 .0295754
754.669 .0295660
755.389 .0295558
756.110 .0295449
756.830 .0295334
757.550 .0295212
758.269 .0295083
758.989 .0294949
759.708 .0294808
760.427 .0294660
761.146 .0294507
761.864 .0294346
762.582 .0294180
763.300 .0294007
764.018 .0293828
764.736 .0293642
765.453 .0293451
766.170 .0293254
766.887 .0293052
767.603 .0292845
768.320 .0292634
769.036 .0292419
769.751 .0292201
770.467 .0291979
771.182 .0291755
771.897 .0291528
772.612 .0291299
773.327 .0291068
774.041 .0290836
774.755 .0290603
775.469 .0290372
776.183 .0290143
776.896 .0289916
777.609 .0289692
778.322 .0289470
779.035 .0289251
779.747 .0289034
780.459 .0288819
781.171 .0288606
781.882 .0288394
782.594 .0288183
783.305 .0287974
784.016 .0287766
784.726 .0287560
785.436 .0287356
786.147 .0287057
786.856 .0286855
787.566 .0286653
788.275 .0286452
788.984 .0286251
789.693 .0286050
790.401 .0285849
791.110 .0285649
791.818 .0285449
792.525 .0285249
793.233 .0285051
793.940 .0284855
794.647 .0284759
795.353 .0284567
796.060 .0284379
796.766 .0284193
797.472 .0284010
798.177 .0283831
798.883 .0283655
799.588 .0283482
800.292 .0283313
800.997 .0283146
801.701 .0282983
802.405 .0282824
803.109 .0282669
803.812 .0282519
804.515 .0282374
805.218 .0282235
805.921 .0282101
806.623 .0281973
807.325 .0281850
808.027 .0281732
808.728 .0281619
809.429 .0281511
810.130 .0281409
810.831 .0281312
811.531 .0281221
812.231 .0281136
812.931 .0281057
813.630 .0280986
814.330 .0280922
815.029 .0280865
815.727 .0280817
816.426 .0280777
817.124 .0280745
817.821 .0280721
818.519 .0280706
819.216 .0280700
819.913 .0280701
820.609 .0280711
821.306 .0280729
822.002 .0280755
822.697 .0280789
823.393 .0280830
824.088 .0280879
824.783 .0280936
825.477 .0280999
826.171 .0281069
826.865 .0281145
827.559 .0281225
828.252 .0281309
828.945 .0281397
829.638 .0281487
830.330 .0281578
831.023 .0281670
831.714 .0281762
832.406 .0281853
833.097 .0281944
833.788 .0282035
834.479 .0282124
835.169 .0282212
835.859 .0282299
836.548 .0282384
837.238 .0282467
837.927 .0282547
838.615 .0282624
839.304 .0282698
839.992 .0282767
840.680 .0282832
841.367 .0282892
842.054 .0282948
842.741 .0282999
843.428 .0283044
844.114 .0283083
844.800 .0283116
845.485 .0283142
846.170 .0283159
846.855 .0283167
847.540 .0283167
848.224 .0283157
848.908 .0283138
849.592 .0283110
850.275 .0283071
850.958 .0283023
851.641 .0282964
852.323 .0282894
853.005 .0282814
853.687 .0282723
854.368 .0282622
855.049 .0282511
855.730 .0282392
856.410 .0282265
857.090 .0282130
857.769 .0281990
858.449 .0281843
859.128 .0281689
859.806 .0281530
860.485 .0281364
861.163 .0281193
861.840 .0281017
862.518 .0280836
863.195 .0280651
863.871 .0280464
864.548 .0280273
865.224 .0280081
865.899 .0279887
866.574 .0279690
867.249 .0279491
867.924 .0279289
868.598 .0279085
869.272 .0278877
869.946 .0278667
870.619 .0278453
871.292 .0278236
871.964 .0278017
872.636 .0277794
873.308 .0277569
873.979 .0277340
874.651 .0277107
875.321 .0276872
875.992 .0276633
876.662 .0276392
877.331 .0276149
878.001 .0275903
878.670 .0275656
879.338 .0275407
880.007 .0275156
880.675 .0274901
881.342 .0274643
882.009 .0274382
882.676 .0274118
883.343 .0273849
884.009 .0273579
884.675 .0273306
885.340 .0273032
886.005 .0272758
886.670 .0272484
887.334 .0272210
887.998 .0271938
888.662 .0271666
889.325 .0271395
889.988 .0271125
890.650 .0270857
891.312 .0270590
891.974 .0270327
892.636 .0270067
893.297 .0269810
893.957 .0269559
894.618 .0269312
895.278 .0269071
895.937 .0268834
896.596 .0268602
897.255 .0268374
897.914 .0268150
898.572 .0267929
899.230 .0267710
899.887 .0267494
900.544 .0267280
901.201 .0267067
901.857 .0266753
902.513 .0266544
903.168 .0266337
903.823 .0266132
904.478 .0265928
905.132 .0265725
905.786 .0265523
906.440 .0265321
907.093 .0265120
907.746 .0264922
908.399 .0264725
909.051 .0264531
909.703 .0264341
910.354 .0264252
911.005 .0264071
911.656 .0263894
912.306 .0263721
912.956 .0263553
913.605 .0263388
914.254 .0263229
914.903 .0263075
915.551 .0262927
916.199 .0262786
916.847 .0262652
917.494 .0262524
918.141 .0262402
918.788 .0262285
919.434 .0262173
920.079 .0262065
920.725 .0261959
921.370 .0261857
922.014 .0261757
922.658 .0261660
923.302 .0261567
923.946 .0261477
924.589 .0261390
925.231 .0261307
925.873 .0261226
926.515 .0261148
927.157 .0261071
927.798 .0260997
928.439 .0260925
929.079 .0260855
929.719 .0260788
930.359 .0260726
930.998 .0260667
931.637 .0260614
932.275 .0260567
932.913 .0260526
933.551 .0260492
934.188 .0260465
934.825 .0260446
935.462 .0260436
936.098 .0260436
936.733 .0260446
937.369 .0260467
938.004 .0260499
938.638 .0260542
939.273 .0260596
939.907 .0260660
940.540 .0260734
941.173 .0260817
941.806 .0260907
942.438 .0261004
943.070 .0261107
943.702 .0261216
944.333 .0261328
944.964 .0261445
945.594 .0261565
946.224 .0261687
946.854 .0261811
947.483 .0261936
948.112 .0262060
948.741 .0262184
949.369 .0262307
949.996 .0262430
950.624 .0262550
951.251 .0262670
951.878 .0262789
952.504 .0262905
953.130 .0263020
953.755 .0263133
954.380 .0263242
955.005 .0263347
955.629 .0263449
956.253 .0263546
956.877 .0263638
957.500 .0263725
958.123 .0263808
958.746 .0263887
959.368 .0263964
959.990 .0264038
960.611 .0264110
961.232 .0264180
961.853 .0264248
962.473 .0264314
963.093 .0264379
963.712 .0264441
964.331 .0264500
964.950 .0264559
965.569 .0264615
966.187 .0264670
966.804 .0264723
967.422 .0264775
968.039 .0264824
968.655 .0264870
969.272 .0264911
969.887 .0264948
970.503 .0264978
971.118 .0265001
971.733 .0265018
972.347 .0265027
972.961 .0265030
973.575 .0265027
974.188 .0265018
974.801 .0265004
975.414 .0264984
976.026 .0264957
976.638 .0264924
977.250 .0264883
977.861 .0264833
978.472 .0264774
979.083 .0264706
979.693 .0264629
980.303 .0264543
980.912 .0264375
981.521 .0264271
982.130 .0264161
982.738 .0264043
983.346 .0263920
983.954 .0263791
984.562 .0263655
985.169 .0263513
985.775 .0263367
986.382 .0263217
986.988 .0263066
987.594 .0262913
988.199 .0262760
988.804 .0262609
989.409 .0262539
990.013 .0262391
990.617 .0262245
991.221 .0262099
991.824 .0261955
992.427 .0261811
993.030 .0261668
993.632 .0261524
994.234 .0261382
994.836 .0261239
995.438 .0261098
996.039 .0260957
996.640 .0260816
997.240 .0260676
997.840 .0260535
998.440 .0260393
999.040 .0260250
999.639 .0260106
1000.238 .0259960
1000.836 .0259812
1001.435 .0259662
1002.033 .0259509
1002.630 .0259354
1003.228 .0259196
1003.825 .0259034
1004.422 .0258868
1005.018 .0258698
1005.614 .0258524
1006.210 .0258346
1006.806 .0258164
1007.401 .0257978
1007.996 .0257788
1008.591 .0257593
1009.186 .0257395
1009.780 .0257193
1010.374 .0256987
1010.967 .0256777
1011.561 .0256565
1012.154 .0256351
1012.746 .0256136
1013.339 .0255921
1013.931 .0255707
1014.523 .0255494
1015.115 .0255281
1015.706 .0255069
1016.298 .0254859
1016.888 .0254649
1017.479 .0254440
1018.069 .0254233
1018.660 .0254029
1019.250 .0253827
1019.839 .0253630
1020.429 .0253438
1021.018 .0253250
1021.607 .0253066
1022.195 .0252887
1022.784 .0252713
1023.372 .0252542
1023.960 .0252376
1024.547 .0252214
1025.135 .0252056
1025.722 .0251903
1026.309 .0251755
1026.896 .0251612
1027.483 .0251473
1028.069 .0251338
1028.655 .0251207
1029.241 .0251078
1029.827 .0250951
1030.412 .0250828
1030.997 .0250706
1031.582 .0250587
1032.167 .0250471
1032.752 .0250357
1033.336 .0250245
1033.921 .0250135
1034.505 .0250027
1035.089 .0249920
1035.672 .0249814
1036.256 .0249707
1036.839 .0249600
1037.422 .0249493
1038.005 .0249385
1038.588 .0249275
1039.171 .0249164
1039.753 .0249052
1040.335 .0248939
1040.918 .0248824
1041.500 .0248708
1042.081 .0248590
1042.663 .0248473
1043.244 .0248355
1043.826 .0248239
1044.407 .0248126
1044.988 .0248016
1045.569 .0247910
1046.150 .0247811
1046.730 .0247716
1047.311 .0247628
1047.891 .0247546
1048.471 .0247471
1049.052 .0247402
1049.632 .0247339
1050.211 .0247282
1050.791 .0247231
1051.371 .0247186
1051.950 .0247146
1052.530 .0247112
1053.109 .0247082
1053.688 .0247056
1054.268 .0247035
1054.847 .0247017
1055.426 .0247003
1056.005 .0246993
1056.583 .0246988
1057.162 .0246988
1057.741 .0246994
1058.319 .0247006
1058.898 .0247024
1059.476 .0247048
1060.055 .0247079
1060.633 .0247117
1061.211 .0247161
1061.790 .0247212
1062.368 .0247267
1062.946 .0247329
1063.524 .0247395
1064.102 .0247466
1064.680 .0247540
1065.258 .0247619
1065.836 .0247700
1066.414 .0247784
1066.992 .0247871
1067.570 .0247962
1068.148 .0248058
1068.726 .0248158
1069.304 .0248263
1069.882 .0248375
1070.460 .0248495
1071.038 .0248622
1071.616 .0248758
1072.194 .0248903
1072.772 .0249055
1073.350 .0249216
1073.928 .0249383
1074.506 .0249558
1075.084 .0249741
1075.662 .0249931
1076.240 .0250128
1076.819 .0250332
1077.397 .0250540
1077.976 .0250752
1078.554 .0250967
1079.133 .0251182
1079.711 .0251397
1080.290 .0251612
1080.869 .0251824
1081.448 .0252036
1082.027 .0252246
1082.606 .0252455
1083.185 .0252665
1083.764 .0252874
1084.343 .0253083
1084.923 .0253293
1085.502 .0253502
1086.082 .0253713
1086.662 .0253925
1087.242 .0254139
1087.822 .0254357
1088.402 .0254578
1088.983 .0254804
1089.563 .0255034
1090.144 .0255270
1090.725 .0255512
1091.306 .0255758
1091.887 .0256009
1092.469 .0256264
1093.050 .0256522
1093.632 .0256784
1094.214 .0257050
1094.796 .0257320
1095.379 .0257595
1095.961 .0257876
1096.544 .0258165
1097.127 .0258462
1097.710 .0258770
1098.294 .0259088
1098.877 .0259417
1099.461 .0259757
1100.046 .0260105
1100.630 .0260462
1101.215 .0260824
1101.800 .0261191
1102.385 .0261563
1102.970 .0261937
1103.556 .0262316
1104.142 .0262700
1104.728 .0263090
1105.315 .0263488
1105.902 .0263896
1106.489 .0264312
1107.077 .0264737
1107.664 .0265170
1108.253 .0265611
1108.841 .0266058
1109.430 .0266513
1110.019 .0266976
1110.609 .0267447
1111.198 .0267930
1111.789 .0268426
1112.379 .0268936
1112.970 .0269461
1113.561 .0270000
1114.153 .0270549
1114.745 .0271107
1115.338 .0271672
1115.931 .0272243
1116.524 .0272820
1117.117 .0273404
1117.712 .0273994
1118.306 .0274594
1118.901 .0275204
1119.496 .0275825
1120.092 .0276459
1120.689 .0277103
1121.285 .0277756
1121.882 .0278419
1122.480 .0279089
1123.078 .0279766
1123.677 .0280449
1124.276 .0281141
1124.875 .0281839
1125.476 .0282545
1126.076 .0283260
1126.677 .0283983
1127.279 .0284716
1127.881 .0285457
1128.484 .0286211
1129.087 .0286568
1129.691 .0287333
1130.295 .0288112
1130.900 .0288906
1131.505 .0289719
1132.111 .0290554
1132.718 .0291409
1133.325 .0292287
1133.933 .0293189
1134.541 .0294113
1135.150 .0295077
1135.760 .0295995
1136.370 .0296997
1136.981 .0297290
1137.592 .0298404
1138.204 .0299600
1138.817 .0300808
1139.431 .0302079
1140.045 .0303392
1140.660 .0304636
1141.275 .0305888
1141.891 .0307198
1142.508 .0308432
1143.126 .0310152
1143.744 .0309470
1144.363 .0312444
1144.983 .0315506
