Measurement Sequence started on: 15-12-46-377
Integration time: 28
Scans to Average: 2 
>>>>>Begin Spectral Data<<<<<
432.689 .0000100
433.621 .0000100
434.552 .0000100
435.482 .0000100
436.410 .0000100
437.337 .0000100
438.262 .0261385
439.187 .0554427
440.110 .0918774
441.031 .1329938
441.952 .1068381
442.871 .1116001
443.789 .1160339
444.705 .1202083
445.621 .1241698
446.535 .1279534
447.447 .1302096
448.359 .1307926
449.269 .1293443
450.178 .1256325
451.086 .1197295
451.993 .1120911
452.898 .1034719
453.803 .0947297
454.706 .0865929
455.608 .0795162
456.508 .0736523
457.408 .0696745
458.306 .0666131
459.204 .0641172
460.100 .0620113
460.995 .0601986
461.888 .0586128
462.781 .0572099
463.673 .0559568
464.563 .0548307
465.452 .0538121
466.340 .0528861
467.228 .0520402
468.114 .0512654
468.999 .0505544
469.882 .0499011
470.765 .0493002
471.647 .0487491
472.528 .0482454
473.407 .0477872
474.286 .0473727
475.163 .0470006
476.040 .0466692
476.915 .0463765
477.790 .0461203
478.663 .0458985
479.535 .0457094
480.407 .0455519
481.277 .0454245
482.147 .0453262
483.015 .0452560
483.883 .0452133
484.749 .0451963
485.615 .0452030
486.479 .0452309
487.343 .0452774
488.206 .0453396
489.067 .0454153
489.928 .0455024
490.788 .0455997
491.647 .0457070
492.505 .0458239
493.362 .0459511
494.218 .0460895
495.073 .0462394
495.928 .0465029
496.781 .0466861
497.634 .0468833
498.486 .0470957
499.337 .0473254
500.187 .0475745
501.036 .0478460
501.884 .0481435
502.731 .0484717
503.578 .0488355
504.424 .0491019
505.268 .0495370
506.113 .0500211
506.956 .0505601
507.798 .0511602
508.640 .0518296
509.480 .0525776
510.320 .0534150
511.160 .0543539
511.998 .0554090
512.836 .0565958
513.672 .0579309
514.508 .0594340
515.344 .0611269
516.178 .0630297
517.012 .0651660
517.845 .0675568
518.677 .0702220
519.508 .0731789
520.339 .0764351
521.169 .0799897
521.998 .0838190
522.826 .0878830
523.654 .0921234
524.481 .0964673
525.307 .1008353
526.133 .1051359
526.958 .1092779
527.782 .1131749
528.605 .1167456
529.428 .1199232
530.250 .1226497
531.072 .1248867
531.892 .1266032
532.712 .1277773
533.532 .1283987
534.350 .1284618
535.168 .1279703
535.986 .1269316
536.802 .1253524
537.618 .1232452
538.434 .1206276
539.249 .1175384
540.063 .1140300
540.876 .1101705
541.689 .1060402
542.501 .1017240
543.313 .0973135
544.124 .0928996
544.934 .0885645
545.744 .0843825
546.553 .0804116
547.361 .0766983
548.169 .0732678
548.976 .0701346
549.783 .0673007
550.589 .0647572
551.395 .0624850
552.200 .0604581
553.004 .0586467
553.808 .0570243
554.611 .0555668
555.414 .0542532
556.216 .0530636
557.018 .0519809
557.819 .0509902
558.619 .0500785
559.419 .0492344
560.218 .0484496
561.017 .0477149
561.815 .0470235
562.613 .0463697
563.410 .0457475
564.207 .0451525
565.003 .0445804
565.799 .0440267
566.594 .0434884
567.388 .0429626
568.182 .0424474
568.976 .0419418
569.769 .0414462
570.562 .0409609
571.354 .0404866
572.145 .0400248
572.936 .0395769
573.727 .0391432
574.517 .0387244
575.307 .0383205
576.096 .0379312
576.885 .0375563
577.673 .0371956
578.461 .0368488
579.248 .0365160
580.035 .0361974
580.821 .0358930
581.607 .0356030
582.392 .0353282
583.177 .0350689
583.962 .0348252
584.746 .0345974
585.529 .0343849
586.313 .0341871
587.095 .0340032
587.878 .0338323
588.660 .0336734
589.441 .0335256
590.222 .0333885
591.003 .0332615
591.783 .0331444
592.563 .0330368
593.342 .0329381
594.121 .0328480
594.899 .0327659
595.678 .0326909
596.455 .0326222
597.233 .0325589
598.009 .0325004
598.786 .0324460
599.562 .0323952
600.338 .0323477
601.113 .0323032
601.888 .0322457
602.663 .0322076
603.437 .0321718
604.211 .0321383
604.984 .0321068
605.757 .0320771
606.530 .0320490
607.302 .0320224
608.074 .0319971
608.845 .0319730
609.616 .0319501
610.387 .0319413
611.158 .0319201
611.928 .0319002
612.697 .0318815
613.467 .0318639
614.236 .0318473
615.004 .0318317
615.773 .0318169
616.541 .0318027
617.308 .0317890
618.076 .0317757
618.843 .0317626
619.609 .0317496
620.375 .0317365
621.141 .0317232
621.907 .0317096
622.672 .0316953
623.437 .0316803
624.202 .0316645
624.966 .0316476
625.730 .0316295
626.493 .0316103
627.257 .0315898
628.020 .0315681
628.782 .0315452
629.545 .0315212
630.307 .0314961
631.068 .0314700
631.830 .0314430
632.591 .0314151
633.352 .0313865
634.112 .0313572
634.872 .0313275
635.632 .0312974
636.392 .0312670
637.151 .0312364
637.910 .0312057
638.668 .0311750
639.427 .0311444
640.185 .0311139
640.943 .0310838
641.700 .0310541
642.457 .0310250
643.214 .0309965
643.971 .0309686
644.727 .0309414
645.483 .0309148
646.239 .0308886
646.994 .0308628
647.750 .0308373
648.505 .0308122
649.259 .0307873
650.014 .0307629
650.768 .0307388
651.521 .0307152
652.275 .0306921
653.028 .0306695
653.781 .0306473
654.534 .0306255
655.286 .0306040
656.039 .0305829
656.791 .0305620
657.542 .0305415
658.294 .0305212
659.045 .0305013
659.796 .0304818
660.546 .0304627
661.297 .0304441
662.047 .0304260
662.796 .0304083
663.546 .0303911
664.295 .0303743
665.044 .0303578
665.793 .0303417
666.542 .0303258
667.290 .0303100
668.038 .0302945
668.786 .0302791
669.533 .0302639
670.281 .0302489
671.028 .0302342
671.774 .0302198
672.521 .0302059
673.267 .0301924
674.013 .0301795
674.759 .0301671
675.505 .0301552
676.250 .0301437
676.995 .0301326
677.740 .0301218
678.484 .0301112
679.229 .0301008
679.973 .0300906
680.717 .0300807
681.460 .0300710
682.204 .0300615
682.947 .0300522
683.690 .0300429
684.433 .0300337
685.175 .0300243
685.917 .0300146
686.659 .0300045
687.401 .0299939
688.142 .0299827
688.884 .0299708
689.625 .0299582
690.365 .0299449
691.106 .0299308
691.846 .0299161
692.586 .0299006
693.326 .0298844
694.066 .0298675
694.805 .0298500
695.545 .0298318
696.284 .0298130
697.022 .0297935
697.761 .0297734
698.499 .0297526
699.237 .0297312
699.975 .0297093
700.713 .0296868
701.450 .0296640
702.187 .0296409
702.924 .0296176
703.661 .0295941
704.397 .0295705
705.133 .0295468
705.869 .0295229
706.605 .0294988
707.341 .0294746
708.076 .0294502
708.811 .0294257
709.546 .0294011
710.281 .0293766
711.015 .0293521
711.749 .0293278
712.483 .0293036
713.217 .0292798
713.950 .0292562
714.684 .0292328
715.417 .0292097
716.150 .0291868
716.882 .0291642
717.615 .0291417
718.347 .0291193
719.079 .0290971
719.811 .0290752
720.542 .0290535
721.273 .0290321
722.005 .0290112
722.735 .0289907
723.466 .0289708
724.196 .0289515
724.927 .0289327
725.656 .0289145
726.386 .0288968
727.116 .0288797
727.845 .0288631
728.574 .0288471
729.303 .0288316
730.031 .0288169
730.760 .0288028
731.488 .0287896
732.216 .0287772
732.944 .0287656
733.671 .0287548
734.398 .0287447
735.125 .0287353
735.852 .0287266
736.579 .0287185
737.305 .0287110
738.031 .0287042
738.757 .0286979
739.483 .0286923
740.208 .0286874
740.933 .0286830
741.658 .0286791
742.383 .0286758
743.108 .0286729
743.832 .0286703
744.556 .0286680
745.280 .0286659
746.004 .0286639
746.727 .0286618
747.450 .0286596
748.173 .0286572
748.896 .0286546
749.618 .0286517
750.340 .0286484
751.062 .0286449
751.784 .0286411
752.506 .0286370
753.227 .0286324
753.948 .0286274
754.669 .0286220
755.389 .0286159
756.110 .0286092
756.830 .0286020
757.550 .0285942
758.269 .0285859
758.989 .0285772
759.708 .0285681
760.427 .0285587
761.146 .0285489
761.864 .0285388
762.582 .0285283
763.300 .0285175
764.018 .0285065
764.736 .0284951
765.453 .0284836
766.170 .0284720
766.887 .0284603
767.603 .0284486
768.320 .0284369
769.036 .0284253
769.751 .0284137
770.467 .0284022
771.182 .0283908
771.897 .0283794
772.612 .0283681
773.327 .0283568
774.041 .0283455
774.755 .0283341
775.469 .0283226
776.183 .0283109
776.896 .0282990
777.609 .0282870
778.322 .0282747
779.035 .0282624
779.747 .0282497
780.459 .0282368
781.171 .0282236
781.882 .0282100
782.594 .0281958
783.305 .0281813
784.016 .0281663
784.726 .0281508
785.436 .0281350
786.147 .0281097
786.856 .0280929
787.566 .0280758
788.275 .0280582
788.984 .0280402
789.693 .0280218
790.401 .0280031
791.110 .0279839
791.818 .0279645
792.525 .0279447
793.233 .0279247
793.940 .0279044
794.647 .0278937
795.353 .0278732
796.060 .0278523
796.766 .0278311
797.472 .0278096
798.177 .0277879
798.883 .0277659
799.588 .0277437
800.292 .0277214
800.997 .0276988
801.701 .0276761
802.405 .0276532
803.109 .0276301
803.812 .0276069
804.515 .0275836
805.218 .0275602
805.921 .0275369
806.623 .0275135
807.325 .0274903
808.027 .0274672
808.728 .0274443
809.429 .0274217
810.130 .0273993
810.831 .0273773
811.531 .0273557
812.231 .0273347
812.931 .0273142
813.630 .0272944
814.330 .0272753
815.029 .0272570
815.727 .0272396
816.426 .0272231
817.124 .0272076
817.821 .0271930
818.519 .0271794
819.216 .0271669
819.913 .0271554
820.609 .0271450
821.306 .0271356
822.002 .0271272
822.697 .0271198
823.393 .0271134
824.088 .0271080
824.783 .0271035
825.477 .0271000
826.171 .0270974
826.865 .0270958
827.559 .0270950
828.252 .0270950
828.945 .0270958
829.638 .0270973
830.330 .0270994
831.023 .0271021
831.714 .0271054
832.406 .0271093
833.097 .0271135
833.788 .0271183
834.479 .0271235
835.169 .0271290
835.859 .0271349
836.548 .0271410
837.238 .0271472
837.927 .0271535
838.615 .0271598
839.304 .0271660
839.992 .0271722
840.680 .0271783
841.367 .0271841
842.054 .0271898
842.741 .0271952
843.428 .0272003
844.114 .0272049
844.800 .0272091
845.485 .0272127
846.170 .0272158
846.855 .0272183
847.540 .0272202
848.224 .0272215
848.908 .0272222
849.592 .0272224
850.275 .0272220
850.958 .0272211
851.641 .0272194
852.323 .0272171
853.005 .0272141
853.687 .0272104
854.368 .0272061
855.049 .0272012
855.730 .0271957
856.410 .0271897
857.090 .0271833
857.769 .0271764
858.449 .0271690
859.128 .0271612
859.806 .0271529
860.485 .0271439
861.163 .0271344
861.840 .0271243
862.518 .0271136
863.195 .0271025
863.871 .0270909
864.548 .0270788
865.224 .0270665
865.899 .0270538
866.574 .0270409
867.249 .0270278
867.924 .0270144
868.598 .0270009
869.272 .0269873
869.946 .0269736
870.619 .0269599
871.292 .0269462
871.964 .0269325
872.636 .0269189
873.308 .0269054
873.979 .0268920
874.651 .0268786
875.321 .0268653
875.992 .0268522
876.662 .0268390
877.331 .0268260
878.001 .0268130
878.670 .0268001
879.338 .0267872
880.007 .0267742
880.675 .0267611
881.342 .0267479
882.009 .0267345
882.676 .0267209
883.343 .0267069
884.009 .0266927
884.675 .0266781
885.340 .0266632
886.005 .0266480
886.670 .0266324
887.334 .0266165
887.998 .0266002
888.662 .0265836
889.325 .0265667
889.988 .0265493
890.650 .0265316
891.312 .0265134
891.974 .0264950
892.636 .0264761
893.297 .0264571
893.957 .0264377
894.618 .0264183
895.278 .0263987
895.937 .0263790
896.596 .0263593
897.255 .0263395
897.914 .0263196
898.572 .0262997
899.230 .0262795
899.887 .0262592
900.544 .0262386
901.201 .0262178
901.857 .0261853
902.513 .0261636
903.168 .0261415
903.823 .0261192
904.478 .0260965
905.132 .0260735
905.786 .0260501
906.440 .0260263
907.093 .0260021
907.746 .0259775
908.399 .0259526
909.051 .0259273
909.703 .0259019
910.354 .0258882
911.005 .0258625
911.656 .0258367
912.306 .0258108
912.956 .0257849
913.605 .0257588
914.254 .0257328
914.903 .0257067
915.551 .0256807
916.199 .0256548
916.847 .0256292
917.494 .0256038
918.141 .0255787
918.788 .0255540
919.434 .0255298
920.079 .0255060
920.725 .0254826
921.370 .0254597
922.014 .0254373
922.658 .0254155
923.302 .0253941
923.946 .0253734
924.589 .0253534
925.231 .0253341
925.873 .0253155
926.515 .0252977
927.157 .0252806
927.798 .0252643
928.439 .0252489
929.079 .0252342
929.719 .0252205
930.359 .0252076
930.998 .0251956
931.637 .0251846
932.275 .0251745
932.913 .0251654
933.551 .0251574
934.188 .0251503
934.825 .0251442
935.462 .0251391
936.098 .0251348
936.733 .0251315
937.369 .0251290
938.004 .0251274
938.638 .0251264
939.273 .0251262
939.907 .0251267
940.540 .0251279
941.173 .0251296
941.806 .0251320
942.438 .0251350
943.070 .0251386
943.702 .0251427
944.333 .0251473
944.964 .0251524
945.594 .0251579
946.224 .0251637
946.854 .0251698
947.483 .0251761
948.112 .0251825
948.741 .0251891
949.369 .0251959
949.996 .0252027
950.624 .0252096
951.251 .0252166
951.878 .0252236
952.504 .0252306
953.130 .0252375
953.755 .0252443
954.380 .0252511
955.005 .0252579
955.629 .0252647
956.253 .0252716
956.877 .0252786
957.500 .0252857
958.123 .0252931
958.746 .0253006
959.368 .0253083
959.990 .0253163
960.611 .0253243
961.232 .0253325
961.853 .0253408
962.473 .0253491
963.093 .0253574
963.712 .0253658
964.331 .0253742
964.950 .0253827
965.569 .0253911
966.187 .0253995
966.804 .0254078
967.422 .0254159
968.039 .0254239
968.655 .0254316
969.272 .0254391
969.887 .0254463
970.503 .0254531
971.118 .0254597
971.733 .0254659
972.347 .0254717
972.961 .0254771
973.575 .0254821
974.188 .0254865
974.801 .0254904
975.414 .0254938
976.026 .0254964
976.638 .0254985
977.250 .0254999
977.861 .0255006
978.472 .0255006
979.083 .0254999
979.693 .0254985
980.303 .0254964
980.912 .0254903
981.521 .0254866
982.130 .0254823
982.738 .0254774
983.346 .0254721
983.954 .0254663
984.562 .0254601
985.169 .0254535
985.775 .0254466
986.382 .0254395
986.988 .0254322
987.594 .0254247
988.199 .0254172
988.804 .0254097
989.409 .0254060
990.013 .0253986
990.617 .0253913
991.221 .0253841
991.824 .0253769
992.427 .0253698
993.030 .0253627
993.632 .0253557
994.234 .0253486
994.836 .0253417
995.438 .0253348
996.039 .0253280
996.640 .0253213
997.240 .0253147
997.840 .0253083
998.440 .0253020
999.040 .0252958
999.639 .0252895
1000.238 .0252833
1000.836 .0252769
1001.435 .0252704
1002.033 .0252638
1002.630 .0252570
1003.228 .0252501
1003.825 .0252430
1004.422 .0252357
1005.018 .0252281
1005.614 .0252203
1006.210 .0252120
1006.806 .0252034
1007.401 .0251943
1007.996 .0251847
1008.591 .0251746
1009.186 .0251641
1009.780 .0251533
1010.374 .0251421
1010.967 .0251305
1011.561 .0251188
1012.154 .0251068
1012.746 .0250946
1013.339 .0250823
1013.931 .0250698
1014.523 .0250570
1015.115 .0250441
1015.706 .0250311
1016.298 .0250180
1016.888 .0250049
1017.479 .0249918
1018.069 .0249788
1018.660 .0249660
1019.250 .0249534
1019.839 .0249410
1020.429 .0249289
1021.018 .0249172
1021.607 .0249056
1022.195 .0248944
1022.784 .0248833
1023.372 .0248726
1023.960 .0248620
1024.547 .0248518
1025.135 .0248418
1025.722 .0248321
1026.309 .0248226
1026.896 .0248134
1027.483 .0248043
1028.069 .0247953
1028.655 .0247864
1029.241 .0247773
1029.827 .0247680
1030.412 .0247586
1030.997 .0247491
1031.582 .0247394
1032.167 .0247296
1032.752 .0247197
1033.336 .0247097
1033.921 .0246996
1034.505 .0246894
1035.089 .0246788
1035.672 .0246680
1036.256 .0246569
1036.839 .0246454
1037.422 .0246336
1038.005 .0246216
1038.588 .0246094
1039.171 .0245971
1039.753 .0245848
1040.335 .0245725
1040.918 .0245602
1041.500 .0245479
1042.081 .0245356
1042.663 .0245234
1043.244 .0245113
1043.826 .0244993
1044.407 .0244876
1044.988 .0244761
1045.569 .0244650
1046.150 .0244543
1046.730 .0244439
1047.311 .0244340
1047.891 .0244243
1048.471 .0244148
1049.052 .0244055
1049.632 .0243964
1050.211 .0243873
1050.791 .0243785
1051.371 .0243699
1051.950 .0243614
1052.530 .0243532
1053.109 .0243450
1053.688 .0243370
1054.268 .0243291
1054.847 .0243213
1055.426 .0243136
1056.005 .0243060
1056.583 .0242986
1057.162 .0242915
1057.741 .0242848
1058.319 .0242785
1058.898 .0242727
1059.476 .0242674
1060.055 .0242626
1060.633 .0242582
1061.211 .0242543
1061.790 .0242506
1062.368 .0242471
1062.946 .0242439
1063.524 .0242408
1064.102 .0242379
1064.680 .0242352
1065.258 .0242327
1065.836 .0242306
1066.414 .0242287
1066.992 .0242271
1067.570 .0242257
1068.148 .0242244
1068.726 .0242231
1069.304 .0242218
1069.882 .0242203
1070.460 .0242188
1071.038 .0242171
1071.616 .0242153
1072.194 .0242134
1072.772 .0242115
1073.350 .0242096
1073.928 .0242079
1074.506 .0242063
1075.084 .0242047
1075.662 .0242032
1076.240 .0242018
1076.819 .0242005
1077.397 .0241993
1077.976 .0241985
1078.554 .0241981
1079.133 .0241984
1079.711 .0241995
1080.290 .0242018
1080.869 .0242054
1081.448 .0242103
1082.027 .0242166
1082.606 .0242243
1083.185 .0242333
1083.764 .0242436
1084.343 .0242550
1084.923 .0242677
1085.502 .0242816
1086.082 .0242968
1086.662 .0243136
1087.242 .0243320
1087.822 .0243521
1088.402 .0243740
1088.983 .0243975
1089.563 .0244226
1090.144 .0244492
1090.725 .0244768
1091.306 .0245055
1091.887 .0245352
1092.469 .0245659
1093.050 .0245974
1093.632 .0246299
1094.214 .0246633
1094.796 .0246977
1095.379 .0247327
1095.961 .0247682
1096.544 .0248040
1097.127 .0248398
1097.710 .0248752
1098.294 .0249101
1098.877 .0249444
1099.461 .0249781
1100.046 .0250112
1100.630 .0250441
1101.215 .0250768
1101.800 .0251096
1102.385 .0251427
1102.970 .0251760
1103.556 .0252095
1104.142 .0252432
1104.728 .0252771
1105.315 .0253113
1105.902 .0253458
1106.489 .0253809
1107.077 .0254169
1107.664 .0254542
1108.253 .0254929
1108.841 .0255332
1109.430 .0255752
1110.019 .0256189
1110.609 .0256640
1111.198 .0257102
1111.789 .0257573
1112.379 .0258054
1112.970 .0258543
1113.561 .0259042
1114.153 .0259552
1114.745 .0260075
1115.338 .0260614
1115.931 .0261169
1116.524 .0261741
1117.117 .0262329
1117.712 .0262931
1118.306 .0263545
1118.901 .0264166
1119.496 .0264794
1120.092 .0265428
1120.689 .0266069
1121.285 .0266718
1121.882 .0267375
1122.480 .0268042
1123.078 .0268718
1123.677 .0269406
1124.276 .0270105
1124.875 .0270814
1125.476 .0271533
1126.076 .0272258
1126.677 .0272990
1127.279 .0273730
1127.881 .0274480
1128.484 .0275243
1129.087 .0275583
1129.691 .0276366
1130.295 .0277168
1130.900 .0277990
1131.505 .0278836
1132.111 .0279706
1132.718 .0280601
1133.325 .0281521
1133.933 .0282465
1134.541 .0283459
1135.150 .0284491
1135.760 .0285484
1136.370 .0286559
1136.981 .0287170
1137.592 .0288302
1138.204 .0289471
1138.817 .0290671
1139.431 .0291932
1140.045 .0293263
1140.660 .0294611
1141.275 .0296030
1141.891 .0297376
1142.508 .0299471
1143.126 .0301196
1143.744 .0300682
1144.363 .0303585
1144.983 .0302651
