Measurement Sequence started on: 15-12-46-377
Integration time: 28
Scans to Average: 2 
>>>>>Begin Spectral Data<<<<<
432.689 .0000100
433.621 .0000100
434.552 .0000100
435.482 .0000100
436.410 .0000100
437.337 .0000100
438.262 .0260404
439.187 .0551762
440.110 .0913957
441.031 .1323146
441.952 .1067868
442.871 .1116682
443.789 .1162395
444.705 .1205666
445.621 .1246928
446.535 .1286499
447.447 .1310904
448.359 .1318689
449.269 .1306263
450.178 .1271272
451.086 .1214406
451.993 .1140168
452.898 .1056023
453.803 .0970457
454.706 .0890683
455.608 .0821189
456.508 .0763476
457.408 .0724240
458.306 .0693815
459.204 .0668742
460.100 .0647314
460.995 .0628591
461.888 .0611946
462.781 .0596984
463.673 .0583423
464.563 .0571075
465.452 .0559792
466.340 .0549469
467.228 .0540017
468.114 .0531372
468.999 .0523475
469.882 .0516274
470.765 .0509711
471.647 .0503740
472.528 .0498323
473.407 .0493416
474.286 .0488991
475.163 .0485023
476.040 .0481480
476.915 .0478338
477.790 .0475564
478.663 .0473131
479.535 .0471007
480.407 .0469160
481.277 .0467550
482.147 .0466145
483.015 .0464915
483.883 .0463836
484.749 .0462892
485.615 .0462081
486.479 .0461406
487.343 .0460875
488.206 .0460502
489.067 .0460294
489.928 .0460265
490.788 .0460420
491.647 .0460762
492.505 .0461290
493.362 .0462006
494.218 .0462911
495.073 .0464012
495.928 .0466472
496.781 .0468142
497.634 .0470052
498.486 .0472214
499.337 .0474647
500.187 .0477366
501.036 .0480388
501.884 .0483739
502.731 .0487447
503.578 .0491531
504.424 .0494354
505.268 .0499107
506.113 .0504306
506.956 .0509970
507.798 .0516133
508.640 .0522842
509.480 .0530171
510.320 .0538224
511.160 .0547134
511.998 .0557066
512.836 .0568225
513.672 .0580798
514.508 .0594987
515.344 .0610999
516.178 .0629037
517.012 .0649274
517.845 .0671901
518.677 .0697113
519.508 .0725066
520.339 .0755887
521.169 .0789703
521.998 .0826421
522.826 .0865845
523.654 .0907574
524.481 .0951060
525.307 .0995597
526.133 .1040335
526.958 .1084290
527.782 .1126492
528.605 .1166015
529.428 .1202019
530.250 .1233736
531.072 .1260673
531.892 .1282442
532.712 .1298808
533.532 .1309628
534.350 .1314902
535.168 .1314659
535.986 .1308958
536.802 .1297839
537.618 .1281360
538.434 .1259559
539.249 .1232690
540.063 .1201104
540.876 .1165338
541.689 .1126054
542.501 .1084042
543.313 .1040183
544.124 .0995485
544.934 .0950871
545.744 .0907191
546.553 .0865168
547.361 .0825416
548.169 .0788281
548.976 .0753990
549.783 .0722606
550.589 .0694100
551.395 .0668314
552.200 .0645030
553.004 .0623978
553.808 .0604935
554.611 .0587672
555.414 .0571995
556.216 .0557704
557.018 .0544614
557.819 .0532558
558.619 .0521395
559.419 .0511006
560.218 .0501309
561.017 .0492213
561.815 .0483655
562.613 .0475581
563.410 .0467937
564.207 .0460663
565.003 .0453712
565.799 .0447038
566.594 .0440601
567.388 .0434368
568.182 .0428321
568.976 .0422446
569.769 .0416747
570.562 .0411234
571.354 .0405918
572.145 .0400810
572.936 .0395916
573.727 .0391232
574.517 .0386759
575.307 .0382497
576.096 .0378440
576.885 .0374584
577.673 .0370926
578.461 .0367462
579.248 .0364186
580.035 .0361097
580.821 .0358192
581.607 .0355469
582.392 .0352920
583.177 .0350543
583.962 .0348329
584.746 .0346270
585.529 .0344357
586.313 .0342580
587.095 .0340929
587.878 .0339393
588.660 .0337963
589.441 .0336629
590.222 .0335386
591.003 .0334228
591.783 .0333149
592.563 .0332143
593.342 .0331206
594.121 .0330331
594.899 .0329513
595.678 .0328746
596.455 .0328027
597.233 .0327351
598.009 .0326714
598.786 .0326113
599.562 .0325546
600.338 .0325008
601.113 .0324498
601.888 .0323815
602.663 .0323361
603.437 .0322927
604.211 .0322512
604.984 .0322113
605.757 .0321730
606.530 .0321361
607.302 .0321005
608.074 .0320661
608.845 .0320328
609.616 .0320004
610.387 .0319860
611.158 .0319548
611.928 .0319244
612.697 .0318946
613.467 .0318655
614.236 .0318370
615.004 .0318090
615.773 .0317815
616.541 .0317544
617.308 .0317277
618.076 .0317013
618.843 .0316753
619.609 .0316494
620.375 .0316238
621.141 .0315982
621.907 .0315725
622.672 .0315469
623.437 .0315211
624.202 .0314952
624.966 .0314692
625.730 .0314430
626.493 .0314166
627.257 .0313901
628.020 .0313633
628.782 .0313363
629.545 .0313090
630.307 .0312816
631.068 .0312539
631.830 .0312261
632.591 .0311980
633.352 .0311698
634.112 .0311415
634.872 .0311131
635.632 .0310847
636.392 .0310564
637.151 .0310282
637.910 .0310003
638.668 .0309726
639.427 .0309453
640.185 .0309184
640.943 .0308920
641.700 .0308660
642.457 .0308406
643.214 .0308156
643.971 .0307913
644.727 .0307675
645.483 .0307444
646.239 .0307220
646.994 .0307001
647.750 .0306786
648.505 .0306575
649.259 .0306367
650.014 .0306162
650.768 .0305960
651.521 .0305760
652.275 .0305562
653.028 .0305365
653.781 .0305168
654.534 .0304969
655.286 .0304769
656.039 .0304566
656.791 .0304359
657.542 .0304147
658.294 .0303932
659.045 .0303714
659.796 .0303493
660.546 .0303271
661.297 .0303046
662.047 .0302820
662.796 .0302591
663.546 .0302360
664.295 .0302127
665.044 .0301894
665.793 .0301660
666.542 .0301427
667.290 .0301195
668.038 .0300967
668.786 .0300741
669.533 .0300519
670.281 .0300300
671.028 .0300085
671.774 .0299873
672.521 .0299666
673.267 .0299462
674.013 .0299263
674.759 .0299068
675.505 .0298877
676.250 .0298690
676.995 .0298505
677.740 .0298323
678.484 .0298143
679.229 .0297965
679.973 .0297789
680.717 .0297614
681.460 .0297441
682.204 .0297269
682.947 .0297098
683.690 .0296927
684.433 .0296757
685.175 .0296585
685.917 .0296413
686.659 .0296240
687.401 .0296066
688.142 .0295892
688.884 .0295718
689.625 .0295544
690.365 .0295368
691.106 .0295192
691.846 .0295014
692.586 .0294834
693.326 .0294652
694.066 .0294468
694.805 .0294283
695.545 .0294096
696.284 .0293909
697.022 .0293722
697.761 .0293535
698.499 .0293349
699.237 .0293163
699.975 .0292977
700.713 .0292792
701.450 .0292606
702.187 .0292420
702.924 .0292233
703.661 .0292047
704.397 .0291860
705.133 .0291673
705.869 .0291485
706.605 .0291298
707.341 .0291111
708.076 .0290925
708.811 .0290739
709.546 .0290554
710.281 .0290370
711.015 .0290187
711.749 .0290005
712.483 .0289824
713.217 .0289644
713.950 .0289465
714.684 .0289286
715.417 .0289108
716.150 .0288930
716.882 .0288752
717.615 .0288576
718.347 .0288401
719.079 .0288227
719.811 .0288053
720.542 .0287881
721.273 .0287709
722.005 .0287537
722.735 .0287365
723.466 .0287193
724.196 .0287021
724.927 .0286851
725.656 .0286682
726.386 .0286514
727.116 .0286349
727.845 .0286186
728.574 .0286027
729.303 .0285869
730.031 .0285715
730.760 .0285564
731.488 .0285415
732.216 .0285270
732.944 .0285127
733.671 .0284987
734.398 .0284851
735.125 .0284716
735.852 .0284583
736.579 .0284452
737.305 .0284322
738.031 .0284192
738.757 .0284063
739.483 .0283934
740.208 .0283807
740.933 .0283681
741.658 .0283555
742.383 .0283431
743.108 .0283307
743.832 .0283183
744.556 .0283057
745.280 .0282930
746.004 .0282802
746.727 .0282671
747.450 .0282538
748.173 .0282404
748.896 .0282268
749.618 .0282131
750.340 .0281992
751.062 .0281851
751.784 .0281709
752.506 .0281564
753.227 .0281416
753.948 .0281265
754.669 .0281112
755.389 .0280955
756.110 .0280794
756.830 .0280631
757.550 .0280465
758.269 .0280297
758.989 .0280126
759.708 .0279954
760.427 .0279781
761.146 .0279607
761.864 .0279434
762.582 .0279261
763.300 .0279089
764.018 .0278917
764.736 .0278746
765.453 .0278576
766.170 .0278407
766.887 .0278240
767.603 .0278075
768.320 .0277913
769.036 .0277756
769.751 .0277604
770.467 .0277458
771.182 .0277318
771.897 .0277183
772.612 .0277054
773.327 .0276929
774.041 .0276809
774.755 .0276693
775.469 .0276580
776.183 .0276472
776.896 .0276367
777.609 .0276266
778.322 .0276168
779.035 .0276074
779.747 .0275982
780.459 .0275892
781.171 .0275804
781.882 .0275718
782.594 .0275632
783.305 .0275547
784.016 .0275462
784.726 .0275377
785.436 .0275292
786.147 .0275163
786.856 .0275075
787.566 .0274985
788.275 .0274893
788.984 .0274799
789.693 .0274705
790.401 .0274608
791.110 .0274510
791.818 .0274410
792.525 .0274308
793.233 .0274203
793.940 .0274096
794.647 .0274034
795.353 .0273925
796.060 .0273814
796.766 .0273703
797.472 .0273592
798.177 .0273481
798.883 .0273370
799.588 .0273259
800.292 .0273146
800.997 .0273033
801.701 .0272917
802.405 .0272801
803.109 .0272683
803.812 .0272564
804.515 .0272444
805.218 .0272323
805.921 .0272201
806.623 .0272077
807.325 .0271951
808.027 .0271823
808.728 .0271692
809.429 .0271558
810.130 .0271422
810.831 .0271285
811.531 .0271147
812.231 .0271009
812.931 .0270870
813.630 .0270733
814.330 .0270595
815.029 .0270459
815.727 .0270324
816.426 .0270191
817.124 .0270061
817.821 .0269933
818.519 .0269810
819.216 .0269691
819.913 .0269577
820.609 .0269468
821.306 .0269366
822.002 .0269269
822.697 .0269178
823.393 .0269093
824.088 .0269015
824.783 .0268942
825.477 .0268875
826.171 .0268813
826.865 .0268756
827.559 .0268703
828.252 .0268654
828.945 .0268608
829.638 .0268564
830.330 .0268521
831.023 .0268479
831.714 .0268437
832.406 .0268393
833.097 .0268349
833.788 .0268303
834.479 .0268255
835.169 .0268205
835.859 .0268153
836.548 .0268100
837.238 .0268046
837.927 .0267990
838.615 .0267933
839.304 .0267875
839.992 .0267814
840.680 .0267753
841.367 .0267690
842.054 .0267627
842.741 .0267564
843.428 .0267501
844.114 .0267439
844.800 .0267378
845.485 .0267317
846.170 .0267256
846.855 .0267193
847.540 .0267128
848.224 .0267061
848.908 .0266990
849.592 .0266917
850.275 .0266840
850.958 .0266759
851.641 .0266675
852.323 .0266587
853.005 .0266494
853.687 .0266397
854.368 .0266294
855.049 .0266186
855.730 .0266072
856.410 .0265953
857.090 .0265830
857.769 .0265704
858.449 .0265574
859.128 .0265443
859.806 .0265311
860.485 .0265178
861.163 .0265045
861.840 .0264912
862.518 .0264780
863.195 .0264649
863.871 .0264521
864.548 .0264395
865.224 .0264273
865.899 .0264154
866.574 .0264039
867.249 .0263927
867.924 .0263818
868.598 .0263712
869.272 .0263610
869.946 .0263510
870.619 .0263413
871.292 .0263320
871.964 .0263231
872.636 .0263145
873.308 .0263062
873.979 .0262982
874.651 .0262905
875.321 .0262830
875.992 .0262756
876.662 .0262684
877.331 .0262612
878.001 .0262542
878.670 .0262472
879.338 .0262403
880.007 .0262335
880.675 .0262268
881.342 .0262201
882.009 .0262136
882.676 .0262072
883.343 .0262009
884.009 .0261949
884.675 .0261890
885.340 .0261833
886.005 .0261779
886.670 .0261727
887.334 .0261678
887.998 .0261631
888.662 .0261588
889.325 .0261549
889.988 .0261513
890.650 .0261480
891.312 .0261450
891.974 .0261423
892.636 .0261399
893.297 .0261376
893.957 .0261355
894.618 .0261335
895.278 .0261315
895.937 .0261295
896.596 .0261274
897.255 .0261251
897.914 .0261225
898.572 .0261194
899.230 .0261159
899.887 .0261117
900.544 .0261069
901.201 .0261014
901.857 .0260895
902.513 .0260820
903.168 .0260737
903.823 .0260647
904.478 .0260549
905.132 .0260443
905.786 .0260328
906.440 .0260205
907.093 .0260074
907.746 .0259935
908.399 .0259791
909.051 .0259640
909.703 .0259485
910.354 .0259397
911.005 .0259240
911.656 .0259080
912.306 .0258919
912.956 .0258755
913.605 .0258591
914.254 .0258425
914.903 .0258260
915.551 .0258094
916.199 .0257929
916.847 .0257766
917.494 .0257603
918.141 .0257442
918.788 .0257283
919.434 .0257124
920.079 .0256966
920.725 .0256809
921.370 .0256651
922.014 .0256491
922.658 .0256329
923.302 .0256166
923.946 .0256000
924.589 .0255832
925.231 .0255661
925.873 .0255488
926.515 .0255312
927.157 .0255134
927.798 .0254952
928.439 .0254766
929.079 .0254577
929.719 .0254384
930.359 .0254187
930.998 .0253988
931.637 .0253786
932.275 .0253584
932.913 .0253383
933.551 .0253183
934.188 .0252987
934.825 .0252794
935.462 .0252604
936.098 .0252419
936.733 .0252238
937.369 .0252061
938.004 .0251890
938.638 .0251724
939.273 .0251565
939.907 .0251413
940.540 .0251268
941.173 .0251130
941.806 .0250999
942.438 .0250875
943.070 .0250756
943.702 .0250641
944.333 .0250530
944.964 .0250422
945.594 .0250317
946.224 .0250213
946.854 .0250110
947.483 .0250008
948.112 .0249907
948.741 .0249806
949.369 .0249705
949.996 .0249604
950.624 .0249501
951.251 .0249397
951.878 .0249291
952.504 .0249183
953.130 .0249072
953.755 .0248958
954.380 .0248842
955.005 .0248724
955.629 .0248603
956.253 .0248481
956.877 .0248356
957.500 .0248230
958.123 .0248104
958.746 .0247977
959.368 .0247850
959.990 .0247723
960.611 .0247598
961.232 .0247475
961.853 .0247354
962.473 .0247237
963.093 .0247123
963.712 .0247014
964.331 .0246909
964.950 .0246809
965.569 .0246714
966.187 .0246623
966.804 .0246535
967.422 .0246449
968.039 .0246364
968.655 .0246279
969.272 .0246195
969.887 .0246109
970.503 .0246022
971.118 .0245933
971.733 .0245843
972.347 .0245751
972.961 .0245657
973.575 .0245560
974.188 .0245461
974.801 .0245359
975.414 .0245255
976.026 .0245148
976.638 .0245038
977.250 .0244925
977.861 .0244811
978.472 .0244694
979.083 .0244576
979.693 .0244455
980.303 .0244333
980.912 .0244144
981.521 .0244021
982.130 .0243897
982.738 .0243773
983.346 .0243649
983.954 .0243527
984.562 .0243407
985.169 .0243290
985.775 .0243177
986.382 .0243069
986.988 .0242966
987.594 .0242869
988.199 .0242780
988.804 .0242697
989.409 .0242676
990.013 .0242606
990.617 .0242543
991.221 .0242488
991.824 .0242441
992.427 .0242401
993.030 .0242367
993.632 .0242337
994.234 .0242313
994.836 .0242292
995.438 .0242276
996.039 .0242263
996.640 .0242255
997.240 .0242251
997.840 .0242251
998.440 .0242255
999.040 .0242264
999.639 .0242275
1000.238 .0242289
1000.836 .0242304
1001.435 .0242320
1002.033 .0242336
1002.630 .0242351
1003.228 .0242367
1003.825 .0242383
1004.422 .0242399
1005.018 .0242416
1005.614 .0242432
1006.210 .0242448
1006.806 .0242462
1007.401 .0242474
1007.996 .0242483
1008.591 .0242490
1009.186 .0242493
1009.780 .0242494
1010.374 .0242495
1010.967 .0242497
1011.561 .0242500
1012.154 .0242506
1012.746 .0242516
1013.339 .0242529
1013.931 .0242547
1014.523 .0242569
1015.115 .0242594
1015.706 .0242623
1016.298 .0242655
1016.888 .0242691
1017.479 .0242731
1018.069 .0242776
1018.660 .0242825
1019.250 .0242879
1019.839 .0242938
1020.429 .0243001
1021.018 .0243067
1021.607 .0243136
1022.195 .0243207
1022.784 .0243281
1023.372 .0243357
1023.960 .0243436
1024.547 .0243517
1025.135 .0243601
1025.722 .0243688
1026.309 .0243779
1026.896 .0243873
1027.483 .0243969
1028.069 .0244068
1028.655 .0244169
1029.241 .0244272
1029.827 .0244375
1030.412 .0244478
1030.997 .0244582
1031.582 .0244684
1032.167 .0244786
1032.752 .0244886
1033.336 .0244986
1033.921 .0245084
1034.505 .0245181
1035.089 .0245277
1035.672 .0245371
1036.256 .0245463
1036.839 .0245553
1037.422 .0245640
1038.005 .0245723
1038.588 .0245803
1039.171 .0245879
1039.753 .0245952
1040.335 .0246022
1040.918 .0246090
1041.500 .0246156
1042.081 .0246221
1042.663 .0246285
1043.244 .0246346
1043.826 .0246404
1044.407 .0246459
1044.988 .0246509
1045.569 .0246554
1046.150 .0246593
1046.730 .0246627
1047.311 .0246657
1047.891 .0246682
1048.471 .0246704
1049.052 .0246722
1049.632 .0246738
1050.211 .0246751
1050.791 .0246761
1051.371 .0246769
1051.950 .0246774
1052.530 .0246776
1053.109 .0246776
1053.688 .0246774
1054.268 .0246770
1054.847 .0246766
1055.426 .0246761
1056.005 .0246756
1056.583 .0246752
1057.162 .0246749
1057.741 .0246748
1058.319 .0246749
1058.898 .0246751
1059.476 .0246754
1060.055 .0246759
1060.633 .0246764
1061.211 .0246771
1061.790 .0246780
1062.368 .0246792
1062.946 .0246809
1063.524 .0246829
1064.102 .0246854
1064.680 .0246883
1065.258 .0246917
1065.836 .0246953
1066.414 .0246991
1066.992 .0247030
1067.570 .0247069
1068.148 .0247109
1068.726 .0247150
1069.304 .0247192
1069.882 .0247237
1070.460 .0247284
1071.038 .0247333
1071.616 .0247385
1072.194 .0247438
1072.772 .0247492
1073.350 .0247548
1073.928 .0247604
1074.506 .0247662
1075.084 .0247720
1075.662 .0247779
1076.240 .0247841
1076.819 .0247903
1077.397 .0247967
1077.976 .0248032
1078.554 .0248098
1079.133 .0248165
1079.711 .0248233
1080.290 .0248303
1080.869 .0248376
1081.448 .0248451
1082.027 .0248529
1082.606 .0248610
1083.185 .0248693
1083.764 .0248779
1084.343 .0248868
1084.923 .0248962
1085.502 .0249061
1086.082 .0249166
1086.662 .0249281
1087.242 .0249405
1087.822 .0249541
1088.402 .0249687
1088.983 .0249841
1089.563 .0250003
1090.144 .0250170
1090.725 .0250339
1091.306 .0250509
1091.887 .0250679
1092.469 .0250851
1093.050 .0251025
1093.632 .0251203
1094.214 .0251387
1094.796 .0251576
1095.379 .0251769
1095.961 .0251965
1096.544 .0252161
1097.127 .0252356
1097.710 .0252548
1098.294 .0252737
1098.877 .0252924
1099.461 .0253110
1100.046 .0253298
1100.630 .0253491
1101.215 .0253689
1101.800 .0253893
1102.385 .0254102
1102.970 .0254314
1103.556 .0254526
1104.142 .0254737
1104.728 .0254945
1105.315 .0255152
1105.902 .0255358
1106.489 .0255566
1107.077 .0255781
1107.664 .0256006
1108.253 .0256244
1108.841 .0256498
1109.430 .0256769
1110.019 .0257055
1110.609 .0257356
1111.198 .0257668
1111.789 .0257992
1112.379 .0258324
1112.970 .0258665
1113.561 .0259014
1114.153 .0259372
1114.745 .0259740
1115.338 .0260121
1115.931 .0260516
1116.524 .0260925
1117.117 .0261348
1117.712 .0261783
1118.306 .0262225
1118.901 .0262672
1119.496 .0263120
1120.092 .0263569
1120.689 .0264017
1121.285 .0264467
1121.882 .0264920
1122.480 .0265383
1123.078 .0265858
1123.677 .0266349
1124.276 .0266856
1124.875 .0267380
1125.476 .0267918
1126.076 .0268471
1126.677 .0269036
1127.279 .0269615
1127.881 .0270210
1128.484 .0270826
1129.087 .0271079
1129.691 .0271726
1130.295 .0272404
1130.900 .0273121
1131.505 .0273876
1132.111 .0274675
1132.718 .0275515
1133.325 .0276394
1133.933 .0277311
1134.541 .0278247
1135.150 .0279277
1135.760 .0280350
1136.370 .0281386
1136.981 .0281064
1137.592 .0282290
1138.204 .0283592
1138.817 .0285017
1139.431 .0286495
1140.045 .0288081
1140.660 .0289752
1141.275 .0291370
1141.891 .0293035
1142.508 .0294179
1143.126 .0297429
1143.744 .0299159
1144.363 .0298588
1144.983 .0300464
