Measurement Sequence started on: 15-12-46-377
Integration time: 28
Scans to Average: 2 
>>>>>Begin Spectral Data<<<<<
432.689 .0000100
433.621 .0000100
434.552 .0000100
435.482 .0000100
436.410 .0000100
437.337 .0000100
438.262 .0280723
439.187 .0594907
440.110 .0985166
441.031 .1424533
441.952 .1135606
442.871 .1185239
443.789 .1231377
444.705 .1274742
445.621 .1315842
446.535 .1355056
447.447 .1377902
448.359 .1382838
449.269 .1366058
450.178 .1325114
451.086 .1260830
451.993 .1178120
452.898 .1085105
453.803 .0990967
454.706 .0903509
455.608 .0827548
456.508 .0764682
457.408 .0722088
458.306 .0689313
459.204 .0662590
460.100 .0640024
460.995 .0620592
461.888 .0603606
462.781 .0588587
463.673 .0575189
464.563 .0563145
465.452 .0552252
466.340 .0542338
467.228 .0533292
468.114 .0525021
468.999 .0517465
469.882 .0510578
470.765 .0504326
471.647 .0498673
472.528 .0493593
473.407 .0489049
474.286 .0485013
475.163 .0481450
476.040 .0478317
476.915 .0475580
477.790 .0473204
478.663 .0471160
479.535 .0469430
480.407 .0467993
481.277 .0466836
482.147 .0465943
483.015 .0465298
483.883 .0464879
484.749 .0464665
485.615 .0464634
486.479 .0464761
487.343 .0465034
488.206 .0465440
489.067 .0465972
489.928 .0466629
490.788 .0467419
491.647 .0468352
492.505 .0469437
493.362 .0470691
494.218 .0472123
495.073 .0473745
495.928 .0476875
496.781 .0479030
497.634 .0481408
498.486 .0484019
499.337 .0486884
500.187 .0490027
501.036 .0493477
501.884 .0497269
502.731 .0501448
503.578 .0506055
504.424 .0509318
505.268 .0514722
506.113 .0520686
506.956 .0527252
507.798 .0534479
508.640 .0542427
509.480 .0551176
510.320 .0560816
511.160 .0571455
511.998 .0583231
512.836 .0596311
513.672 .0610893
514.508 .0627206
515.344 .0645468
516.178 .0665916
517.012 .0688778
517.845 .0714259
518.677 .0742548
519.508 .0773757
520.339 .0807936
521.169 .0845064
521.998 .0884888
522.826 .0927048
523.654 .0971017
524.481 .1016166
525.307 .1061732
526.133 .1106849
526.958 .1150599
527.782 .1192034
528.605 .1230315
529.428 .1264663
530.250 .1294387
531.072 .1319001
531.892 .1338113
532.712 .1351491
533.532 .1359018
534.350 .1360664
535.168 .1356486
535.986 .1346564
536.802 .1331026
537.618 .1309994
538.434 .1283650
539.249 .1252407
540.063 .1216773
540.876 .1177362
541.689 .1134907
542.501 .1090221
543.313 .1044196
544.124 .0997751
544.934 .0951804
545.744 .0907135
546.553 .0864438
547.361 .0824275
548.169 .0786967
548.976 .0752718
549.783 .0721566
550.589 .0693410
551.395 .0668058
552.200 .0645245
553.004 .0624682
553.808 .0606096
554.611 .0589280
555.414 .0574028
556.216 .0560130
557.018 .0547391
557.819 .0535660
558.619 .0524785
559.419 .0514658
560.218 .0505189
561.017 .0496299
561.815 .0487914
562.613 .0479982
563.410 .0472442
564.207 .0465244
565.003 .0458349
565.799 .0451710
566.594 .0445289
567.388 .0439064
568.182 .0433011
568.976 .0427119
569.769 .0421391
570.562 .0415837
571.354 .0410465
572.145 .0405287
572.936 .0400313
573.727 .0395549
574.517 .0391001
575.307 .0386671
576.096 .0382552
576.885 .0378639
577.673 .0374929
578.461 .0371419
579.248 .0368109
580.035 .0364999
580.821 .0362086
581.607 .0359367
582.392 .0356840
583.177 .0354500
583.962 .0352337
584.746 .0350343
585.529 .0348506
586.313 .0346813
587.095 .0345251
587.878 .0343807
588.660 .0342471
589.441 .0341234
590.222 .0340091
591.003 .0339033
591.783 .0338054
592.563 .0337147
593.342 .0336303
594.121 .0335514
594.899 .0334771
595.678 .0334063
596.455 .0333385
597.233 .0332730
598.009 .0332094
598.786 .0331474
599.562 .0330867
600.338 .0330273
601.113 .0329692
601.888 .0328853
602.663 .0328303
603.437 .0327766
604.211 .0327244
604.984 .0326736
605.757 .0326243
606.530 .0325766
607.302 .0325304
608.074 .0324859
608.845 .0324430
609.616 .0324017
610.387 .0323859
611.158 .0323470
611.928 .0323098
612.697 .0322742
613.467 .0322403
614.236 .0322079
615.004 .0321771
615.773 .0321477
616.541 .0321195
617.308 .0320923
618.076 .0320659
618.843 .0320402
619.609 .0320149
620.375 .0319901
621.141 .0319654
621.907 .0319409
622.672 .0319163
623.437 .0318917
624.202 .0318669
624.966 .0318418
625.730 .0318163
626.493 .0317905
627.257 .0317643
628.020 .0317377
628.782 .0317106
629.545 .0316832
630.307 .0316553
631.068 .0316270
631.830 .0315983
632.591 .0315693
633.352 .0315400
634.112 .0315106
634.872 .0314813
635.632 .0314520
636.392 .0314231
637.151 .0313945
637.910 .0313664
638.668 .0313388
639.427 .0313118
640.185 .0312852
640.943 .0312591
641.700 .0312334
642.457 .0312083
643.214 .0311836
643.971 .0311595
644.727 .0311358
645.483 .0311125
646.239 .0310897
646.994 .0310672
647.750 .0310451
648.505 .0310233
649.259 .0310019
650.014 .0309806
650.768 .0309595
651.521 .0309384
652.275 .0309173
653.028 .0308960
653.781 .0308745
654.534 .0308526
655.286 .0308304
656.039 .0308078
656.791 .0307848
657.542 .0307615
658.294 .0307379
659.045 .0307140
659.796 .0306900
660.546 .0306657
661.297 .0306411
662.047 .0306165
662.796 .0305916
663.546 .0305667
664.295 .0305418
665.044 .0305169
665.793 .0304922
666.542 .0304677
667.290 .0304436
668.038 .0304198
668.786 .0303965
669.533 .0303736
670.281 .0303511
671.028 .0303291
671.774 .0303075
672.521 .0302862
673.267 .0302654
674.013 .0302451
674.759 .0302251
675.505 .0302057
676.250 .0301867
676.995 .0301682
677.740 .0301502
678.484 .0301326
679.229 .0301155
679.973 .0300987
680.717 .0300822
681.460 .0300659
682.204 .0300497
682.947 .0300335
683.690 .0300173
684.433 .0300009
685.175 .0299845
685.917 .0299680
686.659 .0299515
687.401 .0299348
688.142 .0299180
688.884 .0299010
689.625 .0298838
690.365 .0298662
691.106 .0298482
691.846 .0298297
692.586 .0298106
693.326 .0297910
694.066 .0297710
694.805 .0297505
695.545 .0297297
696.284 .0297088
697.022 .0296877
697.761 .0296665
698.499 .0296453
699.237 .0296242
699.975 .0296030
700.713 .0295819
701.450 .0295607
702.187 .0295395
702.924 .0295183
703.661 .0294972
704.397 .0294761
705.133 .0294551
705.869 .0294343
706.605 .0294136
707.341 .0293932
708.076 .0293730
708.811 .0293531
709.546 .0293332
710.281 .0293135
711.015 .0292937
711.749 .0292739
712.483 .0292540
713.217 .0292340
713.950 .0292139
714.684 .0291938
715.417 .0291736
716.150 .0291535
716.882 .0291334
717.615 .0291134
718.347 .0290934
719.079 .0290735
719.811 .0290538
720.542 .0290340
721.273 .0290144
722.005 .0289948
722.735 .0289753
723.466 .0289560
724.196 .0289369
724.927 .0289181
725.656 .0288995
726.386 .0288812
727.116 .0288633
727.845 .0288458
728.574 .0288287
729.303 .0288121
730.031 .0287959
730.760 .0287802
731.488 .0287649
732.216 .0287500
732.944 .0287355
733.671 .0287214
734.398 .0287077
735.125 .0286943
735.852 .0286814
736.579 .0286688
737.305 .0286565
738.031 .0286446
738.757 .0286329
739.483 .0286213
740.208 .0286099
740.933 .0285985
741.658 .0285870
742.383 .0285754
743.108 .0285638
743.832 .0285522
744.556 .0285407
745.280 .0285293
746.004 .0285180
746.727 .0285068
747.450 .0284958
748.173 .0284849
748.896 .0284741
749.618 .0284634
750.340 .0284526
751.062 .0284419
751.784 .0284312
752.506 .0284205
753.227 .0284100
753.948 .0283995
754.669 .0283890
755.389 .0283786
756.110 .0283681
756.830 .0283575
757.550 .0283468
758.269 .0283359
758.989 .0283248
759.708 .0283136
760.427 .0283023
761.146 .0282907
761.864 .0282790
762.582 .0282671
763.300 .0282551
764.018 .0282430
764.736 .0282307
765.453 .0282185
766.170 .0282062
766.887 .0281940
767.603 .0281819
768.320 .0281698
769.036 .0281579
769.751 .0281459
770.467 .0281341
771.182 .0281222
771.897 .0281105
772.612 .0280990
773.327 .0280878
774.041 .0280769
774.755 .0280663
775.469 .0280560
776.183 .0280461
776.896 .0280365
777.609 .0280270
778.322 .0280176
779.035 .0280084
779.747 .0279992
780.459 .0279900
781.171 .0279809
781.882 .0279718
782.594 .0279627
783.305 .0279535
784.016 .0279442
784.726 .0279348
785.436 .0279252
786.147 .0279104
786.856 .0279003
787.566 .0278901
788.275 .0278797
788.984 .0278692
789.693 .0278585
790.401 .0278476
791.110 .0278366
791.818 .0278252
792.525 .0278137
793.233 .0278020
793.940 .0277901
794.647 .0277835
795.353 .0277715
796.060 .0277593
796.766 .0277470
797.472 .0277345
798.177 .0277219
798.883 .0277091
799.588 .0276960
800.292 .0276827
800.997 .0276692
801.701 .0276556
802.405 .0276419
803.109 .0276281
803.812 .0276142
804.515 .0276002
805.218 .0275860
805.921 .0275717
806.623 .0275571
807.325 .0275424
808.027 .0275275
808.728 .0275124
809.429 .0274973
810.130 .0274821
810.831 .0274668
811.531 .0274515
812.231 .0274361
812.931 .0274206
813.630 .0274050
814.330 .0273893
815.029 .0273737
815.727 .0273581
816.426 .0273426
817.124 .0273273
817.821 .0273123
818.519 .0272975
819.216 .0272829
819.913 .0272686
820.609 .0272545
821.306 .0272407
822.002 .0272272
822.697 .0272140
823.393 .0272013
824.088 .0271890
824.783 .0271772
825.477 .0271657
826.171 .0271546
826.865 .0271439
827.559 .0271333
828.252 .0271230
828.945 .0271129
829.638 .0271029
830.330 .0270931
831.023 .0270833
831.714 .0270737
832.406 .0270641
833.097 .0270545
833.788 .0270449
834.479 .0270352
835.169 .0270254
835.859 .0270155
836.548 .0270054
837.238 .0269952
837.927 .0269849
838.615 .0269745
839.304 .0269641
839.992 .0269535
840.680 .0269429
841.367 .0269323
842.054 .0269215
842.741 .0269108
843.428 .0269000
844.114 .0268893
844.800 .0268787
845.485 .0268682
846.170 .0268578
846.855 .0268474
847.540 .0268371
848.224 .0268267
848.908 .0268163
849.592 .0268058
850.275 .0267952
850.958 .0267845
851.641 .0267737
852.323 .0267628
853.005 .0267519
853.687 .0267408
854.368 .0267298
855.049 .0267186
855.730 .0267073
856.410 .0266958
857.090 .0266843
857.769 .0266727
858.449 .0266610
859.128 .0266493
859.806 .0266377
860.485 .0266262
861.163 .0266149
861.840 .0266038
862.518 .0265930
863.195 .0265825
863.871 .0265723
864.548 .0265624
865.224 .0265528
865.899 .0265435
866.574 .0265346
867.249 .0265261
867.924 .0265179
868.598 .0265101
869.272 .0265027
869.946 .0264957
870.619 .0264891
871.292 .0264830
871.964 .0264772
872.636 .0264718
873.308 .0264668
873.979 .0264621
874.651 .0264578
875.321 .0264537
875.992 .0264500
876.662 .0264465
877.331 .0264431
878.001 .0264400
878.670 .0264370
879.338 .0264340
880.007 .0264312
880.675 .0264285
881.342 .0264260
882.009 .0264236
882.676 .0264215
883.343 .0264197
884.009 .0264181
884.675 .0264167
885.340 .0264157
886.005 .0264149
886.670 .0264143
887.334 .0264140
887.998 .0264140
888.662 .0264142
889.325 .0264146
889.988 .0264153
890.650 .0264162
891.312 .0264172
891.974 .0264182
892.636 .0264193
893.297 .0264203
893.957 .0264212
894.618 .0264219
895.278 .0264224
895.937 .0264225
896.596 .0264223
897.255 .0264217
897.914 .0264206
898.572 .0264191
899.230 .0264170
899.887 .0264143
900.544 .0264111
901.201 .0264072
901.857 .0263981
902.513 .0263924
903.168 .0263861
903.823 .0263790
904.478 .0263711
905.132 .0263625
905.786 .0263531
906.440 .0263430
907.093 .0263323
907.746 .0263211
908.399 .0263095
909.051 .0262975
909.703 .0262853
910.354 .0262787
911.005 .0262664
911.656 .0262539
912.306 .0262414
912.956 .0262287
913.605 .0262160
914.254 .0262034
914.903 .0261907
915.551 .0261782
916.199 .0261659
916.847 .0261537
917.494 .0261416
918.141 .0261295
918.788 .0261174
919.434 .0261053
920.079 .0260929
920.725 .0260802
921.370 .0260673
922.014 .0260541
922.658 .0260406
923.302 .0260268
923.946 .0260127
924.589 .0259982
925.231 .0259833
925.873 .0259680
926.515 .0259521
927.157 .0259358
927.798 .0259189
928.439 .0259016
929.079 .0258839
929.719 .0258659
930.359 .0258477
930.998 .0258293
931.637 .0258108
932.275 .0257921
932.913 .0257735
933.551 .0257547
934.188 .0257360
934.825 .0257173
935.462 .0256988
936.098 .0256804
936.733 .0256622
937.369 .0256443
938.004 .0256267
938.638 .0256094
939.273 .0255924
939.907 .0255759
940.540 .0255597
941.173 .0255440
941.806 .0255288
942.438 .0255140
943.070 .0254996
943.702 .0254857
944.333 .0254720
944.964 .0254587
945.594 .0254455
946.224 .0254325
946.854 .0254196
947.483 .0254068
948.112 .0253940
948.741 .0253813
949.369 .0253685
949.996 .0253556
950.624 .0253425
951.251 .0253292
951.878 .0253157
952.504 .0253019
953.130 .0252879
953.755 .0252736
954.380 .0252593
955.005 .0252449
955.629 .0252305
956.253 .0252161
956.877 .0252017
957.500 .0251873
958.123 .0251728
958.746 .0251584
959.368 .0251440
959.990 .0251296
960.611 .0251154
961.232 .0251013
961.853 .0250873
962.473 .0250735
963.093 .0250598
963.712 .0250462
964.331 .0250326
964.950 .0250190
965.569 .0250054
966.187 .0249918
966.804 .0249782
967.422 .0249645
968.039 .0249509
968.655 .0249372
969.272 .0249235
969.887 .0249097
970.503 .0248959
971.118 .0248819
971.733 .0248677
972.347 .0248532
972.961 .0248386
973.575 .0248236
974.188 .0248084
974.801 .0247928
975.414 .0247770
976.026 .0247609
976.638 .0247444
977.250 .0247277
977.861 .0247108
978.472 .0246937
979.083 .0246765
979.693 .0246593
980.303 .0246421
980.912 .0246166
981.521 .0245998
982.130 .0245832
982.738 .0245668
983.346 .0245507
983.954 .0245349
984.562 .0245195
985.169 .0245045
985.775 .0244902
986.382 .0244764
986.988 .0244634
987.594 .0244510
988.199 .0244393
988.804 .0244284
989.409 .0244253
990.013 .0244154
990.617 .0244061
991.221 .0243974
991.824 .0243893
992.427 .0243816
993.030 .0243745
993.632 .0243677
994.234 .0243613
994.836 .0243552
995.438 .0243495
996.039 .0243440
996.640 .0243387
997.240 .0243337
997.840 .0243290
998.440 .0243246
999.040 .0243205
999.639 .0243167
1000.238 .0243131
1000.836 .0243099
1001.435 .0243070
1002.033 .0243043
1002.630 .0243020
1003.228 .0242999
1003.825 .0242982
1004.422 .0242966
1005.018 .0242954
1005.614 .0242943
1006.210 .0242933
1006.806 .0242926
1007.401 .0242920
1007.996 .0242915
1008.591 .0242912
1009.186 .0242911
1009.780 .0242912
1010.374 .0242915
1010.967 .0242921
1011.561 .0242929
1012.154 .0242940
1012.746 .0242952
1013.339 .0242967
1013.931 .0242985
1014.523 .0243003
1015.115 .0243024
1015.706 .0243045
1016.298 .0243068
1016.888 .0243092
1017.479 .0243116
1018.069 .0243142
1018.660 .0243169
1019.250 .0243198
1019.839 .0243229
1020.429 .0243263
1021.018 .0243300
1021.607 .0243340
1022.195 .0243385
1022.784 .0243436
1023.372 .0243492
1023.960 .0243553
1024.547 .0243621
1025.135 .0243695
1025.722 .0243775
1026.309 .0243862
1026.896 .0243953
1027.483 .0244051
1028.069 .0244153
1028.655 .0244260
1029.241 .0244371
1029.827 .0244484
1030.412 .0244600
1030.997 .0244717
1031.582 .0244836
1032.167 .0244955
1032.752 .0245074
1033.336 .0245194
1033.921 .0245315
1034.505 .0245436
1035.089 .0245557
1035.672 .0245679
1036.256 .0245800
1036.839 .0245920
1037.422 .0246039
1038.005 .0246156
1038.588 .0246270
1039.171 .0246380
1039.753 .0246487
1040.335 .0246589
1040.918 .0246686
1041.500 .0246780
1042.081 .0246869
1042.663 .0246955
1043.244 .0247038
1043.826 .0247119
1044.407 .0247198
1044.988 .0247275
1045.569 .0247352
1046.150 .0247427
1046.730 .0247501
1047.311 .0247575
1047.891 .0247649
1048.471 .0247724
1049.052 .0247800
1049.632 .0247880
1050.211 .0247963
1050.791 .0248050
1051.371 .0248140
1051.950 .0248234
1052.530 .0248329
1053.109 .0248425
1053.688 .0248521
1054.268 .0248616
1054.847 .0248711
1055.426 .0248806
1056.005 .0248901
1056.583 .0248999
1057.162 .0249100
1057.741 .0249202
1058.319 .0249306
1058.898 .0249410
1059.476 .0249513
1060.055 .0249614
1060.633 .0249711
1061.211 .0249805
1061.790 .0249896
1062.368 .0249987
1062.946 .0250077
1063.524 .0250170
1064.102 .0250264
1064.680 .0250360
1065.258 .0250456
1065.836 .0250552
1066.414 .0250645
1066.992 .0250734
1067.570 .0250818
1068.148 .0250900
1068.726 .0250979
1069.304 .0251057
1069.882 .0251136
1070.460 .0251218
1071.038 .0251304
1071.616 .0251394
1072.194 .0251487
1072.772 .0251582
1073.350 .0251680
1073.928 .0251779
1074.506 .0251881
1075.084 .0251985
1075.662 .0252095
1076.240 .0252211
1076.819 .0252334
1077.397 .0252464
1077.976 .0252601
1078.554 .0252743
1079.133 .0252888
1079.711 .0253034
1080.290 .0253179
1080.869 .0253322
1081.448 .0253461
1082.027 .0253598
1082.606 .0253732
1083.185 .0253864
1083.764 .0253996
1084.343 .0254126
1084.923 .0254255
1085.502 .0254382
1086.082 .0254507
1086.662 .0254631
1087.242 .0254753
1087.822 .0254873
1088.402 .0254992
1088.983 .0255111
1089.563 .0255230
1090.144 .0255351
1090.725 .0255472
1091.306 .0255595
1091.887 .0255718
1092.469 .0255841
1093.050 .0255962
1093.632 .0256083
1094.214 .0256205
1094.796 .0256328
1095.379 .0256454
1095.961 .0256582
1096.544 .0256716
1097.127 .0256856
1097.710 .0257003
1098.294 .0257159
1098.877 .0257326
1099.461 .0257502
1100.046 .0257688
1100.630 .0257884
1101.215 .0258089
1101.800 .0258302
1102.385 .0258521
1102.970 .0258743
1103.556 .0258967
1104.142 .0259191
1104.728 .0259414
1105.315 .0259637
1105.902 .0259860
1106.489 .0260083
1107.077 .0260307
1107.664 .0260532
1108.253 .0260759
1108.841 .0260986
1109.430 .0261214
1110.019 .0261443
1110.609 .0261672
1111.198 .0261901
1111.789 .0262132
1112.379 .0262366
1112.970 .0262603
1113.561 .0262844
1114.153 .0263088
1114.745 .0263337
1115.338 .0263587
1115.931 .0263839
1116.524 .0264093
1117.117 .0264348
1117.712 .0264607
1118.306 .0264871
1118.901 .0265143
1119.496 .0265428
1120.092 .0265728
1120.689 .0266048
1121.285 .0266389
1121.882 .0266756
1122.480 .0267150
1123.078 .0267574
1123.677 .0268029
1124.276 .0268517
1124.875 .0269035
1125.476 .0269582
1126.076 .0270156
1126.677 .0270750
1127.279 .0271362
1127.881 .0271990
1128.484 .0272632
1129.087 .0272893
1129.691 .0273560
1130.295 .0274240
1130.900 .0274935
1131.505 .0275644
1132.111 .0276366
1132.718 .0277104
1133.325 .0277867
1133.933 .0278657
1134.541 .0279398
1135.150 .0280144
1135.760 .0280973
1136.370 .0282103
1136.981 .0283661
1137.592 .0284314
1138.204 .0285020
1138.817 .0285793
1139.431 .0286556
1140.045 .0287301
1140.660 .0288065
1141.275 .0289092
1141.891 .0290138
1142.508 .0289159
1143.126 .0289648
1143.744 .0292381
1144.363 .0301276
1144.983 .0297664
