Measurement Sequence started on: 15-12-46-377
Integration time: 28
Scans to Average: 2 
>>>>>Begin Spectral Data<<<<<
432.689 .0000100
433.621 .0000100
434.552 .0000100
435.482 .0000100
436.410 .0000100
437.337 .0000100
438.262 .0271749
439.187 .0576888
440.110 .0955722
441.031 .1383508
441.952 .1109882
442.871 .1159316
443.789 .1205387
444.705 .1248789
445.621 .1289980
446.535 .1329304
447.447 .1352709
448.359 .1358651
449.269 .1343429
450.178 .1304611
451.086 .1242990
451.993 .1163336
452.898 .1073531
453.803 .0982506
454.706 .0897845
455.608 .0824271
456.508 .0763360
457.408 .0722074
458.306 .0690322
459.204 .0664400
460.100 .0642505
460.995 .0623610
461.888 .0607046
462.781 .0592382
463.673 .0579298
464.563 .0567568
465.452 .0557001
466.340 .0547437
467.228 .0538753
468.114 .0530835
468.999 .0523587
469.882 .0516914
470.765 .0510742
471.647 .0505019
472.528 .0499711
473.407 .0494784
474.286 .0490231
475.163 .0486040
476.040 .0482205
476.915 .0478714
477.790 .0475549
478.663 .0472690
479.535 .0470115
480.407 .0467803
481.277 .0465733
482.147 .0463881
483.015 .0462233
483.883 .0460776
484.749 .0459507
485.615 .0458426
486.479 .0457531
487.343 .0456824
488.206 .0456311
489.067 .0455989
489.928 .0455859
490.788 .0455917
491.647 .0456165
492.505 .0456604
493.362 .0457237
494.218 .0458073
495.073 .0459125
495.928 .0461574
496.781 .0463241
497.634 .0465158
498.486 .0467325
499.337 .0469755
500.187 .0472459
501.036 .0475442
501.884 .0478718
502.731 .0482319
503.578 .0486272
504.424 .0488986
505.268 .0493608
506.113 .0498703
506.956 .0504323
507.798 .0510527
508.640 .0517373
509.480 .0524943
510.320 .0533330
511.160 .0542643
511.998 .0553011
512.836 .0564598
513.672 .0577570
514.508 .0592136
515.344 .0608495
516.178 .0626872
517.012 .0647483
517.845 .0670530
518.677 .0696159
519.508 .0724528
520.339 .0755720
521.169 .0789763
521.998 .0826469
522.826 .0865558
523.654 .0906547
524.481 .0948837
525.307 .0991713
526.133 .1034348
526.958 .1075861
527.782 .1115406
528.605 .1152151
529.428 .1185393
530.250 .1214505
531.072 .1239060
531.892 .1258685
532.712 .1273160
533.532 .1282325
534.350 .1286086
535.168 .1284448
535.986 .1277493
536.802 .1265273
537.618 .1247873
538.434 .1225408
539.249 .1198197
540.063 .1166655
540.876 .1131350
541.689 .1092952
542.501 .1052230
543.313 .1010038
544.124 .0967256
544.934 .0924707
545.744 .0883170
546.553 .0843283
547.361 .0805560
548.169 .0770311
548.976 .0737738
549.783 .0707895
550.589 .0680752
551.395 .0656197
552.200 .0634030
553.004 .0614020
553.808 .0595934
554.611 .0579576
555.414 .0564769
556.216 .0551332
557.018 .0539082
557.819 .0527880
558.619 .0517586
559.419 .0508078
560.218 .0499254
561.017 .0491016
561.815 .0483280
562.613 .0475974
563.410 .0469019
564.207 .0462353
565.003 .0455926
565.799 .0449699
566.594 .0443634
567.388 .0437715
568.182 .0431921
568.976 .0426237
569.769 .0420660
570.562 .0415200
571.354 .0409857
572.145 .0404636
572.936 .0399544
573.727 .0394587
574.517 .0389773
575.307 .0385117
576.096 .0380624
576.885 .0376310
577.673 .0372186
578.461 .0368261
579.248 .0364542
580.035 .0361036
580.821 .0357745
581.607 .0354664
582.392 .0351793
583.177 .0349127
583.962 .0346653
584.746 .0344365
585.529 .0342255
586.313 .0340311
587.095 .0338522
587.878 .0336877
588.660 .0335363
589.441 .0333973
590.222 .0332700
591.003 .0331531
591.783 .0330457
592.563 .0329472
593.342 .0328564
594.121 .0327726
594.899 .0326948
595.678 .0326222
596.455 .0325539
597.233 .0324895
598.009 .0324282
598.786 .0323697
599.562 .0323137
600.338 .0322602
601.113 .0322091
601.888 .0321410
602.663 .0320958
603.437 .0320530
604.211 .0320124
604.984 .0319738
605.757 .0319369
606.530 .0319018
607.302 .0318681
608.074 .0318358
608.845 .0318048
609.616 .0317751
610.387 .0317634
611.158 .0317351
611.928 .0317081
612.697 .0316821
613.467 .0316573
614.236 .0316333
615.004 .0316102
615.773 .0315876
616.541 .0315654
617.308 .0315434
618.076 .0315215
618.843 .0314995
619.609 .0314775
620.375 .0314553
621.141 .0314330
621.907 .0314106
622.672 .0313879
623.437 .0313650
624.202 .0313419
624.966 .0313185
625.730 .0312947
626.493 .0312705
627.257 .0312460
628.020 .0312211
628.782 .0311959
629.545 .0311704
630.307 .0311447
631.068 .0311187
631.830 .0310925
632.591 .0310662
633.352 .0310397
634.112 .0310132
634.872 .0309866
635.632 .0309600
636.392 .0309336
637.151 .0309073
637.910 .0308811
638.668 .0308552
639.427 .0308294
640.185 .0308037
640.943 .0307781
641.700 .0307526
642.457 .0307273
643.214 .0307021
643.971 .0306771
644.727 .0306522
645.483 .0306275
646.239 .0306029
646.994 .0305785
647.750 .0305542
648.505 .0305300
649.259 .0305060
650.014 .0304821
650.768 .0304583
651.521 .0304345
652.275 .0304108
653.028 .0303871
653.781 .0303633
654.534 .0303394
655.286 .0303155
656.039 .0302915
656.791 .0302675
657.542 .0302436
658.294 .0302199
659.045 .0301964
659.796 .0301731
660.546 .0301501
661.297 .0301275
662.047 .0301051
662.796 .0300832
663.546 .0300616
664.295 .0300404
665.044 .0300196
665.793 .0299994
666.542 .0299796
667.290 .0299605
668.038 .0299420
668.786 .0299240
669.533 .0299067
670.281 .0298898
671.028 .0298735
671.774 .0298577
672.521 .0298423
673.267 .0298272
674.013 .0298124
674.759 .0297980
675.505 .0297838
676.250 .0297699
676.995 .0297563
677.740 .0297430
678.484 .0297300
679.229 .0297173
679.973 .0297048
680.717 .0296925
681.460 .0296804
682.204 .0296684
682.947 .0296565
683.690 .0296447
684.433 .0296328
685.175 .0296210
685.917 .0296091
686.659 .0295971
687.401 .0295851
688.142 .0295731
688.884 .0295609
689.625 .0295486
690.365 .0295362
691.106 .0295236
691.846 .0295108
692.586 .0294975
693.326 .0294839
694.066 .0294698
694.805 .0294554
695.545 .0294405
696.284 .0294253
697.022 .0294098
697.761 .0293941
698.499 .0293781
699.237 .0293620
699.975 .0293456
700.713 .0293291
701.450 .0293123
702.187 .0292952
702.924 .0292778
703.661 .0292602
704.397 .0292422
705.133 .0292240
705.869 .0292055
706.605 .0291868
707.341 .0291679
708.076 .0291486
708.811 .0291291
709.546 .0291094
710.281 .0290893
711.015 .0290689
711.749 .0290482
712.483 .0290270
713.217 .0290054
713.950 .0289833
714.684 .0289608
715.417 .0289379
716.150 .0289145
716.882 .0288907
717.615 .0288666
718.347 .0288420
719.079 .0288172
719.811 .0287920
720.542 .0287665
721.273 .0287408
722.005 .0287148
722.735 .0286886
723.466 .0286624
724.196 .0286361
724.927 .0286100
725.656 .0285841
726.386 .0285585
727.116 .0285334
727.845 .0285089
728.574 .0284851
729.303 .0284620
730.031 .0284397
730.760 .0284183
731.488 .0283978
732.216 .0283781
732.944 .0283594
733.671 .0283414
734.398 .0283244
735.125 .0283081
735.852 .0282927
736.579 .0282781
737.305 .0282644
738.031 .0282515
738.757 .0282395
739.483 .0282283
740.208 .0282179
740.933 .0282082
741.658 .0281993
742.383 .0281909
743.108 .0281831
743.832 .0281759
744.556 .0281691
745.280 .0281627
746.004 .0281568
746.727 .0281513
747.450 .0281462
748.173 .0281414
748.896 .0281368
749.618 .0281324
750.340 .0281282
751.062 .0281240
751.784 .0281197
752.506 .0281154
753.227 .0281109
753.948 .0281063
754.669 .0281014
755.389 .0280963
756.110 .0280909
756.830 .0280852
757.550 .0280791
758.269 .0280729
758.989 .0280663
759.708 .0280596
760.427 .0280526
761.146 .0280454
761.864 .0280379
762.582 .0280300
763.300 .0280219
764.018 .0280133
764.736 .0280044
765.453 .0279952
766.170 .0279857
766.887 .0279761
767.603 .0279666
768.320 .0279572
769.036 .0279480
769.751 .0279392
770.467 .0279307
771.182 .0279227
771.897 .0279150
772.612 .0279078
773.327 .0279010
774.041 .0278947
774.755 .0278888
775.469 .0278835
776.183 .0278786
776.896 .0278742
777.609 .0278701
778.322 .0278664
779.035 .0278630
779.747 .0278598
780.459 .0278566
781.171 .0278534
781.882 .0278501
782.594 .0278465
783.305 .0278424
784.016 .0278379
784.726 .0278328
785.436 .0278271
786.147 .0278153
786.856 .0278077
787.566 .0277993
788.275 .0277901
788.984 .0277800
789.693 .0277691
790.401 .0277572
791.110 .0277444
791.818 .0277306
792.525 .0277160
793.233 .0277005
793.940 .0276842
794.647 .0276743
795.353 .0276570
796.060 .0276389
796.766 .0276202
797.472 .0276007
798.177 .0275806
798.883 .0275600
799.588 .0275387
800.292 .0275170
800.997 .0274948
801.701 .0274720
802.405 .0274488
803.109 .0274251
803.812 .0274007
804.515 .0273759
805.218 .0273505
805.921 .0273246
806.623 .0272982
807.325 .0272715
808.027 .0272444
808.728 .0272170
809.429 .0271893
810.130 .0271613
810.831 .0271331
811.531 .0271047
812.231 .0270763
812.931 .0270479
813.630 .0270197
814.330 .0269918
815.029 .0269644
815.727 .0269377
816.426 .0269117
817.124 .0268867
817.821 .0268626
818.519 .0268394
819.216 .0268174
819.913 .0267964
820.609 .0267765
821.306 .0267579
822.002 .0267404
822.697 .0267242
823.393 .0267093
824.088 .0266956
824.783 .0266831
825.477 .0266717
826.171 .0266615
826.865 .0266523
827.559 .0266441
828.252 .0266368
828.945 .0266304
829.638 .0266248
830.330 .0266199
831.023 .0266158
831.714 .0266122
832.406 .0266093
833.097 .0266070
833.788 .0266051
834.479 .0266037
835.169 .0266027
835.859 .0266021
836.548 .0266018
837.238 .0266018
837.927 .0266022
838.615 .0266029
839.304 .0266038
839.992 .0266050
840.680 .0266064
841.367 .0266080
842.054 .0266098
842.741 .0266116
843.428 .0266136
844.114 .0266157
844.800 .0266180
845.485 .0266203
846.170 .0266228
846.855 .0266253
847.540 .0266280
848.224 .0266306
848.908 .0266331
849.592 .0266356
850.275 .0266378
850.958 .0266398
851.641 .0266416
852.323 .0266432
853.005 .0266445
853.687 .0266457
854.368 .0266468
855.049 .0266476
855.730 .0266483
856.410 .0266489
857.090 .0266493
857.769 .0266495
858.449 .0266495
859.128 .0266495
859.806 .0266494
860.485 .0266492
861.163 .0266490
861.840 .0266489
862.518 .0266488
863.195 .0266487
863.871 .0266486
864.548 .0266485
865.224 .0266484
865.899 .0266482
866.574 .0266480
867.249 .0266477
867.924 .0266472
868.598 .0266465
869.272 .0266455
869.946 .0266443
870.619 .0266427
871.292 .0266407
871.964 .0266383
872.636 .0266356
873.308 .0266324
873.979 .0266288
874.651 .0266248
875.321 .0266204
875.992 .0266155
876.662 .0266103
877.331 .0266045
878.001 .0265983
878.670 .0265916
879.338 .0265846
880.007 .0265771
880.675 .0265693
881.342 .0265612
882.009 .0265527
882.676 .0265440
883.343 .0265351
884.009 .0265259
884.675 .0265165
885.340 .0265070
886.005 .0264973
886.670 .0264877
887.334 .0264780
887.998 .0264682
888.662 .0264585
889.325 .0264487
889.988 .0264389
890.650 .0264289
891.312 .0264188
891.974 .0264086
892.636 .0263983
893.297 .0263878
893.957 .0263771
894.618 .0263662
895.278 .0263550
895.937 .0263434
896.596 .0263313
897.255 .0263185
897.914 .0263050
898.572 .0262906
899.230 .0262753
899.887 .0262590
900.544 .0262417
901.201 .0262232
901.857 .0261905
902.513 .0261690
903.168 .0261463
903.823 .0261224
904.478 .0260973
905.132 .0260709
905.786 .0260435
906.440 .0260150
907.093 .0259857
907.746 .0259555
908.399 .0259247
909.051 .0258933
909.703 .0258614
910.354 .0258441
911.005 .0258120
911.656 .0257795
912.306 .0257467
912.956 .0257137
913.605 .0256807
914.254 .0256476
914.903 .0256147
915.551 .0255819
916.199 .0255494
916.847 .0255172
917.494 .0254852
918.141 .0254536
918.788 .0254222
919.434 .0253911
920.079 .0253604
920.725 .0253299
921.370 .0252997
922.014 .0252699
922.658 .0252403
923.302 .0252111
923.946 .0251822
924.589 .0251536
925.231 .0251252
925.873 .0250971
926.515 .0250694
927.157 .0250419
927.798 .0250148
928.439 .0249881
929.079 .0249618
929.719 .0249359
930.359 .0249106
930.998 .0248857
931.637 .0248614
932.275 .0248378
932.913 .0248147
933.551 .0247924
934.188 .0247710
934.825 .0247504
935.462 .0247308
936.098 .0247124
936.733 .0246950
937.369 .0246788
938.004 .0246638
938.638 .0246498
939.273 .0246370
939.907 .0246252
940.540 .0246146
941.173 .0246050
941.806 .0245965
942.438 .0245892
943.070 .0245829
943.702 .0245776
944.333 .0245732
944.964 .0245697
945.594 .0245669
946.224 .0245647
946.854 .0245630
947.483 .0245616
948.112 .0245607
948.741 .0245601
949.369 .0245598
949.996 .0245600
950.624 .0245605
951.251 .0245612
951.878 .0245623
952.504 .0245636
953.130 .0245650
953.755 .0245667
954.380 .0245685
955.005 .0245707
955.629 .0245731
956.253 .0245760
956.877 .0245793
957.500 .0245830
958.123 .0245871
958.746 .0245917
959.368 .0245967
959.990 .0246020
960.611 .0246077
961.232 .0246137
961.853 .0246200
962.473 .0246267
963.093 .0246337
963.712 .0246411
964.331 .0246488
964.950 .0246569
965.569 .0246653
966.187 .0246741
966.804 .0246831
967.422 .0246923
968.039 .0247017
968.655 .0247112
969.272 .0247208
969.887 .0247305
970.503 .0247403
971.118 .0247501
971.733 .0247600
972.347 .0247698
972.961 .0247796
973.575 .0247893
974.188 .0247988
974.801 .0248081
975.414 .0248171
976.026 .0248257
976.638 .0248340
977.250 .0248418
977.861 .0248491
978.472 .0248560
979.083 .0248625
979.693 .0248687
980.303 .0248744
980.912 .0248815
981.521 .0248865
982.130 .0248912
982.738 .0248957
983.346 .0249000
983.954 .0249042
984.562 .0249082
985.169 .0249122
985.775 .0249163
986.382 .0249204
986.988 .0249248
987.594 .0249294
988.199 .0249342
988.804 .0249394
989.409 .0249431
990.013 .0249490
990.617 .0249551
991.221 .0249615
991.824 .0249681
992.427 .0249750
993.030 .0249820
993.632 .0249893
994.234 .0249966
994.836 .0250041
995.438 .0250118
996.039 .0250197
996.640 .0250277
997.240 .0250359
997.840 .0250442
998.440 .0250526
999.040 .0250609
999.639 .0250692
1000.238 .0250773
1000.836 .0250851
1001.435 .0250926
1002.033 .0250998
1002.630 .0251065
1003.228 .0251129
1003.825 .0251188
1004.422 .0251242
1005.018 .0251291
1005.614 .0251333
1006.210 .0251368
1006.806 .0251395
1007.401 .0251414
1007.996 .0251424
1008.591 .0251427
1009.186 .0251422
1009.780 .0251412
1010.374 .0251398
1010.967 .0251381
1011.561 .0251361
1012.154 .0251340
1012.746 .0251318
1013.339 .0251293
1013.931 .0251268
1014.523 .0251242
1015.115 .0251215
1015.706 .0251189
1016.298 .0251164
1016.888 .0251142
1017.479 .0251122
1018.069 .0251107
1018.660 .0251094
1019.250 .0251083
1019.839 .0251074
1020.429 .0251066
1021.018 .0251056
1021.607 .0251045
1022.195 .0251032
1022.784 .0251018
1023.372 .0251002
1023.960 .0250987
1024.547 .0250971
1025.135 .0250955
1025.722 .0250939
1026.309 .0250922
1026.896 .0250902
1027.483 .0250878
1028.069 .0250850
1028.655 .0250817
1029.241 .0250777
1029.827 .0250733
1030.412 .0250683
1030.997 .0250628
1031.582 .0250568
1032.167 .0250503
1032.752 .0250433
1033.336 .0250356
1033.921 .0250271
1034.505 .0250178
1035.089 .0250076
1035.672 .0249965
1036.256 .0249844
1036.839 .0249714
1037.422 .0249576
1038.005 .0249431
1038.588 .0249281
1039.171 .0249125
1039.753 .0248965
1040.335 .0248801
1040.918 .0248633
1041.500 .0248462
1042.081 .0248288
1042.663 .0248110
1043.244 .0247930
1043.826 .0247747
1044.407 .0247562
1044.988 .0247375
1045.569 .0247188
1046.150 .0247000
1046.730 .0246812
1047.311 .0246624
1047.891 .0246436
1048.471 .0246249
1049.052 .0246062
1049.632 .0245877
1050.211 .0245693
1050.791 .0245512
1051.371 .0245332
1051.950 .0245156
1052.530 .0244984
1053.109 .0244815
1053.688 .0244651
1054.268 .0244492
1054.847 .0244338
1055.426 .0244191
1056.005 .0244048
1056.583 .0243911
1057.162 .0243778
1057.741 .0243648
1058.319 .0243520
1058.898 .0243391
1059.476 .0243261
1060.055 .0243129
1060.633 .0242995
1061.211 .0242860
1061.790 .0242722
1062.368 .0242585
1062.946 .0242447
1063.524 .0242311
1064.102 .0242176
1064.680 .0242041
1065.258 .0241906
1065.836 .0241771
1066.414 .0241636
1066.992 .0241500
1067.570 .0241365
1068.148 .0241232
1068.726 .0241102
1069.304 .0240977
1069.882 .0240858
1070.460 .0240745
1071.038 .0240637
1071.616 .0240534
1072.194 .0240433
1072.772 .0240331
1073.350 .0240228
1073.928 .0240124
1074.506 .0240019
1075.084 .0239915
1075.662 .0239816
1076.240 .0239723
1076.819 .0239640
1077.397 .0239567
1077.976 .0239505
1078.554 .0239453
1079.133 .0239411
1079.711 .0239375
1080.290 .0239346
1080.869 .0239323
1081.448 .0239306
1082.027 .0239296
1082.606 .0239295
1083.185 .0239304
1083.764 .0239325
1084.343 .0239359
1084.923 .0239405
1085.502 .0239462
1086.082 .0239530
1086.662 .0239605
1087.242 .0239688
1087.822 .0239776
1088.402 .0239871
1088.983 .0239973
1089.563 .0240085
1090.144 .0240207
1090.725 .0240341
1091.306 .0240490
1091.887 .0240652
1092.469 .0240828
1093.050 .0241014
1093.632 .0241210
1094.214 .0241411
1094.796 .0241618
1095.379 .0241828
1095.961 .0242040
1096.544 .0242255
1097.127 .0242472
1097.710 .0242693
1098.294 .0242917
1098.877 .0243145
1099.461 .0243376
1100.046 .0243609
1100.630 .0243844
1101.215 .0244079
1101.800 .0244314
1102.385 .0244548
1102.970 .0244781
1103.556 .0245013
1104.142 .0245246
1104.728 .0245481
1105.315 .0245721
1105.902 .0245968
1106.489 .0246223
1107.077 .0246489
1107.664 .0246766
1108.253 .0247054
1108.841 .0247354
1109.430 .0247666
1110.019 .0247991
1110.609 .0248328
1111.198 .0248680
1111.789 .0249048
1112.379 .0249435
1112.970 .0249842
1113.561 .0250270
1114.153 .0250720
1114.745 .0251193
1115.338 .0251686
1115.931 .0252196
1116.524 .0252722
1117.117 .0253260
1117.712 .0253808
1118.306 .0254362
1118.901 .0254921
1119.496 .0255485
1120.092 .0256056
1120.689 .0256632
1121.285 .0257214
1121.882 .0257803
1122.480 .0258397
1123.078 .0258993
1123.677 .0259594
1124.276 .0260199
1124.875 .0260807
1125.476 .0261422
1126.076 .0262047
1126.677 .0262687
1127.279 .0263345
1127.881 .0264024
1128.484 .0264728
1129.087 .0265050
1129.691 .0265780
1130.295 .0266538
1130.900 .0267324
1131.505 .0268141
1132.111 .0268991
1132.718 .0269876
1133.325 .0270800
1133.933 .0271777
1134.541 .0272842
1135.150 .0273884
1135.760 .0274996
1136.370 .0276133
1136.981 .0275449
1137.592 .0276870
1138.204 .0278348
1138.817 .0279875
1139.431 .0281521
1140.045 .0283215
1140.660 .0284995
1141.275 .0286781
1141.891 .0288956
1142.508 .0292021
1143.126 .0291969
1143.744 .0294399
1144.363 .0295558
1144.983 .0306484
