Measurement Sequence started on: 15-12-46-377
Integration time: 28
Scans to Average: 2 
>>>>>Begin Spectral Data<<<<<
432.689 .0000100
433.621 .0000100
434.552 .0000100
435.482 .0000100
436.410 .0000100
437.337 .0000100
438.262 .0255963
439.187 .0541641
440.110 .0896860
441.031 .1297045
441.952 .1040044
442.871 .1086833
443.789 .1130575
444.705 .1171901
445.621 .1211256
446.535 .1248970
447.447 .1271815
448.359 .1278421
449.269 .1265287
450.178 .1230161
451.086 .1173776
451.993 .1100578
452.898 .1017926
453.803 .0934157
454.706 .0856340
455.608 .0788848
456.508 .0733127
457.408 .0695725
458.306 .0667096
459.204 .0643843
460.100 .0624260
460.995 .0607414
461.888 .0592694
462.781 .0579678
463.673 .0568058
464.563 .0557622
465.452 .0548195
466.340 .0539638
467.228 .0531857
468.114 .0524771
468.999 .0518312
469.882 .0512427
470.765 .0507059
471.647 .0502163
472.528 .0497703
473.407 .0493632
474.286 .0489922
475.163 .0486555
476.040 .0483510
476.915 .0480768
477.790 .0478314
478.663 .0476135
479.535 .0474216
480.407 .0472543
481.277 .0471098
482.147 .0469863
483.015 .0468831
483.883 .0467991
484.749 .0467333
485.615 .0466860
486.479 .0466565
487.343 .0466447
488.206 .0466508
489.067 .0466742
489.928 .0467150
490.788 .0467730
491.647 .0468486
492.505 .0469419
493.362 .0470531
494.218 .0471833
495.073 .0473328
495.928 .0476305
496.781 .0478339
497.634 .0480590
498.486 .0483060
499.337 .0485751
500.187 .0488672
501.036 .0491833
501.884 .0495256
502.731 .0498967
503.578 .0503000
504.424 .0505708
505.268 .0510351
506.113 .0515422
506.956 .0520955
507.798 .0526994
508.640 .0533596
509.480 .0540823
510.320 .0548779
511.160 .0557580
511.998 .0567377
512.836 .0578354
513.672 .0590715
514.508 .0604683
515.344 .0620501
516.178 .0638421
517.012 .0658694
517.845 .0681550
518.677 .0707215
519.508 .0735897
520.339 .0767763
521.169 .0802926
521.998 .0841259
522.826 .0882518
523.654 .0926276
524.481 .0971914
525.307 .1018660
526.133 .1065579
526.958 .1111661
527.782 .1155872
528.605 .1197217
529.428 .1234815
530.250 .1267879
531.072 .1295903
531.892 .1318472
532.712 .1335320
533.532 .1346300
534.350 .1351370
535.168 .1350574
535.986 .1343968
536.802 .1331574
537.618 .1313425
538.434 .1289575
539.249 .1260319
540.063 .1226037
540.876 .1187285
541.689 .1144790
542.501 .1099419
543.313 .1052148
544.124 .1004022
544.934 .0956046
545.744 .0909162
546.553 .0864170
547.361 .0821729
548.169 .0782190
548.976 .0745798
549.783 .0712617
550.589 .0682579
551.395 .0655495
552.200 .0631102
553.004 .0609117
553.808 .0589301
554.611 .0571440
555.414 .0555337
556.216 .0540795
557.018 .0527650
557.819 .0515736
558.619 .0504908
559.419 .0495029
560.218 .0485988
561.017 .0477677
561.815 .0470012
562.613 .0462911
563.410 .0456291
564.207 .0450078
565.003 .0444213
565.799 .0438631
566.594 .0433279
567.388 .0428119
568.182 .0423122
568.976 .0418269
569.769 .0413551
570.562 .0408959
571.354 .0404487
572.145 .0400137
572.936 .0395904
573.727 .0391778
574.517 .0387759
575.307 .0383842
576.096 .0380026
576.885 .0376315
577.673 .0372716
578.461 .0369240
579.248 .0365897
580.035 .0362702
580.821 .0359660
581.607 .0356779
582.392 .0354066
583.177 .0351528
583.962 .0349160
584.746 .0346962
585.529 .0344926
586.313 .0343044
587.095 .0341308
587.878 .0339706
588.660 .0338230
589.441 .0336873
590.222 .0335630
591.003 .0334491
591.783 .0333452
592.563 .0332506
593.342 .0331645
594.121 .0330862
594.899 .0330145
595.678 .0329487
596.455 .0328876
597.233 .0328307
598.009 .0327771
598.786 .0327265
599.562 .0326783
600.338 .0326324
601.113 .0325885
601.888 .0325285
602.663 .0324888
603.437 .0324505
604.211 .0324136
604.984 .0323779
605.757 .0323431
606.530 .0323093
607.302 .0322763
608.074 .0322442
608.845 .0322129
609.616 .0321826
610.387 .0321704
611.158 .0321417
611.928 .0321140
612.697 .0320874
613.467 .0320619
614.236 .0320374
615.004 .0320139
615.773 .0319912
616.541 .0319692
617.308 .0319479
618.076 .0319271
618.843 .0319068
619.609 .0318869
620.375 .0318673
621.141 .0318479
621.907 .0318284
622.672 .0318089
623.437 .0317891
624.202 .0317688
624.966 .0317480
625.730 .0317265
626.493 .0317042
627.257 .0316811
628.020 .0316570
628.782 .0316322
629.545 .0316064
630.307 .0315798
631.068 .0315523
631.830 .0315241
632.591 .0314950
633.352 .0314651
634.112 .0314344
634.872 .0314030
635.632 .0313709
636.392 .0313382
637.151 .0313050
637.910 .0312715
638.668 .0312378
639.427 .0312042
640.185 .0311707
640.943 .0311374
641.700 .0311046
642.457 .0310722
643.214 .0310402
643.971 .0310088
644.727 .0309779
645.483 .0309477
646.239 .0309181
646.994 .0308893
647.750 .0308612
648.505 .0308339
649.259 .0308073
650.014 .0307814
650.768 .0307560
651.521 .0307311
652.275 .0307065
653.028 .0306823
653.781 .0306583
654.534 .0306345
655.286 .0306108
656.039 .0305871
656.791 .0305634
657.542 .0305397
658.294 .0305158
659.045 .0304918
659.796 .0304677
660.546 .0304434
661.297 .0304191
662.047 .0303949
662.796 .0303706
663.546 .0303465
664.295 .0303223
665.044 .0302982
665.793 .0302742
666.542 .0302502
667.290 .0302264
668.038 .0302029
668.786 .0301798
669.533 .0301572
670.281 .0301354
671.028 .0301144
671.774 .0300945
672.521 .0300755
673.267 .0300576
674.013 .0300407
674.759 .0300247
675.505 .0300094
676.250 .0299948
676.995 .0299807
677.740 .0299670
678.484 .0299538
679.229 .0299409
679.973 .0299282
680.717 .0299158
681.460 .0299037
682.204 .0298917
682.947 .0298797
683.690 .0298676
684.433 .0298554
685.175 .0298428
685.917 .0298297
686.659 .0298162
687.401 .0298022
688.142 .0297876
688.884 .0297725
689.625 .0297570
690.365 .0297410
691.106 .0297247
691.846 .0297082
692.586 .0296915
693.326 .0296748
694.066 .0296581
694.805 .0296415
695.545 .0296250
696.284 .0296087
697.022 .0295926
697.761 .0295765
698.499 .0295607
699.237 .0295451
699.975 .0295299
700.713 .0295150
701.450 .0295005
702.187 .0294865
702.924 .0294729
703.661 .0294596
704.397 .0294466
705.133 .0294337
705.869 .0294209
706.605 .0294080
707.341 .0293950
708.076 .0293818
708.811 .0293685
709.546 .0293550
710.281 .0293413
711.015 .0293273
711.749 .0293130
712.483 .0292983
713.217 .0292832
713.950 .0292677
714.684 .0292518
715.417 .0292356
716.150 .0292190
716.882 .0292021
717.615 .0291849
718.347 .0291675
719.079 .0291498
719.811 .0291319
720.542 .0291136
721.273 .0290951
722.005 .0290762
722.735 .0290570
723.466 .0290377
724.196 .0290181
724.927 .0289985
725.656 .0289788
726.386 .0289592
727.116 .0289398
727.845 .0289207
728.574 .0289018
729.303 .0288833
730.031 .0288652
730.760 .0288474
731.488 .0288300
732.216 .0288128
732.944 .0287958
733.671 .0287791
734.398 .0287624
735.125 .0287458
735.852 .0287294
736.579 .0287131
737.305 .0286970
738.031 .0286810
738.757 .0286652
739.483 .0286495
740.208 .0286338
740.933 .0286180
741.658 .0286020
742.383 .0285856
743.108 .0285688
743.832 .0285515
744.556 .0285337
745.280 .0285155
746.004 .0284968
746.727 .0284777
747.450 .0284582
748.173 .0284384
748.896 .0284182
749.618 .0283978
750.340 .0283772
751.062 .0283563
751.784 .0283354
752.506 .0283143
753.227 .0282931
753.948 .0282719
754.669 .0282507
755.389 .0282295
756.110 .0282083
756.830 .0281872
757.550 .0281662
758.269 .0281453
758.989 .0281246
759.708 .0281041
760.427 .0280837
761.146 .0280635
761.864 .0280434
762.582 .0280233
763.300 .0280031
764.018 .0279830
764.736 .0279629
765.453 .0279428
766.170 .0279227
766.887 .0279028
767.603 .0278831
768.320 .0278638
769.036 .0278448
769.751 .0278264
770.467 .0278085
771.182 .0277911
771.897 .0277745
772.612 .0277586
773.327 .0277436
774.041 .0277294
774.755 .0277161
775.469 .0277038
776.183 .0276923
776.896 .0276818
777.609 .0276722
778.322 .0276636
779.035 .0276558
779.747 .0276488
780.459 .0276427
781.171 .0276373
781.882 .0276326
782.594 .0276284
783.305 .0276246
784.016 .0276211
784.726 .0276177
785.436 .0276143
786.147 .0276082
786.856 .0276042
787.566 .0276001
788.275 .0275956
788.984 .0275910
789.693 .0275860
790.401 .0275808
791.110 .0275753
791.818 .0275696
792.525 .0275635
793.233 .0275572
793.940 .0275506
794.647 .0275468
795.353 .0275400
796.060 .0275330
796.766 .0275259
797.472 .0275187
798.177 .0275115
798.883 .0275041
799.588 .0274966
800.292 .0274892
800.997 .0274816
801.701 .0274741
802.405 .0274665
803.109 .0274588
803.812 .0274512
804.515 .0274435
805.218 .0274358
805.921 .0274281
806.623 .0274204
807.325 .0274126
808.027 .0274049
808.728 .0273971
809.429 .0273893
810.130 .0273816
810.831 .0273739
811.531 .0273662
812.231 .0273587
812.931 .0273512
813.630 .0273439
814.330 .0273368
815.029 .0273299
815.727 .0273233
816.426 .0273171
817.124 .0273113
817.821 .0273059
818.519 .0273010
819.216 .0272966
819.913 .0272927
820.609 .0272893
821.306 .0272864
822.002 .0272840
822.697 .0272819
823.393 .0272802
824.088 .0272788
824.783 .0272776
825.477 .0272767
826.171 .0272758
826.865 .0272749
827.559 .0272741
828.252 .0272733
828.945 .0272725
829.638 .0272716
830.330 .0272707
831.023 .0272696
831.714 .0272684
832.406 .0272670
833.097 .0272655
833.788 .0272638
834.479 .0272619
835.169 .0272599
835.859 .0272577
836.548 .0272554
837.238 .0272530
837.927 .0272505
838.615 .0272480
839.304 .0272454
839.992 .0272426
840.680 .0272396
841.367 .0272364
842.054 .0272329
842.741 .0272292
843.428 .0272253
844.114 .0272211
844.800 .0272166
845.485 .0272118
846.170 .0272066
846.855 .0272010
847.540 .0271949
848.224 .0271882
848.908 .0271809
849.592 .0271728
850.275 .0271640
850.958 .0271543
851.641 .0271438
852.323 .0271323
853.005 .0271199
853.687 .0271064
854.368 .0270919
855.049 .0270763
855.730 .0270596
856.410 .0270419
857.090 .0270233
857.769 .0270038
858.449 .0269835
859.128 .0269626
859.806 .0269410
860.485 .0269189
861.163 .0268964
861.840 .0268736
862.518 .0268505
863.195 .0268273
863.871 .0268041
864.548 .0267810
865.224 .0267580
865.899 .0267351
866.574 .0267125
867.249 .0266902
867.924 .0266681
868.598 .0266464
869.272 .0266251
869.946 .0266043
870.619 .0265839
871.292 .0265640
871.964 .0265445
872.636 .0265256
873.308 .0265070
873.979 .0264888
874.651 .0264710
875.321 .0264536
875.992 .0264365
876.662 .0264197
877.331 .0264032
878.001 .0263870
878.670 .0263712
879.338 .0263556
880.007 .0263402
880.675 .0263251
881.342 .0263101
882.009 .0262953
882.676 .0262806
883.343 .0262661
884.009 .0262518
884.675 .0262376
885.340 .0262237
886.005 .0262101
886.670 .0261966
887.334 .0261834
887.998 .0261704
888.662 .0261577
889.325 .0261451
889.988 .0261329
890.650 .0261209
891.312 .0261091
891.974 .0260975
892.636 .0260860
893.297 .0260746
893.957 .0260631
894.618 .0260514
895.278 .0260396
895.937 .0260274
896.596 .0260148
897.255 .0260018
897.914 .0259883
898.572 .0259743
899.230 .0259597
899.887 .0259447
900.544 .0259291
901.201 .0259130
901.857 .0258863
902.513 .0258690
903.168 .0258511
903.823 .0258327
904.478 .0258138
905.132 .0257943
905.786 .0257745
906.440 .0257542
907.093 .0257337
907.746 .0257129
908.399 .0256920
909.051 .0256708
909.703 .0256496
910.354 .0256391
911.005 .0256177
911.656 .0255963
912.306 .0255748
912.956 .0255534
913.605 .0255322
914.254 .0255112
914.903 .0254905
915.551 .0254702
916.199 .0254502
916.847 .0254304
917.494 .0254109
918.141 .0253915
918.788 .0253722
919.434 .0253530
920.079 .0253339
920.725 .0253148
921.370 .0252958
922.014 .0252769
922.658 .0252580
923.302 .0252392
923.946 .0252204
924.589 .0252016
925.231 .0251828
925.873 .0251639
926.515 .0251452
927.157 .0251265
927.798 .0251081
928.439 .0250900
929.079 .0250722
929.719 .0250549
930.359 .0250381
930.998 .0250218
931.637 .0250060
932.275 .0249907
932.913 .0249760
933.551 .0249618
934.188 .0249482
934.825 .0249352
935.462 .0249228
936.098 .0249110
936.733 .0249000
937.369 .0248897
938.004 .0248801
938.638 .0248714
939.273 .0248635
939.907 .0248564
940.540 .0248503
941.173 .0248449
941.806 .0248405
942.438 .0248369
943.070 .0248341
943.702 .0248321
944.333 .0248310
944.964 .0248305
945.594 .0248309
946.224 .0248318
946.854 .0248333
947.483 .0248353
948.112 .0248376
948.741 .0248402
949.369 .0248428
949.996 .0248456
950.624 .0248483
951.251 .0248511
951.878 .0248539
952.504 .0248568
953.130 .0248597
953.755 .0248627
954.380 .0248656
955.005 .0248686
955.629 .0248716
956.253 .0248744
956.877 .0248772
957.500 .0248799
958.123 .0248825
958.746 .0248851
959.368 .0248878
959.990 .0248906
960.611 .0248935
961.232 .0248965
961.853 .0248998
962.473 .0249031
963.093 .0249064
963.712 .0249097
964.331 .0249130
964.950 .0249162
965.569 .0249195
966.187 .0249228
966.804 .0249263
967.422 .0249299
968.039 .0249337
968.655 .0249377
969.272 .0249419
969.887 .0249462
970.503 .0249505
971.118 .0249549
971.733 .0249591
972.347 .0249633
972.961 .0249675
973.575 .0249716
974.188 .0249757
974.801 .0249798
975.414 .0249838
976.026 .0249877
976.638 .0249915
977.250 .0249950
977.861 .0249983
978.472 .0250012
979.083 .0250038
979.693 .0250061
980.303 .0250082
980.912 .0250107
981.521 .0250123
982.130 .0250139
982.738 .0250154
983.346 .0250168
983.954 .0250182
984.562 .0250195
985.169 .0250210
985.775 .0250225
986.382 .0250241
986.988 .0250260
987.594 .0250280
988.199 .0250302
988.804 .0250327
989.409 .0250344
990.013 .0250372
990.617 .0250400
991.221 .0250431
991.824 .0250463
992.427 .0250495
993.030 .0250529
993.632 .0250562
994.234 .0250595
994.836 .0250627
995.438 .0250659
996.039 .0250692
996.640 .0250724
997.240 .0250758
997.840 .0250794
998.440 .0250831
999.040 .0250871
999.639 .0250914
1000.238 .0250959
1000.836 .0251006
1001.435 .0251055
1002.033 .0251106
1002.630 .0251158
1003.228 .0251210
1003.825 .0251264
1004.422 .0251319
1005.018 .0251374
1005.614 .0251431
1006.210 .0251488
1006.806 .0251546
1007.401 .0251605
1007.996 .0251665
1008.591 .0251725
1009.186 .0251785
1009.780 .0251846
1010.374 .0251907
1010.967 .0251968
1011.561 .0252030
1012.154 .0252093
1012.746 .0252157
1013.339 .0252223
1013.931 .0252289
1014.523 .0252355
1015.115 .0252422
1015.706 .0252487
1016.298 .0252552
1016.888 .0252615
1017.479 .0252676
1018.069 .0252735
1018.660 .0252791
1019.250 .0252844
1019.839 .0252896
1020.429 .0252945
1021.018 .0252993
1021.607 .0253039
1022.195 .0253084
1022.784 .0253127
1023.372 .0253168
1023.960 .0253208
1024.547 .0253247
1025.135 .0253285
1025.722 .0253323
1026.309 .0253361
1026.896 .0253399
1027.483 .0253438
1028.069 .0253477
1028.655 .0253516
1029.241 .0253554
1029.827 .0253590
1030.412 .0253624
1030.997 .0253655
1031.582 .0253684
1032.167 .0253711
1032.752 .0253738
1033.336 .0253766
1033.921 .0253796
1034.505 .0253827
1035.089 .0253859
1035.672 .0253892
1036.256 .0253925
1036.839 .0253956
1037.422 .0253984
1038.005 .0254010
1038.588 .0254031
1039.171 .0254049
1039.753 .0254064
1040.335 .0254076
1040.918 .0254084
1041.500 .0254088
1042.081 .0254088
1042.663 .0254083
1043.244 .0254073
1043.826 .0254055
1044.407 .0254032
1044.988 .0254002
1045.569 .0253965
1046.150 .0253923
1046.730 .0253875
1047.311 .0253821
1047.891 .0253763
1048.471 .0253699
1049.052 .0253629
1049.632 .0253553
1050.211 .0253468
1050.791 .0253377
1051.371 .0253277
1051.950 .0253170
1052.530 .0253055
1053.109 .0252933
1053.688 .0252803
1054.268 .0252667
1054.847 .0252526
1055.426 .0252380
1056.005 .0252232
1056.583 .0252083
1057.162 .0251933
1057.741 .0251785
1058.319 .0251640
1058.898 .0251499
1059.476 .0251362
1060.055 .0251230
1060.633 .0251102
1061.211 .0250979
1061.790 .0250859
1062.368 .0250742
1062.946 .0250630
1063.524 .0250522
1064.102 .0250417
1064.680 .0250314
1065.258 .0250214
1065.836 .0250114
1066.414 .0250012
1066.992 .0249909
1067.570 .0249801
1068.148 .0249689
1068.726 .0249573
1069.304 .0249454
1069.882 .0249336
1070.460 .0249219
1071.038 .0249107
1071.616 .0248999
1072.194 .0248896
1072.772 .0248795
1073.350 .0248697
1073.928 .0248599
1074.506 .0248499
1075.084 .0248397
1075.662 .0248291
1076.240 .0248183
1076.819 .0248074
1077.397 .0247965
1077.976 .0247858
1078.554 .0247754
1079.133 .0247651
1079.711 .0247551
1080.290 .0247451
1080.869 .0247352
1081.448 .0247253
1082.027 .0247155
1082.606 .0247057
1083.185 .0246963
1083.764 .0246873
1084.343 .0246789
1084.923 .0246714
1085.502 .0246648
1086.082 .0246589
1086.662 .0246537
1087.242 .0246490
1087.822 .0246445
1088.402 .0246401
1088.983 .0246355
1089.563 .0246307
1090.144 .0246258
1090.725 .0246207
1091.306 .0246156
1091.887 .0246107
1092.469 .0246059
1093.050 .0246015
1093.632 .0245972
1094.214 .0245931
1094.796 .0245893
1095.379 .0245858
1095.961 .0245826
1096.544 .0245800
1097.127 .0245783
1097.710 .0245777
1098.294 .0245786
1098.877 .0245811
1099.461 .0245853
1100.046 .0245913
1100.630 .0245990
1101.215 .0246082
1101.800 .0246190
1102.385 .0246310
1102.970 .0246443
1103.556 .0246587
1104.142 .0246742
1104.728 .0246908
1105.315 .0247083
1105.902 .0247267
1106.489 .0247460
1107.077 .0247659
1107.664 .0247866
1108.253 .0248080
1108.841 .0248300
1109.430 .0248527
1110.019 .0248761
1110.609 .0249002
1111.198 .0249249
1111.789 .0249501
1112.379 .0249758
1112.970 .0250021
1113.561 .0250288
1114.153 .0250559
1114.745 .0250835
1115.338 .0251120
1115.931 .0251413
1116.524 .0251716
1117.117 .0252028
1117.712 .0252350
1118.306 .0252683
1118.901 .0253025
1119.496 .0253378
1120.092 .0253743
1120.689 .0254122
1121.285 .0254516
1121.882 .0254928
1122.480 .0255360
1123.078 .0255813
1123.677 .0256288
1124.276 .0256784
1124.875 .0257300
1125.476 .0257838
1126.076 .0258397
1126.677 .0258983
1127.279 .0259600
1127.881 .0260251
1128.484 .0260940
1129.087 .0261230
1129.691 .0261976
1130.295 .0262766
1130.900 .0263599
1131.505 .0264473
1132.111 .0265391
1132.718 .0266354
1133.325 .0267366
1133.933 .0268415
1134.541 .0269501
1135.150 .0270715
1135.760 .0272050
1136.370 .0273392
1136.981 .0272569
1137.592 .0274001
1138.204 .0275500
1138.817 .0276988
1139.431 .0278508
1140.045 .0280143
1140.660 .0281942
1141.275 .0283924
1141.891 .0285647
1142.508 .0287344
1143.126 .0291621
1143.744 .0295685
1144.363 .0296551
1144.983 .0285737
