Measurement Sequence started on: 15-12-46-377
Integration time: 28
Scans to Average: 2 
>>>>>Begin Spectral Data<<<<<
432.689 .0000100
433.621 .0000100
434.552 .0000100
435.482 .0000100
436.410 .0000100
437.337 .0000100
438.262 .0271209
439.187 .0575064
440.110 .0952025
441.031 .1376734
441.952 .1098711
442.871 .1146801
443.789 .1191505
444.705 .1233539
445.621 .1273392
446.535 .1311443
447.447 .1333687
448.359 .1338609
449.269 .1322532
450.178 .1283080
451.086 .1221026
451.993 .1141136
452.898 .1051255
453.803 .0960288
454.706 .0875796
455.608 .0802465
456.508 .0741855
457.408 .0700927
458.306 .0669579
459.204 .0644136
460.100 .0622765
460.995 .0604450
461.888 .0588493
462.781 .0574431
463.673 .0561907
464.563 .0550684
465.452 .0540573
466.340 .0531423
467.228 .0523119
468.114 .0515574
468.999 .0508700
469.882 .0502426
470.765 .0496685
471.647 .0491425
472.528 .0486597
473.407 .0482164
474.286 .0478094
475.163 .0474371
476.040 .0470969
476.915 .0467871
477.790 .0465061
478.663 .0462528
479.535 .0460257
480.407 .0458237
481.277 .0456453
482.147 .0454894
483.015 .0453547
483.883 .0452400
484.749 .0451441
485.615 .0450667
486.479 .0450072
487.343 .0449651
488.206 .0449404
489.067 .0449333
489.928 .0449438
490.788 .0449721
491.647 .0450185
492.505 .0450835
493.362 .0451672
494.218 .0452696
495.073 .0453906
495.928 .0456395
496.781 .0458091
497.634 .0459983
498.486 .0462084
499.337 .0464406
500.187 .0466966
501.036 .0469797
501.884 .0472928
502.731 .0476400
503.578 .0480260
504.424 .0483023
505.268 .0487657
506.113 .0492822
506.956 .0498569
507.798 .0504962
508.640 .0512074
509.480 .0519987
510.320 .0528806
511.160 .0538657
511.998 .0549691
512.836 .0562066
513.672 .0575946
514.508 .0591541
515.344 .0609071
516.178 .0628740
517.012 .0650799
517.845 .0675477
518.677 .0702979
519.508 .0733475
520.339 .0767040
521.169 .0803714
521.998 .0843271
522.826 .0885379
523.654 .0929504
524.481 .0974990
525.307 .1021077
526.133 .1066890
526.958 .1111514
527.782 .1154049
528.605 .1193600
529.428 .1229385
530.250 .1260683
531.072 .1287003
531.892 .1307906
532.712 .1323110
533.532 .1332471
534.350 .1335919
535.168 .1333455
535.986 .1325163
536.802 .1311124
537.618 .1291493
538.434 .1266404
539.249 .1236231
540.063 .1201450
540.876 .1162695
541.689 .1120716
542.501 .1076343
543.313 .1030486
544.124 .0984085
544.934 .0938011
545.744 .0893101
546.553 .0850056
547.361 .0809486
548.169 .0771751
548.976 .0737122
549.783 .0705696
550.589 .0677417
551.395 .0652109
552.200 .0629538
553.004 .0609381
553.808 .0591345
554.611 .0575145
555.414 .0560545
556.216 .0547331
557.018 .0535297
557.819 .0524278
558.619 .0514121
559.419 .0504696
560.218 .0495894
561.017 .0487609
561.815 .0479773
562.613 .0472322
563.410 .0465191
564.207 .0458332
565.003 .0451713
565.799 .0445291
566.594 .0439034
567.388 .0432924
568.182 .0426955
568.976 .0421113
569.769 .0415405
570.562 .0409847
571.354 .0404454
572.145 .0399247
572.936 .0394243
573.727 .0389448
574.517 .0384870
575.307 .0380513
576.096 .0376370
576.885 .0372441
577.673 .0368723
578.461 .0365208
579.248 .0361887
580.035 .0358762
580.821 .0355820
581.607 .0353057
582.392 .0350467
583.177 .0348045
583.962 .0345783
584.746 .0343674
585.529 .0341712
586.313 .0339886
587.095 .0338189
587.878 .0336612
588.660 .0335144
589.441 .0333779
590.222 .0332510
591.003 .0331331
591.783 .0330237
592.563 .0329224
593.342 .0328283
594.121 .0327409
594.899 .0326595
595.678 .0325834
596.455 .0325119
597.233 .0324445
598.009 .0323805
598.786 .0323194
599.562 .0322608
600.338 .0322043
601.113 .0321496
601.888 .0320739
602.663 .0320238
603.437 .0319756
604.211 .0319292
604.984 .0318848
605.757 .0318424
606.530 .0318019
607.302 .0317632
608.074 .0317262
608.845 .0316907
609.616 .0316564
610.387 .0316427
611.158 .0316103
611.928 .0315792
612.697 .0315495
613.467 .0315210
614.236 .0314939
615.004 .0314679
615.773 .0314432
616.541 .0314194
617.308 .0313965
618.076 .0313741
618.843 .0313521
619.609 .0313302
620.375 .0313084
621.141 .0312865
621.907 .0312645
622.672 .0312425
623.437 .0312203
624.202 .0311981
624.966 .0311757
625.730 .0311532
626.493 .0311305
627.257 .0311075
628.020 .0310843
628.782 .0310607
629.545 .0310366
630.307 .0310120
631.068 .0309869
631.830 .0309614
632.591 .0309354
633.352 .0309091
634.112 .0308824
634.872 .0308556
635.632 .0308286
636.392 .0308014
637.151 .0307742
637.910 .0307468
638.668 .0307193
639.427 .0306916
640.185 .0306637
640.943 .0306358
641.700 .0306078
642.457 .0305798
643.214 .0305521
643.971 .0305245
644.727 .0304972
645.483 .0304702
646.239 .0304435
646.994 .0304171
647.750 .0303911
648.505 .0303656
649.259 .0303403
650.014 .0303155
650.768 .0302910
651.521 .0302670
652.275 .0302434
653.028 .0302201
653.781 .0301973
654.534 .0301747
655.286 .0301526
656.039 .0301308
656.791 .0301094
657.542 .0300885
658.294 .0300681
659.045 .0300480
659.796 .0300284
660.546 .0300091
661.297 .0299901
662.047 .0299715
662.796 .0299532
663.546 .0299352
664.295 .0299174
665.044 .0299000
665.793 .0298829
666.542 .0298661
667.290 .0298496
668.038 .0298333
668.786 .0298171
669.533 .0298011
670.281 .0297853
671.028 .0297695
671.774 .0297540
672.521 .0297385
673.267 .0297232
674.013 .0297078
674.759 .0296924
675.505 .0296768
676.250 .0296610
676.995 .0296451
677.740 .0296289
678.484 .0296126
679.229 .0295962
679.973 .0295797
680.717 .0295633
681.460 .0295469
682.204 .0295304
682.947 .0295138
683.690 .0294970
684.433 .0294800
685.175 .0294627
685.917 .0294451
686.659 .0294273
687.401 .0294092
688.142 .0293910
688.884 .0293725
689.625 .0293538
690.365 .0293348
691.106 .0293156
691.846 .0292962
692.586 .0292764
693.326 .0292563
694.066 .0292360
694.805 .0292154
695.545 .0291946
696.284 .0291734
697.022 .0291520
697.761 .0291302
698.499 .0291081
699.237 .0290857
699.975 .0290632
700.713 .0290407
701.450 .0290181
702.187 .0289957
702.924 .0289734
703.661 .0289513
704.397 .0289293
705.133 .0289074
705.869 .0288855
706.605 .0288636
707.341 .0288417
708.076 .0288198
708.811 .0287980
709.546 .0287764
710.281 .0287549
711.015 .0287336
711.749 .0287127
712.483 .0286919
713.217 .0286715
713.950 .0286512
714.684 .0286311
715.417 .0286111
716.150 .0285912
716.882 .0285713
717.615 .0285515
718.347 .0285317
719.079 .0285119
719.811 .0284922
720.542 .0284726
721.273 .0284532
722.005 .0284341
722.735 .0284153
723.466 .0283969
724.196 .0283790
724.927 .0283616
725.656 .0283447
726.386 .0283283
727.116 .0283125
727.845 .0282972
728.574 .0282824
729.303 .0282682
730.031 .0282547
730.760 .0282418
731.488 .0282295
732.216 .0282179
732.944 .0282071
733.671 .0281969
734.398 .0281873
735.125 .0281785
735.852 .0281702
736.579 .0281624
737.305 .0281552
738.031 .0281485
738.757 .0281421
739.483 .0281362
740.208 .0281307
740.933 .0281255
741.658 .0281207
742.383 .0281161
743.108 .0281120
743.832 .0281081
744.556 .0281045
745.280 .0281012
746.004 .0280980
746.727 .0280949
747.450 .0280918
748.173 .0280885
748.896 .0280851
749.618 .0280813
750.340 .0280772
751.062 .0280727
751.784 .0280678
752.506 .0280626
753.227 .0280571
753.948 .0280512
754.669 .0280449
755.389 .0280382
756.110 .0280311
756.830 .0280235
757.550 .0280154
758.269 .0280068
758.989 .0279977
759.708 .0279880
760.427 .0279777
761.146 .0279668
761.864 .0279554
762.582 .0279435
763.300 .0279310
764.018 .0279181
764.736 .0279048
765.453 .0278912
766.170 .0278771
766.887 .0278628
767.603 .0278481
768.320 .0278331
769.036 .0278179
769.751 .0278024
770.467 .0277867
771.182 .0277709
771.897 .0277550
772.612 .0277390
773.327 .0277231
774.041 .0277073
774.755 .0276916
775.469 .0276760
776.183 .0276605
776.896 .0276450
777.609 .0276297
778.322 .0276144
779.035 .0275991
779.747 .0275838
780.459 .0275685
781.171 .0275533
781.882 .0275382
782.594 .0275232
783.305 .0275083
784.016 .0274935
784.726 .0274787
785.436 .0274640
786.147 .0274419
786.856 .0274268
787.566 .0274115
788.275 .0273960
788.984 .0273802
789.693 .0273640
790.401 .0273475
791.110 .0273308
791.818 .0273137
792.525 .0272962
793.233 .0272785
793.940 .0272604
794.647 .0272502
795.353 .0272318
796.060 .0272131
796.766 .0271942
797.472 .0271751
798.177 .0271558
798.883 .0271363
799.588 .0271167
800.292 .0270970
800.997 .0270773
801.701 .0270575
802.405 .0270378
803.109 .0270182
803.812 .0269988
804.515 .0269797
805.218 .0269608
805.921 .0269421
806.623 .0269238
807.325 .0269056
808.027 .0268877
808.728 .0268700
809.429 .0268526
810.130 .0268354
810.831 .0268185
811.531 .0268020
812.231 .0267860
812.931 .0267705
813.630 .0267554
814.330 .0267410
815.029 .0267272
815.727 .0267139
816.426 .0267014
817.124 .0266895
817.821 .0266783
818.519 .0266678
819.216 .0266582
819.913 .0266495
820.609 .0266417
821.306 .0266348
822.002 .0266288
822.697 .0266239
823.393 .0266200
824.088 .0266171
824.783 .0266152
825.477 .0266144
826.171 .0266145
826.865 .0266157
827.559 .0266177
828.252 .0266207
828.945 .0266244
829.638 .0266289
830.330 .0266342
831.023 .0266401
831.714 .0266466
832.406 .0266537
833.097 .0266613
833.788 .0266694
834.479 .0266778
835.169 .0266866
835.859 .0266956
836.548 .0267047
837.238 .0267138
837.927 .0267229
838.615 .0267317
839.304 .0267403
839.992 .0267486
840.680 .0267564
841.367 .0267638
842.054 .0267708
842.741 .0267773
843.428 .0267834
844.114 .0267890
844.800 .0267941
845.485 .0267985
846.170 .0268024
846.855 .0268055
847.540 .0268078
848.224 .0268092
848.908 .0268097
849.592 .0268093
850.275 .0268079
850.958 .0268056
851.641 .0268023
852.323 .0267982
853.005 .0267932
853.687 .0267874
854.368 .0267808
855.049 .0267733
855.730 .0267652
856.410 .0267562
857.090 .0267466
857.769 .0267364
858.449 .0267255
859.128 .0267141
859.806 .0267021
860.485 .0266897
861.163 .0266768
861.840 .0266635
862.518 .0266498
863.195 .0266357
863.871 .0266213
864.548 .0266066
865.224 .0265915
865.899 .0265762
866.574 .0265607
867.249 .0265449
867.924 .0265289
868.598 .0265128
869.272 .0264965
869.946 .0264801
870.619 .0264636
871.292 .0264469
871.964 .0264301
872.636 .0264132
873.308 .0263961
873.979 .0263790
874.651 .0263618
875.321 .0263446
875.992 .0263275
876.662 .0263103
877.331 .0262932
878.001 .0262761
878.670 .0262590
879.338 .0262419
880.007 .0262247
880.675 .0262076
881.342 .0261905
882.009 .0261735
882.676 .0261566
883.343 .0261398
884.009 .0261233
884.675 .0261069
885.340 .0260907
886.005 .0260748
886.670 .0260590
887.334 .0260434
887.998 .0260280
888.662 .0260128
889.325 .0259977
889.988 .0259829
890.650 .0259681
891.312 .0259535
891.974 .0259390
892.636 .0259244
893.297 .0259098
893.957 .0258951
894.618 .0258803
895.278 .0258654
895.937 .0258503
896.596 .0258351
897.255 .0258196
897.914 .0258037
898.572 .0257875
899.230 .0257709
899.887 .0257538
900.544 .0257361
901.201 .0257179
901.857 .0256877
902.513 .0256678
903.168 .0256474
903.823 .0256263
904.478 .0256046
905.132 .0255823
905.786 .0255596
906.440 .0255363
907.093 .0255127
907.746 .0254888
908.399 .0254646
909.051 .0254402
909.703 .0254156
910.354 .0254032
911.005 .0253787
911.656 .0253542
912.306 .0253297
912.956 .0253053
913.605 .0252811
914.254 .0252572
914.903 .0252337
915.551 .0252106
916.199 .0251880
916.847 .0251658
917.494 .0251440
918.141 .0251226
918.788 .0251016
919.434 .0250809
920.079 .0250605
920.725 .0250404
921.370 .0250207
922.014 .0250013
922.658 .0249823
923.302 .0249636
923.946 .0249452
924.589 .0249271
925.231 .0249094
925.873 .0248920
926.515 .0248751
927.157 .0248586
927.798 .0248428
928.439 .0248276
929.079 .0248132
929.719 .0247995
930.359 .0247866
930.998 .0247746
931.637 .0247634
932.275 .0247530
932.913 .0247435
933.551 .0247350
934.188 .0247275
934.825 .0247212
935.462 .0247160
936.098 .0247121
936.733 .0247094
937.369 .0247079
938.004 .0247077
938.638 .0247086
939.273 .0247105
939.907 .0247136
940.540 .0247176
941.173 .0247227
941.806 .0247287
942.438 .0247356
943.070 .0247434
943.702 .0247520
944.333 .0247613
944.964 .0247711
945.594 .0247813
946.224 .0247917
946.854 .0248023
947.483 .0248129
948.112 .0248235
948.741 .0248340
949.369 .0248443
949.996 .0248545
950.624 .0248644
951.251 .0248741
951.878 .0248835
952.504 .0248925
953.130 .0249011
953.755 .0249095
954.380 .0249174
955.005 .0249251
955.629 .0249325
956.253 .0249398
956.877 .0249469
957.500 .0249539
958.123 .0249609
958.746 .0249678
959.368 .0249746
959.990 .0249815
960.611 .0249882
961.232 .0249950
961.853 .0250018
962.473 .0250086
963.093 .0250154
963.712 .0250223
964.331 .0250291
964.950 .0250360
965.569 .0250429
966.187 .0250497
966.804 .0250565
967.422 .0250632
968.039 .0250697
968.655 .0250761
969.272 .0250822
969.887 .0250880
970.503 .0250936
971.118 .0250988
971.733 .0251037
972.347 .0251081
972.961 .0251122
973.575 .0251158
974.188 .0251189
974.801 .0251215
975.414 .0251235
976.026 .0251249
976.638 .0251257
977.250 .0251258
977.861 .0251251
978.472 .0251236
979.083 .0251213
979.693 .0251184
980.303 .0251147
980.912 .0251065
981.521 .0251015
982.130 .0250960
982.738 .0250901
983.346 .0250838
983.954 .0250772
984.562 .0250704
985.169 .0250634
985.775 .0250562
986.382 .0250491
986.988 .0250419
987.594 .0250348
988.199 .0250278
988.804 .0250209
989.409 .0250181
990.013 .0250115
990.617 .0250050
991.221 .0249986
991.824 .0249923
992.427 .0249860
993.030 .0249797
993.632 .0249735
994.234 .0249671
994.836 .0249607
995.438 .0249541
996.039 .0249475
996.640 .0249406
997.240 .0249336
997.840 .0249264
998.440 .0249190
999.040 .0249114
999.639 .0249034
1000.238 .0248952
1000.836 .0248866
1001.435 .0248777
1002.033 .0248684
1002.630 .0248588
1003.228 .0248487
1003.825 .0248382
1004.422 .0248272
1005.018 .0248159
1005.614 .0248041
1006.210 .0247920
1006.806 .0247795
1007.401 .0247668
1007.996 .0247538
1008.591 .0247405
1009.186 .0247270
1009.780 .0247133
1010.374 .0246995
1010.967 .0246855
1011.561 .0246714
1012.154 .0246573
1012.746 .0246431
1013.339 .0246290
1013.931 .0246149
1014.523 .0246009
1015.115 .0245871
1015.706 .0245735
1016.298 .0245600
1016.888 .0245469
1017.479 .0245339
1018.069 .0245213
1018.660 .0245091
1019.250 .0244971
1019.839 .0244856
1020.429 .0244743
1021.018 .0244634
1021.607 .0244528
1022.195 .0244426
1022.784 .0244327
1023.372 .0244232
1023.960 .0244140
1024.547 .0244051
1025.135 .0243965
1025.722 .0243881
1026.309 .0243800
1026.896 .0243720
1027.483 .0243641
1028.069 .0243562
1028.655 .0243485
1029.241 .0243407
1029.827 .0243329
1030.412 .0243252
1030.997 .0243174
1031.582 .0243096
1032.167 .0243017
1032.752 .0242937
1033.336 .0242854
1033.921 .0242769
1034.505 .0242681
1035.089 .0242589
1035.672 .0242493
1036.256 .0242393
1036.839 .0242289
1037.422 .0242182
1038.005 .0242072
1038.588 .0241960
1039.171 .0241847
1039.753 .0241733
1040.335 .0241617
1040.918 .0241499
1041.500 .0241381
1042.081 .0241260
1042.663 .0241138
1043.244 .0241015
1043.826 .0240892
1044.407 .0240770
1044.988 .0240649
1045.569 .0240531
1046.150 .0240417
1046.730 .0240305
1047.311 .0240195
1047.891 .0240087
1048.471 .0239980
1049.052 .0239874
1049.632 .0239768
1050.211 .0239664
1050.791 .0239562
1051.371 .0239462
1051.950 .0239366
1052.530 .0239273
1053.109 .0239184
1053.688 .0239098
1054.268 .0239017
1054.847 .0238938
1055.426 .0238861
1056.005 .0238786
1056.583 .0238713
1057.162 .0238642
1057.741 .0238572
1058.319 .0238505
1058.898 .0238442
1059.476 .0238383
1060.055 .0238328
1060.633 .0238277
1061.211 .0238232
1061.790 .0238191
1062.368 .0238156
1062.946 .0238126
1063.524 .0238102
1064.102 .0238083
1064.680 .0238071
1065.258 .0238067
1065.836 .0238070
1066.414 .0238082
1066.992 .0238102
1067.570 .0238131
1068.148 .0238166
1068.726 .0238209
1069.304 .0238259
1069.882 .0238315
1070.460 .0238377
1071.038 .0238444
1071.616 .0238516
1072.194 .0238593
1072.772 .0238675
1073.350 .0238760
1073.928 .0238848
1074.506 .0238938
1075.084 .0239031
1075.662 .0239124
1076.240 .0239217
1076.819 .0239311
1077.397 .0239406
1077.976 .0239502
1078.554 .0239600
1079.133 .0239702
1079.711 .0239807
1080.290 .0239917
1080.869 .0240033
1081.448 .0240154
1082.027 .0240281
1082.606 .0240413
1083.185 .0240549
1083.764 .0240690
1084.343 .0240834
1084.923 .0240983
1085.502 .0241138
1086.082 .0241297
1086.662 .0241462
1087.242 .0241632
1087.822 .0241808
1088.402 .0241990
1088.983 .0242176
1089.563 .0242368
1090.144 .0242566
1090.725 .0242773
1091.306 .0242988
1091.887 .0243214
1092.469 .0243451
1093.050 .0243700
1093.632 .0243961
1094.214 .0244232
1094.796 .0244511
1095.379 .0244799
1095.961 .0245092
1096.544 .0245390
1097.127 .0245694
1097.710 .0246005
1098.294 .0246321
1098.877 .0246644
1099.461 .0246974
1100.046 .0247309
1100.630 .0247650
1101.215 .0247997
1101.800 .0248347
1102.385 .0248700
1102.970 .0249054
1103.556 .0249407
1104.142 .0249760
1104.728 .0250112
1105.315 .0250465
1105.902 .0250821
1106.489 .0251181
1107.077 .0251545
1107.664 .0251915
1108.253 .0252292
1108.841 .0252675
1109.430 .0253064
1110.019 .0253460
1110.609 .0253859
1111.198 .0254263
1111.789 .0254671
1112.379 .0255086
1112.970 .0255510
1113.561 .0255945
1114.153 .0256391
1114.745 .0256850
1115.338 .0257322
1115.931 .0257806
1116.524 .0258299
1117.117 .0258800
1117.712 .0259306
1118.306 .0259815
1118.901 .0260326
1119.496 .0260840
1120.092 .0261359
1120.689 .0261884
1121.285 .0262419
1121.882 .0262964
1122.480 .0263519
1123.078 .0264083
1123.677 .0264655
1124.276 .0265231
1124.875 .0265810
1125.476 .0266391
1126.076 .0266973
1126.677 .0267557
1127.279 .0268147
1127.881 .0268745
1128.484 .0269356
1129.087 .0269663
1129.691 .0270289
1130.295 .0270925
1130.900 .0271568
1131.505 .0272217
1132.111 .0272875
1132.718 .0273545
1133.325 .0274235
1133.933 .0274950
1134.541 .0275663
1135.150 .0276497
1135.760 .0277379
1136.370 .0278312
1136.981 .0277910
1137.592 .0278804
1138.204 .0279721
1138.817 .0280609
1139.431 .0281545
1140.045 .0282575
1140.660 .0283724
1141.275 .0285051
1141.891 .0286492
1142.508 .0287055
1143.126 .0291004
1143.744 .0292822
1144.363 .0294654
1144.983 .0293811
