Measurement Sequence started on: 15-12-46-377
Integration time: 28
Scans to Average: 2 
>>>>>Begin Spectral Data<<<<<
432.689 .0000100
433.621 .0000100
434.552 .0000100
435.482 .0000100
436.410 .0000100
437.337 .0000100
438.262 .0292362
439.187 .0621026
440.110 .1030192
441.031 .1491785
441.952 .1196956
442.871 .1249803
443.789 .1298876
444.705 .1344923
445.621 .1388451
446.535 .1429858
447.447 .1454058
448.359 .1459388
449.269 .1441831
450.178 .1398801
451.086 .1331145
451.993 .1243999
452.898 .1145845
453.803 .1046331
454.706 .0953668
455.608 .0872984
456.508 .0806020
457.408 .0760315
458.306 .0725049
459.204 .0696296
460.100 .0672075
460.995 .0651299
461.888 .0633248
462.781 .0617445
463.673 .0603512
464.563 .0591169
465.452 .0580183
466.340 .0570351
467.228 .0561518
468.114 .0553559
468.999 .0546365
469.882 .0539852
470.765 .0533942
471.647 .0528584
472.528 .0523732
473.407 .0519345
474.286 .0515388
475.163 .0511839
476.040 .0508666
476.915 .0505845
477.790 .0503347
478.663 .0501155
479.535 .0499256
480.407 .0497639
481.277 .0496297
482.147 .0495215
483.015 .0494378
483.883 .0493772
484.749 .0493379
485.615 .0493188
486.479 .0493181
487.343 .0493351
488.206 .0493689
489.067 .0494190
489.928 .0494850
490.788 .0495674
491.647 .0496664
492.505 .0497828
493.362 .0499161
494.218 .0500664
495.073 .0502340
495.928 .0505471
496.781 .0507609
497.634 .0509932
498.486 .0512450
499.337 .0515180
500.187 .0518144
501.036 .0521360
501.884 .0524866
502.731 .0528702
503.578 .0532908
504.424 .0535813
505.268 .0540744
506.113 .0546178
506.956 .0552174
507.798 .0558793
508.640 .0566106
509.480 .0574196
510.320 .0583180
511.160 .0593197
511.998 .0604407
512.836 .0617006
513.672 .0631195
514.508 .0647208
515.344 .0665311
516.178 .0685744
517.012 .0708766
517.845 .0734615
518.677 .0763474
519.508 .0795503
520.339 .0830777
521.169 .0869308
521.998 .0910882
522.826 .0955185
523.654 .1001707
524.481 .1049744
525.307 .1098517
526.133 .1147094
526.958 .1194467
527.782 .1239642
528.605 .1281621
529.428 .1319520
530.250 .1352575
531.072 .1380242
531.892 .1402082
532.712 .1417825
533.532 .1427361
534.350 .1430641
535.168 .1427717
535.986 .1418722
536.802 .1403750
537.618 .1382942
538.434 .1356463
539.249 .1324651
540.063 .1287948
540.876 .1246955
541.689 .1202452
542.501 .1155293
543.313 .1106457
544.124 .1056965
544.934 .1007788
545.744 .0959875
546.553 .0914015
547.361 .0870824
548.169 .0830685
548.976 .0793833
549.783 .0760293
550.589 .0729944
551.395 .0702579
552.200 .0677904
553.004 .0655600
553.808 .0635395
554.611 .0617037
555.414 .0600315
556.216 .0585061
557.018 .0571100
557.819 .0558285
558.619 .0546476
559.419 .0535533
560.218 .0525344
561.017 .0515808
561.815 .0506836
562.613 .0498352
563.410 .0490289
564.207 .0482605
565.003 .0475254
565.799 .0468202
566.594 .0461426
567.388 .0454908
568.182 .0448633
568.976 .0442591
569.769 .0436766
570.562 .0431154
571.354 .0425757
572.145 .0420579
572.936 .0415623
573.727 .0410890
574.517 .0406387
575.307 .0402117
576.096 .0398076
576.885 .0394257
577.673 .0390651
578.461 .0387251
579.248 .0384045
580.035 .0381022
580.821 .0378171
581.607 .0375489
582.392 .0372969
583.177 .0370610
583.962 .0368408
584.746 .0366361
585.529 .0364462
586.313 .0362704
587.095 .0361075
587.878 .0359566
588.660 .0358161
589.441 .0356853
590.222 .0355631
591.003 .0354490
591.783 .0353423
592.563 .0352425
593.342 .0351492
594.121 .0350622
594.899 .0349807
595.678 .0349043
596.455 .0348323
597.233 .0347641
598.009 .0346991
598.786 .0346368
599.562 .0345767
600.338 .0345188
601.113 .0344626
601.888 .0343835
602.663 .0343308
603.437 .0342796
604.211 .0342296
604.984 .0341807
605.757 .0341328
606.530 .0340859
607.302 .0340397
608.074 .0339942
608.845 .0339494
609.616 .0339054
610.387 .0338852
611.158 .0338427
611.928 .0338011
612.697 .0337605
613.467 .0337210
614.236 .0336826
615.004 .0336454
615.773 .0336093
616.541 .0335744
617.308 .0335407
618.076 .0335081
618.843 .0334766
619.609 .0334461
620.375 .0334166
621.141 .0333880
621.907 .0333601
622.672 .0333329
623.437 .0333061
624.202 .0332797
624.966 .0332534
625.730 .0332273
626.493 .0332012
627.257 .0331751
628.020 .0331489
628.782 .0331225
629.545 .0330957
630.307 .0330685
631.068 .0330410
631.830 .0330129
632.591 .0329845
633.352 .0329556
634.112 .0329264
634.872 .0328969
635.632 .0328673
636.392 .0328375
637.151 .0328077
637.910 .0327778
638.668 .0327479
639.427 .0327181
640.185 .0326885
640.943 .0326591
641.700 .0326300
642.457 .0326014
643.214 .0325730
643.971 .0325450
644.727 .0325170
645.483 .0324891
646.239 .0324612
646.994 .0324332
647.750 .0324051
648.505 .0323770
649.259 .0323488
650.014 .0323206
650.768 .0322924
651.521 .0322642
652.275 .0322358
653.028 .0322073
653.781 .0321785
654.534 .0321495
655.286 .0321201
656.039 .0320904
656.791 .0320606
657.542 .0320305
658.294 .0320003
659.045 .0319701
659.796 .0319398
660.546 .0319095
661.297 .0318792
662.047 .0318490
662.796 .0318189
663.546 .0317890
664.295 .0317593
665.044 .0317299
665.793 .0317008
666.542 .0316720
667.290 .0316436
668.038 .0316156
668.786 .0315878
669.533 .0315604
670.281 .0315333
671.028 .0315066
671.774 .0314804
672.521 .0314547
673.267 .0314296
674.013 .0314052
674.759 .0313813
675.505 .0313581
676.250 .0313355
676.995 .0313133
677.740 .0312915
678.484 .0312701
679.229 .0312490
679.973 .0312283
680.717 .0312078
681.460 .0311876
682.204 .0311678
682.947 .0311483
683.690 .0311291
684.433 .0311102
685.175 .0310915
685.917 .0310730
686.659 .0310548
687.401 .0310367
688.142 .0310187
688.884 .0310007
689.625 .0309826
690.365 .0309645
691.106 .0309462
691.846 .0309278
692.586 .0309092
693.326 .0308904
694.066 .0308714
694.805 .0308525
695.545 .0308335
696.284 .0308145
697.022 .0307955
697.761 .0307765
698.499 .0307575
699.237 .0307383
699.975 .0307189
700.713 .0306994
701.450 .0306797
702.187 .0306598
702.924 .0306399
703.661 .0306199
704.397 .0305998
705.133 .0305797
705.869 .0305596
706.605 .0305395
707.341 .0305192
708.076 .0304989
708.811 .0304785
709.546 .0304580
710.281 .0304374
711.015 .0304166
711.749 .0303957
712.483 .0303747
713.217 .0303537
713.950 .0303327
714.684 .0303118
715.417 .0302911
716.150 .0302706
716.882 .0302503
717.615 .0302303
718.347 .0302105
719.079 .0301910
719.811 .0301715
720.542 .0301522
721.273 .0301330
722.005 .0301138
722.735 .0300948
723.466 .0300758
724.196 .0300570
724.927 .0300384
725.656 .0300201
726.386 .0300019
727.116 .0299840
727.845 .0299662
728.574 .0299485
729.303 .0299310
730.031 .0299135
730.760 .0298962
731.488 .0298790
732.216 .0298619
732.944 .0298450
733.671 .0298282
734.398 .0298116
735.125 .0297952
735.852 .0297788
736.579 .0297626
737.305 .0297464
738.031 .0297303
738.757 .0297143
739.483 .0296983
740.208 .0296823
740.933 .0296663
741.658 .0296502
742.383 .0296341
743.108 .0296179
743.832 .0296016
744.556 .0295852
745.280 .0295689
746.004 .0295526
746.727 .0295363
747.450 .0295201
748.173 .0295038
748.896 .0294877
749.618 .0294715
750.340 .0294553
751.062 .0294393
751.784 .0294233
752.506 .0294074
753.227 .0293916
753.948 .0293759
754.669 .0293605
755.389 .0293452
756.110 .0293302
756.830 .0293155
757.550 .0293011
758.269 .0292870
758.989 .0292735
759.708 .0292603
760.427 .0292477
761.146 .0292354
761.864 .0292236
762.582 .0292122
763.300 .0292010
764.018 .0291902
764.736 .0291797
765.453 .0291695
766.170 .0291596
766.887 .0291500
767.603 .0291406
768.320 .0291314
769.036 .0291223
769.751 .0291134
770.467 .0291047
771.182 .0290961
771.897 .0290878
772.612 .0290796
773.327 .0290717
774.041 .0290639
774.755 .0290564
775.469 .0290491
776.183 .0290420
776.896 .0290352
777.609 .0290286
778.322 .0290224
779.035 .0290166
779.747 .0290112
780.459 .0290063
781.171 .0290018
781.882 .0289979
782.594 .0289943
783.305 .0289911
784.016 .0289882
784.726 .0289857
785.436 .0289833
786.147 .0289806
786.856 .0289783
787.566 .0289761
788.275 .0289738
788.984 .0289714
789.693 .0289689
790.401 .0289659
791.110 .0289626
791.818 .0289587
792.525 .0289542
793.233 .0289490
793.940 .0289431
794.647 .0289378
795.353 .0289309
796.060 .0289234
796.766 .0289153
797.472 .0289066
798.177 .0288974
798.883 .0288875
799.588 .0288771
800.292 .0288662
800.997 .0288548
801.701 .0288430
802.405 .0288308
803.109 .0288184
803.812 .0288058
804.515 .0287930
805.218 .0287799
805.921 .0287665
806.623 .0287528
807.325 .0287388
808.027 .0287246
808.728 .0287101
809.429 .0286954
810.130 .0286807
810.831 .0286658
811.531 .0286509
812.231 .0286359
812.931 .0286208
813.630 .0286057
814.330 .0285905
815.029 .0285752
815.727 .0285599
816.426 .0285447
817.124 .0285294
817.821 .0285142
818.519 .0284990
819.216 .0284840
819.913 .0284690
820.609 .0284541
821.306 .0284394
822.002 .0284249
822.697 .0284107
823.393 .0283967
824.088 .0283831
824.783 .0283698
825.477 .0283568
826.171 .0283440
826.865 .0283314
827.559 .0283190
828.252 .0283067
828.945 .0282945
829.638 .0282824
830.330 .0282703
831.023 .0282583
831.714 .0282462
832.406 .0282341
833.097 .0282217
833.788 .0282091
834.479 .0281962
835.169 .0281829
835.859 .0281694
836.548 .0281556
837.238 .0281416
837.927 .0281272
838.615 .0281126
839.304 .0280976
839.992 .0280824
840.680 .0280667
841.367 .0280507
842.054 .0280345
842.741 .0280180
843.428 .0280013
844.114 .0279845
844.800 .0279677
845.485 .0279507
846.170 .0279337
846.855 .0279166
847.540 .0278993
848.224 .0278820
848.908 .0278645
849.592 .0278470
850.275 .0278295
850.958 .0278122
851.641 .0277950
852.323 .0277779
853.005 .0277612
853.687 .0277447
854.368 .0277285
855.049 .0277127
855.730 .0276973
856.410 .0276823
857.090 .0276677
857.769 .0276535
858.449 .0276399
859.128 .0276267
859.806 .0276141
860.485 .0276019
861.163 .0275903
861.840 .0275793
862.518 .0275688
863.195 .0275589
863.871 .0275496
864.548 .0275408
865.224 .0275325
865.899 .0275247
866.574 .0275174
867.249 .0275105
867.924 .0275040
868.598 .0274979
869.272 .0274922
869.946 .0274869
870.619 .0274818
871.292 .0274770
871.964 .0274724
872.636 .0274680
873.308 .0274637
873.979 .0274597
874.651 .0274559
875.321 .0274524
875.992 .0274493
876.662 .0274464
877.331 .0274439
878.001 .0274417
878.670 .0274398
879.338 .0274381
880.007 .0274367
880.675 .0274355
881.342 .0274348
882.009 .0274344
882.676 .0274345
883.343 .0274350
884.009 .0274359
884.675 .0274372
885.340 .0274389
886.005 .0274408
886.670 .0274429
887.334 .0274453
887.998 .0274480
888.662 .0274510
889.325 .0274543
889.988 .0274579
890.650 .0274617
891.312 .0274658
891.974 .0274700
892.636 .0274744
893.297 .0274789
893.957 .0274836
894.618 .0274883
895.278 .0274931
895.937 .0274981
896.596 .0275030
897.255 .0275078
897.914 .0275125
898.572 .0275168
899.230 .0275207
899.887 .0275240
900.544 .0275267
901.201 .0275287
901.857 .0275286
902.513 .0275285
903.168 .0275277
903.823 .0275261
904.478 .0275236
905.132 .0275201
905.786 .0275157
906.440 .0275103
907.093 .0275039
907.746 .0274965
908.399 .0274881
909.051 .0274789
909.703 .0274689
910.354 .0274615
911.005 .0274507
911.656 .0274392
912.306 .0274272
912.956 .0274145
913.605 .0274012
914.254 .0273874
914.903 .0273730
915.551 .0273582
916.199 .0273430
916.847 .0273275
917.494 .0273117
918.141 .0272956
918.788 .0272793
919.434 .0272628
920.079 .0272459
920.725 .0272287
921.370 .0272111
922.014 .0271930
922.658 .0271745
923.302 .0271555
923.946 .0271361
924.589 .0271164
925.231 .0270962
925.873 .0270756
926.515 .0270546
927.157 .0270331
927.798 .0270113
928.439 .0269890
929.079 .0269663
929.719 .0269433
930.359 .0269201
930.998 .0268967
931.637 .0268733
932.275 .0268500
932.913 .0268266
933.551 .0268035
934.188 .0267805
934.825 .0267577
935.462 .0267352
936.098 .0267129
936.733 .0266910
937.369 .0266695
938.004 .0266484
938.638 .0266278
939.273 .0266077
939.907 .0265882
940.540 .0265693
941.173 .0265509
941.806 .0265332
942.438 .0265160
943.070 .0264993
943.702 .0264831
944.333 .0264674
944.964 .0264521
945.594 .0264370
946.224 .0264222
946.854 .0264075
947.483 .0263929
948.112 .0263781
948.741 .0263632
949.369 .0263481
949.996 .0263327
950.624 .0263169
951.251 .0263008
951.878 .0262843
952.504 .0262672
953.130 .0262497
953.755 .0262318
954.380 .0262133
955.005 .0261944
955.629 .0261750
956.253 .0261553
956.877 .0261352
957.500 .0261150
958.123 .0260947
958.746 .0260743
959.368 .0260540
959.990 .0260339
960.611 .0260139
961.232 .0259942
961.853 .0259748
962.473 .0259555
963.093 .0259366
963.712 .0259179
964.331 .0258994
964.950 .0258814
965.569 .0258637
966.187 .0258464
966.804 .0258295
967.422 .0258130
968.039 .0257969
968.655 .0257810
969.272 .0257654
969.887 .0257501
970.503 .0257348
971.118 .0257198
971.733 .0257050
972.347 .0256904
972.961 .0256760
973.575 .0256618
974.188 .0256478
974.801 .0256339
975.414 .0256199
976.026 .0256058
976.638 .0255915
977.250 .0255769
977.861 .0255620
978.472 .0255467
979.083 .0255312
979.693 .0255154
980.303 .0254995
980.912 .0254749
981.521 .0254587
982.130 .0254425
982.738 .0254262
983.346 .0254100
983.954 .0253939
984.562 .0253782
985.169 .0253628
985.775 .0253481
986.382 .0253341
986.988 .0253209
987.594 .0253087
988.199 .0252974
988.804 .0252871
989.409 .0252847
990.013 .0252760
990.617 .0252681
991.221 .0252611
991.824 .0252548
992.427 .0252493
993.030 .0252446
993.632 .0252405
994.234 .0252372
994.836 .0252345
995.438 .0252325
996.039 .0252311
996.640 .0252304
997.240 .0252303
997.840 .0252309
998.440 .0252320
999.040 .0252337
999.639 .0252359
1000.238 .0252387
1000.836 .0252419
1001.435 .0252457
1002.033 .0252499
1002.630 .0252545
1003.228 .0252594
1003.825 .0252646
1004.422 .0252699
1005.018 .0252753
1005.614 .0252806
1006.210 .0252859
1006.806 .0252911
1007.401 .0252961
1007.996 .0253011
1008.591 .0253060
1009.186 .0253109
1009.780 .0253158
1010.374 .0253208
1010.967 .0253259
1011.561 .0253311
1012.154 .0253365
1012.746 .0253419
1013.339 .0253476
1013.931 .0253536
1014.523 .0253599
1015.115 .0253667
1015.706 .0253740
1016.298 .0253819
1016.888 .0253904
1017.479 .0253996
1018.069 .0254095
1018.660 .0254199
1019.250 .0254310
1019.839 .0254426
1020.429 .0254547
1021.018 .0254675
1021.607 .0254808
1022.195 .0254947
1022.784 .0255092
1023.372 .0255244
1023.960 .0255402
1024.547 .0255566
1025.135 .0255735
1025.722 .0255909
1026.309 .0256087
1026.896 .0256268
1027.483 .0256452
1028.069 .0256639
1028.655 .0256829
1029.241 .0257023
1029.827 .0257221
1030.412 .0257423
1030.997 .0257628
1031.582 .0257837
1032.167 .0258048
1032.752 .0258261
1033.336 .0258474
1033.921 .0258684
1034.505 .0258892
1035.089 .0259096
1035.672 .0259294
1036.256 .0259487
1036.839 .0259673
1037.422 .0259853
1038.005 .0260025
1038.588 .0260191
1039.171 .0260349
1039.753 .0260499
1040.335 .0260642
1040.918 .0260778
1041.500 .0260906
1042.081 .0261028
1042.663 .0261144
1043.244 .0261257
1043.826 .0261366
1044.407 .0261473
1044.988 .0261579
1045.569 .0261683
1046.150 .0261787
1046.730 .0261889
1047.311 .0261988
1047.891 .0262084
1048.471 .0262175
1049.052 .0262263
1049.632 .0262346
1050.211 .0262425
1050.791 .0262499
1051.371 .0262570
1051.950 .0262637
1052.530 .0262701
1053.109 .0262762
1053.688 .0262822
1054.268 .0262880
1054.847 .0262938
1055.426 .0262995
1056.005 .0263054
1056.583 .0263115
1057.162 .0263177
1057.741 .0263242
1058.319 .0263308
1058.898 .0263374
1059.476 .0263441
1060.055 .0263508
1060.633 .0263573
1061.211 .0263636
1061.790 .0263697
1062.368 .0263755
1062.946 .0263811
1063.524 .0263864
1064.102 .0263915
1064.680 .0263964
1065.258 .0264011
1065.836 .0264057
1066.414 .0264102
1066.992 .0264147
1067.570 .0264194
1068.148 .0264241
1068.726 .0264290
1069.304 .0264340
1069.882 .0264392
1070.460 .0264444
1071.038 .0264497
1071.616 .0264550
1072.194 .0264604
1072.772 .0264656
1073.350 .0264707
1073.928 .0264757
1074.506 .0264806
1075.084 .0264854
1075.662 .0264900
1076.240 .0264946
1076.819 .0264989
1077.397 .0265031
1077.976 .0265071
1078.554 .0265111
1079.133 .0265151
1079.711 .0265193
1080.290 .0265235
1080.869 .0265278
1081.448 .0265322
1082.027 .0265366
1082.606 .0265410
1083.185 .0265452
1083.764 .0265492
1084.343 .0265528
1084.923 .0265562
1085.502 .0265594
1086.082 .0265623
1086.662 .0265652
1087.242 .0265680
1087.822 .0265707
1088.402 .0265734
1088.983 .0265761
1089.563 .0265789
1090.144 .0265818
1090.725 .0265850
1091.306 .0265884
1091.887 .0265921
1092.469 .0265963
1093.050 .0266010
1093.632 .0266062
1094.214 .0266122
1094.796 .0266187
1095.379 .0266259
1095.961 .0266336
1096.544 .0266417
1097.127 .0266500
1097.710 .0266585
1098.294 .0266670
1098.877 .0266752
1099.461 .0266832
1100.046 .0266908
1100.630 .0266981
1101.215 .0267050
1101.800 .0267117
1102.385 .0267179
1102.970 .0267238
1103.556 .0267292
1104.142 .0267342
1104.728 .0267386
1105.315 .0267424
1105.902 .0267457
1106.489 .0267485
1107.077 .0267508
1107.664 .0267530
1108.253 .0267552
1108.841 .0267577
1109.430 .0267607
1110.019 .0267643
1110.609 .0267688
1111.198 .0267745
1111.789 .0267814
1112.379 .0267899
1112.970 .0267999
1113.561 .0268114
1114.153 .0268245
1114.745 .0268394
1115.338 .0268559
1115.931 .0268745
1116.524 .0268951
1117.117 .0269182
1117.712 .0269441
1118.306 .0269729
1118.901 .0270050
1119.496 .0270405
1120.092 .0270793
1120.689 .0271212
1121.285 .0271660
1121.882 .0272136
1122.480 .0272639
1123.078 .0273170
1123.677 .0273730
1124.276 .0274320
1124.875 .0274942
1125.476 .0275596
1126.076 .0276282
1126.677 .0277000
1127.279 .0277747
1127.881 .0278521
1128.484 .0279317
1129.087 .0279671
1129.691 .0280494
1130.295 .0281337
1130.900 .0282201
1131.505 .0283086
1132.111 .0283996
1132.718 .0284933
1133.325 .0285899
1133.933 .0286895
1134.541 .0287905
1135.150 .0288954
1135.760 .0290004
1136.370 .0291198
1136.981 .0291910
1137.592 .0293080
1138.204 .0294292
1138.817 .0295509
1139.431 .0296753
1140.045 .0298049
1140.660 .0299358
1141.275 .0300811
1141.891 .0302184
1142.508 .0303251
1143.126 .0305024
1143.744 .0305826
1144.363 .0310717
1144.983 .0307689
