Measurement Sequence started on: 15-12-46-377
Integration time: 28
Scans to Average: 2 
>>>>>Begin Spectral Data<<<<<
432.689 .0000100
433.621 .0000100
434.552 .0000100
435.482 .0000100
436.410 .0000100
437.337 .0000100
438.262 .0280395
439.187 .0593706
440.110 .0984413
441.031 .1424839
441.952 .1142537
442.871 .1193333
443.789 .1240685
444.705 .1285317
445.621 .1327725
446.535 .1368285
447.447 .1392504
448.359 .1398857
449.269 .1383452
450.178 .1343808
451.086 .1280713
451.993 .1199054
452.898 .1106916
453.803 .1013493
454.706 .0926597
455.608 .0851082
456.508 .0788576
457.408 .0746285
458.306 .0713755
459.204 .0687261
460.100 .0664879
460.995 .0645553
461.888 .0628584
462.781 .0613507
463.673 .0599973
464.563 .0587743
465.452 .0576628
466.340 .0566473
467.228 .0557161
468.114 .0548609
468.999 .0540741
469.882 .0533494
470.765 .0526807
471.647 .0520640
472.528 .0514963
473.407 .0509740
474.286 .0504947
475.163 .0500570
476.040 .0496586
476.915 .0492980
477.790 .0489726
478.663 .0486807
479.535 .0484207
480.407 .0481912
481.277 .0479913
482.147 .0478200
483.015 .0476765
483.883 .0475606
484.749 .0474715
485.615 .0474089
486.479 .0473717
487.343 .0473593
488.206 .0473710
489.067 .0474054
489.928 .0474622
490.788 .0475413
491.647 .0476427
492.505 .0477671
493.362 .0479154
494.218 .0480886
495.073 .0482875
495.928 .0486749
496.781 .0489379
497.634 .0492252
498.486 .0495353
499.337 .0498675
500.187 .0502214
501.036 .0505975
501.884 .0509978
502.731 .0514262
503.578 .0518873
504.424 .0521856
505.268 .0527118
506.113 .0532842
506.956 .0539070
507.798 .0545859
508.640 .0553269
509.480 .0561373
510.320 .0570267
511.160 .0580061
511.998 .0590895
512.836 .0602952
513.672 .0616444
514.508 .0631598
515.344 .0648652
516.178 .0667865
517.012 .0689499
517.845 .0713796
518.677 .0740996
519.508 .0771291
520.339 .0804810
521.169 .0841616
521.998 .0881504
522.826 .0924130
523.654 .0968964
524.481 .1015300
525.307 .1062298
526.133 .1109000
526.958 .1154418
527.782 .1197589
528.605 .1237649
529.428 .1273839
530.250 .1305479
531.072 .1332112
531.892 .1353341
532.712 .1368892
533.532 .1378586
534.350 .1382301
535.168 .1380028
535.986 .1371790
536.802 .1357641
537.618 .1337670
538.434 .1312010
539.249 .1281068
540.063 .1245353
540.876 .1205521
541.689 .1162381
542.501 .1116832
543.313 .1069852
544.124 .1022419
544.934 .0975450
545.744 .0929747
546.553 .0885984
547.361 .0844713
548.169 .0806239
548.976 .0770795
549.783 .0738468
550.589 .0709217
551.395 .0682921
552.200 .0659358
553.004 .0638248
553.808 .0619315
554.611 .0602297
555.414 .0586936
556.216 .0572982
557.018 .0560214
557.819 .0548458
558.619 .0537567
559.419 .0527426
560.218 .0517948
561.017 .0509063
561.815 .0500707
562.613 .0492828
563.410 .0485356
564.207 .0478232
565.003 .0471396
565.799 .0464791
566.594 .0458370
567.388 .0452110
568.182 .0445992
568.976 .0440006
569.769 .0434158
570.562 .0428464
571.354 .0422932
572.145 .0417576
572.936 .0412406
573.727 .0407426
574.517 .0402634
575.307 .0398034
576.096 .0393618
576.885 .0389393
577.673 .0385359
578.461 .0381519
579.248 .0377874
580.035 .0374432
580.821 .0371189
581.607 .0368148
582.392 .0365306
583.177 .0362661
583.962 .0360202
584.746 .0357926
585.529 .0355824
586.313 .0353887
587.095 .0352104
587.878 .0350468
588.660 .0348968
589.441 .0347598
590.222 .0346347
591.003 .0345210
591.783 .0344177
592.563 .0343241
593.342 .0342391
594.121 .0341618
594.899 .0340911
595.678 .0340262
596.455 .0339659
597.233 .0339093
598.009 .0338555
598.786 .0338038
599.562 .0337534
600.338 .0337038
601.113 .0336546
601.888 .0335800
602.663 .0335309
603.437 .0334820
604.211 .0334331
604.984 .0333843
605.757 .0333357
606.530 .0332875
607.302 .0332397
608.074 .0331926
608.845 .0331462
609.616 .0331005
610.387 .0330805
611.158 .0330363
611.928 .0329930
612.697 .0329507
613.467 .0329095
614.236 .0328694
615.004 .0328303
615.773 .0327923
616.541 .0327553
617.308 .0327191
618.076 .0326838
618.843 .0326492
619.609 .0326152
620.375 .0325818
621.141 .0325487
621.907 .0325158
622.672 .0324830
623.437 .0324502
624.202 .0324173
624.966 .0323842
625.730 .0323508
626.493 .0323171
627.257 .0322830
628.020 .0322486
628.782 .0322138
629.545 .0321786
630.307 .0321432
631.068 .0321075
631.830 .0320715
632.591 .0320353
633.352 .0319991
634.112 .0319628
634.872 .0319267
635.632 .0318909
636.392 .0318553
637.151 .0318203
637.910 .0317859
638.668 .0317523
639.427 .0317197
640.185 .0316880
640.943 .0316576
641.700 .0316285
642.457 .0316007
643.214 .0315745
643.971 .0315498
644.727 .0315267
645.483 .0315053
646.239 .0314853
646.994 .0314668
647.750 .0314497
648.505 .0314338
649.259 .0314190
650.014 .0314051
650.768 .0313920
651.521 .0313795
652.275 .0313674
653.028 .0313557
653.781 .0313441
654.534 .0313326
655.286 .0313210
656.039 .0313091
656.791 .0312967
657.542 .0312838
658.294 .0312701
659.045 .0312556
659.796 .0312402
660.546 .0312239
661.297 .0312067
662.047 .0311887
662.796 .0311698
663.546 .0311502
664.295 .0311300
665.044 .0311092
665.793 .0310880
666.542 .0310665
667.290 .0310448
668.038 .0310229
668.786 .0310010
669.533 .0309793
670.281 .0309576
671.028 .0309362
671.774 .0309150
672.521 .0308939
673.267 .0308731
674.013 .0308525
674.759 .0308320
675.505 .0308116
676.250 .0307913
676.995 .0307710
677.740 .0307508
678.484 .0307306
679.229 .0307103
679.973 .0306899
680.717 .0306692
681.460 .0306482
682.204 .0306267
682.947 .0306047
683.690 .0305820
684.433 .0305586
685.175 .0305345
685.917 .0305098
686.659 .0304845
687.401 .0304586
688.142 .0304322
688.884 .0304053
689.625 .0303779
690.365 .0303501
691.106 .0303218
691.846 .0302930
692.586 .0302638
693.326 .0302343
694.066 .0302045
694.805 .0301744
695.545 .0301443
696.284 .0301142
697.022 .0300842
697.761 .0300543
698.499 .0300248
699.237 .0299955
699.975 .0299667
700.713 .0299383
701.450 .0299102
702.187 .0298825
702.924 .0298550
703.661 .0298278
704.397 .0298008
705.133 .0297740
705.869 .0297474
706.605 .0297211
707.341 .0296950
708.076 .0296693
708.811 .0296438
709.546 .0296187
710.281 .0295939
711.015 .0295693
711.749 .0295448
712.483 .0295206
713.217 .0294965
713.950 .0294726
714.684 .0294488
715.417 .0294253
716.150 .0294021
716.882 .0293792
717.615 .0293567
718.347 .0293346
719.079 .0293130
719.811 .0292920
720.542 .0292715
721.273 .0292517
722.005 .0292325
722.735 .0292141
723.466 .0291966
724.196 .0291798
724.927 .0291639
725.656 .0291488
726.386 .0291347
727.116 .0291215
727.845 .0291092
728.574 .0290979
729.303 .0290875
730.031 .0290782
730.760 .0290697
731.488 .0290621
732.216 .0290554
732.944 .0290494
733.671 .0290441
734.398 .0290394
735.125 .0290352
735.852 .0290315
736.579 .0290282
737.305 .0290254
738.031 .0290229
738.757 .0290208
739.483 .0290189
740.208 .0290171
740.933 .0290155
741.658 .0290140
742.383 .0290123
743.108 .0290106
743.832 .0290088
744.556 .0290066
745.280 .0290042
746.004 .0290014
746.727 .0289981
747.450 .0289944
748.173 .0289902
748.896 .0289854
749.618 .0289802
750.340 .0289744
751.062 .0289681
751.784 .0289613
752.506 .0289539
753.227 .0289461
753.948 .0289377
754.669 .0289287
755.389 .0289192
756.110 .0289091
756.830 .0288984
757.550 .0288873
758.269 .0288756
758.989 .0288636
759.708 .0288511
760.427 .0288381
761.146 .0288248
761.864 .0288111
762.582 .0287969
763.300 .0287823
764.018 .0287673
764.736 .0287519
765.453 .0287362
766.170 .0287201
766.887 .0287037
767.603 .0286871
768.320 .0286703
769.036 .0286534
769.751 .0286364
770.467 .0286194
771.182 .0286022
771.897 .0285849
772.612 .0285675
773.327 .0285500
774.041 .0285323
774.755 .0285145
775.469 .0284966
776.183 .0284787
776.896 .0284609
777.609 .0284432
778.322 .0284256
779.035 .0284083
779.747 .0283911
780.459 .0283742
781.171 .0283573
781.882 .0283406
782.594 .0283240
783.305 .0283075
784.016 .0282910
784.726 .0282746
785.436 .0282582
786.147 .0282340
786.856 .0282177
787.566 .0282012
788.275 .0281846
788.984 .0281679
789.693 .0281510
790.401 .0281338
791.110 .0281162
791.818 .0280983
792.525 .0280800
793.233 .0280612
793.940 .0280420
794.647 .0280308
795.353 .0280108
796.060 .0279905
796.766 .0279697
797.472 .0279485
798.177 .0279269
798.883 .0279050
799.588 .0278828
800.292 .0278602
800.997 .0278372
801.701 .0278140
802.405 .0277904
803.109 .0277665
803.812 .0277423
804.515 .0277179
805.218 .0276932
805.921 .0276684
806.623 .0276436
807.325 .0276186
808.027 .0275938
808.728 .0275690
809.429 .0275444
810.130 .0275201
810.831 .0274960
811.531 .0274722
812.231 .0274489
812.931 .0274260
813.630 .0274036
814.330 .0273818
815.029 .0273607
815.727 .0273404
816.426 .0273209
817.124 .0273025
817.821 .0272850
818.519 .0272687
819.216 .0272536
819.913 .0272397
820.609 .0272270
821.306 .0272156
822.002 .0272056
822.697 .0271969
823.393 .0271895
824.088 .0271835
824.783 .0271788
825.477 .0271754
826.171 .0271733
826.865 .0271722
827.559 .0271722
828.252 .0271732
828.945 .0271751
829.638 .0271778
830.330 .0271813
831.023 .0271854
831.714 .0271901
832.406 .0271953
833.097 .0272008
833.788 .0272065
834.479 .0272123
835.169 .0272181
835.859 .0272239
836.548 .0272296
837.238 .0272352
837.927 .0272406
838.615 .0272460
839.304 .0272511
839.992 .0272561
840.680 .0272607
841.367 .0272651
842.054 .0272691
842.741 .0272728
843.428 .0272761
844.114 .0272792
844.800 .0272819
845.485 .0272843
846.170 .0272864
846.855 .0272882
847.540 .0272896
848.224 .0272905
848.908 .0272910
849.592 .0272909
850.275 .0272902
850.958 .0272891
851.641 .0272874
852.323 .0272853
853.005 .0272827
853.687 .0272796
854.368 .0272761
855.049 .0272721
855.730 .0272676
856.410 .0272627
857.090 .0272574
857.769 .0272516
858.449 .0272456
859.128 .0272393
859.806 .0272328
860.485 .0272262
861.163 .0272195
861.840 .0272127
862.518 .0272059
863.195 .0271990
863.871 .0271920
864.548 .0271850
865.224 .0271780
865.899 .0271710
866.574 .0271641
867.249 .0271572
867.924 .0271505
868.598 .0271439
869.272 .0271373
869.946 .0271309
870.619 .0271245
871.292 .0271181
871.964 .0271118
872.636 .0271056
873.308 .0270995
873.979 .0270936
874.651 .0270878
875.321 .0270822
875.992 .0270767
876.662 .0270712
877.331 .0270656
878.001 .0270600
878.670 .0270541
879.338 .0270481
880.007 .0270419
880.675 .0270355
881.342 .0270289
882.009 .0270221
882.676 .0270152
883.343 .0270079
884.009 .0270004
884.675 .0269926
885.340 .0269846
886.005 .0269762
886.670 .0269676
887.334 .0269587
887.998 .0269496
888.662 .0269403
889.325 .0269307
889.988 .0269209
890.650 .0269109
891.312 .0269006
891.974 .0268901
892.636 .0268793
893.297 .0268683
893.957 .0268571
894.618 .0268457
895.278 .0268340
895.937 .0268221
896.596 .0268098
897.255 .0267971
897.914 .0267838
898.572 .0267699
899.230 .0267553
899.887 .0267400
900.544 .0267240
901.201 .0267071
901.857 .0266777
902.513 .0266584
903.168 .0266382
903.823 .0266171
904.478 .0265951
905.132 .0265721
905.786 .0265481
906.440 .0265230
907.093 .0264970
907.746 .0264701
908.399 .0264423
909.051 .0264136
909.703 .0263843
910.354 .0263679
911.005 .0263381
911.656 .0263078
912.306 .0262770
912.956 .0262459
913.605 .0262145
914.254 .0261829
914.903 .0261512
915.551 .0261193
916.199 .0260876
916.847 .0260559
917.494 .0260243
918.141 .0259930
918.788 .0259619
919.434 .0259310
920.079 .0259004
920.725 .0258700
921.370 .0258399
922.014 .0258099
922.658 .0257802
923.302 .0257507
923.946 .0257213
924.589 .0256922
925.231 .0256632
925.873 .0256344
926.515 .0256056
927.157 .0255768
927.798 .0255481
928.439 .0255193
929.079 .0254906
929.719 .0254618
930.359 .0254330
930.998 .0254043
931.637 .0253757
932.275 .0253472
932.913 .0253191
933.551 .0252913
934.188 .0252640
934.825 .0252373
935.462 .0252112
936.098 .0251860
936.733 .0251616
937.369 .0251382
938.004 .0251157
938.638 .0250942
939.273 .0250739
939.907 .0250546
940.540 .0250366
941.173 .0250197
941.806 .0250040
942.438 .0249895
943.070 .0249762
943.702 .0249640
944.333 .0249528
944.964 .0249425
945.594 .0249331
946.224 .0249245
946.854 .0249166
947.483 .0249093
948.112 .0249027
948.741 .0248968
949.369 .0248915
949.996 .0248868
950.624 .0248827
951.251 .0248790
951.878 .0248757
952.504 .0248726
953.130 .0248698
953.755 .0248671
954.380 .0248646
955.005 .0248622
955.629 .0248600
956.253 .0248579
956.877 .0248560
957.500 .0248541
958.123 .0248524
958.746 .0248508
959.368 .0248492
959.990 .0248479
960.611 .0248467
961.232 .0248459
961.853 .0248454
962.473 .0248455
963.093 .0248460
963.712 .0248472
964.331 .0248489
964.950 .0248512
965.569 .0248540
966.187 .0248573
966.804 .0248611
967.422 .0248654
968.039 .0248700
968.655 .0248749
969.272 .0248801
969.887 .0248856
970.503 .0248913
971.118 .0248971
971.733 .0249030
972.347 .0249088
972.961 .0249146
973.575 .0249203
974.188 .0249259
974.801 .0249313
975.414 .0249366
976.026 .0249418
976.638 .0249469
977.250 .0249519
977.861 .0249568
978.472 .0249615
979.083 .0249661
979.693 .0249704
980.303 .0249746
980.912 .0249799
981.521 .0249836
982.130 .0249871
982.738 .0249906
983.346 .0249941
983.954 .0249977
984.562 .0250014
985.169 .0250053
985.775 .0250094
986.382 .0250138
986.988 .0250185
987.594 .0250235
988.199 .0250290
988.804 .0250349
989.409 .0250394
990.013 .0250462
990.617 .0250537
991.221 .0250617
991.824 .0250703
992.427 .0250794
993.030 .0250889
993.632 .0250986
994.234 .0251086
994.836 .0251188
995.438 .0251291
996.039 .0251396
996.640 .0251503
997.240 .0251614
997.840 .0251727
998.440 .0251843
999.040 .0251961
999.639 .0252082
1000.238 .0252203
1000.836 .0252323
1001.435 .0252443
1002.033 .0252562
1002.630 .0252679
1003.228 .0252795
1003.825 .0252910
1004.422 .0253024
1005.018 .0253136
1005.614 .0253246
1006.210 .0253352
1006.806 .0253454
1007.401 .0253552
1007.996 .0253643
1008.591 .0253729
1009.186 .0253810
1009.780 .0253887
1010.374 .0253961
1010.967 .0254034
1011.561 .0254105
1012.154 .0254176
1012.746 .0254247
1013.339 .0254318
1013.931 .0254388
1014.523 .0254458
1015.115 .0254528
1015.706 .0254597
1016.298 .0254667
1016.888 .0254737
1017.479 .0254808
1018.069 .0254881
1018.660 .0254957
1019.250 .0255034
1019.839 .0255113
1020.429 .0255193
1021.018 .0255273
1021.607 .0255353
1022.195 .0255432
1022.784 .0255510
1023.372 .0255588
1023.960 .0255665
1024.547 .0255743
1025.135 .0255821
1025.722 .0255899
1026.309 .0255977
1026.896 .0256054
1027.483 .0256128
1028.069 .0256198
1028.655 .0256262
1029.241 .0256321
1029.827 .0256374
1030.412 .0256419
1030.997 .0256459
1031.582 .0256492
1032.167 .0256519
1032.752 .0256541
1033.336 .0256556
1033.921 .0256566
1034.505 .0256570
1035.089 .0256566
1035.672 .0256556
1036.256 .0256538
1036.839 .0256515
1037.422 .0256484
1038.005 .0256449
1038.588 .0256408
1039.171 .0256363
1039.753 .0256314
1040.335 .0256259
1040.918 .0256200
1041.500 .0256134
1042.081 .0256061
1042.663 .0255982
1043.244 .0255896
1043.826 .0255803
1044.407 .0255705
1044.988 .0255603
1045.569 .0255497
1046.150 .0255388
1046.730 .0255277
1047.311 .0255164
1047.891 .0255049
1048.471 .0254932
1049.052 .0254812
1049.632 .0254691
1050.211 .0254568
1050.791 .0254444
1051.371 .0254321
1051.950 .0254197
1052.530 .0254075
1053.109 .0253954
1053.688 .0253832
1054.268 .0253711
1054.847 .0253588
1055.426 .0253463
1056.005 .0253336
1056.583 .0253208
1057.162 .0253078
1057.741 .0252948
1058.319 .0252817
1058.898 .0252687
1059.476 .0252557
1060.055 .0252429
1060.633 .0252302
1061.211 .0252175
1061.790 .0252050
1062.368 .0251926
1062.946 .0251803
1063.524 .0251682
1064.102 .0251563
1064.680 .0251445
1065.258 .0251329
1065.836 .0251214
1066.414 .0251099
1066.992 .0250983
1067.570 .0250866
1068.148 .0250746
1068.726 .0250624
1069.304 .0250499
1069.882 .0250372
1070.460 .0250244
1071.038 .0250115
1071.616 .0249985
1072.194 .0249855
1072.772 .0249723
1073.350 .0249591
1073.928 .0249458
1074.506 .0249325
1075.084 .0249191
1075.662 .0249059
1076.240 .0248929
1076.819 .0248802
1077.397 .0248679
1077.976 .0248560
1078.554 .0248444
1079.133 .0248331
1079.711 .0248220
1080.290 .0248110
1080.869 .0248001
1081.448 .0247894
1082.027 .0247787
1082.606 .0247682
1083.185 .0247580
1083.764 .0247481
1084.343 .0247385
1084.923 .0247292
1085.502 .0247203
1086.082 .0247117
1086.662 .0247034
1087.242 .0246954
1087.822 .0246878
1088.402 .0246806
1088.983 .0246740
1089.563 .0246679
1090.144 .0246625
1090.725 .0246577
1091.306 .0246538
1091.887 .0246507
1092.469 .0246483
1093.050 .0246466
1093.632 .0246455
1094.214 .0246451
1094.796 .0246454
1095.379 .0246463
1095.961 .0246478
1096.544 .0246500
1097.127 .0246530
1097.710 .0246567
1098.294 .0246611
1098.877 .0246663
1099.461 .0246724
1100.046 .0246792
1100.630 .0246869
1101.215 .0246953
1101.800 .0247046
1102.385 .0247147
1102.970 .0247256
1103.556 .0247375
1104.142 .0247502
1104.728 .0247640
1105.315 .0247788
1105.902 .0247946
1106.489 .0248117
1107.077 .0248299
1107.664 .0248494
1108.253 .0248702
1108.841 .0248925
1109.430 .0249161
1110.019 .0249411
1110.609 .0249676
1111.198 .0249955
1111.789 .0250247
1112.379 .0250553
1112.970 .0250872
1113.561 .0251203
1114.153 .0251545
1114.745 .0251899
1115.338 .0252266
1115.931 .0252645
1116.524 .0253036
1117.117 .0253438
1117.712 .0253851
1118.306 .0254275
1118.901 .0254709
1119.496 .0255152
1120.092 .0255606
1120.689 .0256069
1121.285 .0256539
1121.882 .0257017
1122.480 .0257503
1123.078 .0257996
1123.677 .0258496
1124.276 .0259004
1124.875 .0259519
1125.476 .0260043
1126.076 .0260575
1126.677 .0261117
1127.279 .0261669
1127.881 .0262231
1128.484 .0262804
1129.087 .0263064
1129.691 .0263652
1130.295 .0264256
1130.900 .0264880
1131.505 .0265525
1132.111 .0266194
1132.718 .0266887
1133.325 .0267611
1133.933 .0268369
1134.541 .0269158
1135.150 .0269980
1135.760 .0270766
1136.370 .0271803
1136.981 .0271601
1137.592 .0272513
1138.204 .0273469
1138.817 .0274490
1139.431 .0275566
1140.045 .0276713
1140.660 .0277875
1141.275 .0279290
1141.891 .0280737
1142.508 .0282078
1143.126 .0283564
1143.744 .0283057
1144.363 .0290591
1144.983 .0289547
