Measurement Sequence started on: 15-12-46-377
Integration time: 28
Scans to Average: 2 
>>>>>Begin Spectral Data<<<<<
432.689 .0000100
433.621 .0000100
434.552 .0000100
435.482 .0000100
436.410 .0000100
437.337 .0000100
438.262 .0261665
439.187 .0552424
440.110 .0914183
441.031 .1322003
441.952 .1061690
442.871 .1109478
443.789 .1154087
444.705 .1196179
445.621 .1236206
446.535 .1274531
447.447 .1297627
448.359 .1304152
449.269 .1290536
450.178 .1254473
451.086 .1196689
451.993 .1121707
452.898 .1036996
453.803 .0951036
454.706 .0871023
455.608 .0801413
456.508 .0743696
457.408 .0704611
458.306 .0674406
459.204 .0649684
460.100 .0628736
460.995 .0610629
461.888 .0594719
462.781 .0580581
463.673 .0567876
464.563 .0556382
465.452 .0545928
466.340 .0536378
467.228 .0527635
468.114 .0519635
468.999 .0512320
469.882 .0505652
470.765 .0499593
471.647 .0494114
472.528 .0489185
473.407 .0484771
474.286 .0480828
475.163 .0477317
476.040 .0474195
476.915 .0471430
477.790 .0468987
478.663 .0466853
479.535 .0465011
480.407 .0463443
481.277 .0462143
482.147 .0461091
483.015 .0460265
483.883 .0459648
484.749 .0459215
485.615 .0458945
486.479 .0458812
487.343 .0458802
488.206 .0458904
489.067 .0459110
489.928 .0459425
490.788 .0459854
491.647 .0460416
492.505 .0461127
493.362 .0461997
494.218 .0463044
495.073 .0464283
495.928 .0466850
496.781 .0468630
497.634 .0470631
498.486 .0472862
499.337 .0475342
500.187 .0478087
501.036 .0481121
501.884 .0484483
502.731 .0488214
503.578 .0492361
504.424 .0495351
505.268 .0500271
506.113 .0505719
506.956 .0511733
507.798 .0518350
508.640 .0525611
509.480 .0533576
510.320 .0542336
511.160 .0551975
511.998 .0562620
512.836 .0574433
513.672 .0587596
514.508 .0602314
515.344 .0618814
516.178 .0637308
517.012 .0658030
517.845 .0681200
518.677 .0706984
519.508 .0735528
520.339 .0766921
521.169 .0801183
521.998 .0838116
522.826 .0877448
523.654 .0918729
524.481 .0961361
525.307 .1004670
526.133 .1047807
526.958 .1089880
527.782 .1129985
528.605 .1167258
529.428 .1200917
530.250 .1230281
531.072 .1254888
531.892 .1274341
532.712 .1288414
533.532 .1297000
534.350 .1300036
535.168 .1297555
535.986 .1289634
536.802 .1276339
537.618 .1257738
538.434 .1233943
539.249 .1205277
540.063 .1172151
540.876 .1135129
541.689 .1094911
542.501 .1052268
543.313 .1008105
544.124 .0963345
544.934 .0918866
545.744 .0875497
546.553 .0833925
547.361 .0794714
548.169 .0758168
548.976 .0724517
549.783 .0693800
550.589 .0665943
551.395 .0640801
552.200 .0618146
553.004 .0597738
553.808 .0579346
554.611 .0562776
555.414 .0547844
556.216 .0534363
557.018 .0522147
557.819 .0511023
558.619 .0500836
559.419 .0491445
560.218 .0482743
561.017 .0474634
561.815 .0467057
562.613 .0459955
563.410 .0453285
564.207 .0446997
565.003 .0441051
565.799 .0435394
566.594 .0429973
567.388 .0424752
568.182 .0419691
568.976 .0414752
569.769 .0409922
570.562 .0405196
571.354 .0400584
572.145 .0396100
572.936 .0391762
573.727 .0387581
574.517 .0383570
575.307 .0379735
576.096 .0376072
576.885 .0372574
577.673 .0369238
578.461 .0366050
579.248 .0363009
580.035 .0360113
580.821 .0357362
581.607 .0354761
582.392 .0352314
583.177 .0350025
583.962 .0347888
584.746 .0345895
585.529 .0344039
586.313 .0342305
587.095 .0340686
587.878 .0339169
588.660 .0337745
589.441 .0336411
590.222 .0335161
591.003 .0333995
591.783 .0332909
592.563 .0331900
593.342 .0330965
594.121 .0330098
594.899 .0329293
595.678 .0328542
596.455 .0327838
597.233 .0327174
598.009 .0326545
598.786 .0325946
599.562 .0325374
600.338 .0324826
601.113 .0324299
601.888 .0323569
602.663 .0323084
603.437 .0322615
604.211 .0322159
604.984 .0321716
605.757 .0321283
606.530 .0320860
607.302 .0320446
608.074 .0320042
608.845 .0319648
609.616 .0319265
610.387 .0319103
611.158 .0318739
611.928 .0318388
612.697 .0318050
613.467 .0317726
614.236 .0317414
615.004 .0317115
615.773 .0316826
616.541 .0316547
617.308 .0316276
618.076 .0316013
618.843 .0315757
619.609 .0315508
620.375 .0315265
621.141 .0315028
621.907 .0314796
622.672 .0314568
623.437 .0314343
624.202 .0314119
624.966 .0313896
625.730 .0313672
626.493 .0313447
627.257 .0313220
628.020 .0312992
628.782 .0312761
629.545 .0312529
630.307 .0312294
631.068 .0312056
631.830 .0311815
632.591 .0311569
633.352 .0311320
634.112 .0311066
634.872 .0310808
635.632 .0310547
636.392 .0310283
637.151 .0310018
637.910 .0309750
638.668 .0309483
639.427 .0309216
640.185 .0308950
640.943 .0308686
641.700 .0308425
642.457 .0308167
643.214 .0307913
643.971 .0307664
644.727 .0307419
645.483 .0307178
646.239 .0306941
646.994 .0306708
647.750 .0306479
648.505 .0306254
649.259 .0306033
650.014 .0305817
650.768 .0305606
651.521 .0305400
652.275 .0305199
653.028 .0305002
653.781 .0304807
654.534 .0304615
655.286 .0304423
656.039 .0304232
656.791 .0304041
657.542 .0303849
658.294 .0303656
659.045 .0303462
659.796 .0303265
660.546 .0303066
661.297 .0302864
662.047 .0302657
662.796 .0302446
663.546 .0302231
664.295 .0302012
665.044 .0301789
665.793 .0301563
666.542 .0301336
667.290 .0301108
668.038 .0300882
668.786 .0300657
669.533 .0300435
670.281 .0300218
671.028 .0300005
671.774 .0299799
672.521 .0299598
673.267 .0299404
674.013 .0299215
674.759 .0299033
675.505 .0298856
676.250 .0298685
676.995 .0298520
677.740 .0298361
678.484 .0298209
679.229 .0298063
679.973 .0297923
680.717 .0297787
681.460 .0297654
682.204 .0297524
682.947 .0297395
683.690 .0297265
684.433 .0297133
685.175 .0297000
685.917 .0296864
686.659 .0296726
687.401 .0296585
688.142 .0296439
688.884 .0296290
689.625 .0296136
690.365 .0295976
691.106 .0295811
691.846 .0295641
692.586 .0295466
693.326 .0295287
694.066 .0295104
694.805 .0294918
695.545 .0294729
696.284 .0294539
697.022 .0294347
697.761 .0294156
698.499 .0293965
699.237 .0293776
699.975 .0293589
700.713 .0293405
701.450 .0293224
702.187 .0293046
702.924 .0292870
703.661 .0292696
704.397 .0292524
705.133 .0292353
705.869 .0292185
706.605 .0292019
707.341 .0291855
708.076 .0291694
708.811 .0291535
709.546 .0291378
710.281 .0291222
711.015 .0291065
711.749 .0290909
712.483 .0290751
713.217 .0290591
713.950 .0290430
714.684 .0290267
715.417 .0290103
716.150 .0289937
716.882 .0289769
717.615 .0289599
718.347 .0289426
719.079 .0289249
719.811 .0289070
720.542 .0288887
721.273 .0288701
722.005 .0288511
722.735 .0288319
723.466 .0288126
724.196 .0287930
724.927 .0287734
725.656 .0287537
726.386 .0287340
727.116 .0287143
727.845 .0286947
728.574 .0286753
729.303 .0286561
730.031 .0286371
730.760 .0286185
731.488 .0286002
732.216 .0285822
732.944 .0285647
733.671 .0285476
734.398 .0285309
735.125 .0285147
735.852 .0284989
736.579 .0284836
737.305 .0284687
738.031 .0284544
738.757 .0284405
739.483 .0284271
740.208 .0284142
740.933 .0284017
741.658 .0283897
742.383 .0283780
743.108 .0283666
743.832 .0283556
744.556 .0283448
745.280 .0283341
746.004 .0283236
746.727 .0283133
747.450 .0283030
748.173 .0282927
748.896 .0282824
749.618 .0282720
750.340 .0282615
751.062 .0282508
751.784 .0282399
752.506 .0282288
753.227 .0282174
753.948 .0282058
754.669 .0281938
755.389 .0281815
756.110 .0281689
756.830 .0281559
757.550 .0281426
758.269 .0281290
758.989 .0281150
759.708 .0281007
760.427 .0280861
761.146 .0280712
761.864 .0280560
762.582 .0280408
763.300 .0280254
764.018 .0280100
764.736 .0279946
765.453 .0279795
766.170 .0279646
766.887 .0279501
767.603 .0279360
768.320 .0279223
769.036 .0279091
769.751 .0278965
770.467 .0278845
771.182 .0278731
771.897 .0278625
772.612 .0278526
773.327 .0278435
774.041 .0278352
774.755 .0278277
775.469 .0278209
776.183 .0278148
776.896 .0278094
777.609 .0278045
778.322 .0278001
779.035 .0277960
779.747 .0277922
780.459 .0277886
781.171 .0277851
781.882 .0277818
782.594 .0277784
783.305 .0277751
784.016 .0277718
784.726 .0277684
785.436 .0277649
786.147 .0277588
786.856 .0277546
787.566 .0277501
788.275 .0277451
788.984 .0277398
789.693 .0277339
790.401 .0277276
791.110 .0277208
791.818 .0277136
792.525 .0277059
793.233 .0276978
793.940 .0276894
794.647 .0276840
795.353 .0276751
796.060 .0276658
796.766 .0276564
797.472 .0276467
798.177 .0276368
798.883 .0276266
799.588 .0276161
800.292 .0276053
800.997 .0275941
801.701 .0275826
802.405 .0275707
803.109 .0275586
803.812 .0275461
804.515 .0275334
805.218 .0275205
805.921 .0275072
806.623 .0274937
807.325 .0274799
808.027 .0274658
808.728 .0274514
809.429 .0274367
810.130 .0274218
810.831 .0274067
811.531 .0273914
812.231 .0273760
812.931 .0273605
813.630 .0273449
814.330 .0273293
815.029 .0273136
815.727 .0272979
816.426 .0272822
817.124 .0272667
817.821 .0272512
818.519 .0272360
819.216 .0272210
819.913 .0272063
820.609 .0271919
821.306 .0271779
822.002 .0271642
822.697 .0271510
823.393 .0271383
824.088 .0271261
824.783 .0271144
825.477 .0271034
826.171 .0270928
826.865 .0270827
827.559 .0270730
828.252 .0270637
828.945 .0270548
829.638 .0270461
830.330 .0270377
831.023 .0270296
831.714 .0270218
832.406 .0270141
833.097 .0270066
833.788 .0269992
834.479 .0269917
835.169 .0269843
835.859 .0269769
836.548 .0269694
837.238 .0269619
837.927 .0269543
838.615 .0269468
839.304 .0269392
839.992 .0269316
840.680 .0269237
841.367 .0269156
842.054 .0269073
842.741 .0268986
843.428 .0268895
844.114 .0268800
844.800 .0268702
845.485 .0268600
846.170 .0268494
846.855 .0268384
847.540 .0268270
848.224 .0268150
848.908 .0268024
849.592 .0267892
850.275 .0267754
850.958 .0267610
851.641 .0267460
852.323 .0267305
853.005 .0267145
853.687 .0266980
854.368 .0266810
855.049 .0266635
855.730 .0266456
856.410 .0266273
857.090 .0266087
857.769 .0265898
858.449 .0265707
859.128 .0265515
859.806 .0265324
860.485 .0265132
861.163 .0264941
861.840 .0264751
862.518 .0264563
863.195 .0264376
863.871 .0264191
864.548 .0264008
865.224 .0263828
865.899 .0263651
866.574 .0263478
867.249 .0263309
867.924 .0263143
868.598 .0262982
869.272 .0262825
869.946 .0262673
870.619 .0262525
871.292 .0262382
871.964 .0262245
872.636 .0262114
873.308 .0261989
873.979 .0261871
874.651 .0261760
875.321 .0261655
875.992 .0261558
876.662 .0261467
877.331 .0261384
878.001 .0261307
878.670 .0261237
879.338 .0261174
880.007 .0261117
880.675 .0261067
881.342 .0261024
882.009 .0260987
882.676 .0260957
883.343 .0260933
884.009 .0260915
884.675 .0260903
885.340 .0260897
886.005 .0260896
886.670 .0260900
887.334 .0260908
887.998 .0260920
888.662 .0260935
889.325 .0260954
889.988 .0260975
890.650 .0260998
891.312 .0261022
891.974 .0261046
892.636 .0261069
893.297 .0261092
893.957 .0261113
894.618 .0261133
895.278 .0261150
895.937 .0261165
896.596 .0261177
897.255 .0261185
897.914 .0261190
898.572 .0261191
899.230 .0261186
899.887 .0261176
900.544 .0261160
901.201 .0261137
901.857 .0261075
902.513 .0261035
903.168 .0260989
903.823 .0260937
904.478 .0260878
905.132 .0260813
905.786 .0260741
906.440 .0260662
907.093 .0260576
907.746 .0260484
908.399 .0260386
909.051 .0260283
909.703 .0260176
910.354 .0260113
911.005 .0260005
911.656 .0259894
912.306 .0259783
912.956 .0259672
913.605 .0259560
914.254 .0259448
914.903 .0259336
915.551 .0259225
916.199 .0259113
916.847 .0259002
917.494 .0258892
918.141 .0258782
918.788 .0258673
919.434 .0258564
920.079 .0258456
920.725 .0258348
921.370 .0258240
922.014 .0258132
922.658 .0258023
923.302 .0257912
923.946 .0257801
924.589 .0257687
925.231 .0257571
925.873 .0257454
926.515 .0257335
927.157 .0257214
927.798 .0257091
928.439 .0256967
929.079 .0256840
929.719 .0256712
930.359 .0256581
930.998 .0256449
931.637 .0256314
932.275 .0256180
932.913 .0256045
933.551 .0255911
934.188 .0255779
934.825 .0255649
935.462 .0255523
936.098 .0255399
936.733 .0255279
937.369 .0255162
938.004 .0255048
938.638 .0254938
939.273 .0254832
939.907 .0254731
940.540 .0254635
941.173 .0254545
941.806 .0254460
942.438 .0254382
943.070 .0254309
943.702 .0254240
944.333 .0254175
944.964 .0254113
945.594 .0254054
946.224 .0253997
946.854 .0253942
947.483 .0253888
948.112 .0253835
948.741 .0253784
949.369 .0253733
949.996 .0253682
950.624 .0253631
951.251 .0253578
951.878 .0253524
952.504 .0253469
953.130 .0253411
953.755 .0253352
954.380 .0253292
955.005 .0253230
955.629 .0253166
956.253 .0253101
956.877 .0253033
957.500 .0252963
958.123 .0252891
958.746 .0252815
959.368 .0252738
959.990 .0252659
960.611 .0252578
961.232 .0252495
961.853 .0252412
962.473 .0252327
963.093 .0252242
963.712 .0252155
964.331 .0252068
964.950 .0251979
965.569 .0251889
966.187 .0251798
966.804 .0251705
967.422 .0251611
968.039 .0251515
968.655 .0251418
969.272 .0251318
969.887 .0251216
970.503 .0251111
971.118 .0251005
971.733 .0250896
972.347 .0250785
972.961 .0250671
973.575 .0250554
974.188 .0250434
974.801 .0250310
975.414 .0250181
976.026 .0250047
976.638 .0249910
977.250 .0249767
977.861 .0249620
978.472 .0249469
979.083 .0249314
979.693 .0249155
980.303 .0248991
980.912 .0248726
981.521 .0248553
982.130 .0248377
982.738 .0248198
983.346 .0248018
983.954 .0247837
984.562 .0247658
985.169 .0247480
985.775 .0247305
986.382 .0247133
986.988 .0246965
987.594 .0246801
988.199 .0246640
988.804 .0246485
989.409 .0246427
990.013 .0246282
990.617 .0246142
991.221 .0246008
991.824 .0245881
992.427 .0245760
993.030 .0245645
993.632 .0245536
994.234 .0245430
994.836 .0245329
995.438 .0245231
996.039 .0245137
996.640 .0245047
997.240 .0244960
997.840 .0244879
998.440 .0244802
999.040 .0244731
999.639 .0244664
1000.238 .0244602
1000.836 .0244542
1001.435 .0244486
1002.033 .0244430
1002.630 .0244375
1003.228 .0244320
1003.825 .0244265
1004.422 .0244210
1005.018 .0244154
1005.614 .0244098
1006.210 .0244041
1006.806 .0243983
1007.401 .0243924
1007.996 .0243865
1008.591 .0243804
1009.186 .0243743
1009.780 .0243681
1010.374 .0243620
1010.967 .0243561
1011.561 .0243504
1012.154 .0243450
1012.746 .0243400
1013.339 .0243354
1013.931 .0243312
1014.523 .0243274
1015.115 .0243240
1015.706 .0243209
1016.298 .0243181
1016.888 .0243156
1017.479 .0243134
1018.069 .0243114
1018.660 .0243098
1019.250 .0243085
1019.839 .0243077
1020.429 .0243072
1021.018 .0243071
1021.607 .0243073
1022.195 .0243078
1022.784 .0243085
1023.372 .0243096
1023.960 .0243109
1024.547 .0243125
1025.135 .0243144
1025.722 .0243168
1026.309 .0243196
1026.896 .0243228
1027.483 .0243264
1028.069 .0243303
1028.655 .0243345
1029.241 .0243389
1029.827 .0243433
1030.412 .0243479
1030.997 .0243525
1031.582 .0243573
1032.167 .0243623
1032.752 .0243674
1033.336 .0243727
1033.921 .0243783
1034.505 .0243841
1035.089 .0243901
1035.672 .0243962
1036.256 .0244023
1036.839 .0244085
1037.422 .0244146
1038.005 .0244207
1038.588 .0244267
1039.171 .0244325
1039.753 .0244382
1040.335 .0244436
1040.918 .0244489
1041.500 .0244539
1042.081 .0244586
1042.663 .0244631
1043.244 .0244672
1043.826 .0244711
1044.407 .0244746
1044.988 .0244779
1045.569 .0244808
1046.150 .0244836
1046.730 .0244862
1047.311 .0244886
1047.891 .0244910
1048.471 .0244933
1049.052 .0244956
1049.632 .0244980
1050.211 .0245005
1050.791 .0245032
1051.371 .0245059
1051.950 .0245088
1052.530 .0245118
1053.109 .0245149
1053.688 .0245181
1054.268 .0245213
1054.847 .0245246
1055.426 .0245280
1056.005 .0245316
1056.583 .0245354
1057.162 .0245394
1057.741 .0245437
1058.319 .0245481
1058.898 .0245527
1059.476 .0245574
1060.055 .0245621
1060.633 .0245668
1061.211 .0245716
1061.790 .0245765
1062.368 .0245815
1062.946 .0245868
1063.524 .0245922
1064.102 .0245980
1064.680 .0246040
1065.258 .0246102
1065.836 .0246166
1066.414 .0246231
1066.992 .0246296
1067.570 .0246362
1068.148 .0246428
1068.726 .0246495
1069.304 .0246563
1069.882 .0246633
1070.460 .0246704
1071.038 .0246778
1071.616 .0246851
1072.194 .0246925
1072.772 .0246997
1073.350 .0247068
1073.928 .0247136
1074.506 .0247202
1075.084 .0247269
1075.662 .0247337
1076.240 .0247408
1076.819 .0247483
1077.397 .0247564
1077.976 .0247650
1078.554 .0247741
1079.133 .0247836
1079.711 .0247935
1080.290 .0248038
1080.869 .0248143
1081.448 .0248253
1082.027 .0248367
1082.606 .0248486
1083.185 .0248609
1083.764 .0248735
1084.343 .0248863
1084.923 .0248990
1085.502 .0249115
1086.082 .0249235
1086.662 .0249351
1087.242 .0249461
1087.822 .0249566
1088.402 .0249669
1088.983 .0249773
1089.563 .0249879
1090.144 .0249991
1090.725 .0250111
1091.306 .0250241
1091.887 .0250380
1092.469 .0250530
1093.050 .0250690
1093.632 .0250859
1094.214 .0251039
1094.796 .0251228
1095.379 .0251427
1095.961 .0251637
1096.544 .0251857
1097.127 .0252087
1097.710 .0252328
1098.294 .0252577
1098.877 .0252832
1099.461 .0253089
1100.046 .0253346
1100.630 .0253603
1101.215 .0253858
1101.800 .0254113
1102.385 .0254368
1102.970 .0254628
1103.556 .0254894
1104.142 .0255169
1104.728 .0255455
1105.315 .0255753
1105.902 .0256062
1106.489 .0256379
1107.077 .0256703
1107.664 .0257032
1108.253 .0257364
1108.841 .0257702
1109.430 .0258044
1110.019 .0258391
1110.609 .0258746
1111.198 .0259108
1111.789 .0259480
1112.379 .0259861
1112.970 .0260250
1113.561 .0260644
1114.153 .0261042
1114.745 .0261444
1115.338 .0261850
1115.931 .0262263
1116.524 .0262685
1117.117 .0263119
1117.712 .0263571
1118.306 .0264044
1118.901 .0264541
1119.496 .0265062
1120.092 .0265607
1120.689 .0266173
1121.285 .0266756
1121.882 .0267354
1122.480 .0267965
1123.078 .0268590
1123.677 .0269230
1124.276 .0269886
1124.875 .0270559
1125.476 .0271251
1126.076 .0271961
1126.677 .0272690
1127.279 .0273438
1127.881 .0274205
1128.484 .0274989
1129.087 .0275342
1129.691 .0276148
1130.295 .0276976
1130.900 .0277827
1131.505 .0278705
1132.111 .0279610
1132.718 .0280546
1133.325 .0281517
1133.933 .0282516
1134.541 .0283571
1135.150 .0284582
1135.760 .0285728
1136.370 .0286981
1136.981 .0287161
1137.592 .0288414
1138.204 .0289692
1138.817 .0290982
1139.431 .0292338
1140.045 .0293655
1140.660 .0295073
1141.275 .0296644
1141.891 .0298049
1142.508 .0300241
1143.126 .0299736
1143.744 .0304295
1144.363 .0308059
1144.983 .0301186
