Measurement Sequence started on: 15-12-46-377
Integration time: 28
Scans to Average: 2 
>>>>>Begin Spectral Data<<<<<
432.689 .0000100
433.621 .0000100
434.552 .0000100
435.482 .0000100
436.410 .0000100
437.337 .0000100
438.262 .0278439
439.187 .0590445
440.110 .0978774
441.031 .1416725
441.952 .1139288
442.871 .1189928
443.789 .1236963
444.705 .1281119
445.621 .1322916
446.535 .1362744
447.447 .1386234
448.359 .1391855
449.269 .1375789
450.178 .1335585
451.086 .1272000
451.993 .1189885
452.898 .1097283
453.803 .1003334
454.706 .0915809
455.608 .0839572
456.508 .0776289
457.408 .0733176
458.306 .0699929
459.204 .0672865
460.100 .0650116
460.995 .0630667
461.888 .0613813
462.781 .0599053
463.673 .0586013
464.563 .0574429
465.452 .0564072
466.340 .0554756
467.228 .0546334
468.114 .0538701
468.999 .0531751
469.882 .0525410
470.765 .0519605
471.647 .0514285
472.528 .0509408
473.407 .0504927
474.286 .0500806
475.163 .0497014
476.040 .0493520
476.915 .0490298
477.790 .0487328
478.663 .0484603
479.535 .0482116
480.407 .0479867
481.277 .0477853
482.147 .0476069
483.015 .0474513
483.883 .0473178
484.749 .0472052
485.615 .0471132
486.479 .0470411
487.343 .0469883
488.206 .0469555
489.067 .0469424
489.928 .0469505
490.788 .0469804
491.647 .0470335
492.505 .0471104
493.362 .0472116
494.218 .0473367
495.073 .0474852
495.928 .0477895
496.781 .0479942
497.634 .0482204
498.486 .0484685
499.337 .0487402
500.187 .0490369
501.036 .0493618
501.884 .0497171
502.731 .0501065
503.578 .0505330
504.424 .0508216
505.268 .0513147
506.113 .0518526
506.956 .0524383
507.798 .0530760
508.640 .0537712
509.480 .0545328
510.320 .0553720
511.160 .0563025
511.998 .0573406
512.836 .0585051
513.672 .0598145
514.508 .0612916
515.344 .0629591
516.178 .0648393
517.012 .0669518
517.845 .0693170
518.677 .0719544
519.508 .0748794
520.339 .0781043
521.169 .0816363
521.998 .0854629
522.826 .0895618
523.654 .0938873
524.481 .0983786
525.307 .1029629
526.133 .1075508
526.958 .1120422
527.782 .1163361
528.605 .1203387
529.428 .1239649
530.250 .1271444
531.072 .1298304
531.892 .1319836
532.712 .1335817
533.532 .1346133
534.350 .1350744
535.168 .1349697
535.986 .1343028
536.802 .1330789
537.618 .1313032
538.434 .1289847
539.249 .1261501
540.063 .1228370
540.876 .1191052
541.689 .1150269
542.501 .1106823
543.313 .1061649
544.124 .1015736
544.934 .0970041
545.744 .0925417
546.553 .0882597
547.361 .0842147
548.169 .0804391
548.976 .0769548
549.783 .0737655
550.589 .0708639
551.395 .0682359
552.200 .0658577
553.004 .0637055
553.808 .0617575
554.611 .0599923
555.414 .0583912
556.216 .0569363
557.018 .0556091
557.819 .0543918
558.619 .0532684
559.419 .0522269
560.218 .0512571
561.017 .0503500
561.815 .0494995
562.613 .0487004
563.410 .0479479
564.207 .0472363
565.003 .0465607
565.799 .0459156
566.594 .0452958
567.388 .0446973
568.182 .0441167
568.976 .0435516
569.769 .0430008
570.562 .0424637
571.354 .0419407
572.145 .0414326
572.936 .0409400
573.727 .0404631
574.517 .0400027
575.307 .0395592
576.096 .0391323
576.885 .0387220
577.673 .0383287
578.461 .0379521
579.248 .0375925
580.035 .0372499
580.821 .0369245
581.607 .0366168
582.392 .0363272
583.177 .0360556
583.962 .0358020
584.746 .0355663
585.529 .0353476
586.313 .0351448
587.095 .0349571
587.878 .0347831
588.660 .0346218
589.441 .0344723
590.222 .0343338
591.003 .0342056
591.783 .0340869
592.563 .0339772
593.342 .0338754
594.121 .0337808
594.899 .0336926
595.678 .0336101
596.455 .0335326
597.233 .0334597
598.009 .0333909
598.786 .0333258
599.562 .0332642
600.338 .0332057
601.113 .0331500
601.888 .0330738
602.663 .0330233
603.437 .0329746
604.211 .0329275
604.984 .0328820
605.757 .0328379
606.530 .0327952
607.302 .0327538
608.074 .0327137
608.845 .0326748
609.616 .0326371
610.387 .0326212
611.158 .0325852
611.928 .0325505
612.697 .0325168
613.467 .0324840
614.236 .0324523
615.004 .0324213
615.773 .0323910
616.541 .0323613
617.308 .0323321
618.076 .0323032
618.843 .0322747
619.609 .0322465
620.375 .0322184
621.141 .0321904
621.907 .0321624
622.672 .0321343
623.437 .0321059
624.202 .0320773
624.966 .0320483
625.730 .0320189
626.493 .0319892
627.257 .0319592
628.020 .0319289
628.782 .0318984
629.545 .0318678
630.307 .0318372
631.068 .0318065
631.830 .0317760
632.591 .0317456
633.352 .0317155
634.112 .0316858
634.872 .0316565
635.632 .0316278
636.392 .0315996
637.151 .0315719
637.910 .0315447
638.668 .0315181
639.427 .0314918
640.185 .0314659
640.943 .0314404
641.700 .0314154
642.457 .0313907
643.214 .0313664
643.971 .0313426
644.727 .0313191
645.483 .0312960
646.239 .0312730
646.994 .0312501
647.750 .0312271
648.505 .0312040
649.259 .0311805
650.014 .0311567
650.768 .0311326
651.521 .0311082
652.275 .0310836
653.028 .0310588
653.781 .0310339
654.534 .0310090
655.286 .0309841
656.039 .0309592
656.791 .0309342
657.542 .0309092
658.294 .0308842
659.045 .0308592
659.796 .0308342
660.546 .0308093
661.297 .0307846
662.047 .0307601
662.796 .0307358
663.546 .0307119
664.295 .0306883
665.044 .0306651
665.793 .0306423
666.542 .0306199
667.290 .0305979
668.038 .0305761
668.786 .0305546
669.533 .0305331
670.281 .0305119
671.028 .0304907
671.774 .0304698
672.521 .0304491
673.267 .0304288
674.013 .0304088
674.759 .0303894
675.505 .0303704
676.250 .0303517
676.995 .0303334
677.740 .0303152
678.484 .0302972
679.229 .0302794
679.973 .0302616
680.717 .0302439
681.460 .0302264
682.204 .0302092
682.947 .0301922
683.690 .0301756
684.433 .0301594
685.175 .0301434
685.917 .0301278
686.659 .0301125
687.401 .0300973
688.142 .0300824
688.884 .0300674
689.625 .0300524
690.365 .0300372
691.106 .0300218
691.846 .0300061
692.586 .0299902
693.326 .0299741
694.066 .0299578
694.805 .0299412
695.545 .0299245
696.284 .0299075
697.022 .0298902
697.761 .0298726
698.499 .0298546
699.237 .0298361
699.975 .0298171
700.713 .0297978
701.450 .0297780
702.187 .0297579
702.924 .0297375
703.661 .0297169
704.397 .0296961
705.133 .0296750
705.869 .0296538
706.605 .0296323
707.341 .0296106
708.076 .0295886
708.811 .0295663
709.546 .0295438
710.281 .0295209
711.015 .0294978
711.749 .0294745
712.483 .0294510
713.217 .0294272
713.950 .0294034
714.684 .0293795
715.417 .0293556
716.150 .0293317
716.882 .0293079
717.615 .0292841
718.347 .0292603
719.079 .0292367
719.811 .0292131
720.542 .0291896
721.273 .0291664
722.005 .0291433
722.735 .0291206
723.466 .0290983
724.196 .0290763
724.927 .0290549
725.656 .0290339
726.386 .0290135
727.116 .0289937
727.845 .0289745
728.574 .0289559
729.303 .0289378
730.031 .0289202
730.760 .0289032
731.488 .0288866
732.216 .0288704
732.944 .0288545
733.671 .0288391
734.398 .0288241
735.125 .0288094
735.852 .0287952
736.579 .0287813
737.305 .0287678
738.031 .0287546
738.757 .0287416
739.483 .0287288
740.208 .0287162
740.933 .0287037
741.658 .0286914
742.383 .0286791
743.108 .0286669
743.832 .0286547
744.556 .0286427
745.280 .0286307
746.004 .0286188
746.727 .0286069
747.450 .0285950
748.173 .0285831
748.896 .0285713
749.618 .0285595
750.340 .0285476
751.062 .0285358
751.784 .0285238
752.506 .0285118
753.227 .0284996
753.948 .0284873
754.669 .0284748
755.389 .0284621
756.110 .0284492
756.830 .0284361
757.550 .0284229
758.269 .0284096
758.989 .0283961
759.708 .0283826
760.427 .0283690
761.146 .0283552
761.864 .0283412
762.582 .0283270
763.300 .0283126
764.018 .0282980
764.736 .0282832
765.453 .0282685
766.170 .0282537
766.887 .0282391
767.603 .0282247
768.320 .0282105
769.036 .0281966
769.751 .0281831
770.467 .0281699
771.182 .0281570
771.897 .0281446
772.612 .0281326
773.327 .0281212
774.041 .0281103
774.755 .0281001
775.469 .0280907
776.183 .0280820
776.896 .0280742
777.609 .0280671
778.322 .0280607
779.035 .0280550
779.747 .0280500
780.459 .0280456
781.171 .0280417
781.882 .0280382
782.594 .0280351
783.305 .0280322
784.016 .0280295
784.726 .0280269
785.436 .0280243
786.147 .0280201
786.856 .0280172
787.566 .0280142
788.275 .0280109
788.984 .0280075
789.693 .0280037
790.401 .0279996
791.110 .0279951
791.818 .0279901
792.525 .0279846
793.233 .0279786
793.940 .0279719
794.647 .0279673
795.353 .0279598
796.060 .0279517
796.766 .0279430
797.472 .0279339
798.177 .0279241
798.883 .0279138
799.588 .0279029
800.292 .0278914
800.997 .0278793
801.701 .0278666
802.405 .0278533
803.109 .0278394
803.812 .0278251
804.515 .0278103
805.218 .0277951
805.921 .0277795
806.623 .0277635
807.325 .0277472
808.027 .0277305
808.728 .0277135
809.429 .0276962
810.130 .0276786
810.831 .0276607
811.531 .0276428
812.231 .0276248
812.931 .0276067
813.630 .0275888
814.330 .0275710
815.029 .0275535
815.727 .0275362
816.426 .0275194
817.124 .0275030
817.821 .0274871
818.519 .0274718
819.216 .0274570
819.913 .0274428
820.609 .0274292
821.306 .0274160
822.002 .0274034
822.697 .0273913
823.393 .0273796
824.088 .0273684
824.783 .0273577
825.477 .0273475
826.171 .0273377
826.865 .0273283
827.559 .0273193
828.252 .0273106
828.945 .0273021
829.638 .0272938
830.330 .0272855
831.023 .0272772
831.714 .0272689
832.406 .0272604
833.097 .0272517
833.788 .0272429
834.479 .0272338
835.169 .0272245
835.859 .0272148
836.548 .0272049
837.238 .0271947
837.927 .0271842
838.615 .0271735
839.304 .0271625
839.992 .0271512
840.680 .0271396
841.367 .0271277
842.054 .0271156
842.741 .0271032
843.428 .0270906
844.114 .0270778
844.800 .0270647
845.485 .0270515
846.170 .0270380
846.855 .0270242
847.540 .0270102
848.224 .0269958
848.908 .0269811
849.592 .0269659
850.275 .0269502
850.958 .0269341
851.641 .0269175
852.323 .0269006
853.005 .0268833
853.687 .0268657
854.368 .0268478
855.049 .0268296
855.730 .0268112
856.410 .0267926
857.090 .0267739
857.769 .0267551
858.449 .0267362
859.128 .0267173
859.806 .0266984
860.485 .0266797
861.163 .0266611
861.840 .0266427
862.518 .0266245
863.195 .0266067
863.871 .0265891
864.548 .0265720
865.224 .0265553
865.899 .0265392
866.574 .0265237
867.249 .0265088
867.924 .0264946
868.598 .0264809
869.272 .0264679
869.946 .0264555
870.619 .0264436
871.292 .0264324
871.964 .0264219
872.636 .0264120
873.308 .0264029
873.979 .0263945
874.651 .0263867
875.321 .0263796
875.992 .0263732
876.662 .0263672
877.331 .0263618
878.001 .0263567
878.670 .0263521
879.338 .0263480
880.007 .0263442
880.675 .0263409
881.342 .0263381
882.009 .0263358
882.676 .0263339
883.343 .0263325
884.009 .0263316
884.675 .0263312
885.340 .0263313
886.005 .0263319
886.670 .0263330
887.334 .0263345
887.998 .0263364
888.662 .0263388
889.325 .0263415
889.988 .0263444
890.650 .0263477
891.312 .0263511
891.974 .0263548
892.636 .0263587
893.297 .0263627
893.957 .0263667
894.618 .0263708
895.278 .0263748
895.937 .0263786
896.596 .0263822
897.255 .0263854
897.914 .0263882
898.572 .0263904
899.230 .0263921
899.887 .0263933
900.544 .0263937
901.201 .0263935
901.857 .0263896
902.513 .0263874
903.168 .0263845
903.823 .0263809
904.478 .0263766
905.132 .0263715
905.786 .0263657
906.440 .0263591
907.093 .0263519
907.746 .0263439
908.399 .0263352
909.051 .0263260
909.703 .0263163
910.354 .0263106
911.005 .0263006
911.656 .0262904
912.306 .0262800
912.956 .0262694
913.605 .0262588
914.254 .0262482
914.903 .0262376
915.551 .0262269
916.199 .0262163
916.847 .0262058
917.494 .0261952
918.141 .0261847
918.788 .0261742
919.434 .0261636
920.079 .0261530
920.725 .0261422
921.370 .0261313
922.014 .0261201
922.658 .0261088
923.302 .0260972
923.946 .0260854
924.589 .0260733
925.231 .0260610
925.873 .0260485
926.515 .0260358
927.157 .0260229
927.798 .0260097
928.439 .0259964
929.079 .0259829
929.719 .0259693
930.359 .0259556
930.998 .0259419
931.637 .0259281
932.275 .0259144
932.913 .0259009
933.551 .0258875
934.188 .0258743
934.825 .0258615
935.462 .0258491
936.098 .0258370
936.733 .0258253
937.369 .0258139
938.004 .0258030
938.638 .0257924
939.273 .0257823
939.907 .0257726
940.540 .0257635
941.173 .0257548
941.806 .0257466
942.438 .0257389
943.070 .0257315
943.702 .0257245
944.333 .0257176
944.964 .0257108
945.594 .0257040
946.224 .0256973
946.854 .0256905
947.483 .0256836
948.112 .0256767
948.741 .0256696
949.369 .0256625
949.996 .0256552
950.624 .0256476
951.251 .0256396
951.878 .0256313
952.504 .0256225
953.130 .0256133
953.755 .0256038
954.380 .0255939
955.005 .0255838
955.629 .0255733
956.253 .0255626
956.877 .0255515
957.500 .0255401
958.123 .0255282
958.746 .0255160
959.368 .0255033
959.990 .0254903
960.611 .0254771
961.232 .0254638
961.853 .0254503
962.473 .0254368
963.093 .0254233
963.712 .0254096
964.331 .0253958
964.950 .0253819
965.569 .0253676
966.187 .0253532
966.804 .0253384
967.422 .0253235
968.039 .0253084
968.655 .0252931
969.272 .0252776
969.887 .0252619
970.503 .0252460
971.118 .0252298
971.733 .0252134
972.347 .0251966
972.961 .0251794
973.575 .0251620
974.188 .0251442
974.801 .0251262
975.414 .0251080
976.026 .0250895
976.638 .0250709
977.250 .0250520
977.861 .0250329
978.472 .0250135
979.083 .0249939
979.693 .0249741
980.303 .0249540
980.912 .0249233
981.521 .0249028
982.130 .0248822
982.738 .0248616
983.346 .0248409
983.954 .0248203
984.562 .0247997
985.169 .0247794
985.775 .0247593
986.382 .0247395
986.988 .0247202
987.594 .0247013
988.199 .0246830
988.804 .0246652
989.409 .0246579
990.013 .0246411
990.617 .0246249
991.221 .0246093
991.824 .0245943
992.427 .0245799
993.030 .0245660
993.632 .0245527
994.234 .0245399
994.836 .0245275
995.438 .0245156
996.039 .0245041
996.640 .0244929
997.240 .0244820
997.840 .0244713
998.440 .0244610
999.040 .0244509
999.639 .0244410
1000.238 .0244313
1000.836 .0244221
1001.435 .0244131
1002.033 .0244046
1002.630 .0243964
1003.228 .0243886
1003.825 .0243811
1004.422 .0243737
1005.018 .0243666
1005.614 .0243595
1006.210 .0243525
1006.806 .0243455
1007.401 .0243386
1007.996 .0243318
1008.591 .0243252
1009.186 .0243187
1009.780 .0243125
1010.374 .0243067
1010.967 .0243011
1011.561 .0242958
1012.154 .0242910
1012.746 .0242865
1013.339 .0242825
1013.931 .0242791
1014.523 .0242763
1015.115 .0242743
1015.706 .0242732
1016.298 .0242729
1016.888 .0242736
1017.479 .0242753
1018.069 .0242779
1018.660 .0242812
1019.250 .0242853
1019.839 .0242900
1020.429 .0242952
1021.018 .0243009
1021.607 .0243070
1022.195 .0243136
1022.784 .0243206
1023.372 .0243279
1023.960 .0243358
1024.547 .0243440
1025.135 .0243526
1025.722 .0243615
1026.309 .0243707
1026.896 .0243801
1027.483 .0243895
1028.069 .0243989
1028.655 .0244084
1029.241 .0244177
1029.827 .0244268
1030.412 .0244358
1030.997 .0244446
1031.582 .0244531
1032.167 .0244612
1032.752 .0244689
1033.336 .0244763
1033.921 .0244832
1034.505 .0244896
1035.089 .0244957
1035.672 .0245013
1036.256 .0245067
1036.839 .0245119
1037.422 .0245169
1038.005 .0245220
1038.588 .0245270
1039.171 .0245322
1039.753 .0245376
1040.335 .0245431
1040.918 .0245489
1041.500 .0245547
1042.081 .0245607
1042.663 .0245667
1043.244 .0245728
1043.826 .0245788
1044.407 .0245849
1044.988 .0245909
1045.569 .0245970
1046.150 .0246030
1046.730 .0246091
1047.311 .0246150
1047.891 .0246209
1048.471 .0246266
1049.052 .0246322
1049.632 .0246376
1050.211 .0246429
1050.791 .0246480
1051.371 .0246530
1051.950 .0246580
1052.530 .0246629
1053.109 .0246676
1053.688 .0246721
1054.268 .0246765
1054.847 .0246807
1055.426 .0246847
1056.005 .0246886
1056.583 .0246924
1057.162 .0246961
1057.741 .0246998
1058.319 .0247036
1058.898 .0247075
1059.476 .0247116
1060.055 .0247160
1060.633 .0247207
1061.211 .0247257
1061.790 .0247310
1062.368 .0247368
1062.946 .0247429
1063.524 .0247496
1064.102 .0247567
1064.680 .0247644
1065.258 .0247725
1065.836 .0247812
1066.414 .0247904
1066.992 .0248002
1067.570 .0248104
1068.148 .0248210
1068.726 .0248321
1069.304 .0248437
1069.882 .0248557
1070.460 .0248681
1071.038 .0248809
1071.616 .0248940
1072.194 .0249073
1072.772 .0249208
1073.350 .0249343
1073.928 .0249478
1074.506 .0249612
1075.084 .0249744
1075.662 .0249876
1076.240 .0250007
1076.819 .0250138
1077.397 .0250269
1077.976 .0250401
1078.554 .0250533
1079.133 .0250668
1079.711 .0250804
1080.290 .0250944
1080.869 .0251087
1081.448 .0251234
1082.027 .0251386
1082.606 .0251543
1083.185 .0251705
1083.764 .0251872
1084.343 .0252043
1084.923 .0252218
1085.502 .0252395
1086.082 .0252575
1086.662 .0252756
1087.242 .0252940
1087.822 .0253126
1088.402 .0253314
1088.983 .0253505
1089.563 .0253699
1090.144 .0253897
1090.725 .0254097
1091.306 .0254300
1091.887 .0254508
1092.469 .0254720
1093.050 .0254937
1093.632 .0255159
1094.214 .0255386
1094.796 .0255618
1095.379 .0255857
1095.961 .0256100
1096.544 .0256349
1097.127 .0256603
1097.710 .0256861
1098.294 .0257122
1098.877 .0257386
1099.461 .0257651
1100.046 .0257917
1100.630 .0258184
1101.215 .0258451
1101.800 .0258718
1102.385 .0258984
1102.970 .0259250
1103.556 .0259515
1104.142 .0259783
1104.728 .0260052
1105.315 .0260325
1105.902 .0260604
1106.489 .0260892
1107.077 .0261188
1107.664 .0261495
1108.253 .0261816
1108.841 .0262149
1109.430 .0262493
1110.019 .0262847
1110.609 .0263211
1111.198 .0263582
1111.789 .0263962
1112.379 .0264349
1112.970 .0264744
1113.561 .0265145
1114.153 .0265553
1114.745 .0265966
1115.338 .0266385
1115.931 .0266807
1116.524 .0267231
1117.117 .0267654
1117.712 .0268076
1118.306 .0268495
1118.901 .0268913
1119.496 .0269333
1120.092 .0269759
1120.689 .0270193
1121.285 .0270638
1121.882 .0271097
1122.480 .0271572
1123.078 .0272061
1123.677 .0272564
1124.276 .0273078
1124.875 .0273604
1125.476 .0274138
1126.076 .0274680
1126.677 .0275233
1127.279 .0275800
1127.881 .0276383
1128.484 .0276987
1129.087 .0277238
1129.691 .0277866
1130.295 .0278519
1130.900 .0279198
1131.505 .0279902
1132.111 .0280637
1132.718 .0281400
1133.325 .0282203
1133.933 .0283059
1134.541 .0283923
1135.150 .0284886
1135.760 .0285802
1136.370 .0287018
1136.981 .0286944
1137.592 .0288144
1138.204 .0289397
1138.817 .0290659
1139.431 .0291945
1140.045 .0293291
1140.660 .0294585
1141.275 .0296133
1141.891 .0297961
1142.508 .0298463
1143.126 .0301470
1143.744 .0300346
1144.363 .0308949
1144.983 .0314094
