Measurement Sequence started on: 15-12-46-377
Integration time: 28
Scans to Average: 2 
>>>>>Begin Spectral Data<<<<<
432.689 .0000100
433.621 .0000100
434.552 .0000100
435.482 .0000100
436.410 .0000100
437.337 .0000100
438.262 .0258209
439.187 .0546369
440.110 .0903526
441.031 .1305853
441.952 .1043610
442.871 .1089930
443.789 .1133165
444.705 .1174006
445.621 .1212929
446.535 .1250281
447.447 .1272717
448.359 .1278839
449.269 .1265155
450.178 .1229395
451.086 .1172278
451.993 .1098301
452.898 .1014890
453.803 .0930448
454.706 .0852108
455.608 .0784274
456.508 .0728382
457.408 .0691032
458.306 .0662571
459.204 .0639517
460.100 .0620141
460.995 .0603485
461.888 .0588884
462.781 .0575887
463.673 .0564175
464.563 .0553537
465.452 .0543819
466.340 .0534907
467.228 .0526719
468.114 .0519185
468.999 .0512243
469.882 .0505846
470.765 .0499944
471.647 .0494500
472.528 .0489489
473.407 .0484892
474.286 .0480696
475.163 .0476896
476.040 .0473478
476.915 .0470427
477.790 .0467731
478.663 .0465368
479.535 .0463313
480.407 .0461540
481.277 .0460020
482.147 .0458727
483.015 .0457640
483.883 .0456746
484.749 .0456032
485.615 .0455496
486.479 .0455130
487.343 .0454928
488.206 .0454886
489.067 .0454998
489.928 .0455257
490.788 .0455665
491.647 .0456225
492.505 .0456944
493.362 .0457834
494.218 .0458909
495.073 .0460183
495.928 .0462902
496.781 .0464754
497.634 .0466839
498.486 .0469165
499.337 .0471744
500.187 .0474587
501.036 .0477717
501.884 .0481151
502.731 .0484909
503.578 .0489015
504.424 .0491809
505.268 .0496506
506.113 .0501600
506.956 .0507115
507.798 .0513086
508.640 .0519562
509.480 .0526626
510.320 .0534379
511.160 .0542941
511.998 .0552453
512.836 .0563093
513.672 .0575036
514.508 .0588493
515.344 .0603674
516.178 .0620802
517.012 .0640122
517.845 .0661874
518.677 .0686304
519.508 .0713634
520.339 .0744039
521.169 .0777648
521.998 .0814330
522.826 .0853824
523.654 .0895626
524.481 .0939069
525.307 .0983334
526.133 .1027449
526.958 .1070374
527.782 .1111094
528.605 .1148714
529.428 .1182480
530.250 .1211733
531.072 .1236100
531.892 .1255294
532.712 .1269175
533.532 .1277650
534.350 .1280672
535.168 .1278252
535.986 .1270401
536.802 .1257114
537.618 .1238406
538.434 .1214333
539.249 .1185228
540.063 .1151527
540.876 .1113881
541.689 .1073088
542.501 .1030050
543.313 .0985762
544.124 .0941240
544.934 .0897438
545.744 .0855151
546.553 .0815020
547.361 .0777564
548.169 .0743015
548.976 .0711488
549.783 .0682952
550.589 .0657297
551.395 .0634337
552.200 .0613816
553.004 .0595454
553.808 .0579004
554.611 .0564252
555.414 .0550977
556.216 .0538946
557.018 .0527962
557.819 .0517851
558.619 .0508452
559.419 .0499641
560.218 .0491332
561.017 .0483457
561.815 .0475963
562.613 .0468818
563.410 .0461986
564.207 .0455427
565.003 .0449107
565.799 .0442991
566.594 .0437042
567.388 .0431243
568.182 .0425572
568.976 .0420023
569.769 .0414601
570.562 .0409317
571.354 .0404177
572.145 .0399194
572.936 .0394381
573.727 .0389742
574.517 .0385279
575.307 .0381002
576.096 .0376911
576.885 .0373012
577.673 .0369311
578.461 .0365807
579.248 .0362501
580.035 .0359391
580.821 .0356467
581.607 .0353724
582.392 .0351155
583.177 .0348752
583.962 .0346507
584.746 .0344413
585.529 .0342464
586.313 .0340652
587.095 .0338970
587.878 .0337410
588.660 .0335963
589.441 .0334624
590.222 .0333386
591.003 .0332240
591.783 .0331181
592.563 .0330201
593.342 .0329293
594.121 .0328449
594.899 .0327661
595.678 .0326922
596.455 .0326226
597.233 .0325566
598.009 .0324938
598.786 .0324337
599.562 .0323761
600.338 .0323208
601.113 .0322675
601.888 .0321933
602.663 .0321441
603.437 .0320965
604.211 .0320502
604.984 .0320052
605.757 .0319613
606.530 .0319186
607.302 .0318769
608.074 .0318362
608.845 .0317966
609.616 .0317580
610.387 .0317416
611.158 .0317051
611.928 .0316699
612.697 .0316362
613.467 .0316040
614.236 .0315734
615.004 .0315443
615.773 .0315168
616.541 .0314907
617.308 .0314659
618.076 .0314422
618.843 .0314196
619.609 .0313979
620.375 .0313772
621.141 .0313573
621.907 .0313381
622.672 .0313197
623.437 .0313017
624.202 .0312840
624.966 .0312664
625.730 .0312488
626.493 .0312309
627.257 .0312125
628.020 .0311937
628.782 .0311742
629.545 .0311540
630.307 .0311332
631.068 .0311116
631.830 .0310893
632.591 .0310664
633.352 .0310430
634.112 .0310191
634.872 .0309950
635.632 .0309706
636.392 .0309460
637.151 .0309214
637.910 .0308967
638.668 .0308718
639.427 .0308470
640.185 .0308221
640.943 .0307974
641.700 .0307728
642.457 .0307487
643.214 .0307250
643.971 .0307019
644.727 .0306794
645.483 .0306574
646.239 .0306358
646.994 .0306145
647.750 .0305935
648.505 .0305725
649.259 .0305516
650.014 .0305307
650.768 .0305098
651.521 .0304887
652.275 .0304676
653.028 .0304464
653.781 .0304251
654.534 .0304036
655.286 .0303818
656.039 .0303596
656.791 .0303371
657.542 .0303141
658.294 .0302907
659.045 .0302669
659.796 .0302426
660.546 .0302179
661.297 .0301928
662.047 .0301676
662.796 .0301422
663.546 .0301169
664.295 .0300916
665.044 .0300665
665.793 .0300415
666.542 .0300167
667.290 .0299920
668.038 .0299674
668.786 .0299428
669.533 .0299183
670.281 .0298939
671.028 .0298697
671.774 .0298458
672.521 .0298223
673.267 .0297994
674.013 .0297771
674.759 .0297554
675.505 .0297344
676.250 .0297141
676.995 .0296944
677.740 .0296752
678.484 .0296566
679.229 .0296383
679.973 .0296206
680.717 .0296032
681.460 .0295864
682.204 .0295700
682.947 .0295541
683.690 .0295388
684.433 .0295239
685.175 .0295095
685.917 .0294955
686.659 .0294818
687.401 .0294682
688.142 .0294548
688.884 .0294415
689.625 .0294281
690.365 .0294147
691.106 .0294013
691.846 .0293879
692.586 .0293745
693.326 .0293612
694.066 .0293478
694.805 .0293345
695.545 .0293212
696.284 .0293078
697.022 .0292945
697.761 .0292810
698.499 .0292675
699.237 .0292538
699.975 .0292400
700.713 .0292260
701.450 .0292119
702.187 .0291978
702.924 .0291835
703.661 .0291692
704.397 .0291548
705.133 .0291402
705.869 .0291255
706.605 .0291106
707.341 .0290953
708.076 .0290798
708.811 .0290639
709.546 .0290476
710.281 .0290309
711.015 .0290139
711.749 .0289966
712.483 .0289788
713.217 .0289608
713.950 .0289424
714.684 .0289237
715.417 .0289046
716.150 .0288852
716.882 .0288654
717.615 .0288453
718.347 .0288249
719.079 .0288042
719.811 .0287834
720.542 .0287623
721.273 .0287411
722.005 .0287199
722.735 .0286986
723.466 .0286774
724.196 .0286563
724.927 .0286354
725.656 .0286147
726.386 .0285942
727.116 .0285741
727.845 .0285544
728.574 .0285351
729.303 .0285165
730.031 .0284984
730.760 .0284809
731.488 .0284640
732.216 .0284478
732.944 .0284321
733.671 .0284170
734.398 .0284024
735.125 .0283884
735.852 .0283749
736.579 .0283619
737.305 .0283494
738.031 .0283375
738.757 .0283261
739.483 .0283151
740.208 .0283045
740.933 .0282942
741.658 .0282841
742.383 .0282741
743.108 .0282641
743.832 .0282540
744.556 .0282438
745.280 .0282335
746.004 .0282231
746.727 .0282124
747.450 .0282015
748.173 .0281905
748.896 .0281791
749.618 .0281676
750.340 .0281558
751.062 .0281437
751.784 .0281315
752.506 .0281191
753.227 .0281066
753.948 .0280940
754.669 .0280813
755.389 .0280687
756.110 .0280562
756.830 .0280438
757.550 .0280316
758.269 .0280196
758.989 .0280079
759.708 .0279965
760.427 .0279852
761.146 .0279740
761.864 .0279629
762.582 .0279517
763.300 .0279404
764.018 .0279291
764.736 .0279176
765.453 .0279060
766.170 .0278944
766.887 .0278828
767.603 .0278712
768.320 .0278596
769.036 .0278482
769.751 .0278368
770.467 .0278254
771.182 .0278140
771.897 .0278026
772.612 .0277912
773.327 .0277799
774.041 .0277688
774.755 .0277578
775.469 .0277471
776.183 .0277368
776.896 .0277268
777.609 .0277173
778.322 .0277081
779.035 .0276993
779.747 .0276909
780.459 .0276827
781.171 .0276749
781.882 .0276674
782.594 .0276601
783.305 .0276530
784.016 .0276460
784.726 .0276391
785.436 .0276323
786.147 .0276213
786.856 .0276139
787.566 .0276063
788.275 .0275985
788.984 .0275902
789.693 .0275815
790.401 .0275724
791.110 .0275627
791.818 .0275525
792.525 .0275418
793.233 .0275304
793.940 .0275184
794.647 .0275110
795.353 .0274982
796.060 .0274848
796.766 .0274709
797.472 .0274564
798.177 .0274413
798.883 .0274258
799.588 .0274099
800.292 .0273935
800.997 .0273768
801.701 .0273598
802.405 .0273425
803.109 .0273249
803.812 .0273070
804.515 .0272890
805.218 .0272708
805.921 .0272525
806.623 .0272340
807.325 .0272155
808.027 .0271970
808.728 .0271786
809.429 .0271602
810.130 .0271420
810.831 .0271240
811.531 .0271062
812.231 .0270887
812.931 .0270714
813.630 .0270544
814.330 .0270377
815.029 .0270214
815.727 .0270054
816.426 .0269897
817.124 .0269745
817.821 .0269597
818.519 .0269453
819.216 .0269313
819.913 .0269178
820.609 .0269048
821.306 .0268923
822.002 .0268803
822.697 .0268688
823.393 .0268580
824.088 .0268479
824.783 .0268384
825.477 .0268296
826.171 .0268215
826.865 .0268140
827.559 .0268070
828.252 .0268007
828.945 .0267948
829.638 .0267895
830.330 .0267848
831.023 .0267805
831.714 .0267767
832.406 .0267733
833.097 .0267703
833.788 .0267677
834.479 .0267653
835.169 .0267633
835.859 .0267614
836.548 .0267597
837.238 .0267582
837.927 .0267567
838.615 .0267553
839.304 .0267538
839.992 .0267522
840.680 .0267504
841.367 .0267483
842.054 .0267459
842.741 .0267432
843.428 .0267401
844.114 .0267367
844.800 .0267331
845.485 .0267291
846.170 .0267249
846.855 .0267203
847.540 .0267154
848.224 .0267101
848.908 .0267045
849.592 .0266985
850.275 .0266923
850.958 .0266858
851.641 .0266791
852.323 .0266723
853.005 .0266654
853.687 .0266584
854.368 .0266513
855.049 .0266442
855.730 .0266369
856.410 .0266297
857.090 .0266223
857.769 .0266150
858.449 .0266077
859.128 .0266004
859.806 .0265931
860.485 .0265859
861.163 .0265786
861.840 .0265712
862.518 .0265637
863.195 .0265562
863.871 .0265486
864.548 .0265409
865.224 .0265332
865.899 .0265255
866.574 .0265179
867.249 .0265101
867.924 .0265024
868.598 .0264946
869.272 .0264866
869.946 .0264785
870.619 .0264702
871.292 .0264618
871.964 .0264531
872.636 .0264444
873.308 .0264356
873.979 .0264268
874.651 .0264180
875.321 .0264091
875.992 .0264003
876.662 .0263914
877.331 .0263825
878.001 .0263736
878.670 .0263646
879.338 .0263556
880.007 .0263467
880.675 .0263377
881.342 .0263287
882.009 .0263198
882.676 .0263109
883.343 .0263021
884.009 .0262932
884.675 .0262843
885.340 .0262754
886.005 .0262664
886.670 .0262575
887.334 .0262486
887.998 .0262399
888.662 .0262313
889.325 .0262228
889.988 .0262144
890.650 .0262062
891.312 .0261981
891.974 .0261900
892.636 .0261818
893.297 .0261736
893.957 .0261653
894.618 .0261569
895.278 .0261483
895.937 .0261396
896.596 .0261307
897.255 .0261215
897.914 .0261120
898.572 .0261022
899.230 .0260918
899.887 .0260809
900.544 .0260693
901.201 .0260570
901.857 .0260354
902.513 .0260211
903.168 .0260061
903.823 .0259904
904.478 .0259739
905.132 .0259565
905.786 .0259383
906.440 .0259193
907.093 .0258995
907.746 .0258789
908.399 .0258576
909.051 .0258358
909.703 .0258136
910.354 .0258012
911.005 .0257788
911.656 .0257561
912.306 .0257332
912.956 .0257101
913.605 .0256868
914.254 .0256634
914.903 .0256400
915.551 .0256166
916.199 .0255934
916.847 .0255704
917.494 .0255477
918.141 .0255254
918.788 .0255034
919.434 .0254818
920.079 .0254605
920.725 .0254394
921.370 .0254186
922.014 .0253980
922.658 .0253776
923.302 .0253574
923.946 .0253375
924.589 .0253179
925.231 .0252984
925.873 .0252792
926.515 .0252602
927.157 .0252413
927.798 .0252226
928.439 .0252041
929.079 .0251858
929.719 .0251677
930.359 .0251499
930.998 .0251325
931.637 .0251155
932.275 .0250989
932.913 .0250827
933.551 .0250669
934.188 .0250517
934.825 .0250369
935.462 .0250227
936.098 .0250091
936.733 .0249961
937.369 .0249838
938.004 .0249722
938.638 .0249613
939.273 .0249511
939.907 .0249417
940.540 .0249330
941.173 .0249250
941.806 .0249178
942.438 .0249111
943.070 .0249051
943.702 .0248997
944.333 .0248948
944.964 .0248903
945.594 .0248864
946.224 .0248829
946.854 .0248797
947.483 .0248769
948.112 .0248743
948.741 .0248721
949.369 .0248699
949.996 .0248679
950.624 .0248660
951.251 .0248641
951.878 .0248623
952.504 .0248604
953.130 .0248585
953.755 .0248566
954.380 .0248547
955.005 .0248528
955.629 .0248509
956.253 .0248491
956.877 .0248474
957.500 .0248457
958.123 .0248441
958.746 .0248426
959.368 .0248413
959.990 .0248402
960.611 .0248394
961.232 .0248389
961.853 .0248386
962.473 .0248387
963.093 .0248389
963.712 .0248393
964.331 .0248399
964.950 .0248407
965.569 .0248417
966.187 .0248429
966.804 .0248443
967.422 .0248460
968.039 .0248478
968.655 .0248498
969.272 .0248519
969.887 .0248540
970.503 .0248562
971.118 .0248583
971.733 .0248603
972.347 .0248622
972.961 .0248641
973.575 .0248658
974.188 .0248675
974.801 .0248690
975.414 .0248703
976.026 .0248713
976.638 .0248721
977.250 .0248725
977.861 .0248725
978.472 .0248721
979.083 .0248714
979.693 .0248703
980.303 .0248688
980.912 .0248651
981.521 .0248629
982.130 .0248603
982.738 .0248575
983.346 .0248545
983.954 .0248512
984.562 .0248478
985.169 .0248443
985.775 .0248408
986.382 .0248373
986.988 .0248340
987.594 .0248308
988.199 .0248278
988.804 .0248251
989.409 .0248245
990.013 .0248224
990.617 .0248206
991.221 .0248191
991.824 .0248179
992.427 .0248172
993.030 .0248168
993.632 .0248167
994.234 .0248170
994.836 .0248177
995.438 .0248187
996.039 .0248200
996.640 .0248215
997.240 .0248234
997.840 .0248254
998.440 .0248277
999.040 .0248302
999.639 .0248327
1000.238 .0248354
1000.836 .0248381
1001.435 .0248409
1002.033 .0248436
1002.630 .0248461
1003.228 .0248484
1003.825 .0248505
1004.422 .0248522
1005.018 .0248536
1005.614 .0248546
1006.210 .0248553
1006.806 .0248557
1007.401 .0248557
1007.996 .0248555
1008.591 .0248549
1009.186 .0248541
1009.780 .0248529
1010.374 .0248514
1010.967 .0248496
1011.561 .0248474
1012.154 .0248449
1012.746 .0248422
1013.339 .0248394
1013.931 .0248364
1014.523 .0248334
1015.115 .0248304
1015.706 .0248274
1016.298 .0248245
1016.888 .0248215
1017.479 .0248186
1018.069 .0248156
1018.660 .0248127
1019.250 .0248099
1019.839 .0248072
1020.429 .0248048
1021.018 .0248026
1021.607 .0248008
1022.195 .0247994
1022.784 .0247982
1023.372 .0247973
1023.960 .0247965
1024.547 .0247959
1025.135 .0247952
1025.722 .0247945
1026.309 .0247936
1026.896 .0247925
1027.483 .0247911
1028.069 .0247896
1028.655 .0247877
1029.241 .0247855
1029.827 .0247830
1030.412 .0247801
1030.997 .0247768
1031.582 .0247731
1032.167 .0247690
1032.752 .0247645
1033.336 .0247596
1033.921 .0247544
1034.505 .0247488
1035.089 .0247428
1035.672 .0247366
1036.256 .0247301
1036.839 .0247232
1037.422 .0247159
1038.005 .0247083
1038.588 .0247003
1039.171 .0246919
1039.753 .0246830
1040.335 .0246737
1040.918 .0246641
1041.500 .0246539
1042.081 .0246435
1042.663 .0246328
1043.244 .0246218
1043.826 .0246108
1044.407 .0245997
1044.988 .0245888
1045.569 .0245779
1046.150 .0245672
1046.730 .0245566
1047.311 .0245462
1047.891 .0245360
1048.471 .0245259
1049.052 .0245160
1049.632 .0245062
1050.211 .0244967
1050.791 .0244875
1051.371 .0244786
1051.950 .0244700
1052.530 .0244618
1053.109 .0244539
1053.688 .0244463
1054.268 .0244390
1054.847 .0244318
1055.426 .0244249
1056.005 .0244182
1056.583 .0244116
1057.162 .0244052
1057.741 .0243989
1058.319 .0243928
1058.898 .0243868
1059.476 .0243809
1060.055 .0243749
1060.633 .0243688
1061.211 .0243627
1061.790 .0243563
1062.368 .0243499
1062.946 .0243433
1063.524 .0243368
1064.102 .0243302
1064.680 .0243237
1065.258 .0243172
1065.836 .0243109
1066.414 .0243048
1066.992 .0242988
1067.570 .0242930
1068.148 .0242875
1068.726 .0242821
1069.304 .0242770
1069.882 .0242722
1070.460 .0242677
1071.038 .0242636
1071.616 .0242598
1072.194 .0242564
1072.772 .0242534
1073.350 .0242507
1073.928 .0242485
1074.506 .0242466
1075.084 .0242451
1075.662 .0242441
1076.240 .0242437
1076.819 .0242441
1077.397 .0242452
1077.976 .0242471
1078.554 .0242499
1079.133 .0242535
1079.711 .0242578
1080.290 .0242628
1080.869 .0242683
1081.448 .0242743
1082.027 .0242807
1082.606 .0242877
1083.185 .0242952
1083.764 .0243032
1084.343 .0243119
1084.923 .0243212
1085.502 .0243310
1086.082 .0243415
1086.662 .0243524
1087.242 .0243639
1087.822 .0243757
1088.402 .0243881
1088.983 .0244010
1089.563 .0244145
1090.144 .0244289
1090.725 .0244443
1091.306 .0244606
1091.887 .0244779
1092.469 .0244960
1093.050 .0245147
1093.632 .0245339
1094.214 .0245534
1094.796 .0245731
1095.379 .0245931
1095.961 .0246133
1096.544 .0246341
1097.127 .0246554
1097.710 .0246776
1098.294 .0247005
1098.877 .0247244
1099.461 .0247490
1100.046 .0247743
1100.630 .0248001
1101.215 .0248264
1101.800 .0248532
1102.385 .0248807
1102.970 .0249089
1103.556 .0249382
1104.142 .0249685
1104.728 .0249999
1105.315 .0250324
1105.902 .0250657
1106.489 .0250996
1107.077 .0251339
1107.664 .0251682
1108.253 .0252024
1108.841 .0252365
1109.430 .0252708
1110.019 .0253053
1110.609 .0253404
1111.198 .0253763
1111.789 .0254131
1112.379 .0254508
1112.970 .0254895
1113.561 .0255289
1114.153 .0255690
1114.745 .0256097
1115.338 .0256510
1115.931 .0256929
1116.524 .0257359
1117.117 .0257802
1117.712 .0258260
1118.306 .0258737
1118.901 .0259231
1119.496 .0259740
1120.092 .0260261
1120.689 .0260790
1121.285 .0261323
1121.882 .0261855
1122.480 .0262385
1123.078 .0262912
1123.677 .0263442
1124.276 .0263977
1124.875 .0264524
1125.476 .0265088
1126.076 .0265673
1126.677 .0266280
1127.279 .0266911
1127.881 .0267563
1128.484 .0268234
1129.087 .0268543
1129.691 .0269242
1130.295 .0269960
1130.900 .0270701
1131.505 .0271471
1132.111 .0272274
1132.718 .0273114
1133.325 .0273986
1133.933 .0274891
1134.541 .0275921
1135.150 .0276911
1135.760 .0277911
1136.370 .0278746
1136.981 .0278622
1137.592 .0279595
1138.204 .0280618
1138.817 .0281716
1139.431 .0283020
1140.045 .0284420
1140.660 .0285970
1141.275 .0287420
1141.891 .0289007
1142.508 .0293206
1143.126 .0292901
1143.744 .0294050
1144.363 .0290310
1144.983 .0296557
