Measurement Sequence started on: 15-12-46-377
Integration time: 28
Scans to Average: 2 
>>>>>Begin Spectral Data<<<<<
432.689 .0000100
433.621 .0000100
434.552 .0000100
435.482 .0000100
436.410 .0000100
437.337 .0000100
438.262 .0286954
439.187 .0607273
440.110 .1005063
441.031 .1453984
441.952 .1162489
442.871 .1213755
443.789 .1261455
444.705 .1306324
445.621 .1348874
446.535 .1389474
447.447 .1413315
448.359 .1418862
449.269 .1402236
450.178 .1360891
451.086 .1295669
451.993 .1211578
452.898 .1116889
453.803 .1020962
454.706 .0931758
455.608 .0854213
456.508 .0789972
457.408 .0746402
458.306 .0712815
459.204 .0685383
460.100 .0662218
460.995 .0642240
461.888 .0624737
462.781 .0609217
463.673 .0595332
464.563 .0582817
465.452 .0571474
466.340 .0561136
467.228 .0551684
468.114 .0543019
468.999 .0535067
469.882 .0527769
470.765 .0521068
471.647 .0514918
472.528 .0509286
473.407 .0504128
474.286 .0499413
475.163 .0495108
476.040 .0491192
476.915 .0487645
477.790 .0484450
478.663 .0481594
479.535 .0479066
480.407 .0476845
481.277 .0474910
482.147 .0473229
483.015 .0471773
483.883 .0470520
484.749 .0469450
485.615 .0468549
486.479 .0467810
487.343 .0467230
488.206 .0466809
489.067 .0466546
489.928 .0466446
490.788 .0466512
491.647 .0466748
492.505 .0467160
493.362 .0467756
494.218 .0468548
495.073 .0469551
495.928 .0471935
496.781 .0473601
497.634 .0475544
498.486 .0477775
499.337 .0480311
500.187 .0483166
501.036 .0486353
501.884 .0489888
502.731 .0493797
503.578 .0498104
504.424 .0501130
505.268 .0506115
506.113 .0511579
506.956 .0517541
507.798 .0524036
508.640 .0531124
509.480 .0538880
510.320 .0547398
511.160 .0556795
511.998 .0567209
512.836 .0578828
513.672 .0591842
514.508 .0606483
515.344 .0623005
516.178 .0641685
517.012 .0662801
517.845 .0686632
518.677 .0713421
519.508 .0743378
520.339 .0776623
521.169 .0813253
521.998 .0853067
522.826 .0895723
523.654 .0940696
524.481 .0987324
525.307 .1034788
526.133 .1082167
526.958 .1128441
527.782 .1172628
528.605 .1213780
529.428 .1251070
530.250 .1283701
531.072 .1311170
531.892 .1333055
532.712 .1349062
533.532 .1359004
534.350 .1362828
535.168 .1360530
535.986 .1352204
536.802 .1337930
537.618 .1317823
538.434 .1291986
539.249 .1260813
540.063 .1224805
540.876 .1184618
541.689 .1141029
542.501 .1094951
543.313 .1047344
544.124 .0999238
544.934 .0951580
545.744 .0905245
546.553 .0860964
547.361 .0819383
548.169 .0780841
548.976 .0745561
549.783 .0713611
550.589 .0684920
551.395 .0659273
552.200 .0636403
553.004 .0615966
553.808 .0597661
554.611 .0581222
555.414 .0566426
556.216 .0553049
557.018 .0540898
557.819 .0529804
558.619 .0519620
559.419 .0510208
560.218 .0501461
561.017 .0493274
561.815 .0485572
562.613 .0478292
563.410 .0471374
564.207 .0464761
565.003 .0458408
565.799 .0452276
566.594 .0446333
567.388 .0440556
568.182 .0434934
568.976 .0429453
569.769 .0424112
570.562 .0418911
571.354 .0413857
572.145 .0408956
572.936 .0404216
573.727 .0399637
574.517 .0395224
575.307 .0390981
576.096 .0386909
576.885 .0383011
577.673 .0379294
578.461 .0375763
579.248 .0372415
580.035 .0369252
580.821 .0366271
581.607 .0363469
582.392 .0360841
583.177 .0358376
583.962 .0356068
584.746 .0353910
585.529 .0351892
586.313 .0350005
587.095 .0348243
587.878 .0346596
588.660 .0345056
589.441 .0343614
590.222 .0342262
591.003 .0340992
591.783 .0339798
592.563 .0338674
593.342 .0337613
594.121 .0336612
594.899 .0335664
595.678 .0334767
596.455 .0333920
597.233 .0333119
598.009 .0332363
598.786 .0331650
599.562 .0330979
600.338 .0330346
601.113 .0329750
601.888 .0328973
602.663 .0328455
603.437 .0327968
604.211 .0327509
604.984 .0327079
605.757 .0326677
606.530 .0326302
607.302 .0325955
608.074 .0325632
608.845 .0325333
609.616 .0325056
610.387 .0324962
611.158 .0324711
611.928 .0324477
612.697 .0324259
613.467 .0324054
614.236 .0323863
615.004 .0323684
615.773 .0323516
616.541 .0323357
617.308 .0323207
618.076 .0323062
618.843 .0322922
619.609 .0322783
620.375 .0322645
621.141 .0322505
621.907 .0322363
622.672 .0322217
623.437 .0322066
624.202 .0321907
624.966 .0321740
625.730 .0321564
626.493 .0321379
627.257 .0321182
628.020 .0320975
628.782 .0320757
629.545 .0320529
630.307 .0320290
631.068 .0320040
631.830 .0319781
632.591 .0319510
633.352 .0319231
634.112 .0318941
634.872 .0318642
635.632 .0318336
636.392 .0318022
637.151 .0317702
637.910 .0317378
638.668 .0317048
639.427 .0316716
640.185 .0316381
640.943 .0316044
641.700 .0315706
642.457 .0315367
643.214 .0315028
643.971 .0314690
644.727 .0314353
645.483 .0314017
646.239 .0313682
646.994 .0313350
647.750 .0313019
648.505 .0312691
649.259 .0312366
650.014 .0312044
650.768 .0311727
651.521 .0311413
652.275 .0311104
653.028 .0310800
653.781 .0310500
654.534 .0310205
655.286 .0309914
656.039 .0309628
656.791 .0309345
657.542 .0309067
658.294 .0308793
659.045 .0308526
659.796 .0308265
660.546 .0308011
661.297 .0307767
662.047 .0307532
662.796 .0307307
663.546 .0307092
664.295 .0306886
665.044 .0306689
665.793 .0306501
666.542 .0306321
667.290 .0306150
668.038 .0305987
668.786 .0305833
669.533 .0305688
670.281 .0305552
671.028 .0305425
671.774 .0305308
672.521 .0305198
673.267 .0305097
674.013 .0305004
674.759 .0304918
675.505 .0304838
676.250 .0304762
676.995 .0304691
677.740 .0304621
678.484 .0304554
679.229 .0304486
679.973 .0304419
680.717 .0304352
681.460 .0304285
682.204 .0304216
682.947 .0304146
683.690 .0304074
684.433 .0303998
685.175 .0303918
685.917 .0303832
686.659 .0303740
687.401 .0303640
688.142 .0303534
688.884 .0303420
689.625 .0303298
690.365 .0303170
691.106 .0303034
691.846 .0302892
692.586 .0302744
693.326 .0302588
694.066 .0302426
694.805 .0302257
695.545 .0302082
696.284 .0301900
697.022 .0301711
697.761 .0301517
698.499 .0301316
699.237 .0301110
699.975 .0300898
700.713 .0300682
701.450 .0300461
702.187 .0300237
702.924 .0300009
703.661 .0299778
704.397 .0299544
705.133 .0299306
705.869 .0299066
706.605 .0298822
707.341 .0298575
708.076 .0298324
708.811 .0298071
709.546 .0297814
710.281 .0297556
711.015 .0297294
711.749 .0297030
712.483 .0296764
713.217 .0296495
713.950 .0296225
714.684 .0295953
715.417 .0295681
716.150 .0295408
716.882 .0295135
717.615 .0294862
718.347 .0294589
719.079 .0294318
719.811 .0294047
720.542 .0293778
721.273 .0293511
722.005 .0293246
722.735 .0292984
723.466 .0292725
724.196 .0292471
724.927 .0292221
725.656 .0291976
726.386 .0291736
727.116 .0291501
727.845 .0291272
728.574 .0291049
729.303 .0290834
730.031 .0290625
730.760 .0290423
731.488 .0290230
732.216 .0290044
732.944 .0289867
733.671 .0289698
734.398 .0289540
735.125 .0289390
735.852 .0289252
736.579 .0289125
737.305 .0289009
738.031 .0288905
738.757 .0288812
739.483 .0288731
740.208 .0288661
740.933 .0288601
741.658 .0288551
742.383 .0288511
743.108 .0288480
743.832 .0288458
744.556 .0288444
745.280 .0288438
746.004 .0288437
746.727 .0288441
747.450 .0288449
748.173 .0288460
748.896 .0288471
749.618 .0288482
750.340 .0288492
751.062 .0288500
751.784 .0288507
752.506 .0288510
753.227 .0288510
753.948 .0288507
754.669 .0288500
755.389 .0288488
756.110 .0288473
756.830 .0288452
757.550 .0288428
758.269 .0288399
758.989 .0288365
759.708 .0288328
760.427 .0288286
761.146 .0288239
761.864 .0288188
762.582 .0288133
763.300 .0288073
764.018 .0288010
764.736 .0287943
765.453 .0287873
766.170 .0287800
766.887 .0287725
767.603 .0287649
768.320 .0287571
769.036 .0287491
769.751 .0287411
770.467 .0287329
771.182 .0287246
771.897 .0287163
772.612 .0287077
773.327 .0286991
774.041 .0286902
774.755 .0286812
775.469 .0286719
776.183 .0286625
776.896 .0286529
777.609 .0286430
778.322 .0286329
779.035 .0286224
779.747 .0286116
780.459 .0286003
781.171 .0285884
781.882 .0285759
782.594 .0285626
783.305 .0285487
784.016 .0285339
784.726 .0285184
785.436 .0285020
786.147 .0284737
786.856 .0284553
787.566 .0284361
788.275 .0284161
788.984 .0283953
789.693 .0283737
790.401 .0283513
791.110 .0283282
791.818 .0283043
792.525 .0282797
793.233 .0282544
793.940 .0282285
794.647 .0282146
795.353 .0281882
796.060 .0281613
796.766 .0281340
797.472 .0281063
798.177 .0280783
798.883 .0280500
799.588 .0280216
800.292 .0279929
800.997 .0279641
801.701 .0279352
802.405 .0279064
803.109 .0278775
803.812 .0278488
804.515 .0278201
805.218 .0277916
805.921 .0277632
806.623 .0277348
807.325 .0277066
808.027 .0276786
808.728 .0276508
809.429 .0276233
810.130 .0275962
810.831 .0275695
811.531 .0275432
812.231 .0275175
812.931 .0274923
813.630 .0274676
814.330 .0274437
815.029 .0274204
815.727 .0273981
816.426 .0273766
817.124 .0273561
817.821 .0273368
818.519 .0273185
819.216 .0273014
819.913 .0272854
820.609 .0272705
821.306 .0272567
822.002 .0272440
822.697 .0272323
823.393 .0272218
824.088 .0272125
824.783 .0272043
825.477 .0271974
826.171 .0271916
826.865 .0271871
827.559 .0271837
828.252 .0271814
828.945 .0271802
829.638 .0271799
830.330 .0271807
831.023 .0271823
831.714 .0271848
832.406 .0271882
833.097 .0271924
833.788 .0271973
834.479 .0272030
835.169 .0272093
835.859 .0272163
836.548 .0272237
837.238 .0272316
837.927 .0272398
838.615 .0272482
839.304 .0272567
839.992 .0272652
840.680 .0272738
841.367 .0272824
842.054 .0272909
842.741 .0272994
843.428 .0273079
844.114 .0273162
844.800 .0273244
845.485 .0273324
846.170 .0273401
846.855 .0273473
847.540 .0273542
848.224 .0273606
848.908 .0273665
849.592 .0273718
850.275 .0273766
850.958 .0273809
851.641 .0273845
852.323 .0273875
853.005 .0273898
853.687 .0273916
854.368 .0273927
855.049 .0273933
855.730 .0273934
856.410 .0273931
857.090 .0273924
857.769 .0273913
858.449 .0273899
859.128 .0273880
859.806 .0273858
860.485 .0273831
861.163 .0273799
861.840 .0273763
862.518 .0273722
863.195 .0273679
863.871 .0273632
864.548 .0273583
865.224 .0273531
865.899 .0273478
866.574 .0273423
867.249 .0273365
867.924 .0273306
868.598 .0273245
869.272 .0273182
869.946 .0273116
870.619 .0273049
871.292 .0272980
871.964 .0272909
872.636 .0272836
873.308 .0272761
873.979 .0272685
874.651 .0272607
875.321 .0272526
875.992 .0272444
876.662 .0272358
877.331 .0272268
878.001 .0272173
878.670 .0272074
879.338 .0271968
880.007 .0271857
880.675 .0271740
881.342 .0271618
882.009 .0271490
882.676 .0271358
883.343 .0271221
884.009 .0271079
884.675 .0270932
885.340 .0270780
886.005 .0270622
886.670 .0270459
887.334 .0270290
887.998 .0270116
888.662 .0269937
889.325 .0269754
889.988 .0269566
890.650 .0269376
891.312 .0269183
891.974 .0268986
892.636 .0268787
893.297 .0268585
893.957 .0268381
894.618 .0268175
895.278 .0267966
895.937 .0267754
896.596 .0267539
897.255 .0267321
897.914 .0267099
898.572 .0266873
899.230 .0266641
899.887 .0266404
900.544 .0266160
901.201 .0265910
901.857 .0265504
902.513 .0265234
903.168 .0264956
903.823 .0264670
904.478 .0264377
905.132 .0264076
905.786 .0263769
906.440 .0263453
907.093 .0263131
907.746 .0262803
908.399 .0262469
909.051 .0262130
909.703 .0261789
910.354 .0261610
911.005 .0261270
911.656 .0260929
912.306 .0260589
912.956 .0260250
913.605 .0259914
914.254 .0259580
914.903 .0259250
915.551 .0258923
916.199 .0258601
916.847 .0258283
917.494 .0257970
918.141 .0257663
918.788 .0257363
919.434 .0257069
920.079 .0256782
920.725 .0256502
921.370 .0256229
922.014 .0255964
922.658 .0255705
923.302 .0255452
923.946 .0255206
924.589 .0254966
925.231 .0254732
925.873 .0254504
926.515 .0254282
927.157 .0254067
927.798 .0253858
928.439 .0253655
929.079 .0253458
929.719 .0253267
930.359 .0253082
930.998 .0252903
931.637 .0252730
932.275 .0252564
932.913 .0252405
933.551 .0252255
934.188 .0252113
934.825 .0251981
935.462 .0251859
936.098 .0251748
936.733 .0251647
937.369 .0251558
938.004 .0251478
938.638 .0251410
939.273 .0251351
939.907 .0251303
940.540 .0251265
941.173 .0251237
941.806 .0251219
942.438 .0251210
943.070 .0251209
943.702 .0251217
944.333 .0251230
944.964 .0251250
945.594 .0251274
946.224 .0251304
946.854 .0251337
947.483 .0251375
948.112 .0251417
948.741 .0251464
949.369 .0251516
949.996 .0251572
950.624 .0251632
951.251 .0251697
951.878 .0251766
952.504 .0251837
953.130 .0251912
953.755 .0251991
954.380 .0252073
955.005 .0252159
955.629 .0252249
956.253 .0252342
956.877 .0252439
957.500 .0252540
958.123 .0252644
958.746 .0252751
959.368 .0252862
959.990 .0252976
960.611 .0253093
961.232 .0253214
961.853 .0253339
962.473 .0253467
963.093 .0253598
963.712 .0253732
964.331 .0253868
964.950 .0254006
965.569 .0254146
966.187 .0254286
966.804 .0254425
967.422 .0254563
968.039 .0254699
968.655 .0254832
969.272 .0254960
969.887 .0255085
970.503 .0255204
971.118 .0255318
971.733 .0255427
972.347 .0255530
972.961 .0255628
973.575 .0255720
974.188 .0255806
974.801 .0255886
975.414 .0255961
976.026 .0256029
976.638 .0256091
977.250 .0256147
977.861 .0256198
978.472 .0256245
979.083 .0256285
979.693 .0256321
980.303 .0256352
980.912 .0256376
981.521 .0256393
982.130 .0256405
982.738 .0256412
983.346 .0256414
983.954 .0256412
984.562 .0256407
985.169 .0256399
985.775 .0256390
986.382 .0256378
986.988 .0256366
987.594 .0256353
988.199 .0256340
988.804 .0256328
989.409 .0256322
990.013 .0256313
990.617 .0256306
991.221 .0256300
991.824 .0256297
992.427 .0256295
993.030 .0256295
993.632 .0256296
994.234 .0256296
994.836 .0256297
995.438 .0256296
996.039 .0256295
996.640 .0256292
997.240 .0256289
997.840 .0256285
998.440 .0256280
999.040 .0256274
999.639 .0256267
1000.238 .0256258
1000.836 .0256247
1001.435 .0256233
1002.033 .0256217
1002.630 .0256197
1003.228 .0256174
1003.825 .0256148
1004.422 .0256119
1005.018 .0256088
1005.614 .0256054
1006.210 .0256017
1006.806 .0255977
1007.401 .0255933
1007.996 .0255885
1008.591 .0255832
1009.186 .0255775
1009.780 .0255712
1010.374 .0255646
1010.967 .0255575
1011.561 .0255500
1012.154 .0255423
1012.746 .0255343
1013.339 .0255262
1013.931 .0255178
1014.523 .0255092
1015.115 .0255004
1015.706 .0254913
1016.298 .0254819
1016.888 .0254723
1017.479 .0254625
1018.069 .0254527
1018.660 .0254429
1019.250 .0254332
1019.839 .0254236
1020.429 .0254142
1021.018 .0254048
1021.607 .0253956
1022.195 .0253863
1022.784 .0253769
1023.372 .0253673
1023.960 .0253577
1024.547 .0253479
1025.135 .0253382
1025.722 .0253285
1026.309 .0253188
1026.896 .0253093
1027.483 .0252997
1028.069 .0252901
1028.655 .0252802
1029.241 .0252700
1029.827 .0252593
1030.412 .0252481
1030.997 .0252364
1031.582 .0252243
1032.167 .0252117
1032.752 .0251989
1033.336 .0251859
1033.921 .0251725
1034.505 .0251588
1035.089 .0251446
1035.672 .0251297
1036.256 .0251141
1036.839 .0250977
1037.422 .0250806
1038.005 .0250627
1038.588 .0250443
1039.171 .0250253
1039.753 .0250059
1040.335 .0249862
1040.918 .0249662
1041.500 .0249459
1042.081 .0249253
1042.663 .0249043
1043.244 .0248830
1043.826 .0248614
1044.407 .0248397
1044.988 .0248181
1045.569 .0247967
1046.150 .0247757
1046.730 .0247552
1047.311 .0247352
1047.891 .0247159
1048.471 .0246971
1049.052 .0246788
1049.632 .0246610
1050.211 .0246436
1050.791 .0246267
1051.371 .0246102
1051.950 .0245943
1052.530 .0245788
1053.109 .0245640
1053.688 .0245497
1054.268 .0245360
1054.847 .0245228
1055.426 .0245101
1056.005 .0244979
1056.583 .0244860
1057.162 .0244745
1057.741 .0244633
1058.319 .0244524
1058.898 .0244418
1059.476 .0244315
1060.055 .0244215
1060.633 .0244117
1061.211 .0244022
1061.790 .0243930
1062.368 .0243841
1062.946 .0243755
1063.524 .0243671
1064.102 .0243589
1064.680 .0243511
1065.258 .0243434
1065.836 .0243360
1066.414 .0243287
1066.992 .0243217
1067.570 .0243148
1068.148 .0243083
1068.726 .0243020
1069.304 .0242962
1069.882 .0242908
1070.460 .0242859
1071.038 .0242814
1071.616 .0242774
1072.194 .0242738
1072.772 .0242706
1073.350 .0242678
1073.928 .0242652
1074.506 .0242630
1075.084 .0242610
1075.662 .0242595
1076.240 .0242585
1076.819 .0242580
1077.397 .0242581
1077.976 .0242589
1078.554 .0242604
1079.133 .0242625
1079.711 .0242653
1080.290 .0242687
1080.869 .0242727
1081.448 .0242774
1082.027 .0242828
1082.606 .0242889
1083.185 .0242959
1083.764 .0243038
1084.343 .0243127
1084.923 .0243225
1085.502 .0243332
1086.082 .0243447
1086.662 .0243570
1087.242 .0243700
1087.822 .0243839
1088.402 .0243986
1088.983 .0244142
1089.563 .0244309
1090.144 .0244486
1090.725 .0244675
1091.306 .0244877
1091.887 .0245091
1092.469 .0245316
1093.050 .0245552
1093.632 .0245798
1094.214 .0246051
1094.796 .0246313
1095.379 .0246581
1095.961 .0246856
1096.544 .0247137
1097.127 .0247422
1097.710 .0247710
1098.294 .0248002
1098.877 .0248298
1099.461 .0248597
1100.046 .0248901
1100.630 .0249210
1101.215 .0249525
1101.800 .0249848
1102.385 .0250180
1102.970 .0250522
1103.556 .0250872
1104.142 .0251231
1104.728 .0251597
1105.315 .0251971
1105.902 .0252352
1106.489 .0252741
1107.077 .0253140
1107.664 .0253548
1108.253 .0253966
1108.841 .0254394
1109.430 .0254831
1110.019 .0255275
1110.609 .0255725
1111.198 .0256180
1111.789 .0256639
1112.379 .0257103
1112.970 .0257573
1113.561 .0258051
1114.153 .0258538
1114.745 .0259038
1115.338 .0259552
1115.931 .0260079
1116.524 .0260619
1117.117 .0261171
1117.712 .0261735
1118.306 .0262309
1118.901 .0262895
1119.496 .0263491
1120.092 .0264101
1120.689 .0264726
1121.285 .0265366
1121.882 .0266024
1122.480 .0266698
1123.078 .0267390
1123.677 .0268100
1124.276 .0268824
1124.875 .0269563
1125.476 .0270316
1126.076 .0271084
1126.677 .0271868
1127.279 .0272666
1127.881 .0273481
1128.484 .0274313
1129.087 .0274688
1129.691 .0275549
1130.295 .0276422
1130.900 .0277307
1131.505 .0278202
1132.111 .0279105
1132.718 .0280013
1133.325 .0280923
1133.933 .0281833
1134.541 .0282781
1135.150 .0283726
1135.760 .0284607
1136.370 .0285453
1136.981 .0287456
1137.592 .0288419
1138.204 .0289325
1138.817 .0290198
1139.431 .0291093
1140.045 .0291981
1140.660 .0292802
1141.275 .0293542
1141.891 .0294233
1142.508 .0296004
1143.126 .0296643
1143.744 .0295574
1144.363 .0295403
1144.983 .0296666
