Measurement Sequence started on: 15-12-46-377
Integration time: 28
Scans to Average: 2 
>>>>>Begin Spectral Data<<<<<
432.689 .0000100
433.621 .0000100
434.552 .0000100
435.482 .0000100
436.410 .0000100
437.337 .0000100
438.262 .0272820
439.187 .0578094
440.110 .0958322
441.031 .1387229
441.952 .1115442
442.871 .1165303
443.789 .1211720
444.705 .1255382
445.621 .1296778
446.535 .1336282
447.447 .1359822
448.359 .1365909
449.269 .1350788
450.178 .1312040
451.086 .1250427
451.993 .1170688
452.898 .1080672
453.803 .0989293
454.706 .0904154
455.608 .0829976
456.508 .0768363
457.408 .0726351
458.306 .0693819
459.204 .0667168
460.100 .0644570
460.995 .0625017
461.888 .0607850
462.781 .0592607
463.673 .0578941
464.563 .0566601
465.452 .0555389
466.340 .0545143
467.228 .0535746
468.114 .0527114
468.999 .0519170
469.882 .0511864
470.765 .0505156
471.647 .0499005
472.528 .0493393
473.407 .0488289
474.286 .0483664
475.163 .0479503
476.040 .0475782
476.915 .0472480
477.790 .0469576
478.663 .0467051
479.535 .0464880
480.407 .0463043
481.277 .0461511
482.147 .0460258
483.015 .0459254
483.883 .0458477
484.749 .0457904
485.615 .0457524
486.479 .0457326
487.343 .0457300
488.206 .0457452
489.067 .0457783
489.928 .0458292
490.788 .0458987
491.647 .0459863
492.505 .0460920
493.362 .0462160
494.218 .0463584
495.073 .0465198
495.928 .0468406
496.781 .0470577
497.634 .0472981
498.486 .0475630
499.337 .0478531
500.187 .0481694
501.036 .0485131
501.884 .0488849
502.731 .0492863
503.578 .0497205
504.424 .0500042
505.268 .0504994
506.113 .0510394
506.956 .0516288
507.798 .0522736
508.640 .0529820
509.480 .0537637
510.320 .0546301
511.160 .0555951
511.998 .0566743
512.836 .0578859
513.672 .0592493
514.508 .0607869
515.344 .0625217
516.178 .0644782
517.012 .0666817
517.845 .0691567
518.677 .0719241
519.508 .0750004
520.339 .0783960
521.169 .0821159
521.998 .0861373
522.826 .0904245
523.654 .0949227
524.481 .0995639
525.307 .1042677
526.133 .1089407
526.958 .1134854
527.782 .1178095
528.605 .1218254
529.428 .1254561
530.250 .1286306
531.072 .1313032
531.892 .1334329
532.712 .1349921
533.532 .1359620
534.350 .1363326
535.168 .1361026
535.986 .1352781
536.802 .1338681
537.618 .1318853
538.434 .1293441
539.249 .1262864
540.063 .1227632
540.876 .1188397
541.689 .1145923
542.501 .1101066
543.313 .1054759
544.124 .1007960
544.934 .0961527
545.744 .0916241
546.553 .0872770
547.361 .0831682
548.169 .0793281
548.976 .0757799
549.783 .0725324
550.589 .0695828
551.395 .0669187
552.200 .0645189
553.004 .0623561
553.808 .0604048
554.611 .0586402
555.414 .0570395
556.216 .0555796
557.018 .0542410
557.819 .0530078
558.619 .0518673
559.419 .0508085
560.218 .0498235
561.017 .0489045
561.815 .0480465
562.613 .0472443
563.410 .0464912
564.207 .0457815
565.003 .0451096
565.799 .0444695
566.594 .0438558
567.388 .0432655
568.182 .0426958
568.976 .0421444
569.769 .0416114
570.562 .0410965
571.354 .0405998
572.145 .0401219
572.936 .0396630
573.727 .0392225
574.517 .0387998
575.307 .0383941
576.096 .0380042
576.885 .0376297
577.673 .0372703
578.461 .0369257
579.248 .0365961
580.035 .0362826
580.821 .0359854
581.607 .0357049
582.392 .0354418
583.177 .0351959
583.962 .0349665
584.746 .0347530
585.529 .0345542
586.313 .0343693
587.095 .0341972
587.878 .0340368
588.660 .0338871
589.441 .0337474
590.222 .0336171
591.003 .0334957
591.783 .0333826
592.563 .0332772
593.342 .0331788
594.121 .0330867
594.899 .0330003
595.678 .0329190
596.455 .0328420
597.233 .0327690
598.009 .0326995
598.786 .0326333
599.562 .0325701
600.338 .0325099
601.113 .0324525
601.888 .0323764
602.663 .0323255
603.437 .0322771
604.211 .0322311
604.984 .0321872
605.757 .0321452
606.530 .0321048
607.302 .0320659
608.074 .0320283
608.845 .0319921
609.616 .0319573
610.387 .0319429
611.158 .0319103
611.928 .0318794
612.697 .0318499
613.467 .0318221
614.236 .0317957
615.004 .0317707
615.773 .0317469
616.541 .0317244
617.308 .0317030
618.076 .0316826
618.843 .0316632
619.609 .0316446
620.375 .0316270
621.141 .0316100
621.907 .0315936
622.672 .0315776
623.437 .0315618
624.202 .0315461
624.966 .0315303
625.730 .0315145
626.493 .0314985
627.257 .0314823
628.020 .0314656
628.782 .0314485
629.545 .0314308
630.307 .0314123
631.068 .0313932
631.830 .0313732
632.591 .0313525
633.352 .0313311
634.112 .0313089
634.872 .0312862
635.632 .0312629
636.392 .0312390
637.151 .0312146
637.910 .0311897
638.668 .0311643
639.427 .0311385
640.185 .0311125
640.943 .0310863
641.700 .0310600
642.457 .0310338
643.214 .0310075
643.971 .0309811
644.727 .0309547
645.483 .0309281
646.239 .0309013
646.994 .0308743
647.750 .0308471
648.505 .0308197
649.259 .0307922
650.014 .0307645
650.768 .0307367
651.521 .0307088
652.275 .0306806
653.028 .0306522
653.781 .0306235
654.534 .0305944
655.286 .0305652
656.039 .0305357
656.791 .0305060
657.542 .0304762
658.294 .0304463
659.045 .0304162
659.796 .0303861
660.546 .0303560
661.297 .0303258
662.047 .0302957
662.796 .0302656
663.546 .0302357
664.295 .0302060
665.044 .0301765
665.793 .0301472
666.542 .0301183
667.290 .0300898
668.038 .0300616
668.786 .0300340
669.533 .0300069
670.281 .0299803
671.028 .0299544
671.774 .0299292
672.521 .0299048
673.267 .0298811
674.013 .0298582
674.759 .0298363
675.505 .0298151
676.250 .0297949
676.995 .0297755
677.740 .0297570
678.484 .0297394
679.229 .0297227
679.973 .0297069
680.717 .0296920
681.460 .0296779
682.204 .0296647
682.947 .0296523
683.690 .0296406
684.433 .0296297
685.175 .0296193
685.917 .0296094
686.659 .0295999
687.401 .0295908
688.142 .0295821
688.884 .0295737
689.625 .0295656
690.365 .0295576
691.106 .0295497
691.846 .0295417
692.586 .0295337
693.326 .0295255
694.066 .0295171
694.805 .0295084
695.545 .0294995
696.284 .0294903
697.022 .0294808
697.761 .0294711
698.499 .0294612
699.237 .0294510
699.975 .0294405
700.713 .0294298
701.450 .0294186
702.187 .0294071
702.924 .0293953
703.661 .0293831
704.397 .0293706
705.133 .0293578
705.869 .0293446
706.605 .0293310
707.341 .0293170
708.076 .0293026
708.811 .0292877
709.546 .0292724
710.281 .0292566
711.015 .0292402
711.749 .0292233
712.483 .0292059
713.217 .0291879
713.950 .0291693
714.684 .0291502
715.417 .0291304
716.150 .0291100
716.882 .0290890
717.615 .0290674
718.347 .0290451
719.079 .0290223
719.811 .0289988
720.542 .0289748
721.273 .0289503
722.005 .0289253
722.735 .0289000
723.466 .0288745
724.196 .0288487
724.927 .0288228
725.656 .0287968
726.386 .0287707
727.116 .0287447
727.845 .0287188
728.574 .0286929
729.303 .0286672
730.031 .0286417
730.760 .0286164
731.488 .0285913
732.216 .0285665
732.944 .0285420
733.671 .0285179
734.398 .0284941
735.125 .0284707
735.852 .0284477
736.579 .0284251
737.305 .0284029
738.031 .0283810
738.757 .0283595
739.483 .0283382
740.208 .0283173
740.933 .0282967
741.658 .0282765
742.383 .0282567
743.108 .0282373
743.832 .0282186
744.556 .0282005
745.280 .0281830
746.004 .0281662
746.727 .0281501
747.450 .0281347
748.173 .0281199
748.896 .0281057
749.618 .0280922
750.340 .0280794
751.062 .0280673
751.784 .0280559
752.506 .0280453
753.227 .0280354
753.948 .0280262
754.669 .0280178
755.389 .0280100
756.110 .0280028
756.830 .0279963
757.550 .0279903
758.269 .0279848
758.989 .0279797
759.708 .0279751
760.427 .0279709
761.146 .0279671
761.864 .0279636
762.582 .0279605
763.300 .0279577
764.018 .0279553
764.736 .0279532
765.453 .0279515
766.170 .0279501
766.887 .0279490
767.603 .0279483
768.320 .0279479
769.036 .0279477
769.751 .0279479
770.467 .0279484
771.182 .0279493
771.897 .0279505
772.612 .0279522
773.327 .0279542
774.041 .0279567
774.755 .0279596
775.469 .0279628
776.183 .0279663
776.896 .0279701
777.609 .0279740
778.322 .0279780
779.035 .0279820
779.747 .0279860
780.459 .0279899
781.171 .0279936
781.882 .0279971
782.594 .0280002
783.305 .0280029
784.016 .0280051
784.726 .0280067
785.436 .0280078
786.147 .0280065
786.856 .0280058
787.566 .0280043
788.275 .0280020
788.984 .0279990
789.693 .0279950
790.401 .0279902
791.110 .0279844
791.818 .0279778
792.525 .0279703
793.233 .0279620
793.940 .0279529
794.647 .0279462
795.353 .0279359
796.060 .0279248
796.766 .0279127
797.472 .0278998
798.177 .0278858
798.883 .0278709
799.588 .0278549
800.292 .0278380
800.997 .0278202
801.701 .0278016
802.405 .0277823
803.109 .0277621
803.812 .0277413
804.515 .0277196
805.218 .0276972
805.921 .0276740
806.623 .0276500
807.325 .0276253
808.027 .0275998
808.728 .0275738
809.429 .0275471
810.130 .0275200
810.831 .0274923
811.531 .0274642
812.231 .0274357
812.931 .0274069
813.630 .0273778
814.330 .0273485
815.029 .0273191
815.727 .0272899
816.426 .0272609
817.124 .0272321
817.821 .0272037
818.519 .0271758
819.216 .0271482
819.913 .0271211
820.609 .0270944
821.306 .0270683
822.002 .0270427
822.697 .0270178
823.393 .0269937
824.088 .0269703
824.783 .0269476
825.477 .0269257
826.171 .0269045
826.865 .0268838
827.559 .0268638
828.252 .0268443
828.945 .0268255
829.638 .0268072
830.330 .0267897
831.023 .0267728
831.714 .0267566
832.406 .0267411
833.097 .0267262
833.788 .0267120
834.479 .0266984
835.169 .0266855
835.859 .0266733
836.548 .0266617
837.238 .0266508
837.927 .0266406
838.615 .0266311
839.304 .0266221
839.992 .0266137
840.680 .0266058
841.367 .0265984
842.054 .0265916
842.741 .0265853
843.428 .0265796
844.114 .0265746
844.800 .0265702
845.485 .0265665
846.170 .0265635
846.855 .0265610
847.540 .0265592
848.224 .0265578
848.908 .0265569
849.592 .0265566
850.275 .0265567
850.958 .0265573
851.641 .0265584
852.323 .0265599
853.005 .0265619
853.687 .0265643
854.368 .0265672
855.049 .0265704
855.730 .0265740
856.410 .0265781
857.090 .0265826
857.769 .0265876
858.449 .0265931
859.128 .0265990
859.806 .0266053
860.485 .0266120
861.163 .0266191
861.840 .0266265
862.518 .0266343
863.195 .0266424
863.871 .0266508
864.548 .0266595
865.224 .0266685
865.899 .0266777
866.574 .0266871
867.249 .0266964
867.924 .0267057
868.598 .0267148
869.272 .0267237
869.946 .0267323
870.619 .0267406
871.292 .0267487
871.964 .0267564
872.636 .0267637
873.308 .0267707
873.979 .0267774
874.651 .0267836
875.321 .0267895
875.992 .0267949
876.662 .0267998
877.331 .0268043
878.001 .0268083
878.670 .0268119
879.338 .0268150
880.007 .0268177
880.675 .0268200
881.342 .0268218
882.009 .0268232
882.676 .0268242
883.343 .0268248
884.009 .0268250
884.675 .0268249
885.340 .0268244
886.005 .0268237
886.670 .0268227
887.334 .0268214
887.998 .0268200
888.662 .0268182
889.325 .0268163
889.988 .0268140
890.650 .0268115
891.312 .0268087
891.974 .0268055
892.636 .0268019
893.297 .0267978
893.957 .0267931
894.618 .0267877
895.278 .0267816
895.937 .0267746
896.596 .0267668
897.255 .0267580
897.914 .0267482
898.572 .0267374
899.230 .0267254
899.887 .0267122
900.544 .0266978
901.201 .0266822
901.857 .0266534
902.513 .0266348
903.168 .0266152
903.823 .0265945
904.478 .0265728
905.132 .0265500
905.786 .0265262
906.440 .0265014
907.093 .0264755
907.746 .0264485
908.399 .0264206
909.051 .0263919
909.703 .0263624
910.354 .0263463
911.005 .0263163
911.656 .0262857
912.306 .0262548
912.956 .0262234
913.605 .0261915
914.254 .0261592
914.903 .0261265
915.551 .0260934
916.199 .0260601
916.847 .0260266
917.494 .0259931
918.141 .0259595
918.788 .0259259
919.434 .0258922
920.079 .0258583
920.725 .0258241
921.370 .0257896
922.014 .0257547
922.658 .0257194
923.302 .0256838
923.946 .0256479
924.589 .0256118
925.231 .0255756
925.873 .0255394
926.515 .0255031
927.157 .0254668
927.798 .0254305
928.439 .0253942
929.079 .0253581
929.719 .0253220
930.359 .0252863
930.998 .0252508
931.637 .0252158
932.275 .0251813
932.913 .0251473
933.551 .0251140
934.188 .0250815
934.825 .0250497
935.462 .0250187
936.098 .0249887
936.733 .0249596
937.369 .0249316
938.004 .0249047
938.638 .0248790
939.273 .0248546
939.907 .0248314
940.540 .0248095
941.173 .0247888
941.806 .0247694
942.438 .0247511
943.070 .0247340
943.702 .0247179
944.333 .0247027
944.964 .0246884
945.594 .0246748
946.224 .0246619
946.854 .0246495
947.483 .0246377
948.112 .0246264
948.741 .0246157
949.369 .0246055
949.996 .0245957
950.624 .0245865
951.251 .0245776
951.878 .0245691
952.504 .0245609
953.130 .0245530
953.755 .0245454
954.380 .0245381
955.005 .0245311
955.629 .0245245
956.253 .0245183
956.877 .0245126
957.500 .0245073
958.123 .0245026
958.746 .0244984
959.368 .0244947
959.990 .0244917
960.611 .0244893
961.232 .0244877
961.853 .0244868
962.473 .0244869
963.093 .0244878
963.712 .0244897
964.331 .0244926
964.950 .0244965
965.569 .0245013
966.187 .0245072
966.804 .0245139
967.422 .0245215
968.039 .0245298
968.655 .0245387
969.272 .0245481
969.887 .0245580
970.503 .0245683
971.118 .0245790
971.733 .0245900
972.347 .0246013
972.961 .0246128
973.575 .0246246
974.188 .0246365
974.801 .0246486
975.414 .0246608
976.026 .0246730
976.638 .0246853
977.250 .0246975
977.861 .0247098
978.472 .0247219
979.083 .0247340
979.693 .0247458
980.303 .0247575
980.912 .0247741
981.521 .0247852
982.130 .0247961
982.738 .0248067
983.346 .0248170
983.954 .0248273
984.562 .0248374
985.169 .0248476
985.775 .0248579
986.382 .0248684
986.988 .0248792
987.594 .0248904
988.199 .0249020
988.804 .0249140
989.409 .0249210
990.013 .0249338
990.617 .0249472
991.221 .0249611
991.824 .0249755
992.427 .0249904
993.030 .0250057
993.632 .0250215
994.234 .0250376
994.836 .0250541
995.438 .0250710
996.039 .0250881
996.640 .0251056
997.240 .0251234
997.840 .0251415
998.440 .0251599
999.040 .0251787
999.639 .0251976
1000.238 .0252167
1000.836 .0252359
1001.435 .0252551
1002.033 .0252741
1002.630 .0252929
1003.228 .0253115
1003.825 .0253297
1004.422 .0253475
1005.018 .0253649
1005.614 .0253818
1006.210 .0253981
1006.806 .0254137
1007.401 .0254284
1007.996 .0254421
1008.591 .0254549
1009.186 .0254667
1009.780 .0254776
1010.374 .0254875
1010.967 .0254967
1011.561 .0255052
1012.154 .0255132
1012.746 .0255207
1013.339 .0255278
1013.931 .0255343
1014.523 .0255404
1015.115 .0255459
1015.706 .0255507
1016.298 .0255549
1016.888 .0255587
1017.479 .0255620
1018.069 .0255651
1018.660 .0255680
1019.250 .0255709
1019.839 .0255738
1020.429 .0255767
1021.018 .0255795
1021.607 .0255821
1022.195 .0255844
1022.784 .0255863
1023.372 .0255880
1023.960 .0255894
1024.547 .0255906
1025.135 .0255919
1025.722 .0255933
1026.309 .0255948
1026.896 .0255962
1027.483 .0255975
1028.069 .0255984
1028.655 .0255988
1029.241 .0255985
1029.827 .0255973
1030.412 .0255953
1030.997 .0255926
1031.582 .0255891
1032.167 .0255850
1032.752 .0255804
1033.336 .0255752
1033.921 .0255693
1034.505 .0255627
1035.089 .0255551
1035.672 .0255465
1036.256 .0255366
1036.839 .0255255
1037.422 .0255133
1038.005 .0255001
1038.588 .0254859
1039.171 .0254709
1039.753 .0254553
1040.335 .0254391
1040.918 .0254222
1041.500 .0254047
1042.081 .0253865
1042.663 .0253675
1043.244 .0253479
1043.826 .0253278
1044.407 .0253072
1044.988 .0252863
1045.569 .0252654
1046.150 .0252444
1046.730 .0252236
1047.311 .0252028
1047.891 .0251820
1048.471 .0251613
1049.052 .0251404
1049.632 .0251194
1050.211 .0250983
1050.791 .0250771
1051.371 .0250559
1051.950 .0250346
1052.530 .0250135
1053.109 .0249924
1053.688 .0249715
1054.268 .0249508
1054.847 .0249303
1055.426 .0249101
1056.005 .0248901
1056.583 .0248706
1057.162 .0248514
1057.741 .0248328
1058.319 .0248147
1058.898 .0247972
1059.476 .0247802
1060.055 .0247637
1060.633 .0247475
1061.211 .0247317
1061.790 .0247161
1062.368 .0247007
1062.946 .0246855
1063.524 .0246703
1064.102 .0246552
1064.680 .0246402
1065.258 .0246251
1065.836 .0246102
1066.414 .0245953
1066.992 .0245805
1067.570 .0245659
1068.148 .0245514
1068.726 .0245372
1069.304 .0245233
1069.882 .0245098
1070.460 .0244965
1071.038 .0244834
1071.616 .0244705
1072.194 .0244575
1072.772 .0244444
1073.350 .0244311
1073.928 .0244176
1074.506 .0244037
1075.084 .0243895
1075.662 .0243751
1076.240 .0243605
1076.819 .0243458
1077.397 .0243311
1077.976 .0243163
1078.554 .0243015
1079.133 .0242867
1079.711 .0242719
1080.290 .0242574
1080.869 .0242433
1081.448 .0242296
1082.027 .0242166
1082.606 .0242044
1083.185 .0241931
1083.764 .0241828
1084.343 .0241737
1084.923 .0241657
1085.502 .0241587
1086.082 .0241528
1086.662 .0241478
1087.242 .0241437
1087.822 .0241407
1088.402 .0241387
1088.983 .0241380
1089.563 .0241386
1090.144 .0241407
1090.725 .0241442
1091.306 .0241492
1091.887 .0241556
1092.469 .0241632
1093.050 .0241720
1093.632 .0241819
1094.214 .0241928
1094.796 .0242048
1095.379 .0242180
1095.961 .0242325
1096.544 .0242484
1097.127 .0242656
1097.710 .0242840
1098.294 .0243034
1098.877 .0243236
1099.461 .0243444
1100.046 .0243655
1100.630 .0243871
1101.215 .0244089
1101.800 .0244310
1102.385 .0244536
1102.970 .0244767
1103.556 .0245005
1104.142 .0245249
1104.728 .0245496
1105.315 .0245747
1105.902 .0245999
1106.489 .0246251
1107.077 .0246502
1107.664 .0246756
1108.253 .0247012
1108.841 .0247274
1109.430 .0247545
1110.019 .0247823
1110.609 .0248112
1111.198 .0248410
1111.789 .0248716
1112.379 .0249027
1112.970 .0249342
1113.561 .0249658
1114.153 .0249974
1114.745 .0250293
1115.338 .0250616
1115.931 .0250944
1116.524 .0251282
1117.117 .0251630
1117.712 .0251988
1118.306 .0252356
1118.901 .0252734
1119.496 .0253122
1120.092 .0253521
1120.689 .0253931
1121.285 .0254355
1121.882 .0254795
1122.480 .0255254
1123.078 .0255735
1123.677 .0256242
1124.276 .0256771
1124.875 .0257323
1125.476 .0257894
1126.076 .0258483
1126.677 .0259087
1127.279 .0259709
1127.881 .0260350
1128.484 .0261015
1129.087 .0261286
1129.691 .0261989
1130.295 .0262724
1130.900 .0263499
1131.505 .0264316
1132.111 .0265181
1132.718 .0266100
1133.325 .0267082
1133.933 .0268140
1134.541 .0269196
1135.150 .0270386
1135.760 .0271724
1136.370 .0273193
1136.981 .0272266
1137.592 .0273501
1138.204 .0274813
1138.817 .0276249
1139.431 .0277805
1140.045 .0279499
1140.660 .0281406
1141.275 .0283586
1141.891 .0286200
1142.508 .0286657
1143.126 .0290946
1143.744 .0295611
1144.363 .0299870
1144.983 .0306196
