Measurement Sequence started on: 15-12-46-377
Integration time: 28
Scans to Average: 2 
>>>>>Begin Spectral Data<<<<<
432.689 .0000100
433.621 .0000100
434.552 .0000100
435.482 .0000100
436.410 .0000100
437.337 .0000100
438.262 .0281251
439.187 .0594470
440.110 .0983755
441.031 .1421491
441.952 .1132049
442.871 .1181843
443.789 .1228221
444.705 .1271887
445.621 .1313314
446.535 .1352873
447.447 .1376021
448.359 .1381282
449.269 .1364823
450.178 .1324226
451.086 .1260314
451.993 .1178013
452.898 .1085428
453.803 .0991732
454.706 .0904683
455.608 .0829064
456.508 .0766429
457.408 .0723960
458.306 .0691130
459.204 .0664218
460.100 .0641338
460.995 .0621492
461.888 .0604004
462.781 .0588435
463.673 .0574448
464.563 .0561819
465.452 .0550367
466.340 .0539951
467.228 .0530464
468.114 .0521833
468.999 .0513989
469.882 .0506869
470.765 .0500411
471.647 .0494564
472.528 .0489276
473.407 .0484508
474.286 .0480225
475.163 .0476408
476.040 .0473019
476.915 .0470037
477.790 .0467436
478.663 .0465195
479.535 .0463287
480.407 .0461689
481.277 .0460375
482.147 .0459320
483.015 .0458502
483.883 .0457901
484.749 .0457498
485.615 .0457283
486.479 .0457246
487.343 .0457379
488.206 .0457682
489.067 .0458146
489.928 .0458772
490.788 .0459558
491.647 .0460506
492.505 .0461617
493.362 .0462897
494.218 .0464352
495.073 .0465992
495.928 .0469144
496.781 .0471301
497.634 .0473668
498.486 .0476250
499.337 .0479060
500.187 .0482116
501.036 .0485442
501.884 .0489065
502.731 .0493020
503.578 .0497342
504.424 .0500301
505.268 .0505299
506.113 .0510762
506.956 .0516731
507.798 .0523258
508.640 .0530418
509.480 .0538315
510.320 .0547060
511.160 .0556777
511.998 .0567615
512.836 .0579760
513.672 .0593382
514.508 .0608688
515.344 .0625890
516.178 .0645212
517.012 .0666894
517.845 .0691158
518.677 .0718202
519.508 .0748199
520.339 .0781219
521.169 .0817308
521.998 .0856218
522.826 .0897618
523.654 .0940972
524.481 .0985622
525.307 .1030789
526.133 .1075560
526.958 .1118962
527.782 .1160077
528.605 .1198032
529.428 .1232077
530.250 .1261505
531.072 .1285909
531.892 .1304939
532.712 .1318400
533.532 .1326190
534.350 .1328287
535.168 .1324747
535.986 .1315648
536.802 .1301023
537.618 .1280982
538.434 .1255626
539.249 .1225338
540.063 .1190584
540.876 .1152000
541.689 .1110339
542.501 .1066458
543.313 .1021297
544.124 .0975815
544.934 .0930887
545.744 .0887305
546.553 .0845700
547.361 .0806623
548.169 .0770337
548.976 .0737008
549.783 .0706649
550.589 .0679172
551.395 .0654375
552.200 .0631994
553.004 .0611743
553.808 .0593407
554.611 .0576778
555.414 .0561686
556.216 .0547958
557.018 .0535426
557.819 .0523954
558.619 .0513403
559.419 .0503641
560.218 .0494570
561.017 .0486094
561.815 .0478148
562.613 .0470672
563.410 .0463624
564.207 .0456960
565.003 .0450641
565.799 .0444630
566.594 .0438887
567.388 .0433366
568.182 .0428041
568.976 .0422883
569.769 .0417877
570.562 .0413013
571.354 .0408289
572.145 .0403703
572.936 .0399259
573.727 .0394958
574.517 .0390798
575.307 .0386774
576.096 .0382884
576.885 .0379125
577.673 .0375496
578.461 .0371995
579.248 .0368628
580.035 .0365400
580.821 .0362321
581.607 .0359395
582.392 .0356632
583.177 .0354034
583.962 .0351606
584.746 .0349345
585.529 .0347247
586.313 .0345306
587.095 .0343513
587.878 .0341856
588.660 .0340326
589.441 .0338912
590.222 .0337605
591.003 .0336398
591.783 .0335286
592.563 .0334259
593.342 .0333311
594.121 .0332432
594.899 .0331615
595.678 .0330849
596.455 .0330127
597.233 .0329440
598.009 .0328782
598.786 .0328145
599.562 .0327527
600.338 .0326923
601.113 .0326333
601.888 .0325488
602.663 .0324932
603.437 .0324390
604.211 .0323862
604.984 .0323348
605.757 .0322849
606.530 .0322366
607.302 .0321898
608.074 .0321446
608.845 .0321011
609.616 .0320594
610.387 .0320432
611.158 .0320041
611.928 .0319668
612.697 .0319312
613.467 .0318972
614.236 .0318648
615.004 .0318338
615.773 .0318042
616.541 .0317759
617.308 .0317486
618.076 .0317223
618.843 .0316967
619.609 .0316717
620.375 .0316470
621.141 .0316226
621.907 .0315984
622.672 .0315744
623.437 .0315505
624.202 .0315266
624.966 .0315029
625.730 .0314793
626.493 .0314558
627.257 .0314323
628.020 .0314089
628.782 .0313855
629.545 .0313623
630.307 .0313391
631.068 .0313161
631.830 .0312932
632.591 .0312706
633.352 .0312483
634.112 .0312261
634.872 .0312041
635.632 .0311823
636.392 .0311607
637.151 .0311391
637.910 .0311176
638.668 .0310962
639.427 .0310750
640.185 .0310538
640.943 .0310328
641.700 .0310120
642.457 .0309914
643.214 .0309709
643.971 .0309506
644.727 .0309304
645.483 .0309104
646.239 .0308906
646.994 .0308710
647.750 .0308515
648.505 .0308323
649.259 .0308133
650.014 .0307943
650.768 .0307756
651.521 .0307569
652.275 .0307384
653.028 .0307200
653.781 .0307018
654.534 .0306837
655.286 .0306658
656.039 .0306481
656.791 .0306304
657.542 .0306126
658.294 .0305947
659.045 .0305764
659.796 .0305577
660.546 .0305386
661.297 .0305190
662.047 .0304989
662.796 .0304784
663.546 .0304575
664.295 .0304361
665.044 .0304144
665.793 .0303923
666.542 .0303698
667.290 .0303471
668.038 .0303242
668.786 .0303010
669.533 .0302778
670.281 .0302545
671.028 .0302312
671.774 .0302079
672.521 .0301848
673.267 .0301619
674.013 .0301391
674.759 .0301165
675.505 .0300942
676.250 .0300721
676.995 .0300501
677.740 .0300282
678.484 .0300061
679.229 .0299840
679.973 .0299615
680.717 .0299388
681.460 .0299159
682.204 .0298927
682.947 .0298693
683.690 .0298458
684.433 .0298221
685.175 .0297983
685.917 .0297743
686.659 .0297502
687.401 .0297259
688.142 .0297013
688.884 .0296765
689.625 .0296515
690.365 .0296265
691.106 .0296016
691.846 .0295768
692.586 .0295524
693.326 .0295283
694.066 .0295046
694.805 .0294814
695.545 .0294587
696.284 .0294365
697.022 .0294149
697.761 .0293937
698.499 .0293731
699.237 .0293530
699.975 .0293333
700.713 .0293142
701.450 .0292956
702.187 .0292775
702.924 .0292599
703.661 .0292429
704.397 .0292265
705.133 .0292105
705.869 .0291949
706.605 .0291795
707.341 .0291643
708.076 .0291491
708.811 .0291339
709.546 .0291187
710.281 .0291034
711.015 .0290881
711.749 .0290729
712.483 .0290578
713.217 .0290428
713.950 .0290280
714.684 .0290131
715.417 .0289983
716.150 .0289834
716.882 .0289683
717.615 .0289531
718.347 .0289377
719.079 .0289221
719.811 .0289065
720.542 .0288908
721.273 .0288752
722.005 .0288596
722.735 .0288442
723.466 .0288289
724.196 .0288138
724.927 .0287989
725.656 .0287842
726.386 .0287698
727.116 .0287555
727.845 .0287415
728.574 .0287278
729.303 .0287145
730.031 .0287017
730.760 .0286893
731.488 .0286776
732.216 .0286665
732.944 .0286559
733.671 .0286460
734.398 .0286366
735.125 .0286276
735.852 .0286190
736.579 .0286108
737.305 .0286030
738.031 .0285955
738.757 .0285885
739.483 .0285819
740.208 .0285757
740.933 .0285700
741.658 .0285646
742.383 .0285596
743.108 .0285548
743.832 .0285502
744.556 .0285456
745.280 .0285410
746.004 .0285363
746.727 .0285314
747.450 .0285263
748.173 .0285208
748.896 .0285150
749.618 .0285087
750.340 .0285021
751.062 .0284951
751.784 .0284877
752.506 .0284798
753.227 .0284715
753.948 .0284626
754.669 .0284533
755.389 .0284432
756.110 .0284326
756.830 .0284212
757.550 .0284092
758.269 .0283965
758.989 .0283833
759.708 .0283695
760.427 .0283552
761.146 .0283405
761.864 .0283253
762.582 .0283098
763.300 .0282939
764.018 .0282777
764.736 .0282611
765.453 .0282444
766.170 .0282274
766.887 .0282102
767.603 .0281929
768.320 .0281756
769.036 .0281584
769.751 .0281412
770.467 .0281242
771.182 .0281075
771.897 .0280911
772.612 .0280752
773.327 .0280596
774.041 .0280446
774.755 .0280300
775.469 .0280159
776.183 .0280022
776.896 .0279890
777.609 .0279761
778.322 .0279637
779.035 .0279515
779.747 .0279397
780.459 .0279282
781.171 .0279169
781.882 .0279059
782.594 .0278951
783.305 .0278845
784.016 .0278741
784.726 .0278638
785.436 .0278536
786.147 .0278378
786.856 .0278272
787.566 .0278164
788.275 .0278052
788.984 .0277936
789.693 .0277815
790.401 .0277689
791.110 .0277557
791.818 .0277419
792.525 .0277275
793.233 .0277126
793.940 .0276971
794.647 .0276878
795.353 .0276716
796.060 .0276549
796.766 .0276378
797.472 .0276201
798.177 .0276020
798.883 .0275834
799.588 .0275643
800.292 .0275447
800.997 .0275247
801.701 .0275044
802.405 .0274839
803.109 .0274631
803.812 .0274422
804.515 .0274213
805.218 .0274004
805.921 .0273794
806.623 .0273585
807.325 .0273376
808.027 .0273167
808.728 .0272959
809.429 .0272753
810.130 .0272548
810.831 .0272345
811.531 .0272146
812.231 .0271951
812.931 .0271759
813.630 .0271572
814.330 .0271390
815.029 .0271213
815.727 .0271041
816.426 .0270874
817.124 .0270713
817.821 .0270557
818.519 .0270406
819.216 .0270262
819.913 .0270122
820.609 .0269988
821.306 .0269860
822.002 .0269736
822.697 .0269618
823.393 .0269507
824.088 .0269401
824.783 .0269303
825.477 .0269212
826.171 .0269128
826.865 .0269050
827.559 .0268980
828.252 .0268916
828.945 .0268859
829.638 .0268807
830.330 .0268762
831.023 .0268722
831.714 .0268687
832.406 .0268658
833.097 .0268633
833.788 .0268612
834.479 .0268595
835.169 .0268582
835.859 .0268573
836.548 .0268567
837.238 .0268564
837.927 .0268563
838.615 .0268565
839.304 .0268567
839.992 .0268570
840.680 .0268573
841.367 .0268576
842.054 .0268577
842.741 .0268578
843.428 .0268577
844.114 .0268574
844.800 .0268569
845.485 .0268562
846.170 .0268552
846.855 .0268538
847.540 .0268521
848.224 .0268499
848.908 .0268474
849.592 .0268445
850.275 .0268413
850.958 .0268378
851.641 .0268341
852.323 .0268301
853.005 .0268260
853.687 .0268217
854.368 .0268172
855.049 .0268126
855.730 .0268078
856.410 .0268030
857.090 .0267982
857.769 .0267934
858.449 .0267886
859.128 .0267839
859.806 .0267792
860.485 .0267745
861.163 .0267697
861.840 .0267650
862.518 .0267603
863.195 .0267556
863.871 .0267511
864.548 .0267467
865.224 .0267425
865.899 .0267385
866.574 .0267347
867.249 .0267310
867.924 .0267274
868.598 .0267239
869.272 .0267205
869.946 .0267171
870.619 .0267137
871.292 .0267105
871.964 .0267073
872.636 .0267043
873.308 .0267013
873.979 .0266983
874.651 .0266955
875.321 .0266926
875.992 .0266899
876.662 .0266872
877.331 .0266847
878.001 .0266824
878.670 .0266801
879.338 .0266781
880.007 .0266762
880.675 .0266744
881.342 .0266727
882.009 .0266710
882.676 .0266695
883.343 .0266680
884.009 .0266666
884.675 .0266654
885.340 .0266644
886.005 .0266635
886.670 .0266629
887.334 .0266625
887.998 .0266623
888.662 .0266622
889.325 .0266622
889.988 .0266624
890.650 .0266627
891.312 .0266631
891.974 .0266635
892.636 .0266640
893.297 .0266645
893.957 .0266648
894.618 .0266650
895.278 .0266649
895.937 .0266644
896.596 .0266634
897.255 .0266617
897.914 .0266592
898.572 .0266559
899.230 .0266515
899.887 .0266462
900.544 .0266398
901.201 .0266322
901.857 .0266155
902.513 .0266050
903.168 .0265933
903.823 .0265804
904.478 .0265664
905.132 .0265512
905.786 .0265349
906.440 .0265175
907.093 .0264991
907.746 .0264798
908.399 .0264597
909.051 .0264389
909.703 .0264175
910.354 .0264057
911.005 .0263838
911.656 .0263614
912.306 .0263386
912.956 .0263153
913.605 .0262918
914.254 .0262681
914.903 .0262443
915.551 .0262204
916.199 .0261965
916.847 .0261726
917.494 .0261487
918.141 .0261247
918.788 .0261006
919.434 .0260762
920.079 .0260515
920.725 .0260266
921.370 .0260014
922.014 .0259759
922.658 .0259501
923.302 .0259240
923.946 .0258977
924.589 .0258710
925.231 .0258441
925.873 .0258169
926.515 .0257894
927.157 .0257617
927.798 .0257339
928.439 .0257061
929.079 .0256784
929.719 .0256509
930.359 .0256237
930.998 .0255968
931.637 .0255701
932.275 .0255438
932.913 .0255177
933.551 .0254920
934.188 .0254668
934.825 .0254420
935.462 .0254177
936.098 .0253940
936.733 .0253709
937.369 .0253483
938.004 .0253264
938.638 .0253049
939.273 .0252840
939.907 .0252635
940.540 .0252436
941.173 .0252241
941.806 .0252050
942.438 .0251865
943.070 .0251683
943.702 .0251505
944.333 .0251330
944.964 .0251156
945.594 .0250982
946.224 .0250808
946.854 .0250633
947.483 .0250457
948.112 .0250280
948.741 .0250102
949.369 .0249924
949.996 .0249745
950.624 .0249565
951.251 .0249384
951.878 .0249203
952.504 .0249021
953.130 .0248839
953.755 .0248658
954.380 .0248478
955.005 .0248299
955.629 .0248123
956.253 .0247949
956.877 .0247778
957.500 .0247610
958.123 .0247444
958.746 .0247281
959.368 .0247120
959.990 .0246962
960.611 .0246808
961.232 .0246656
961.853 .0246508
962.473 .0246364
963.093 .0246223
963.712 .0246085
964.331 .0245951
964.950 .0245820
965.569 .0245693
966.187 .0245569
966.804 .0245449
967.422 .0245333
968.039 .0245220
968.655 .0245111
969.272 .0245006
969.887 .0244904
970.503 .0244805
971.118 .0244709
971.733 .0244616
972.347 .0244526
972.961 .0244438
973.575 .0244352
974.188 .0244269
974.801 .0244186
975.414 .0244105
976.026 .0244024
976.638 .0243943
977.250 .0243862
977.861 .0243780
978.472 .0243699
979.083 .0243618
979.693 .0243538
980.303 .0243457
980.912 .0243336
981.521 .0243257
982.130 .0243178
982.738 .0243100
983.346 .0243022
983.954 .0242946
984.562 .0242872
985.169 .0242800
985.775 .0242733
986.382 .0242669
986.988 .0242611
987.594 .0242557
988.199 .0242509
988.804 .0242465
989.409 .0242461
990.013 .0242426
990.617 .0242396
991.221 .0242372
991.824 .0242354
992.427 .0242342
993.030 .0242337
993.632 .0242339
994.234 .0242346
994.836 .0242360
995.438 .0242378
996.039 .0242403
996.640 .0242433
997.240 .0242468
997.840 .0242509
998.440 .0242557
999.040 .0242612
999.639 .0242672
1000.238 .0242739
1000.836 .0242812
1001.435 .0242889
1002.033 .0242972
1002.630 .0243060
1003.228 .0243151
1003.825 .0243247
1004.422 .0243346
1005.018 .0243448
1005.614 .0243552
1006.210 .0243659
1006.806 .0243768
1007.401 .0243879
1007.996 .0243990
1008.591 .0244102
1009.186 .0244215
1009.780 .0244330
1010.374 .0244445
1010.967 .0244562
1011.561 .0244681
1012.154 .0244801
1012.746 .0244923
1013.339 .0245047
1013.931 .0245172
1014.523 .0245300
1015.115 .0245430
1015.706 .0245563
1016.298 .0245700
1016.888 .0245840
1017.479 .0245984
1018.069 .0246133
1018.660 .0246287
1019.250 .0246444
1019.839 .0246606
1020.429 .0246770
1021.018 .0246937
1021.607 .0247106
1022.195 .0247278
1022.784 .0247452
1023.372 .0247629
1023.960 .0247808
1024.547 .0247992
1025.135 .0248179
1025.722 .0248369
1026.309 .0248563
1026.896 .0248759
1027.483 .0248957
1028.069 .0249157
1028.655 .0249356
1029.241 .0249556
1029.827 .0249757
1030.412 .0249957
1030.997 .0250157
1031.582 .0250357
1032.167 .0250555
1032.752 .0250752
1033.336 .0250945
1033.921 .0251135
1034.505 .0251320
1035.089 .0251499
1035.672 .0251671
1036.256 .0251836
1036.839 .0251994
1037.422 .0252145
1038.005 .0252289
1038.588 .0252426
1039.171 .0252557
1039.753 .0252682
1040.335 .0252802
1040.918 .0252917
1041.500 .0253027
1042.081 .0253132
1042.663 .0253233
1043.244 .0253329
1043.826 .0253421
1044.407 .0253511
1044.988 .0253599
1045.569 .0253686
1046.150 .0253773
1046.730 .0253861
1047.311 .0253949
1047.891 .0254039
1048.471 .0254128
1049.052 .0254216
1049.632 .0254303
1050.211 .0254389
1050.791 .0254473
1051.371 .0254556
1051.950 .0254641
1052.530 .0254727
1053.109 .0254816
1053.688 .0254908
1054.268 .0255002
1054.847 .0255099
1055.426 .0255198
1056.005 .0255297
1056.583 .0255396
1057.162 .0255495
1057.741 .0255592
1058.319 .0255688
1058.898 .0255784
1059.476 .0255880
1060.055 .0255976
1060.633 .0256072
1061.211 .0256169
1061.790 .0256265
1062.368 .0256358
1062.946 .0256447
1063.524 .0256532
1064.102 .0256609
1064.680 .0256678
1065.258 .0256739
1065.836 .0256793
1066.414 .0256841
1066.992 .0256885
1067.570 .0256925
1068.148 .0256965
1068.726 .0257004
1069.304 .0257041
1069.882 .0257077
1070.460 .0257110
1071.038 .0257139
1071.616 .0257164
1072.194 .0257183
1072.772 .0257199
1073.350 .0257212
1073.928 .0257223
1074.506 .0257233
1075.084 .0257244
1075.662 .0257256
1076.240 .0257267
1076.819 .0257277
1077.397 .0257284
1077.976 .0257289
1078.554 .0257288
1079.133 .0257284
1079.711 .0257278
1080.290 .0257270
1080.869 .0257262
1081.448 .0257259
1082.027 .0257261
1082.606 .0257270
1083.185 .0257285
1083.764 .0257305
1084.343 .0257331
1084.923 .0257360
1085.502 .0257391
1086.082 .0257427
1086.662 .0257466
1087.242 .0257510
1087.822 .0257560
1088.402 .0257619
1088.983 .0257686
1089.563 .0257761
1090.144 .0257843
1090.725 .0257930
1091.306 .0258020
1091.887 .0258112
1092.469 .0258205
1093.050 .0258302
1093.632 .0258405
1094.214 .0258514
1094.796 .0258630
1095.379 .0258756
1095.961 .0258889
1096.544 .0259031
1097.127 .0259179
1097.710 .0259331
1098.294 .0259484
1098.877 .0259638
1099.461 .0259794
1100.046 .0259951
1100.630 .0260112
1101.215 .0260278
1101.800 .0260449
1102.385 .0260625
1102.970 .0260804
1103.556 .0260984
1104.142 .0261167
1104.728 .0261350
1105.315 .0261533
1105.902 .0261718
1106.489 .0261905
1107.077 .0262096
1107.664 .0262295
1108.253 .0262502
1108.841 .0262718
1109.430 .0262941
1110.019 .0263169
1110.609 .0263399
1111.198 .0263630
1111.789 .0263859
1112.379 .0264086
1112.970 .0264312
1113.561 .0264534
1114.153 .0264753
1114.745 .0264973
1115.338 .0265191
1115.931 .0265409
1116.524 .0265625
1117.117 .0265838
1117.712 .0266045
1118.306 .0266247
1118.901 .0266445
1119.496 .0266640
1120.092 .0266838
1120.689 .0267040
1121.285 .0267251
1121.882 .0267476
1122.480 .0267717
1123.078 .0267979
1123.677 .0268263
1124.276 .0268568
1124.875 .0268895
1125.476 .0269244
1126.076 .0269618
1126.677 .0270019
1127.279 .0270454
1127.881 .0270925
1128.484 .0271441
1129.087 .0271583
1129.691 .0272159
1130.295 .0272785
1130.900 .0273465
1131.505 .0274194
1132.111 .0274975
1132.718 .0275809
1133.325 .0276700
1133.933 .0277649
1134.541 .0278569
1135.150 .0279698
1135.760 .0280857
1136.370 .0282178
1136.981 .0282220
1137.592 .0283731
1138.204 .0285281
1138.817 .0286839
1139.431 .0288312
1140.045 .0289844
1140.660 .0291376
1141.275 .0293055
1141.891 .0294742
1142.508 .0293972
1143.126 .0299937
1143.744 .0300894
1144.363 .0305604
1144.983 .0302553
