Measurement Sequence started on: 15-12-46-377
Integration time: 28
Scans to Average: 2 
>>>>>Begin Spectral Data<<<<<
432.689 .0000100
433.621 .0000100
434.552 .0000100
435.482 .0000100
436.410 .0000100
437.337 .0000100
438.262 .0274312
439.187 .0581102
440.110 .0962344
441.031 .1392121
441.952 .1115064
442.871 .1164197
443.789 .1209792
444.705 .1252594
445.621 .1293101
446.535 .1331737
447.447 .1354381
448.359 .1359570
449.269 .1343590
450.178 .1304041
451.086 .1241693
451.993 .1161343
452.898 .1070880
453.803 .0979268
454.706 .0894128
455.608 .0820194
456.508 .0759062
457.408 .0717795
458.306 .0686210
459.204 .0660657
460.100 .0639300
460.995 .0621124
461.888 .0605401
462.781 .0591647
463.673 .0579465
464.563 .0568559
465.452 .0558702
466.340 .0549707
467.228 .0541444
468.114 .0533817
468.999 .0526755
469.882 .0520200
470.765 .0514107
471.647 .0508445
472.528 .0503198
473.407 .0498347
474.286 .0493883
475.163 .0489797
476.040 .0486074
476.915 .0482703
477.790 .0479671
478.663 .0476967
479.535 .0474586
480.407 .0472518
481.277 .0470759
482.147 .0469293
483.015 .0468113
483.883 .0467198
484.749 .0466533
485.615 .0466099
486.479 .0465874
487.343 .0465835
488.206 .0465966
489.067 .0466246
489.928 .0466675
490.788 .0467252
491.647 .0467982
492.505 .0468872
493.362 .0469934
494.218 .0471177
495.073 .0472604
495.928 .0475383
496.781 .0477285
497.634 .0479365
498.486 .0481628
499.337 .0484079
500.187 .0486746
501.036 .0489667
501.884 .0492890
502.731 .0496471
503.578 .0500473
504.424 .0503371
505.268 .0508219
506.113 .0513633
506.956 .0519654
507.798 .0526328
508.640 .0533710
509.480 .0541870
510.320 .0550900
511.160 .0560909
511.998 .0572054
512.836 .0584508
513.672 .0598451
514.508 .0614083
515.344 .0631627
516.178 .0651291
517.012 .0673311
517.845 .0697883
518.677 .0725182
519.508 .0755350
520.339 .0788459
521.169 .0824509
521.998 .0863277
522.826 .0904463
523.654 .0947584
524.481 .0992038
525.307 .1037129
526.133 .1081991
526.958 .1125720
527.782 .1167406
528.605 .1206156
529.428 .1241130
530.250 .1271583
531.072 .1296999
531.892 .1316941
532.712 .1331163
533.532 .1339529
534.350 .1342006
535.168 .1338688
535.986 .1329688
536.802 .1315099
537.618 .1295057
538.434 .1269745
539.249 .1239535
540.063 .1204862
540.876 .1166316
541.689 .1124593
542.501 .1080468
543.313 .1034837
544.124 .0988626
544.934 .0942722
545.744 .0897971
546.553 .0855101
547.361 .0814734
548.169 .0777233
548.976 .0742870
549.783 .0711698
550.589 .0683664
551.395 .0658578
552.200 .0636145
553.004 .0616053
553.808 .0598032
554.611 .0581831
555.414 .0567211
556.216 .0553957
557.018 .0541884
557.819 .0530832
558.619 .0520655
559.419 .0511223
560.218 .0502441
561.017 .0494209
561.815 .0486449
562.613 .0479093
563.410 .0472086
564.207 .0465372
565.003 .0458913
565.799 .0452668
566.594 .0446604
567.388 .0440700
568.182 .0434932
568.976 .0429291
569.769 .0423775
570.562 .0418383
571.354 .0413121
572.145 .0407998
572.936 .0403030
573.727 .0398218
574.517 .0393573
575.307 .0389101
576.096 .0384802
576.885 .0380683
577.673 .0376748
578.461 .0373000
579.248 .0369446
580.035 .0366090
580.821 .0362936
581.607 .0359989
582.392 .0357251
583.177 .0354721
583.962 .0352393
584.746 .0350260
585.529 .0348307
586.313 .0346520
587.095 .0344884
587.878 .0343384
588.660 .0342004
589.441 .0340734
590.222 .0339563
591.003 .0338481
591.783 .0337482
592.563 .0336558
593.342 .0335701
594.121 .0334902
594.899 .0334152
595.678 .0333440
596.455 .0332760
597.233 .0332106
598.009 .0331475
598.786 .0330865
599.562 .0330275
600.338 .0329705
601.113 .0329157
601.888 .0328428
602.663 .0327937
603.437 .0327468
604.211 .0327019
604.984 .0326590
605.757 .0326177
606.530 .0325780
607.302 .0325397
608.074 .0325027
608.845 .0324670
609.616 .0324326
610.387 .0324176
611.158 .0323847
611.928 .0323531
612.697 .0323228
613.467 .0322935
614.236 .0322651
615.004 .0322375
615.773 .0322104
616.541 .0321837
617.308 .0321573
618.076 .0321311
618.843 .0321050
619.609 .0320792
620.375 .0320535
621.141 .0320282
621.907 .0320031
622.672 .0319783
623.437 .0319536
624.202 .0319290
624.966 .0319043
625.730 .0318795
626.493 .0318546
627.257 .0318295
628.020 .0318041
628.782 .0317786
629.545 .0317529
630.307 .0317270
631.068 .0317011
631.830 .0316751
632.591 .0316489
633.352 .0316225
634.112 .0315958
634.872 .0315689
635.632 .0315416
636.392 .0315141
637.151 .0314863
637.910 .0314584
638.668 .0314303
639.427 .0314023
640.185 .0313746
640.943 .0313472
641.700 .0313203
642.457 .0312939
643.214 .0312680
643.971 .0312427
644.727 .0312178
645.483 .0311934
646.239 .0311692
646.994 .0311454
647.750 .0311218
648.505 .0310985
649.259 .0310755
650.014 .0310526
650.768 .0310299
651.521 .0310074
652.275 .0309849
653.028 .0309623
653.781 .0309395
654.534 .0309165
655.286 .0308931
656.039 .0308693
656.791 .0308450
657.542 .0308204
658.294 .0307954
659.045 .0307701
659.796 .0307447
660.546 .0307192
661.297 .0306936
662.047 .0306681
662.796 .0306428
663.546 .0306175
664.295 .0305923
665.044 .0305672
665.793 .0305422
666.542 .0305174
667.290 .0304928
668.038 .0304685
668.786 .0304447
669.533 .0304215
670.281 .0303990
671.028 .0303771
671.774 .0303560
672.521 .0303356
673.267 .0303158
674.013 .0302965
674.759 .0302778
675.505 .0302594
676.250 .0302413
676.995 .0302236
677.740 .0302061
678.484 .0301888
679.229 .0301717
679.973 .0301547
680.717 .0301378
681.460 .0301210
682.204 .0301041
682.947 .0300873
683.690 .0300703
684.433 .0300533
685.175 .0300360
685.917 .0300186
686.659 .0300009
687.401 .0299830
688.142 .0299648
688.884 .0299464
689.625 .0299278
690.365 .0299090
691.106 .0298901
691.846 .0298710
692.586 .0298517
693.326 .0298322
694.066 .0298124
694.805 .0297923
695.545 .0297719
696.284 .0297513
697.022 .0297305
697.761 .0297095
698.499 .0296885
699.237 .0296675
699.975 .0296466
700.713 .0296258
701.450 .0296050
702.187 .0295844
702.924 .0295639
703.661 .0295435
704.397 .0295232
705.133 .0295031
705.869 .0294833
706.605 .0294637
707.341 .0294445
708.076 .0294256
708.811 .0294070
709.546 .0293887
710.281 .0293707
711.015 .0293531
711.749 .0293357
712.483 .0293187
713.217 .0293018
713.950 .0292851
714.684 .0292684
715.417 .0292519
716.150 .0292352
716.882 .0292185
717.615 .0292017
718.347 .0291847
719.079 .0291676
719.811 .0291502
720.542 .0291327
721.273 .0291149
722.005 .0290969
722.735 .0290787
723.466 .0290603
724.196 .0290416
724.927 .0290227
725.656 .0290038
726.386 .0289849
727.116 .0289660
727.845 .0289474
728.574 .0289291
729.303 .0289111
730.031 .0288935
730.760 .0288765
731.488 .0288599
732.216 .0288439
732.944 .0288284
733.671 .0288135
734.398 .0287991
735.125 .0287852
735.852 .0287718
736.579 .0287589
737.305 .0287464
738.031 .0287344
738.757 .0287228
739.483 .0287116
740.208 .0287007
740.933 .0286900
741.658 .0286795
742.383 .0286691
743.108 .0286587
743.832 .0286482
744.556 .0286376
745.280 .0286268
746.004 .0286158
746.727 .0286046
747.450 .0285932
748.173 .0285815
748.896 .0285695
749.618 .0285572
750.340 .0285447
751.062 .0285319
751.784 .0285188
752.506 .0285055
753.227 .0284918
753.948 .0284778
754.669 .0284635
755.389 .0284489
756.110 .0284338
756.830 .0284184
757.550 .0284026
758.269 .0283864
758.989 .0283698
759.708 .0283529
760.427 .0283357
761.146 .0283183
761.864 .0283007
762.582 .0282828
763.300 .0282648
764.018 .0282467
764.736 .0282286
765.453 .0282104
766.170 .0281923
766.887 .0281742
767.603 .0281564
768.320 .0281388
769.036 .0281217
769.751 .0281050
770.467 .0280890
771.182 .0280736
771.897 .0280589
772.612 .0280450
773.327 .0280319
774.041 .0280196
774.755 .0280080
775.469 .0279971
776.183 .0279868
776.896 .0279772
777.609 .0279681
778.322 .0279596
779.035 .0279516
779.747 .0279440
780.459 .0279369
781.171 .0279301
781.882 .0279236
782.594 .0279173
783.305 .0279111
784.016 .0279050
784.726 .0278987
785.436 .0278922
786.147 .0278814
786.856 .0278741
787.566 .0278664
788.275 .0278584
788.984 .0278500
789.693 .0278412
790.401 .0278322
791.110 .0278228
791.818 .0278129
792.525 .0278027
793.233 .0277919
793.940 .0277805
794.647 .0277732
795.353 .0277610
796.060 .0277484
796.766 .0277352
797.472 .0277216
798.177 .0277076
798.883 .0276932
799.588 .0276784
800.292 .0276631
800.997 .0276475
801.701 .0276315
802.405 .0276153
803.109 .0275987
803.812 .0275819
804.515 .0275650
805.218 .0275479
805.921 .0275306
806.623 .0275133
807.325 .0274959
808.027 .0274784
808.728 .0274609
809.429 .0274434
810.130 .0274260
810.831 .0274087
811.531 .0273916
812.231 .0273746
812.931 .0273577
813.630 .0273410
814.330 .0273244
815.029 .0273081
815.727 .0272920
816.426 .0272764
817.124 .0272612
817.821 .0272464
818.519 .0272323
819.216 .0272187
819.913 .0272058
820.609 .0271934
821.306 .0271816
822.002 .0271703
822.697 .0271597
823.393 .0271497
824.088 .0271404
824.783 .0271318
825.477 .0271239
826.171 .0271167
826.865 .0271102
827.559 .0271042
828.252 .0270989
828.945 .0270940
829.638 .0270897
830.330 .0270857
831.023 .0270821
831.714 .0270788
832.406 .0270757
833.097 .0270728
833.788 .0270700
834.479 .0270672
835.169 .0270645
835.859 .0270617
836.548 .0270590
837.238 .0270563
837.927 .0270535
838.615 .0270505
839.304 .0270474
839.992 .0270440
840.680 .0270403
841.367 .0270363
842.054 .0270319
842.741 .0270271
843.428 .0270220
844.114 .0270165
844.800 .0270106
845.485 .0270043
846.170 .0269975
846.855 .0269901
847.540 .0269820
848.224 .0269734
848.908 .0269640
849.592 .0269539
850.275 .0269431
850.958 .0269316
851.641 .0269195
852.323 .0269067
853.005 .0268932
853.687 .0268791
854.368 .0268645
855.049 .0268492
855.730 .0268335
856.410 .0268173
857.090 .0268008
857.769 .0267840
858.449 .0267669
859.128 .0267497
859.806 .0267324
860.485 .0267150
861.163 .0266977
861.840 .0266806
862.518 .0266636
863.195 .0266470
863.871 .0266308
864.548 .0266151
865.224 .0266000
865.899 .0265854
866.574 .0265715
867.249 .0265581
867.924 .0265454
868.598 .0265333
869.272 .0265217
869.946 .0265108
870.619 .0265005
871.292 .0264908
871.964 .0264817
872.636 .0264732
873.308 .0264652
873.979 .0264576
874.651 .0264505
875.321 .0264437
875.992 .0264371
876.662 .0264307
877.331 .0264246
878.001 .0264186
878.670 .0264127
879.338 .0264071
880.007 .0264015
880.675 .0263962
881.342 .0263910
882.009 .0263859
882.676 .0263811
883.343 .0263763
884.009 .0263717
884.675 .0263672
885.340 .0263628
886.005 .0263585
886.670 .0263543
887.334 .0263501
887.998 .0263459
888.662 .0263418
889.325 .0263376
889.988 .0263335
890.650 .0263293
891.312 .0263252
891.974 .0263209
892.636 .0263165
893.297 .0263120
893.957 .0263073
894.618 .0263023
895.278 .0262972
895.937 .0262918
896.596 .0262861
897.255 .0262802
897.914 .0262740
898.572 .0262674
899.230 .0262605
899.887 .0262531
900.544 .0262452
901.201 .0262367
901.857 .0262216
902.513 .0262119
903.168 .0262016
903.823 .0261908
904.478 .0261795
905.132 .0261675
905.786 .0261549
906.440 .0261417
907.093 .0261277
907.746 .0261130
908.399 .0260977
909.051 .0260819
909.703 .0260656
910.354 .0260561
911.005 .0260393
911.656 .0260222
912.306 .0260049
912.956 .0259871
913.605 .0259690
914.254 .0259505
914.903 .0259316
915.551 .0259124
916.199 .0258928
916.847 .0258729
917.494 .0258529
918.141 .0258326
918.788 .0258122
919.434 .0257915
920.079 .0257705
920.725 .0257491
921.370 .0257274
922.014 .0257054
922.658 .0256830
923.302 .0256605
923.946 .0256379
924.589 .0256153
925.231 .0255927
925.873 .0255702
926.515 .0255479
927.157 .0255256
927.798 .0255034
928.439 .0254813
929.079 .0254593
929.719 .0254374
930.359 .0254159
930.998 .0253948
931.637 .0253741
932.275 .0253540
932.913 .0253345
933.551 .0253156
934.188 .0252973
934.825 .0252797
935.462 .0252626
936.098 .0252463
936.733 .0252306
937.369 .0252156
938.004 .0252013
938.638 .0251878
939.273 .0251751
939.907 .0251630
940.540 .0251517
941.173 .0251409
941.806 .0251307
942.438 .0251210
943.070 .0251118
943.702 .0251030
944.333 .0250946
944.964 .0250867
945.594 .0250789
946.224 .0250714
946.854 .0250641
947.483 .0250568
948.112 .0250494
948.741 .0250421
949.369 .0250347
949.996 .0250273
950.624 .0250199
951.251 .0250125
951.878 .0250051
952.504 .0249977
953.130 .0249903
953.755 .0249828
954.380 .0249752
955.005 .0249676
955.629 .0249600
956.253 .0249524
956.877 .0249448
957.500 .0249374
958.123 .0249300
958.746 .0249228
959.368 .0249157
959.990 .0249088
960.611 .0249020
961.232 .0248953
961.853 .0248887
962.473 .0248823
963.093 .0248760
963.712 .0248698
964.331 .0248637
964.950 .0248577
965.569 .0248517
966.187 .0248456
966.804 .0248394
967.422 .0248332
968.039 .0248267
968.655 .0248202
969.272 .0248135
969.887 .0248067
970.503 .0247999
971.118 .0247930
971.733 .0247860
972.347 .0247788
972.961 .0247715
973.575 .0247640
974.188 .0247562
974.801 .0247480
975.414 .0247396
976.026 .0247309
976.638 .0247219
977.250 .0247127
977.861 .0247032
978.472 .0246935
979.083 .0246836
979.693 .0246736
980.303 .0246633
980.912 .0246474
981.521 .0246368
982.130 .0246263
982.738 .0246159
983.346 .0246056
983.954 .0245956
984.562 .0245859
985.169 .0245766
985.775 .0245677
986.382 .0245592
986.988 .0245511
987.594 .0245435
988.199 .0245363
988.804 .0245297
989.409 .0245285
990.013 .0245229
990.617 .0245179
991.221 .0245135
991.824 .0245098
992.427 .0245066
993.030 .0245040
993.632 .0245018
994.234 .0245001
994.836 .0244989
995.438 .0244982
996.039 .0244979
996.640 .0244982
997.240 .0244991
997.840 .0245006
998.440 .0245026
999.040 .0245053
999.639 .0245084
1000.238 .0245120
1000.836 .0245159
1001.435 .0245200
1002.033 .0245244
1002.630 .0245290
1003.228 .0245338
1003.825 .0245387
1004.422 .0245436
1005.018 .0245486
1005.614 .0245536
1006.210 .0245585
1006.806 .0245632
1007.401 .0245677
1007.996 .0245721
1008.591 .0245763
1009.186 .0245803
1009.780 .0245844
1010.374 .0245885
1010.967 .0245928
1011.561 .0245973
1012.154 .0246019
1012.746 .0246066
1013.339 .0246114
1013.931 .0246163
1014.523 .0246212
1015.115 .0246262
1015.706 .0246313
1016.298 .0246365
1016.888 .0246418
1017.479 .0246474
1018.069 .0246532
1018.660 .0246592
1019.250 .0246655
1019.839 .0246720
1020.429 .0246788
1021.018 .0246857
1021.607 .0246928
1022.195 .0247002
1022.784 .0247079
1023.372 .0247161
1023.960 .0247247
1024.547 .0247338
1025.135 .0247434
1025.722 .0247535
1026.309 .0247640
1026.896 .0247749
1027.483 .0247859
1028.069 .0247970
1028.655 .0248081
1029.241 .0248190
1029.827 .0248297
1030.412 .0248402
1030.997 .0248504
1031.582 .0248605
1032.167 .0248703
1032.752 .0248800
1033.336 .0248894
1033.921 .0248985
1034.505 .0249073
1035.089 .0249157
1035.672 .0249237
1036.256 .0249311
1036.839 .0249380
1037.422 .0249443
1038.005 .0249500
1038.588 .0249552
1039.171 .0249599
1039.753 .0249641
1040.335 .0249677
1040.918 .0249708
1041.500 .0249734
1042.081 .0249753
1042.663 .0249767
1043.244 .0249774
1043.826 .0249777
1044.407 .0249775
1044.988 .0249770
1045.569 .0249764
1046.150 .0249758
1046.730 .0249754
1047.311 .0249752
1047.891 .0249753
1048.471 .0249757
1049.052 .0249765
1049.632 .0249775
1050.211 .0249788
1050.791 .0249803
1051.371 .0249820
1051.950 .0249840
1052.530 .0249862
1053.109 .0249886
1053.688 .0249913
1054.268 .0249942
1054.847 .0249974
1055.426 .0250007
1056.005 .0250042
1056.583 .0250077
1057.162 .0250112
1057.741 .0250148
1058.319 .0250185
1058.898 .0250222
1059.476 .0250260
1060.055 .0250299
1060.633 .0250338
1061.211 .0250377
1061.790 .0250414
1062.368 .0250449
1062.946 .0250480
1063.524 .0250507
1064.102 .0250529
1064.680 .0250547
1065.258 .0250559
1065.836 .0250567
1066.414 .0250572
1066.992 .0250571
1067.570 .0250566
1068.148 .0250556
1068.726 .0250540
1069.304 .0250519
1069.882 .0250493
1070.460 .0250463
1071.038 .0250429
1071.616 .0250395
1072.194 .0250360
1072.772 .0250326
1073.350 .0250294
1073.928 .0250263
1074.506 .0250232
1075.084 .0250200
1075.662 .0250165
1076.240 .0250129
1076.819 .0250089
1077.397 .0250047
1077.976 .0250004
1078.554 .0249962
1079.133 .0249921
1079.711 .0249882
1080.290 .0249847
1080.869 .0249814
1081.448 .0249783
1082.027 .0249753
1082.606 .0249723
1083.185 .0249693
1083.764 .0249664
1084.343 .0249637
1084.923 .0249614
1085.502 .0249598
1086.082 .0249589
1086.662 .0249589
1087.242 .0249598
1087.822 .0249615
1088.402 .0249638
1088.983 .0249667
1089.563 .0249700
1090.144 .0249738
1090.725 .0249782
1091.306 .0249835
1091.887 .0249899
1092.469 .0249977
1093.050 .0250069
1093.632 .0250176
1094.214 .0250296
1094.796 .0250426
1095.379 .0250564
1095.961 .0250706
1096.544 .0250851
1097.127 .0250999
1097.710 .0251150
1098.294 .0251308
1098.877 .0251474
1099.461 .0251650
1100.046 .0251836
1100.630 .0252031
1101.215 .0252234
1101.800 .0252442
1102.385 .0252652
1102.970 .0252862
1103.556 .0253071
1104.142 .0253281
1104.728 .0253492
1105.315 .0253709
1105.902 .0253932
1106.489 .0254163
1107.077 .0254402
1107.664 .0254645
1108.253 .0254889
1108.841 .0255131
1109.430 .0255367
1110.019 .0255595
1110.609 .0255815
1111.198 .0256027
1111.789 .0256234
1112.379 .0256439
1112.970 .0256646
1113.561 .0256854
1114.153 .0257066
1114.745 .0257281
1115.338 .0257498
1115.931 .0257717
1116.524 .0257938
1117.117 .0258162
1117.712 .0258390
1118.306 .0258626
1118.901 .0258871
1119.496 .0259126
1120.092 .0259395
1120.689 .0259675
1121.285 .0259967
1121.882 .0260269
1122.480 .0260580
1123.078 .0260899
1123.677 .0261228
1124.276 .0261567
1124.875 .0261921
1125.476 .0262293
1126.076 .0262685
1126.677 .0263102
1127.279 .0263547
1127.881 .0264021
1128.484 .0264525
1129.087 .0264714
1129.691 .0265265
1130.295 .0265849
1130.900 .0266470
1131.505 .0267129
1132.111 .0267830
1132.718 .0268572
1133.325 .0269360
1133.933 .0270184
1134.541 .0271064
1135.150 .0272015
1135.760 .0272904
1136.370 .0273946
1136.981 .0273759
1137.592 .0274781
1138.204 .0275856
1138.817 .0277056
1139.431 .0278335
1140.045 .0279727
1140.660 .0281123
1141.275 .0282658
1141.891 .0283996
1142.508 .0285919
1143.126 .0288327
1143.744 .0287018
1144.363 .0291743
1144.983 .0286667
