Measurement Sequence started on: 15-12-46-377
Integration time: 28
Scans to Average: 2 
>>>>>Begin Spectral Data<<<<<
432.689 .0000100
433.621 .0000100
434.552 .0000100
435.482 .0000100
436.410 .0000100
437.337 .0000100
438.262 .0283987
439.187 .0602789
440.110 .1000398
441.031 .1450363
441.952 .1173780
442.871 .1226228
443.789 .1274911
444.705 .1320633
445.621 .1363950
446.535 .1405298
447.447 .1430028
448.359 .1436524
449.269 .1420814
450.178 .1380275
451.086 .1315615
451.993 .1231727
452.898 .1136787
453.803 .1040146
454.706 .0949834
455.608 .0870923
456.508 .0805218
457.408 .0760162
458.306 .0725306
459.204 .0696888
460.100 .0672988
460.995 .0652469
461.888 .0634545
462.781 .0618694
463.673 .0604504
464.563 .0591715
465.452 .0580135
466.340 .0569613
467.228 .0560043
468.114 .0551339
468.999 .0543420
469.882 .0536204
470.765 .0529626
471.647 .0523620
472.528 .0518132
473.407 .0513125
474.286 .0508562
475.163 .0504426
476.040 .0500701
476.915 .0497364
477.790 .0494388
478.663 .0491754
479.535 .0489432
480.407 .0487399
481.277 .0485637
482.147 .0484127
483.015 .0482860
483.883 .0481830
484.749 .0481035
485.615 .0480469
486.479 .0480130
487.343 .0480004
488.206 .0480078
489.067 .0480338
489.928 .0480771
490.788 .0481369
491.647 .0482137
492.505 .0483085
493.362 .0484227
494.218 .0485589
495.073 .0487187
495.928 .0490480
496.781 .0492739
497.634 .0495256
498.486 .0498027
499.337 .0501052
500.187 .0504338
501.036 .0507902
501.884 .0511779
502.731 .0516014
503.578 .0520658
504.424 .0523871
505.268 .0529317
506.113 .0535319
506.956 .0541923
507.798 .0549186
508.640 .0557181
509.480 .0565989
510.320 .0575709
511.160 .0586459
511.998 .0598378
512.836 .0611640
513.672 .0626418
514.508 .0642911
515.344 .0661340
516.178 .0681914
517.012 .0704863
517.845 .0730400
518.677 .0758717
519.508 .0789968
520.339 .0824213
521.169 .0861451
521.998 .0901421
522.826 .0943709
523.654 .0987729
524.481 .1032748
525.307 .1077964
526.133 .1122461
526.958 .1165298
527.782 .1205586
528.605 .1242469
529.428 .1275219
530.250 .1303170
531.072 .1325881
531.892 .1342999
532.712 .1354283
533.532 .1359643
534.350 .1359063
535.168 .1352630
535.986 .1340485
536.802 .1322758
537.618 .1299632
538.434 .1271290
539.249 .1238153
540.063 .1200780
540.876 .1159861
541.689 .1116205
542.501 .1070667
543.313 .1024175
544.124 .0977659
544.934 .0931966
545.744 .0887881
546.553 .0846046
547.361 .0806986
548.169 .0770999
548.976 .0738263
549.783 .0708819
550.589 .0682551
551.395 .0659234
552.200 .0638559
553.004 .0620166
553.808 .0603730
554.611 .0588962
555.414 .0575631
556.216 .0563529
557.018 .0552461
557.819 .0542266
558.619 .0532812
559.419 .0523987
560.218 .0515695
561.017 .0507852
561.815 .0500394
562.613 .0493263
563.410 .0486393
564.207 .0479744
565.003 .0473284
565.799 .0466984
566.594 .0460823
567.388 .0454796
568.182 .0448899
568.976 .0443124
569.769 .0437473
570.562 .0431953
571.354 .0426566
572.145 .0421322
572.936 .0416223
573.727 .0411277
574.517 .0406492
575.307 .0401876
576.096 .0397432
576.885 .0393169
577.673 .0389090
578.461 .0385192
579.248 .0381472
580.035 .0377932
580.821 .0374568
581.607 .0371379
582.392 .0368367
583.177 .0365532
583.962 .0362874
584.746 .0360394
585.529 .0358091
586.313 .0355958
587.095 .0353990
587.878 .0352178
588.660 .0350508
589.441 .0348972
590.222 .0347557
591.003 .0346252
591.783 .0345048
592.563 .0343938
593.342 .0342911
594.121 .0341959
594.899 .0341074
595.678 .0340251
596.455 .0339481
597.233 .0338759
598.009 .0338077
598.786 .0337429
599.562 .0336812
600.338 .0336221
601.113 .0335657
601.888 .0334895
602.663 .0334395
603.437 .0333919
604.211 .0333466
604.984 .0333035
605.757 .0332624
606.530 .0332234
607.302 .0331863
608.074 .0331510
608.845 .0331175
609.616 .0330859
610.387 .0330751
611.158 .0330464
611.928 .0330195
612.697 .0329945
613.467 .0329711
614.236 .0329492
615.004 .0329286
615.773 .0329091
616.541 .0328904
617.308 .0328725
618.076 .0328550
618.843 .0328378
619.609 .0328208
620.375 .0328037
621.141 .0327866
621.907 .0327692
622.672 .0327513
623.437 .0327329
624.202 .0327138
624.966 .0326936
625.730 .0326724
626.493 .0326498
627.257 .0326257
628.020 .0326001
628.782 .0325728
629.545 .0325439
630.307 .0325136
631.068 .0324820
631.830 .0324492
632.591 .0324155
633.352 .0323811
634.112 .0323459
634.872 .0323102
635.632 .0322740
636.392 .0322372
637.151 .0322000
637.910 .0321623
638.668 .0321242
639.427 .0320860
640.185 .0320477
640.943 .0320097
641.700 .0319721
642.457 .0319351
643.214 .0318987
643.971 .0318631
644.727 .0318283
645.483 .0317941
646.239 .0317604
646.994 .0317273
647.750 .0316945
648.505 .0316619
649.259 .0316296
650.014 .0315975
650.768 .0315656
651.521 .0315339
652.275 .0315023
653.028 .0314709
653.781 .0314396
654.534 .0314083
655.286 .0313770
656.039 .0313456
656.791 .0313141
657.542 .0312824
658.294 .0312505
659.045 .0312184
659.796 .0311860
660.546 .0311536
661.297 .0311211
662.047 .0310886
662.796 .0310564
663.546 .0310245
664.295 .0309932
665.044 .0309625
665.793 .0309327
666.542 .0309039
667.290 .0308759
668.038 .0308489
668.786 .0308229
669.533 .0307977
670.281 .0307735
671.028 .0307502
671.774 .0307278
672.521 .0307064
673.267 .0306860
674.013 .0306667
674.759 .0306483
675.505 .0306309
676.250 .0306144
676.995 .0305988
677.740 .0305837
678.484 .0305693
679.229 .0305553
679.973 .0305418
680.717 .0305286
681.460 .0305157
682.204 .0305031
682.947 .0304906
683.690 .0304784
684.433 .0304662
685.175 .0304542
685.917 .0304422
686.659 .0304303
687.401 .0304184
688.142 .0304066
688.884 .0303948
689.625 .0303830
690.365 .0303712
691.106 .0303594
691.846 .0303474
692.586 .0303353
693.326 .0303231
694.066 .0303107
694.805 .0302983
695.545 .0302858
696.284 .0302734
697.022 .0302609
697.761 .0302485
698.499 .0302361
699.237 .0302236
699.975 .0302111
700.713 .0301985
701.450 .0301857
702.187 .0301729
702.924 .0301599
703.661 .0301467
704.397 .0301333
705.133 .0301198
705.869 .0301060
706.605 .0300921
707.341 .0300778
708.076 .0300633
708.811 .0300485
709.546 .0300335
710.281 .0300182
711.015 .0300028
711.749 .0299870
712.483 .0299710
713.217 .0299546
713.950 .0299379
714.684 .0299208
715.417 .0299032
716.150 .0298852
716.882 .0298666
717.615 .0298475
718.347 .0298277
719.079 .0298073
719.811 .0297863
720.542 .0297646
721.273 .0297423
722.005 .0297193
722.735 .0296958
723.466 .0296718
724.196 .0296474
724.927 .0296226
725.656 .0295976
726.386 .0295722
727.116 .0295465
727.845 .0295206
728.574 .0294946
729.303 .0294684
730.031 .0294422
730.760 .0294160
731.488 .0293899
732.216 .0293639
732.944 .0293382
733.671 .0293127
734.398 .0292875
735.125 .0292625
735.852 .0292378
736.579 .0292134
737.305 .0291894
738.031 .0291656
738.757 .0291422
739.483 .0291191
740.208 .0290964
740.933 .0290740
741.658 .0290520
742.383 .0290303
743.108 .0290089
743.832 .0289879
744.556 .0289671
745.280 .0289466
746.004 .0289263
746.727 .0289061
747.450 .0288861
748.173 .0288660
748.896 .0288460
749.618 .0288260
750.340 .0288059
751.062 .0287859
751.784 .0287660
752.506 .0287462
753.227 .0287265
753.948 .0287069
754.669 .0286875
755.389 .0286683
756.110 .0286492
756.830 .0286303
757.550 .0286116
758.269 .0285932
758.989 .0285751
759.708 .0285575
760.427 .0285402
761.146 .0285233
761.864 .0285068
762.582 .0284906
763.300 .0284748
764.018 .0284594
764.736 .0284443
765.453 .0284297
766.170 .0284156
766.887 .0284019
767.603 .0283888
768.320 .0283763
769.036 .0283645
769.751 .0283533
770.467 .0283427
771.182 .0283328
771.897 .0283236
772.612 .0283151
773.327 .0283072
774.041 .0283001
774.755 .0282936
775.469 .0282879
776.183 .0282829
776.896 .0282786
777.609 .0282752
778.322 .0282726
779.035 .0282709
779.747 .0282701
780.459 .0282702
781.171 .0282711
781.882 .0282728
782.594 .0282752
783.305 .0282781
784.016 .0282817
784.726 .0282856
785.436 .0282898
786.147 .0282972
786.856 .0283020
787.566 .0283069
788.275 .0283119
788.984 .0283170
789.693 .0283219
790.401 .0283267
791.110 .0283311
791.818 .0283350
792.525 .0283383
793.233 .0283410
793.940 .0283431
794.647 .0283423
795.353 .0283434
796.060 .0283439
796.766 .0283439
797.472 .0283433
798.177 .0283422
798.883 .0283405
799.588 .0283382
800.292 .0283353
800.997 .0283318
801.701 .0283276
802.405 .0283228
803.109 .0283174
803.812 .0283115
804.515 .0283050
805.218 .0282980
805.921 .0282904
806.623 .0282823
807.325 .0282737
808.027 .0282646
808.728 .0282549
809.429 .0282448
810.130 .0282342
810.831 .0282233
811.531 .0282121
812.231 .0282005
812.931 .0281886
813.630 .0281764
814.330 .0281640
815.029 .0281515
815.727 .0281388
816.426 .0281262
817.124 .0281136
817.821 .0281011
818.519 .0280888
819.216 .0280767
819.913 .0280648
820.609 .0280530
821.306 .0280414
822.002 .0280300
822.697 .0280187
823.393 .0280076
824.088 .0279968
824.783 .0279864
825.477 .0279763
826.171 .0279665
826.865 .0279570
827.559 .0279477
828.252 .0279385
828.945 .0279293
829.638 .0279201
830.330 .0279107
831.023 .0279011
831.714 .0278912
832.406 .0278810
833.097 .0278703
833.788 .0278592
834.479 .0278476
835.169 .0278354
835.859 .0278226
836.548 .0278092
837.238 .0277952
837.927 .0277807
838.615 .0277656
839.304 .0277499
839.992 .0277337
840.680 .0277169
841.367 .0276994
842.054 .0276814
842.741 .0276627
843.428 .0276435
844.114 .0276238
844.800 .0276036
845.485 .0275830
846.170 .0275618
846.855 .0275403
847.540 .0275183
848.224 .0274959
848.908 .0274731
849.592 .0274499
850.275 .0274263
850.958 .0274024
851.641 .0273782
852.323 .0273537
853.005 .0273289
853.687 .0273039
854.368 .0272786
855.049 .0272530
855.730 .0272272
856.410 .0272013
857.090 .0271751
857.769 .0271488
858.449 .0271225
859.128 .0270960
859.806 .0270694
860.485 .0270428
861.163 .0270162
861.840 .0269896
862.518 .0269630
863.195 .0269366
863.871 .0269103
864.548 .0268842
865.224 .0268585
865.899 .0268330
866.574 .0268078
867.249 .0267831
867.924 .0267587
868.598 .0267347
869.272 .0267113
869.946 .0266883
870.619 .0266659
871.292 .0266441
871.964 .0266228
872.636 .0266021
873.308 .0265820
873.979 .0265625
874.651 .0265437
875.321 .0265257
875.992 .0265084
876.662 .0264920
877.331 .0264764
878.001 .0264616
878.670 .0264477
879.338 .0264348
880.007 .0264228
880.675 .0264117
881.342 .0264017
882.009 .0263927
882.676 .0263848
883.343 .0263780
884.009 .0263722
884.675 .0263675
885.340 .0263637
886.005 .0263608
886.670 .0263587
887.334 .0263574
887.998 .0263569
888.662 .0263572
889.325 .0263582
889.988 .0263598
890.650 .0263622
891.312 .0263651
891.974 .0263686
892.636 .0263726
893.297 .0263768
893.957 .0263814
894.618 .0263861
895.278 .0263909
895.937 .0263958
896.596 .0264005
897.255 .0264051
897.914 .0264094
898.572 .0264134
899.230 .0264169
899.887 .0264199
900.544 .0264224
901.201 .0264242
901.857 .0264241
902.513 .0264241
903.168 .0264233
903.823 .0264217
904.478 .0264194
905.132 .0264164
905.786 .0264128
906.440 .0264085
907.093 .0264036
907.746 .0263982
908.399 .0263923
909.051 .0263861
909.703 .0263795
910.354 .0263755
911.005 .0263689
911.656 .0263622
912.306 .0263555
912.956 .0263488
913.605 .0263423
914.254 .0263359
914.903 .0263298
915.551 .0263239
916.199 .0263182
916.847 .0263127
917.494 .0263075
918.141 .0263024
918.788 .0262975
919.434 .0262928
920.079 .0262883
920.725 .0262841
921.370 .0262800
922.014 .0262762
922.658 .0262725
923.302 .0262690
923.946 .0262654
924.589 .0262619
925.231 .0262581
925.873 .0262543
926.515 .0262502
927.157 .0262460
927.798 .0262417
928.439 .0262373
929.079 .0262328
929.719 .0262282
930.359 .0262236
930.998 .0262191
931.637 .0262146
932.275 .0262101
932.913 .0262058
933.551 .0262017
934.188 .0261979
934.825 .0261945
935.462 .0261916
936.098 .0261893
936.733 .0261876
937.369 .0261865
938.004 .0261860
938.638 .0261861
939.273 .0261868
939.907 .0261880
940.540 .0261898
941.173 .0261920
941.806 .0261946
942.438 .0261976
943.070 .0262010
943.702 .0262047
944.333 .0262087
944.964 .0262129
945.594 .0262171
946.224 .0262214
946.854 .0262256
947.483 .0262298
948.112 .0262338
948.741 .0262375
949.369 .0262410
949.996 .0262443
950.624 .0262471
951.251 .0262496
951.878 .0262516
952.504 .0262531
953.130 .0262541
953.755 .0262544
954.380 .0262540
955.005 .0262529
955.629 .0262512
956.253 .0262487
956.877 .0262455
957.500 .0262417
958.123 .0262371
958.746 .0262319
959.368 .0262261
959.990 .0262196
960.611 .0262127
961.232 .0262051
961.853 .0261971
962.473 .0261887
963.093 .0261797
963.712 .0261703
964.331 .0261605
964.950 .0261502
965.569 .0261395
966.187 .0261283
966.804 .0261166
967.422 .0261043
968.039 .0260915
968.655 .0260781
969.272 .0260641
969.887 .0260495
970.503 .0260345
971.118 .0260190
971.733 .0260031
972.347 .0259868
972.961 .0259703
973.575 .0259535
974.188 .0259364
974.801 .0259192
975.414 .0259018
976.026 .0258842
976.638 .0258664
977.250 .0258485
977.861 .0258303
978.472 .0258118
979.083 .0257932
979.693 .0257741
980.303 .0257548
980.912 .0257243
981.521 .0257040
982.130 .0256831
982.738 .0256619
983.346 .0256403
983.954 .0256183
984.562 .0255960
985.169 .0255734
985.775 .0255507
986.382 .0255279
986.988 .0255051
987.594 .0254822
988.199 .0254593
988.804 .0254366
989.409 .0254252
990.013 .0254028
990.617 .0253807
991.221 .0253588
991.824 .0253373
992.427 .0253161
993.030 .0252954
993.632 .0252750
994.234 .0252550
994.836 .0252353
995.438 .0252160
996.039 .0251970
996.640 .0251784
997.240 .0251601
997.840 .0251423
998.440 .0251250
999.040 .0251081
999.639 .0250917
1000.238 .0250757
1000.836 .0250601
1001.435 .0250448
1002.033 .0250299
1002.630 .0250152
1003.228 .0250007
1003.825 .0249863
1004.422 .0249722
1005.018 .0249582
1005.614 .0249444
1006.210 .0249308
1006.806 .0249172
1007.401 .0249037
1007.996 .0248902
1008.591 .0248767
1009.186 .0248631
1009.780 .0248494
1010.374 .0248356
1010.967 .0248219
1011.561 .0248082
1012.154 .0247947
1012.746 .0247813
1013.339 .0247681
1013.931 .0247551
1014.523 .0247423
1015.115 .0247297
1015.706 .0247173
1016.298 .0247052
1016.888 .0246932
1017.479 .0246816
1018.069 .0246703
1018.660 .0246595
1019.250 .0246492
1019.839 .0246394
1020.429 .0246303
1021.018 .0246217
1021.607 .0246136
1022.195 .0246061
1022.784 .0245991
1023.372 .0245925
1023.960 .0245865
1024.547 .0245809
1025.135 .0245760
1025.722 .0245715
1026.309 .0245677
1026.896 .0245643
1027.483 .0245615
1028.069 .0245592
1028.655 .0245573
1029.241 .0245557
1029.827 .0245545
1030.412 .0245536
1030.997 .0245529
1031.582 .0245525
1032.167 .0245525
1032.752 .0245527
1033.336 .0245533
1033.921 .0245541
1034.505 .0245552
1035.089 .0245566
1035.672 .0245580
1036.256 .0245594
1036.839 .0245609
1037.422 .0245623
1038.005 .0245637
1038.588 .0245651
1039.171 .0245665
1039.753 .0245680
1040.335 .0245693
1040.918 .0245706
1041.500 .0245718
1042.081 .0245728
1042.663 .0245735
1043.244 .0245740
1043.826 .0245743
1044.407 .0245743
1044.988 .0245741
1045.569 .0245738
1046.150 .0245734
1046.730 .0245730
1047.311 .0245726
1047.891 .0245721
1048.471 .0245715
1049.052 .0245708
1049.632 .0245700
1050.211 .0245690
1050.791 .0245680
1051.371 .0245670
1051.950 .0245661
1052.530 .0245653
1053.109 .0245647
1053.688 .0245643
1054.268 .0245643
1054.847 .0245645
1055.426 .0245650
1056.005 .0245657
1056.583 .0245666
1057.162 .0245679
1057.741 .0245694
1058.319 .0245712
1058.898 .0245733
1059.476 .0245756
1060.055 .0245782
1060.633 .0245808
1061.211 .0245836
1061.790 .0245866
1062.368 .0245898
1062.946 .0245932
1063.524 .0245968
1064.102 .0246007
1064.680 .0246051
1065.258 .0246097
1065.836 .0246148
1066.414 .0246202
1066.992 .0246260
1067.570 .0246321
1068.148 .0246385
1068.726 .0246452
1069.304 .0246523
1069.882 .0246597
1070.460 .0246675
1071.038 .0246757
1071.616 .0246843
1072.194 .0246932
1072.772 .0247024
1073.350 .0247119
1073.928 .0247216
1074.506 .0247316
1075.084 .0247420
1075.662 .0247527
1076.240 .0247640
1076.819 .0247759
1077.397 .0247886
1077.976 .0248020
1078.554 .0248163
1079.133 .0248314
1079.711 .0248473
1080.290 .0248638
1080.869 .0248810
1081.448 .0248988
1082.027 .0249170
1082.606 .0249358
1083.185 .0249552
1083.764 .0249751
1084.343 .0249955
1084.923 .0250166
1085.502 .0250383
1086.082 .0250607
1086.662 .0250839
1087.242 .0251078
1087.822 .0251326
1088.402 .0251581
1088.983 .0251847
1089.563 .0252122
1090.144 .0252407
1090.725 .0252701
1091.306 .0253003
1091.887 .0253313
1092.469 .0253628
1093.050 .0253947
1093.632 .0254268
1094.214 .0254591
1094.796 .0254916
1095.379 .0255240
1095.961 .0255563
1096.544 .0255886
1097.127 .0256206
1097.710 .0256525
1098.294 .0256839
1098.877 .0257151
1099.461 .0257459
1100.046 .0257765
1100.630 .0258070
1101.215 .0258375
1101.800 .0258683
1102.385 .0258994
1102.970 .0259308
1103.556 .0259624
1104.142 .0259943
1104.728 .0260262
1105.315 .0260581
1105.902 .0260897
1106.489 .0261211
1107.077 .0261523
1107.664 .0261835
1108.253 .0262148
1108.841 .0262466
1109.430 .0262791
1110.019 .0263124
1110.609 .0263470
1111.198 .0263829
1111.789 .0264204
1112.379 .0264596
1112.970 .0265006
1113.561 .0265433
1114.153 .0265879
1114.745 .0266343
1115.338 .0266827
1115.931 .0267332
1116.524 .0267858
1117.117 .0268407
1117.712 .0268978
1118.306 .0269572
1118.901 .0270189
1119.496 .0270827
1120.092 .0271486
1120.689 .0272163
1121.285 .0272854
1121.882 .0273559
1122.480 .0274276
1123.078 .0275006
1123.677 .0275749
1124.276 .0276506
1124.875 .0277276
1125.476 .0278062
1126.076 .0278862
1126.677 .0279678
1127.279 .0280506
1127.881 .0281345
1128.484 .0282190
1129.087 .0282606
1129.691 .0283457
1130.295 .0284307
1130.900 .0285153
1131.505 .0285998
1132.111 .0286844
1132.718 .0287692
1133.325 .0288545
1133.933 .0289407
1134.541 .0290264
1135.150 .0291197
1135.760 .0292123
1136.370 .0293028
1136.981 .0294331
1137.592 .0295142
1138.204 .0295878
1138.817 .0296578
1139.431 .0297286
1140.045 .0298060
1140.660 .0298893
1141.275 .0299813
1141.891 .0300814
1142.508 .0301493
1143.126 .0304508
1143.744 .0305288
1144.363 .0305696
1144.983 .0305989
