Measurement Sequence started on: 15-12-46-377
Integration time: 28
Scans to Average: 2 
>>>>>Begin Spectral Data<<<<<
432.689 .0000100
433.621 .0000100
434.552 .0000100
435.482 .0000100
436.410 .0000100
437.337 .0000100
438.262 .0272603
439.187 .0578147
440.110 .0958627
441.031 .1388334
441.952 .1114063
442.871 .1163197
443.789 .1208898
444.705 .1251908
445.621 .1292738
446.535 .1331774
447.447 .1354945
448.359 .1360724
449.269 .1345348
450.178 .1306354
451.086 .1244505
451.993 .1164531
452.898 .1074318
453.803 .0982827
454.706 .0897703
455.608 .0823718
456.508 .0762499
457.408 .0721068
458.306 .0689302
459.204 .0663521
460.100 .0641848
460.995 .0623203
461.888 .0606859
462.781 .0592330
463.673 .0579257
464.563 .0567398
465.452 .0556573
466.340 .0546630
467.228 .0537475
468.114 .0529015
468.999 .0521196
469.882 .0513960
470.765 .0507262
471.647 .0501070
472.528 .0495357
473.407 .0490091
474.286 .0485258
475.163 .0480842
476.040 .0476836
476.915 .0473235
477.790 .0470034
478.663 .0467225
479.535 .0464798
480.407 .0462731
481.277 .0461005
482.147 .0459585
483.015 .0458447
483.883 .0457555
484.749 .0456887
485.615 .0456421
486.479 .0456146
487.343 .0456054
488.206 .0456150
489.067 .0456435
489.928 .0456914
490.788 .0457589
491.647 .0458456
492.505 .0459505
493.362 .0460728
494.218 .0462107
495.073 .0463637
495.928 .0466493
496.781 .0468415
497.634 .0470515
498.486 .0472813
499.337 .0475331
500.187 .0478094
501.036 .0481126
501.884 .0484447
502.731 .0488074
503.578 .0492030
504.424 .0494695
505.268 .0499241
506.113 .0504188
506.956 .0509581
507.798 .0515490
508.640 .0521990
509.480 .0529182
510.320 .0537185
511.160 .0546129
511.998 .0556167
512.836 .0567472
513.672 .0580212
514.508 .0594583
515.344 .0610780
516.178 .0628979
517.012 .0649397
517.845 .0672249
518.677 .0697710
519.508 .0725939
520.339 .0757046
521.169 .0791094
521.998 .0827899
522.826 .0867144
523.654 .0908328
524.481 .0950839
525.307 .0993939
526.133 .1036758
526.958 .1078416
527.782 .1118052
528.605 .1154870
529.428 .1188154
530.250 .1217276
531.072 .1241799
531.892 .1261361
532.712 .1275709
533.532 .1284681
534.350 .1288199
535.168 .1286242
535.986 .1278857
536.802 .1266110
537.618 .1248075
538.434 .1224859
539.249 .1196788
540.063 .1164350
540.876 .1128163
541.689 .1088931
542.501 .1047446
543.313 .1004594
544.124 .0961258
544.934 .0918248
545.744 .0876291
546.553 .0836024
547.361 .0797968
548.169 .0762436
548.976 .0729636
549.783 .0699649
550.589 .0672482
551.395 .0648001
552.200 .0626008
553.004 .0606271
553.808 .0588532
554.611 .0572579
555.414 .0558204
556.216 .0545227
557.018 .0533439
557.819 .0522678
558.619 .0512796
559.419 .0503662
560.218 .0495177
561.017 .0487238
561.815 .0479769
562.613 .0472713
563.410 .0466001
564.207 .0459559
565.003 .0453339
565.799 .0447296
566.594 .0441393
567.388 .0435605
568.182 .0429913
568.976 .0424308
569.769 .0418786
570.562 .0413360
571.354 .0408045
572.145 .0402857
572.936 .0397809
573.727 .0392910
574.517 .0388174
575.307 .0383611
576.096 .0379225
576.885 .0375026
577.673 .0371021
578.461 .0367217
579.248 .0363615
580.035 .0360220
580.821 .0357035
581.607 .0354057
582.392 .0351284
583.177 .0348710
583.962 .0346325
584.746 .0344123
585.529 .0342093
586.313 .0340230
587.095 .0338525
587.878 .0336966
588.660 .0335543
589.441 .0334247
590.222 .0333066
591.003 .0331989
591.783 .0331005
592.563 .0330104
593.342 .0329276
594.121 .0328511
594.899 .0327802
595.678 .0327139
596.455 .0326515
597.233 .0325924
598.009 .0325358
598.786 .0324812
599.562 .0324282
600.338 .0323766
601.113 .0323262
601.888 .0322544
602.663 .0322071
603.437 .0321609
604.211 .0321159
604.984 .0320722
605.757 .0320297
606.530 .0319884
607.302 .0319483
608.074 .0319095
608.845 .0318720
609.616 .0318359
610.387 .0318218
611.158 .0317883
611.928 .0317564
612.697 .0317261
613.467 .0316975
614.236 .0316704
615.004 .0316447
615.773 .0316202
616.541 .0315968
617.308 .0315744
618.076 .0315526
618.843 .0315315
619.609 .0315107
620.375 .0314901
621.141 .0314696
621.907 .0314489
622.672 .0314278
623.437 .0314062
624.202 .0313839
624.966 .0313607
625.730 .0313367
626.493 .0313116
627.257 .0312855
628.020 .0312583
628.782 .0312301
629.545 .0312007
630.307 .0311704
631.068 .0311392
631.830 .0311072
632.591 .0310745
633.352 .0310413
634.112 .0310078
634.872 .0309740
635.632 .0309403
636.392 .0309065
637.151 .0308730
637.910 .0308399
638.668 .0308072
639.427 .0307751
640.185 .0307439
640.943 .0307135
641.700 .0306841
642.457 .0306557
643.214 .0306284
643.971 .0306020
644.727 .0305766
645.483 .0305522
646.239 .0305286
646.994 .0305057
647.750 .0304836
648.505 .0304619
649.259 .0304408
650.014 .0304200
650.768 .0303996
651.521 .0303792
652.275 .0303590
653.028 .0303387
653.781 .0303183
654.534 .0302978
655.286 .0302772
656.039 .0302565
656.791 .0302357
657.542 .0302149
658.294 .0301941
659.045 .0301733
659.796 .0301526
660.546 .0301319
661.297 .0301114
662.047 .0300909
662.796 .0300705
663.546 .0300503
664.295 .0300302
665.044 .0300105
665.793 .0299911
666.542 .0299723
667.290 .0299540
668.038 .0299362
668.786 .0299190
669.533 .0299022
670.281 .0298858
671.028 .0298698
671.774 .0298540
672.521 .0298384
673.267 .0298231
674.013 .0298081
674.759 .0297935
675.505 .0297794
676.250 .0297657
676.995 .0297523
677.740 .0297394
678.484 .0297267
679.229 .0297142
679.973 .0297019
680.717 .0296896
681.460 .0296775
682.204 .0296653
682.947 .0296530
683.690 .0296407
684.433 .0296283
685.175 .0296157
685.917 .0296030
686.659 .0295902
687.401 .0295774
688.142 .0295644
688.884 .0295514
689.625 .0295382
690.365 .0295248
691.106 .0295110
691.846 .0294969
692.586 .0294823
693.326 .0294671
694.066 .0294513
694.805 .0294350
695.545 .0294181
696.284 .0294009
697.022 .0293832
697.761 .0293653
698.499 .0293472
699.237 .0293288
699.975 .0293104
700.713 .0292918
701.450 .0292732
702.187 .0292545
702.924 .0292358
703.661 .0292171
704.397 .0291985
705.133 .0291799
705.869 .0291615
706.605 .0291432
707.341 .0291252
708.076 .0291073
708.811 .0290896
709.546 .0290721
710.281 .0290547
711.015 .0290375
711.749 .0290204
712.483 .0290032
713.217 .0289859
713.950 .0289684
714.684 .0289507
715.417 .0289325
716.150 .0289141
716.882 .0288952
717.615 .0288760
718.347 .0288564
719.079 .0288365
719.811 .0288162
720.542 .0287957
721.273 .0287748
722.005 .0287536
722.735 .0287321
723.466 .0287103
724.196 .0286883
724.927 .0286661
725.656 .0286438
726.386 .0286217
727.116 .0285996
727.845 .0285778
728.574 .0285563
729.303 .0285351
730.031 .0285142
730.760 .0284938
731.488 .0284739
732.216 .0284544
732.944 .0284355
733.671 .0284170
734.398 .0283991
735.125 .0283817
735.852 .0283647
736.579 .0283482
737.305 .0283320
738.031 .0283161
738.757 .0283006
739.483 .0282854
740.208 .0282705
740.933 .0282558
741.658 .0282412
742.383 .0282267
743.108 .0282123
743.832 .0281977
744.556 .0281832
745.280 .0281685
746.004 .0281538
746.727 .0281390
747.450 .0281242
748.173 .0281092
748.896 .0280941
749.618 .0280789
750.340 .0280634
751.062 .0280477
751.784 .0280318
752.506 .0280157
753.227 .0279994
753.948 .0279831
754.669 .0279667
755.389 .0279504
756.110 .0279341
756.830 .0279179
757.550 .0279018
758.269 .0278857
758.989 .0278699
759.708 .0278542
760.427 .0278387
761.146 .0278234
761.864 .0278085
762.582 .0277938
763.300 .0277795
764.018 .0277655
764.736 .0277520
765.453 .0277389
766.170 .0277262
766.887 .0277140
767.603 .0277024
768.320 .0276913
769.036 .0276807
769.751 .0276707
770.467 .0276613
771.182 .0276524
771.897 .0276441
772.612 .0276363
773.327 .0276290
774.041 .0276221
774.755 .0276156
775.469 .0276095
776.183 .0276037
776.896 .0275982
777.609 .0275931
778.322 .0275883
779.035 .0275839
779.747 .0275798
780.459 .0275761
781.171 .0275726
781.882 .0275694
782.594 .0275662
783.305 .0275631
784.016 .0275600
784.726 .0275569
785.436 .0275538
786.147 .0275488
786.856 .0275454
787.566 .0275421
788.275 .0275386
788.984 .0275351
789.693 .0275314
790.401 .0275276
791.110 .0275236
791.818 .0275194
792.525 .0275150
793.233 .0275105
793.940 .0275057
794.647 .0275026
795.353 .0274975
796.060 .0274922
796.766 .0274866
797.472 .0274807
798.177 .0274745
798.883 .0274680
799.588 .0274613
800.292 .0274543
800.997 .0274471
801.701 .0274398
802.405 .0274322
803.109 .0274243
803.812 .0274162
804.515 .0274077
805.218 .0273989
805.921 .0273898
806.623 .0273804
807.325 .0273706
808.027 .0273607
808.728 .0273506
809.429 .0273403
810.130 .0273300
810.831 .0273196
811.531 .0273091
812.231 .0272985
812.931 .0272879
813.630 .0272773
814.330 .0272666
815.029 .0272562
815.727 .0272459
816.426 .0272359
817.124 .0272262
817.821 .0272170
818.519 .0272082
819.216 .0271997
819.913 .0271917
820.609 .0271840
821.306 .0271767
822.002 .0271698
822.697 .0271632
823.393 .0271570
824.088 .0271512
824.783 .0271457
825.477 .0271404
826.171 .0271353
826.865 .0271302
827.559 .0271253
828.252 .0271203
828.945 .0271154
829.638 .0271104
830.330 .0271055
831.023 .0271005
831.714 .0270955
832.406 .0270904
833.097 .0270852
833.788 .0270798
834.479 .0270741
835.169 .0270682
835.859 .0270621
836.548 .0270557
837.238 .0270492
837.927 .0270425
838.615 .0270356
839.304 .0270284
839.992 .0270210
840.680 .0270133
841.367 .0270052
842.054 .0269968
842.741 .0269879
843.428 .0269786
844.114 .0269689
844.800 .0269588
845.485 .0269482
846.170 .0269371
846.855 .0269254
847.540 .0269129
848.224 .0268997
848.908 .0268857
849.592 .0268710
850.275 .0268554
850.958 .0268392
851.641 .0268222
852.323 .0268045
853.005 .0267861
853.687 .0267669
854.368 .0267471
855.049 .0267266
855.730 .0267055
856.410 .0266838
857.090 .0266617
857.769 .0266392
858.449 .0266166
859.128 .0265939
859.806 .0265711
860.485 .0265485
861.163 .0265260
861.840 .0265037
862.518 .0264816
863.195 .0264599
863.871 .0264384
864.548 .0264173
865.224 .0263965
865.899 .0263761
866.574 .0263560
867.249 .0263364
867.924 .0263171
868.598 .0262983
869.272 .0262800
869.946 .0262621
870.619 .0262446
871.292 .0262275
871.964 .0262108
872.636 .0261944
873.308 .0261782
873.979 .0261623
874.651 .0261465
875.321 .0261310
875.992 .0261157
876.662 .0261006
877.331 .0260857
878.001 .0260711
878.670 .0260568
879.338 .0260428
880.007 .0260292
880.675 .0260159
881.342 .0260030
882.009 .0259906
882.676 .0259787
883.343 .0259672
884.009 .0259562
884.675 .0259457
885.340 .0259358
886.005 .0259262
886.670 .0259172
887.334 .0259087
887.998 .0259007
888.662 .0258932
889.325 .0258862
889.988 .0258797
890.650 .0258736
891.312 .0258680
891.974 .0258626
892.636 .0258573
893.297 .0258521
893.957 .0258469
894.618 .0258416
895.278 .0258361
895.937 .0258303
896.596 .0258243
897.255 .0258179
897.914 .0258112
898.572 .0258041
899.230 .0257964
899.887 .0257882
900.544 .0257795
901.201 .0257701
901.857 .0257530
902.513 .0257421
903.168 .0257307
903.823 .0257186
904.478 .0257060
905.132 .0256928
905.786 .0256792
906.440 .0256650
907.093 .0256505
907.746 .0256356
908.399 .0256206
909.051 .0256054
909.703 .0255902
910.354 .0255828
911.005 .0255679
911.656 .0255531
912.306 .0255384
912.956 .0255239
913.605 .0255096
914.254 .0254955
914.903 .0254816
915.551 .0254679
916.199 .0254545
916.847 .0254414
917.494 .0254284
918.141 .0254155
918.788 .0254028
919.434 .0253900
920.079 .0253772
920.725 .0253643
921.370 .0253514
922.014 .0253383
922.658 .0253251
923.302 .0253118
923.946 .0252984
924.589 .0252848
925.231 .0252713
925.873 .0252576
926.515 .0252439
927.157 .0252301
927.798 .0252164
928.439 .0252027
929.079 .0251892
929.719 .0251759
930.359 .0251628
930.998 .0251501
931.637 .0251377
932.275 .0251257
932.913 .0251142
933.551 .0251031
934.188 .0250927
934.825 .0250829
935.462 .0250738
936.098 .0250654
936.733 .0250577
937.369 .0250509
938.004 .0250448
938.638 .0250396
939.273 .0250351
939.907 .0250315
940.540 .0250286
941.173 .0250267
941.806 .0250256
942.438 .0250253
943.070 .0250258
943.702 .0250270
944.333 .0250288
944.964 .0250311
945.594 .0250338
946.224 .0250367
946.854 .0250399
947.483 .0250433
948.112 .0250468
948.741 .0250504
949.369 .0250541
949.996 .0250578
950.624 .0250616
951.251 .0250653
951.878 .0250688
952.504 .0250723
953.130 .0250755
953.755 .0250785
954.380 .0250813
955.005 .0250839
955.629 .0250864
956.253 .0250887
956.877 .0250907
957.500 .0250925
958.123 .0250940
958.746 .0250952
959.368 .0250961
959.990 .0250968
960.611 .0250973
961.232 .0250976
961.853 .0250979
962.473 .0250982
963.093 .0250985
963.712 .0250990
964.331 .0250995
964.950 .0251000
965.569 .0251006
966.187 .0251011
966.804 .0251017
967.422 .0251022
968.039 .0251027
968.655 .0251032
969.272 .0251036
969.887 .0251041
970.503 .0251045
971.118 .0251049
971.733 .0251053
972.347 .0251055
972.961 .0251055
973.575 .0251053
974.188 .0251049
974.801 .0251042
975.414 .0251033
976.026 .0251023
976.638 .0251010
977.250 .0250996
977.861 .0250980
978.472 .0250962
979.083 .0250942
979.693 .0250920
980.303 .0250896
980.912 .0250851
981.521 .0250823
982.130 .0250794
982.738 .0250764
983.346 .0250733
983.954 .0250702
984.562 .0250670
985.169 .0250637
985.775 .0250605
986.382 .0250572
986.988 .0250540
987.594 .0250508
988.199 .0250478
988.804 .0250449
989.409 .0250441
990.013 .0250415
990.617 .0250391
991.221 .0250368
991.824 .0250347
992.427 .0250327
993.030 .0250307
993.632 .0250287
994.234 .0250267
994.836 .0250246
995.438 .0250224
996.039 .0250203
996.640 .0250180
997.240 .0250158
997.840 .0250136
998.440 .0250113
999.040 .0250091
999.639 .0250068
1000.238 .0250045
1000.836 .0250022
1001.435 .0249998
1002.033 .0249975
1002.630 .0249953
1003.228 .0249931
1003.825 .0249910
1004.422 .0249889
1005.018 .0249868
1005.614 .0249847
1006.210 .0249826
1006.806 .0249804
1007.401 .0249781
1007.996 .0249759
1008.591 .0249737
1009.186 .0249716
1009.780 .0249697
1010.374 .0249679
1010.967 .0249663
1011.561 .0249647
1012.154 .0249632
1012.746 .0249617
1013.339 .0249602
1013.931 .0249587
1014.523 .0249572
1015.115 .0249558
1015.706 .0249546
1016.298 .0249535
1016.888 .0249525
1017.479 .0249517
1018.069 .0249508
1018.660 .0249500
1019.250 .0249492
1019.839 .0249484
1020.429 .0249476
1021.018 .0249468
1021.607 .0249462
1022.195 .0249458
1022.784 .0249457
1023.372 .0249458
1023.960 .0249462
1024.547 .0249467
1025.135 .0249473
1025.722 .0249481
1026.309 .0249489
1026.896 .0249498
1027.483 .0249507
1028.069 .0249517
1028.655 .0249527
1029.241 .0249538
1029.827 .0249549
1030.412 .0249559
1030.997 .0249568
1031.582 .0249575
1032.167 .0249581
1032.752 .0249585
1033.336 .0249587
1033.921 .0249587
1034.505 .0249587
1035.089 .0249587
1035.672 .0249585
1036.256 .0249583
1036.839 .0249580
1037.422 .0249575
1038.005 .0249568
1038.588 .0249557
1039.171 .0249542
1039.753 .0249524
1040.335 .0249502
1040.918 .0249477
1041.500 .0249449
1042.081 .0249418
1042.663 .0249385
1043.244 .0249348
1043.826 .0249307
1044.407 .0249263
1044.988 .0249214
1045.569 .0249161
1046.150 .0249105
1046.730 .0249045
1047.311 .0248983
1047.891 .0248920
1048.471 .0248856
1049.052 .0248791
1049.632 .0248724
1050.211 .0248654
1050.791 .0248580
1051.371 .0248501
1051.950 .0248416
1052.530 .0248326
1053.109 .0248230
1053.688 .0248130
1054.268 .0248025
1054.847 .0247918
1055.426 .0247809
1056.005 .0247698
1056.583 .0247586
1057.162 .0247472
1057.741 .0247356
1058.319 .0247239
1058.898 .0247121
1059.476 .0247002
1060.055 .0246883
1060.633 .0246766
1061.211 .0246651
1061.790 .0246540
1062.368 .0246433
1062.946 .0246331
1063.524 .0246233
1064.102 .0246137
1064.680 .0246042
1065.258 .0245946
1065.836 .0245847
1066.414 .0245746
1066.992 .0245643
1067.570 .0245537
1068.148 .0245432
1068.726 .0245327
1069.304 .0245223
1069.882 .0245120
1070.460 .0245020
1071.038 .0244922
1071.616 .0244823
1072.194 .0244725
1072.772 .0244625
1073.350 .0244525
1073.928 .0244425
1074.506 .0244327
1075.084 .0244233
1075.662 .0244143
1076.240 .0244061
1076.819 .0243986
1077.397 .0243918
1077.976 .0243858
1078.554 .0243805
1079.133 .0243757
1079.711 .0243713
1080.290 .0243672
1080.869 .0243633
1081.448 .0243599
1082.027 .0243569
1082.606 .0243544
1083.185 .0243525
1083.764 .0243513
1084.343 .0243508
1084.923 .0243509
1085.502 .0243518
1086.082 .0243534
1086.662 .0243556
1087.242 .0243584
1087.822 .0243620
1088.402 .0243663
1088.983 .0243716
1089.563 .0243781
1090.144 .0243859
1090.725 .0243950
1091.306 .0244055
1091.887 .0244173
1092.469 .0244303
1093.050 .0244442
1093.632 .0244589
1094.214 .0244742
1094.796 .0244898
1095.379 .0245057
1095.961 .0245216
1096.544 .0245377
1097.127 .0245540
1097.710 .0245704
1098.294 .0245870
1098.877 .0246039
1099.461 .0246210
1100.046 .0246384
1100.630 .0246560
1101.215 .0246738
1101.800 .0246916
1102.385 .0247095
1102.970 .0247274
1103.556 .0247453
1104.142 .0247634
1104.728 .0247816
1105.315 .0248000
1105.902 .0248185
1106.489 .0248370
1107.077 .0248553
1107.664 .0248733
1108.253 .0248907
1108.841 .0249075
1109.430 .0249235
1110.019 .0249388
1110.609 .0249534
1111.198 .0249676
1111.789 .0249815
1112.379 .0249957
1112.970 .0250105
1113.561 .0250259
1114.153 .0250423
1114.745 .0250598
1115.338 .0250786
1115.931 .0250991
1116.524 .0251213
1117.117 .0251455
1117.712 .0251721
1118.306 .0252012
1118.901 .0252331
1119.496 .0252680
1120.092 .0253060
1120.689 .0253470
1121.285 .0253909
1121.882 .0254375
1122.480 .0254866
1123.078 .0255379
1123.677 .0255914
1124.276 .0256471
1124.875 .0257049
1125.476 .0257649
1126.076 .0258274
1126.677 .0258923
1127.279 .0259599
1127.881 .0260301
1128.484 .0261030
1129.087 .0261352
1129.691 .0262122
1130.295 .0262916
1130.900 .0263734
1131.505 .0264576
1132.111 .0265447
1132.718 .0266347
1133.325 .0267272
1133.933 .0268228
1134.541 .0269208
1135.150 .0270285
1135.760 .0271298
1136.370 .0272263
1136.981 .0272897
1137.592 .0273843
1138.204 .0274825
1138.817 .0275882
1139.431 .0276963
1140.045 .0278191
1140.660 .0279471
1141.275 .0280744
1141.891 .0282185
1142.508 .0283554
1143.126 .0286978
1143.744 .0286023
1144.363 .0285562
1144.983 .0291226
