Measurement Sequence started on: 15-12-46-377
Integration time: 28
Scans to Average: 2 
>>>>>Begin Spectral Data<<<<<
432.689 .0000100
433.621 .0000100
434.552 .0000100
435.482 .0000100
436.410 .0000100
437.337 .0000100
438.262 .0281552
439.187 .0595409
440.110 .0985116
441.031 .1424396
441.952 .1140998
442.871 .1191358
443.789 .1238077
444.705 .1281919
445.621 .1323403
446.535 .1362950
447.447 .1386051
448.359 .1391238
449.269 .1374710
450.178 .1333988
451.086 .1269846
451.993 .1187191
452.898 .1094085
453.803 .0999696
454.706 .0911823
455.608 .0835316
456.508 .0771833
457.408 .0728654
458.306 .0695334
459.204 .0668193
460.100 .0645396
460.995 .0625926
461.888 .0609040
462.781 .0594244
463.673 .0581139
464.563 .0569446
465.452 .0558954
466.340 .0549499
467.228 .0540970
468.114 .0533282
468.999 .0526351
469.882 .0520114
470.765 .0514502
471.647 .0509451
472.528 .0504904
473.407 .0500807
474.286 .0497112
475.163 .0493791
476.040 .0490807
476.915 .0488141
477.790 .0485774
478.663 .0483693
479.535 .0481887
480.407 .0480341
481.277 .0479038
482.147 .0477955
483.015 .0477074
483.883 .0476380
484.749 .0475857
485.615 .0475498
486.479 .0475295
487.343 .0475242
488.206 .0475343
489.067 .0475600
489.928 .0476018
490.788 .0476602
491.647 .0477362
492.505 .0478297
493.362 .0479407
494.218 .0480696
495.073 .0482163
495.928 .0485025
496.781 .0486978
497.634 .0489136
498.486 .0491515
499.337 .0494132
500.187 .0497009
501.036 .0500168
501.884 .0503634
502.731 .0507420
503.578 .0511549
504.424 .0514364
505.268 .0519086
506.113 .0524228
506.956 .0529832
507.798 .0535958
508.640 .0542681
509.480 .0550099
510.320 .0558330
511.160 .0567481
511.998 .0577694
512.836 .0589136
513.672 .0602004
514.508 .0616512
515.344 .0632906
516.178 .0651452
517.012 .0672444
517.845 .0696152
518.677 .0722797
519.508 .0752584
520.339 .0785652
521.169 .0822024
521.998 .0861462
522.826 .0903610
523.654 .0947909
524.481 .0993663
525.307 .1040086
526.133 .1086261
526.958 .1131230
527.782 .1174072
528.605 .1213934
529.428 .1250045
530.250 .1281723
531.072 .1308479
531.892 .1329877
532.712 .1345633
533.532 .1355541
534.350 .1359449
535.168 .1357350
535.986 .1349312
536.802 .1335384
537.618 .1315646
538.434 .1290276
539.249 .1259691
540.063 .1224396
540.876 .1185068
541.689 .1142475
542.501 .1097455
543.313 .1050950
544.124 .1003896
544.934 .0957173
545.744 .0911598
546.553 .0867880
547.361 .0826594
548.169 .0788086
548.976 .0752626
549.783 .0720282
550.589 .0691019
551.395 .0664702
552.200 .0641073
553.004 .0619834
553.808 .0600726
554.611 .0583516
555.414 .0567989
556.216 .0553946
557.018 .0541207
557.819 .0529608
558.619 .0519015
559.419 .0509302
560.218 .0500353
561.017 .0492074
561.815 .0484380
562.613 .0477189
563.410 .0470416
564.207 .0463996
565.003 .0457868
565.799 .0451981
566.594 .0446294
567.388 .0440780
568.182 .0435415
568.976 .0430183
569.769 .0425073
570.562 .0420083
571.354 .0415214
572.145 .0410470
572.936 .0405851
573.727 .0401361
574.517 .0397003
575.307 .0392788
576.096 .0388722
576.885 .0384815
577.673 .0381078
578.461 .0377517
579.248 .0374138
580.035 .0370946
580.821 .0367938
581.607 .0365115
582.392 .0362474
583.177 .0360009
583.962 .0357711
584.746 .0355572
585.529 .0353583
586.313 .0351734
587.095 .0350015
587.878 .0348416
588.660 .0346928
589.441 .0345544
590.222 .0344256
591.003 .0343060
591.783 .0341952
592.563 .0340925
593.342 .0339973
594.121 .0339089
594.899 .0338265
595.678 .0337493
596.455 .0336765
597.233 .0336074
598.009 .0335412
598.786 .0334775
599.562 .0334159
600.338 .0333560
601.113 .0332978
601.888 .0332143
602.663 .0331595
603.437 .0331061
604.211 .0330538
604.984 .0330026
605.757 .0329522
606.530 .0329026
607.302 .0328536
608.074 .0328052
608.845 .0327576
609.616 .0327108
610.387 .0326903
611.158 .0326453
611.928 .0326015
612.697 .0325592
613.467 .0325183
614.236 .0324790
615.004 .0324413
615.773 .0324051
616.541 .0323703
617.308 .0323370
618.076 .0323050
618.843 .0322744
619.609 .0322450
620.375 .0322167
621.141 .0321896
621.907 .0321633
622.672 .0321379
623.437 .0321131
624.202 .0320888
624.966 .0320650
625.730 .0320416
626.493 .0320186
627.257 .0319960
628.020 .0319736
628.782 .0319515
629.545 .0319295
630.307 .0319074
631.068 .0318851
631.830 .0318626
632.591 .0318398
633.352 .0318166
634.112 .0317933
634.872 .0317699
635.632 .0317464
636.392 .0317230
637.151 .0316997
637.910 .0316765
638.668 .0316535
639.427 .0316306
640.185 .0316079
640.943 .0315854
641.700 .0315632
642.457 .0315415
643.214 .0315203
643.971 .0314995
644.727 .0314793
645.483 .0314595
646.239 .0314401
646.994 .0314212
647.750 .0314027
648.505 .0313846
649.259 .0313669
650.014 .0313495
650.768 .0313324
651.521 .0313155
652.275 .0312985
653.028 .0312814
653.781 .0312639
654.534 .0312457
655.286 .0312268
656.039 .0312071
656.791 .0311866
657.542 .0311653
658.294 .0311433
659.045 .0311205
659.796 .0310969
660.546 .0310724
661.297 .0310471
662.047 .0310209
662.796 .0309937
663.546 .0309657
664.295 .0309368
665.044 .0309073
665.793 .0308774
666.542 .0308471
667.290 .0308167
668.038 .0307862
668.786 .0307558
669.533 .0307254
670.281 .0306951
671.028 .0306651
671.774 .0306353
672.521 .0306060
673.267 .0305772
674.013 .0305489
674.759 .0305213
675.505 .0304942
676.250 .0304678
676.995 .0304420
677.740 .0304168
678.484 .0303921
679.229 .0303680
679.973 .0303443
680.717 .0303212
681.460 .0302985
682.204 .0302760
682.947 .0302538
683.690 .0302316
684.433 .0302093
685.175 .0301869
685.917 .0301643
686.659 .0301415
687.401 .0301184
688.142 .0300952
688.884 .0300717
689.625 .0300479
690.365 .0300238
691.106 .0299994
691.846 .0299747
692.586 .0299497
693.326 .0299244
694.066 .0298990
694.805 .0298735
695.545 .0298482
696.284 .0298230
697.022 .0297981
697.761 .0297735
698.499 .0297494
699.237 .0297257
699.975 .0297025
700.713 .0296799
701.450 .0296578
702.187 .0296364
702.924 .0296157
703.661 .0295956
704.397 .0295761
705.133 .0295573
705.869 .0295391
706.605 .0295215
707.341 .0295046
708.076 .0294881
708.811 .0294722
709.546 .0294567
710.281 .0294417
711.015 .0294269
711.749 .0294124
712.483 .0293980
713.217 .0293838
713.950 .0293696
714.684 .0293554
715.417 .0293412
716.150 .0293270
716.882 .0293129
717.615 .0292987
718.347 .0292846
719.079 .0292706
719.811 .0292567
720.542 .0292429
721.273 .0292292
722.005 .0292157
722.735 .0292024
723.466 .0291893
724.196 .0291765
724.927 .0291640
725.656 .0291518
726.386 .0291401
727.116 .0291287
727.845 .0291179
728.574 .0291074
729.303 .0290974
730.031 .0290876
730.760 .0290782
731.488 .0290691
732.216 .0290601
732.944 .0290513
733.671 .0290427
734.398 .0290342
735.125 .0290257
735.852 .0290173
736.579 .0290088
737.305 .0290004
738.031 .0289919
738.757 .0289833
739.483 .0289746
740.208 .0289658
740.933 .0289570
741.658 .0289482
742.383 .0289393
743.108 .0289303
743.832 .0289212
744.556 .0289120
745.280 .0289027
746.004 .0288931
746.727 .0288834
747.450 .0288734
748.173 .0288631
748.896 .0288525
749.618 .0288416
750.340 .0288303
751.062 .0288187
751.784 .0288066
752.506 .0287939
753.227 .0287807
753.948 .0287668
754.669 .0287521
755.389 .0287367
756.110 .0287204
756.830 .0287033
757.550 .0286854
758.269 .0286668
758.989 .0286473
759.708 .0286271
760.427 .0286062
761.146 .0285847
761.864 .0285626
762.582 .0285401
763.300 .0285171
764.018 .0284937
764.736 .0284699
765.453 .0284459
766.170 .0284217
766.887 .0283972
767.603 .0283726
768.320 .0283479
769.036 .0283232
769.751 .0282988
770.467 .0282745
771.182 .0282507
771.897 .0282273
772.612 .0282043
773.327 .0281818
774.041 .0281597
774.755 .0281381
775.469 .0281168
776.183 .0280961
776.896 .0280758
777.609 .0280561
778.322 .0280369
779.035 .0280183
779.747 .0280003
780.459 .0279830
781.171 .0279661
781.882 .0279498
782.594 .0279339
783.305 .0279184
784.016 .0279033
784.726 .0278885
785.436 .0278741
786.147 .0278535
786.856 .0278395
787.566 .0278256
788.275 .0278119
788.984 .0277982
789.693 .0277845
790.401 .0277708
791.110 .0277570
791.818 .0277430
792.525 .0277290
793.233 .0277148
793.940 .0277003
794.647 .0276921
795.353 .0276774
796.060 .0276626
796.766 .0276477
797.472 .0276326
798.177 .0276174
798.883 .0276021
799.588 .0275867
800.292 .0275713
800.997 .0275560
801.701 .0275406
802.405 .0275252
803.109 .0275098
803.812 .0274945
804.515 .0274792
805.218 .0274640
805.921 .0274490
806.623 .0274342
807.325 .0274196
808.027 .0274054
808.728 .0273916
809.429 .0273782
810.130 .0273651
810.831 .0273525
811.531 .0273404
812.231 .0273287
812.931 .0273174
813.630 .0273067
814.330 .0272965
815.029 .0272868
815.727 .0272779
816.426 .0272696
817.124 .0272621
817.821 .0272554
818.519 .0272495
819.216 .0272445
819.913 .0272402
820.609 .0272367
821.306 .0272340
822.002 .0272320
822.697 .0272308
823.393 .0272304
824.088 .0272306
824.783 .0272315
825.477 .0272331
826.171 .0272353
826.865 .0272381
827.559 .0272413
828.252 .0272450
828.945 .0272491
829.638 .0272535
830.330 .0272582
831.023 .0272631
831.714 .0272682
832.406 .0272734
833.097 .0272785
833.788 .0272836
834.479 .0272886
835.169 .0272935
835.859 .0272982
836.548 .0273028
837.238 .0273074
837.927 .0273118
838.615 .0273162
839.304 .0273204
839.992 .0273244
840.680 .0273281
841.367 .0273314
842.054 .0273341
842.741 .0273363
843.428 .0273379
844.114 .0273388
844.800 .0273392
845.485 .0273390
846.170 .0273382
846.855 .0273367
847.540 .0273345
848.224 .0273316
848.908 .0273278
849.592 .0273231
850.275 .0273175
850.958 .0273109
851.641 .0273035
852.323 .0272952
853.005 .0272862
853.687 .0272763
854.368 .0272657
855.049 .0272543
855.730 .0272422
856.410 .0272295
857.090 .0272162
857.769 .0272023
858.449 .0271880
859.128 .0271733
859.806 .0271583
860.485 .0271431
861.163 .0271277
861.840 .0271121
862.518 .0270964
863.195 .0270806
863.871 .0270648
864.548 .0270491
865.224 .0270334
865.899 .0270179
866.574 .0270026
867.249 .0269874
867.924 .0269723
868.598 .0269574
869.272 .0269426
869.946 .0269278
870.619 .0269131
871.292 .0268984
871.964 .0268837
872.636 .0268690
873.308 .0268543
873.979 .0268395
874.651 .0268246
875.321 .0268097
875.992 .0267948
876.662 .0267798
877.331 .0267647
878.001 .0267497
878.670 .0267347
879.338 .0267197
880.007 .0267046
880.675 .0266894
881.342 .0266742
882.009 .0266589
882.676 .0266435
883.343 .0266280
884.009 .0266126
884.675 .0265972
885.340 .0265819
886.005 .0265668
886.670 .0265518
887.334 .0265370
887.998 .0265223
888.662 .0265076
889.325 .0264930
889.988 .0264783
890.650 .0264636
891.312 .0264489
891.974 .0264341
892.636 .0264194
893.297 .0264046
893.957 .0263899
894.618 .0263750
895.278 .0263600
895.937 .0263448
896.596 .0263291
897.255 .0263130
897.914 .0262964
898.572 .0262791
899.230 .0262612
899.887 .0262426
900.544 .0262233
901.201 .0262035
901.857 .0261703
902.513 .0261488
903.168 .0261266
903.823 .0261036
904.478 .0260799
905.132 .0260555
905.786 .0260304
906.440 .0260048
907.093 .0259787
907.746 .0259522
908.399 .0259255
909.051 .0258984
909.703 .0258712
910.354 .0258574
911.005 .0258303
911.656 .0258031
912.306 .0257759
912.956 .0257488
913.605 .0257218
914.254 .0256952
914.903 .0256689
915.551 .0256431
916.199 .0256178
916.847 .0255930
917.494 .0255687
918.141 .0255448
918.788 .0255214
919.434 .0254984
920.079 .0254758
920.725 .0254535
921.370 .0254315
922.014 .0254099
922.658 .0253886
923.302 .0253677
923.946 .0253470
924.589 .0253266
925.231 .0253064
925.873 .0252865
926.515 .0252668
927.157 .0252474
927.798 .0252282
928.439 .0252093
929.079 .0251907
929.719 .0251725
930.359 .0251547
930.998 .0251374
931.637 .0251206
932.275 .0251042
932.913 .0250885
933.551 .0250732
934.188 .0250586
934.825 .0250446
935.462 .0250313
936.098 .0250185
936.733 .0250064
937.369 .0249949
938.004 .0249842
938.638 .0249742
939.273 .0249651
939.907 .0249570
940.540 .0249499
941.173 .0249439
941.806 .0249390
942.438 .0249351
943.070 .0249322
943.702 .0249304
944.333 .0249295
944.964 .0249296
945.594 .0249306
946.224 .0249324
946.854 .0249351
947.483 .0249385
948.112 .0249426
948.741 .0249471
949.369 .0249521
949.996 .0249575
950.624 .0249630
951.251 .0249687
951.878 .0249746
952.504 .0249807
953.130 .0249870
953.755 .0249936
954.380 .0250004
955.005 .0250074
955.629 .0250146
956.253 .0250220
956.877 .0250294
957.500 .0250368
958.123 .0250443
958.746 .0250518
959.368 .0250595
959.990 .0250673
960.611 .0250752
961.232 .0250833
961.853 .0250914
962.473 .0250995
963.093 .0251075
963.712 .0251153
964.331 .0251230
964.950 .0251304
965.569 .0251376
966.187 .0251447
966.804 .0251516
967.422 .0251586
968.039 .0251654
968.655 .0251722
969.272 .0251788
969.887 .0251852
970.503 .0251913
971.118 .0251971
971.733 .0252026
972.347 .0252077
972.961 .0252125
973.575 .0252169
974.188 .0252209
974.801 .0252245
975.414 .0252276
976.026 .0252302
976.638 .0252323
977.250 .0252339
977.861 .0252350
978.472 .0252356
979.083 .0252358
979.693 .0252356
980.303 .0252349
980.912 .0252328
981.521 .0252314
982.130 .0252298
982.738 .0252280
983.346 .0252262
983.954 .0252244
984.562 .0252229
985.169 .0252215
985.775 .0252205
986.382 .0252197
986.988 .0252192
987.594 .0252189
988.199 .0252189
988.804 .0252192
989.409 .0252203
990.013 .0252209
990.617 .0252218
991.221 .0252230
991.824 .0252246
992.427 .0252265
993.030 .0252286
993.632 .0252309
994.234 .0252331
994.836 .0252352
995.438 .0252372
996.039 .0252390
996.640 .0252406
997.240 .0252422
997.840 .0252437
998.440 .0252453
999.040 .0252469
999.639 .0252487
1000.238 .0252505
1000.836 .0252524
1001.435 .0252541
1002.033 .0252557
1002.630 .0252570
1003.228 .0252581
1003.825 .0252589
1004.422 .0252595
1005.018 .0252598
1005.614 .0252599
1006.210 .0252597
1006.806 .0252593
1007.401 .0252585
1007.996 .0252574
1008.591 .0252559
1009.186 .0252541
1009.780 .0252518
1010.374 .0252492
1010.967 .0252464
1011.561 .0252433
1012.154 .0252401
1012.746 .0252369
1013.339 .0252336
1013.931 .0252304
1014.523 .0252271
1015.115 .0252238
1015.706 .0252205
1016.298 .0252172
1016.888 .0252138
1017.479 .0252104
1018.069 .0252070
1018.660 .0252035
1019.250 .0251999
1019.839 .0251963
1020.429 .0251926
1021.018 .0251889
1021.607 .0251851
1022.195 .0251813
1022.784 .0251775
1023.372 .0251738
1023.960 .0251703
1024.547 .0251669
1025.135 .0251637
1025.722 .0251608
1026.309 .0251580
1026.896 .0251554
1027.483 .0251530
1028.069 .0251507
1028.655 .0251485
1029.241 .0251464
1029.827 .0251443
1030.412 .0251423
1030.997 .0251401
1031.582 .0251378
1032.167 .0251354
1032.752 .0251326
1033.336 .0251295
1033.921 .0251258
1034.505 .0251216
1035.089 .0251168
1035.672 .0251113
1036.256 .0251051
1036.839 .0250982
1037.422 .0250906
1038.005 .0250823
1038.588 .0250733
1039.171 .0250636
1039.753 .0250532
1040.335 .0250420
1040.918 .0250300
1041.500 .0250173
1042.081 .0250038
1042.663 .0249898
1043.244 .0249752
1043.826 .0249602
1044.407 .0249449
1044.988 .0249294
1045.569 .0249138
1046.150 .0248981
1046.730 .0248823
1047.311 .0248665
1047.891 .0248506
1048.471 .0248346
1049.052 .0248186
1049.632 .0248028
1050.211 .0247871
1050.791 .0247719
1051.371 .0247572
1051.950 .0247430
1052.530 .0247292
1053.109 .0247159
1053.688 .0247030
1054.268 .0246903
1054.847 .0246778
1055.426 .0246654
1056.005 .0246531
1056.583 .0246410
1057.162 .0246290
1057.741 .0246171
1058.319 .0246052
1058.898 .0245933
1059.476 .0245811
1060.055 .0245687
1060.633 .0245557
1061.211 .0245423
1061.790 .0245282
1062.368 .0245137
1062.946 .0244987
1063.524 .0244835
1064.102 .0244681
1064.680 .0244527
1065.258 .0244373
1065.836 .0244220
1066.414 .0244067
1066.992 .0243915
1067.570 .0243763
1068.148 .0243612
1068.726 .0243462
1069.304 .0243316
1069.882 .0243175
1070.460 .0243041
1071.038 .0242913
1071.616 .0242793
1072.194 .0242681
1072.772 .0242576
1073.350 .0242477
1073.928 .0242385
1074.506 .0242299
1075.084 .0242221
1075.662 .0242151
1076.240 .0242092
1076.819 .0242044
1077.397 .0242007
1077.976 .0241982
1078.554 .0241966
1079.133 .0241957
1079.711 .0241955
1080.290 .0241956
1080.869 .0241961
1081.448 .0241967
1082.027 .0241974
1082.606 .0241984
1083.185 .0241996
1083.764 .0242010
1084.343 .0242027
1084.923 .0242044
1085.502 .0242061
1086.082 .0242078
1086.662 .0242093
1087.242 .0242108
1087.822 .0242124
1088.402 .0242143
1088.983 .0242167
1089.563 .0242197
1090.144 .0242236
1090.725 .0242285
1091.306 .0242343
1091.887 .0242410
1092.469 .0242483
1093.050 .0242562
1093.632 .0242645
1094.214 .0242732
1094.796 .0242823
1095.379 .0242920
1095.961 .0243022
1096.544 .0243132
1097.127 .0243250
1097.710 .0243374
1098.294 .0243504
1098.877 .0243638
1099.461 .0243776
1100.046 .0243914
1100.630 .0244053
1101.215 .0244192
1101.800 .0244332
1102.385 .0244474
1102.970 .0244617
1103.556 .0244761
1104.142 .0244905
1104.728 .0245047
1105.315 .0245186
1105.902 .0245322
1106.489 .0245454
1107.077 .0245584
1107.664 .0245713
1108.253 .0245846
1108.841 .0245984
1109.430 .0246131
1110.019 .0246291
1110.609 .0246466
1111.198 .0246660
1111.789 .0246872
1112.379 .0247106
1112.970 .0247363
1113.561 .0247643
1114.153 .0247948
1114.745 .0248280
1115.338 .0248639
1115.931 .0249027
1116.524 .0249445
1117.117 .0249895
1117.712 .0250376
1118.306 .0250889
1118.901 .0251433
1119.496 .0252009
1120.092 .0252617
1120.689 .0253253
1121.285 .0253919
1121.882 .0254612
1122.480 .0255332
1123.078 .0256076
1123.677 .0256843
1124.276 .0257631
1124.875 .0258438
1125.476 .0259264
1126.076 .0260108
1126.677 .0260968
1127.279 .0261845
1127.881 .0262736
1128.484 .0263640
1129.087 .0264089
1129.691 .0265008
1130.295 .0265936
1130.900 .0266875
1131.505 .0267824
1132.111 .0268787
1132.718 .0269767
1133.325 .0270768
1133.933 .0271796
1134.541 .0272827
1135.150 .0273926
1135.760 .0275038
1136.370 .0276195
1136.981 .0276542
1137.592 .0277637
1138.204 .0278730
1138.817 .0279894
1139.431 .0281098
1140.045 .0282393
1140.660 .0283774
1141.275 .0285272
1141.891 .0286968
1142.508 .0287963
1143.126 .0290824
1143.744 .0292147
1144.363 .0294392
1144.983 .0298109
