Measurement Sequence started on: 15-12-46-377
Integration time: 28
Scans to Average: 2 
>>>>>Begin Spectral Data<<<<<
432.689 .0000100
433.621 .0000100
434.552 .0000100
435.482 .0000100
436.410 .0000100
437.337 .0000100
438.262 .0259864
439.187 .0549920
440.110 .0910866
441.031 .1317973
441.952 .1059566
442.871 .1107296
443.789 .1151926
444.705 .1194138
445.621 .1234393
446.535 .1273048
447.447 .1296658
448.359 .1303815
449.269 .1290930
450.178 .1255684
451.086 .1198779
451.993 .1124706
452.898 .1040918
453.803 .0955886
454.706 .0876807
455.608 .0808160
456.508 .0751436
457.408 .0713313
458.306 .0684098
459.204 .0660340
460.100 .0640282
460.995 .0622942
461.888 .0607660
462.781 .0594001
463.673 .0581640
464.563 .0570380
465.452 .0560073
466.340 .0550612
467.228 .0541921
468.114 .0533939
468.999 .0526608
469.882 .0519875
470.765 .0513696
471.647 .0508028
472.528 .0502835
473.407 .0498086
474.286 .0493762
475.163 .0489848
476.040 .0486326
476.915 .0483182
477.790 .0480401
478.663 .0477964
479.535 .0475852
480.407 .0474042
481.277 .0472509
482.147 .0471218
483.015 .0470147
483.883 .0469269
484.749 .0468569
485.615 .0468036
486.479 .0467661
487.343 .0467443
488.206 .0467387
489.067 .0467488
489.928 .0467757
490.788 .0468203
491.647 .0468838
492.505 .0469671
493.362 .0470714
494.218 .0471970
495.073 .0473447
495.928 .0476465
496.781 .0478491
497.634 .0480731
498.486 .0483193
499.337 .0485884
500.187 .0488824
501.036 .0492031
501.884 .0495533
502.731 .0499365
503.578 .0503559
504.424 .0506391
505.268 .0511223
506.113 .0516506
506.956 .0522278
507.798 .0528584
508.640 .0535481
509.480 .0543054
510.320 .0551408
511.160 .0560664
511.998 .0570969
512.836 .0582511
513.672 .0595477
514.508 .0610082
515.344 .0626557
516.178 .0645137
517.012 .0666089
517.845 .0689662
518.677 .0716097
519.508 .0745584
520.339 .0778180
521.169 .0813874
521.998 .0852402
522.826 .0893365
523.654 .0936172
524.481 .0980098
525.307 .1024368
526.133 .1068117
526.958 .1110448
527.782 .1150504
528.605 .1187505
529.428 .1220780
530.250 .1249675
531.072 .1273720
531.892 .1292536
532.712 .1305863
533.532 .1313552
534.350 .1315514
535.168 .1311753
535.986 .1302322
536.802 .1287291
537.618 .1266821
538.434 .1241110
539.249 .1210589
540.063 .1175800
540.876 .1137411
541.689 .1096200
542.501 .1052979
543.313 .1008618
544.124 .0964002
544.934 .0919957
545.744 .0877192
546.553 .0836298
547.361 .0797805
548.169 .0762043
548.976 .0729225
549.783 .0699411
550.589 .0672538
551.395 .0648430
552.200 .0626831
553.004 .0607432
553.808 .0589954
554.611 .0574159
555.414 .0559838
556.216 .0546799
557.018 .0534872
557.819 .0523940
558.619 .0513891
559.419 .0504630
560.218 .0496071
561.017 .0488116
561.815 .0480672
562.613 .0473673
563.410 .0467046
564.207 .0460727
565.003 .0454673
565.799 .0448845
566.594 .0443207
567.388 .0437743
568.182 .0432431
568.976 .0427259
569.769 .0422222
570.562 .0417316
571.354 .0412531
572.145 .0407862
572.936 .0403307
573.727 .0398865
574.517 .0394537
575.307 .0390335
576.096 .0386261
576.885 .0382328
577.673 .0378548
578.461 .0374932
579.248 .0371485
580.035 .0368213
580.821 .0365114
581.607 .0362187
582.392 .0359426
583.177 .0356827
583.962 .0354385
584.746 .0352100
585.529 .0349970
586.313 .0347987
587.095 .0346147
587.878 .0344442
588.660 .0342865
589.441 .0341406
590.222 .0340058
591.003 .0338812
591.783 .0337660
592.563 .0336594
593.342 .0335608
594.121 .0334694
594.899 .0333846
595.678 .0333057
596.455 .0332321
597.233 .0331631
598.009 .0330981
598.786 .0330366
599.562 .0329779
600.338 .0329217
601.113 .0328676
601.888 .0327920
602.663 .0327420
603.437 .0326935
604.211 .0326463
604.984 .0326004
605.757 .0325556
606.530 .0325120
607.302 .0324694
608.074 .0324280
608.845 .0323878
609.616 .0323488
610.387 .0323321
611.158 .0322950
611.928 .0322591
612.697 .0322244
613.467 .0321911
614.236 .0321590
615.004 .0321283
615.773 .0320989
616.541 .0320709
617.308 .0320440
618.076 .0320183
618.843 .0319937
619.609 .0319699
620.375 .0319470
621.141 .0319247
621.907 .0319029
622.672 .0318815
623.437 .0318604
624.202 .0318394
624.966 .0318184
625.730 .0317973
626.493 .0317759
627.257 .0317541
628.020 .0317317
628.782 .0317088
629.545 .0316851
630.307 .0316607
631.068 .0316356
631.830 .0316097
632.591 .0315832
633.352 .0315561
634.112 .0315285
634.872 .0315004
635.632 .0314719
636.392 .0314431
637.151 .0314141
637.910 .0313851
638.668 .0313560
639.427 .0313272
640.185 .0312987
640.943 .0312707
641.700 .0312434
642.457 .0312168
643.214 .0311909
643.971 .0311658
644.727 .0311414
645.483 .0311179
646.239 .0310951
646.994 .0310731
647.750 .0310517
648.505 .0310311
649.259 .0310112
650.014 .0309919
650.768 .0309731
651.521 .0309547
652.275 .0309366
653.028 .0309187
653.781 .0309008
654.534 .0308828
655.286 .0308647
656.039 .0308464
656.791 .0308278
657.542 .0308088
658.294 .0307895
659.045 .0307698
659.796 .0307497
660.546 .0307293
661.297 .0307085
662.047 .0306874
662.796 .0306660
663.546 .0306444
664.295 .0306225
665.044 .0306004
665.793 .0305780
666.542 .0305556
667.290 .0305331
668.038 .0305105
668.786 .0304879
669.533 .0304654
670.281 .0304430
671.028 .0304209
671.774 .0303989
672.521 .0303772
673.267 .0303558
674.013 .0303345
674.759 .0303135
675.505 .0302927
676.250 .0302720
676.995 .0302513
677.740 .0302308
678.484 .0302103
679.229 .0301900
679.973 .0301698
680.717 .0301499
681.460 .0301302
682.204 .0301108
682.947 .0300916
683.690 .0300724
684.433 .0300532
685.175 .0300340
685.917 .0300145
686.659 .0299948
687.401 .0299748
688.142 .0299546
688.884 .0299342
689.625 .0299136
690.365 .0298930
691.106 .0298722
691.846 .0298514
692.586 .0298305
693.326 .0298095
694.066 .0297883
694.805 .0297671
695.545 .0297458
696.284 .0297244
697.022 .0297030
697.761 .0296816
698.499 .0296602
699.237 .0296390
699.975 .0296180
700.713 .0295971
701.450 .0295765
702.187 .0295562
702.924 .0295362
703.661 .0295165
704.397 .0294972
705.133 .0294783
705.869 .0294596
706.605 .0294411
707.341 .0294228
708.076 .0294045
708.811 .0293862
709.546 .0293679
710.281 .0293494
711.015 .0293308
711.749 .0293122
712.483 .0292934
713.217 .0292746
713.950 .0292557
714.684 .0292368
715.417 .0292177
716.150 .0291986
716.882 .0291793
717.615 .0291598
718.347 .0291403
719.079 .0291207
719.811 .0291010
720.542 .0290814
721.273 .0290619
722.005 .0290428
722.735 .0290239
723.466 .0290055
724.196 .0289877
724.927 .0289705
725.656 .0289541
726.386 .0289384
727.116 .0289235
727.845 .0289095
728.574 .0288962
729.303 .0288837
730.031 .0288719
730.760 .0288609
731.488 .0288504
732.216 .0288406
732.944 .0288315
733.671 .0288229
734.398 .0288151
735.125 .0288078
735.852 .0288011
736.579 .0287948
737.305 .0287889
738.031 .0287833
738.757 .0287777
739.483 .0287720
740.208 .0287663
740.933 .0287604
741.658 .0287544
742.383 .0287482
743.108 .0287418
743.832 .0287353
744.556 .0287287
745.280 .0287218
746.004 .0287148
746.727 .0287076
747.450 .0287000
748.173 .0286923
748.896 .0286842
749.618 .0286760
750.340 .0286675
751.062 .0286588
751.784 .0286498
752.506 .0286407
753.227 .0286312
753.948 .0286213
754.669 .0286112
755.389 .0286006
756.110 .0285897
756.830 .0285786
757.550 .0285671
758.269 .0285555
758.989 .0285436
759.708 .0285315
760.427 .0285192
761.146 .0285066
761.864 .0284937
762.582 .0284803
763.300 .0284666
764.018 .0284525
764.736 .0284380
765.453 .0284233
766.170 .0284083
766.887 .0283931
767.603 .0283778
768.320 .0283624
769.036 .0283469
769.751 .0283313
770.467 .0283157
771.182 .0283001
771.897 .0282846
772.612 .0282690
773.327 .0282536
774.041 .0282382
774.755 .0282229
775.469 .0282077
776.183 .0281927
776.896 .0281779
777.609 .0281633
778.322 .0281491
779.035 .0281353
779.747 .0281219
780.459 .0281089
781.171 .0280961
781.882 .0280836
782.594 .0280711
783.305 .0280587
784.016 .0280462
784.726 .0280337
785.436 .0280212
786.147 .0280027
786.856 .0279903
787.566 .0279778
788.275 .0279654
788.984 .0279528
789.693 .0279401
790.401 .0279271
791.110 .0279138
791.818 .0279002
792.525 .0278863
793.233 .0278720
793.940 .0278574
794.647 .0278490
795.353 .0278339
796.060 .0278184
796.766 .0278026
797.472 .0277864
798.177 .0277698
798.883 .0277528
799.588 .0277356
800.292 .0277180
800.997 .0277002
801.701 .0276821
802.405 .0276637
803.109 .0276450
803.812 .0276260
804.515 .0276067
805.218 .0275872
805.921 .0275676
806.623 .0275478
807.325 .0275281
808.027 .0275084
808.728 .0274889
809.429 .0274696
810.130 .0274504
810.831 .0274315
811.531 .0274128
812.231 .0273943
812.931 .0273762
813.630 .0273584
814.330 .0273412
815.029 .0273244
815.727 .0273083
816.426 .0272928
817.124 .0272779
817.821 .0272637
818.519 .0272500
819.216 .0272369
819.913 .0272244
820.609 .0272125
821.306 .0272011
822.002 .0271904
822.697 .0271803
823.393 .0271707
824.088 .0271617
824.783 .0271532
825.477 .0271451
826.171 .0271374
826.865 .0271301
827.559 .0271230
828.252 .0271163
828.945 .0271099
829.638 .0271037
830.330 .0270978
831.023 .0270921
831.714 .0270866
832.406 .0270812
833.097 .0270760
833.788 .0270708
834.479 .0270659
835.169 .0270611
835.859 .0270567
836.548 .0270525
837.238 .0270487
837.927 .0270451
838.615 .0270419
839.304 .0270389
839.992 .0270362
840.680 .0270337
841.367 .0270314
842.054 .0270293
842.741 .0270275
843.428 .0270259
844.114 .0270244
844.800 .0270230
845.485 .0270215
846.170 .0270197
846.855 .0270178
847.540 .0270154
848.224 .0270127
848.908 .0270096
849.592 .0270061
850.275 .0270022
850.958 .0269979
851.641 .0269932
852.323 .0269880
853.005 .0269823
853.687 .0269761
854.368 .0269694
855.049 .0269622
855.730 .0269545
856.410 .0269463
857.090 .0269378
857.769 .0269289
858.449 .0269197
859.128 .0269102
859.806 .0269005
860.485 .0268907
861.163 .0268809
861.840 .0268713
862.518 .0268619
863.195 .0268528
863.871 .0268442
864.548 .0268361
865.224 .0268286
865.899 .0268215
866.574 .0268149
867.249 .0268088
867.924 .0268032
868.598 .0267982
869.272 .0267936
869.946 .0267897
870.619 .0267862
871.292 .0267833
871.964 .0267809
872.636 .0267788
873.308 .0267771
873.979 .0267755
874.651 .0267742
875.321 .0267729
875.992 .0267718
876.662 .0267706
877.331 .0267695
878.001 .0267684
878.670 .0267674
879.338 .0267663
880.007 .0267653
880.675 .0267643
881.342 .0267634
882.009 .0267625
882.676 .0267617
883.343 .0267608
884.009 .0267600
884.675 .0267592
885.340 .0267584
886.005 .0267577
886.670 .0267570
887.334 .0267564
887.998 .0267559
888.662 .0267556
889.325 .0267555
889.988 .0267557
890.650 .0267560
891.312 .0267564
891.974 .0267570
892.636 .0267576
893.297 .0267582
893.957 .0267587
894.618 .0267590
895.278 .0267591
895.937 .0267588
896.596 .0267581
897.255 .0267568
897.914 .0267548
898.572 .0267522
899.230 .0267489
899.887 .0267447
900.544 .0267397
901.201 .0267338
901.857 .0267200
902.513 .0267113
903.168 .0267015
903.823 .0266905
904.478 .0266784
905.132 .0266652
905.786 .0266508
906.440 .0266355
907.093 .0266192
907.746 .0266019
908.399 .0265838
909.051 .0265648
909.703 .0265452
910.354 .0265336
911.005 .0265132
911.656 .0264923
912.306 .0264710
912.956 .0264493
913.605 .0264274
914.254 .0264053
914.903 .0263830
915.551 .0263606
916.199 .0263380
916.847 .0263154
917.494 .0262928
918.141 .0262701
918.788 .0262474
919.434 .0262246
920.079 .0262018
920.725 .0261789
921.370 .0261559
922.014 .0261327
922.658 .0261093
923.302 .0260856
923.946 .0260616
924.589 .0260373
925.231 .0260128
925.873 .0259880
926.515 .0259629
927.157 .0259377
927.798 .0259123
928.439 .0258867
929.079 .0258608
929.719 .0258349
930.359 .0258087
930.998 .0257825
931.637 .0257563
932.275 .0257302
932.913 .0257042
933.551 .0256785
934.188 .0256532
934.825 .0256283
935.462 .0256040
936.098 .0255802
936.733 .0255570
937.369 .0255345
938.004 .0255126
938.638 .0254914
939.273 .0254709
939.907 .0254513
940.540 .0254324
941.173 .0254143
941.806 .0253970
942.438 .0253805
943.070 .0253647
943.702 .0253495
944.333 .0253347
944.964 .0253203
945.594 .0253063
946.224 .0252924
946.854 .0252786
947.483 .0252649
948.112 .0252513
948.741 .0252375
949.369 .0252237
949.996 .0252097
950.624 .0251954
951.251 .0251807
951.878 .0251657
952.504 .0251502
953.130 .0251343
953.755 .0251180
954.380 .0251014
955.005 .0250845
955.629 .0250674
956.253 .0250502
956.877 .0250329
957.500 .0250155
958.123 .0249980
958.746 .0249806
959.368 .0249632
959.990 .0249461
960.611 .0249293
961.232 .0249129
961.853 .0248971
962.473 .0248819
963.093 .0248673
963.712 .0248534
964.331 .0248401
964.950 .0248273
965.569 .0248151
966.187 .0248034
966.804 .0247922
967.422 .0247814
968.039 .0247711
968.655 .0247610
969.272 .0247513
969.887 .0247418
970.503 .0247324
971.118 .0247232
971.733 .0247139
972.347 .0247046
972.961 .0246952
973.575 .0246856
974.188 .0246759
974.801 .0246660
975.414 .0246559
976.026 .0246456
976.638 .0246349
977.250 .0246239
977.861 .0246127
978.472 .0246012
979.083 .0245894
979.693 .0245773
980.303 .0245650
980.912 .0245461
981.521 .0245336
982.130 .0245211
982.738 .0245085
983.346 .0244960
983.954 .0244836
984.562 .0244716
985.169 .0244599
985.775 .0244488
986.382 .0244384
986.988 .0244285
987.594 .0244194
988.199 .0244109
988.804 .0244032
989.409 .0244018
990.013 .0243952
990.617 .0243895
991.221 .0243844
991.824 .0243801
992.427 .0243765
993.030 .0243736
993.632 .0243712
994.234 .0243694
994.836 .0243679
995.438 .0243669
996.039 .0243662
996.640 .0243659
997.240 .0243660
997.840 .0243665
998.440 .0243675
999.040 .0243690
999.639 .0243710
1000.238 .0243736
1000.836 .0243766
1001.435 .0243801
1002.033 .0243841
1002.630 .0243885
1003.228 .0243933
1003.825 .0243985
1004.422 .0244041
1005.018 .0244101
1005.614 .0244164
1006.210 .0244232
1006.806 .0244302
1007.401 .0244376
1007.996 .0244453
1008.591 .0244533
1009.186 .0244615
1009.780 .0244701
1010.374 .0244789
1010.967 .0244880
1011.561 .0244974
1012.154 .0245072
1012.746 .0245174
1013.339 .0245280
1013.931 .0245390
1014.523 .0245503
1015.115 .0245620
1015.706 .0245740
1016.298 .0245862
1016.888 .0245987
1017.479 .0246115
1018.069 .0246245
1018.660 .0246377
1019.250 .0246513
1019.839 .0246651
1020.429 .0246792
1021.018 .0246937
1021.607 .0247085
1022.195 .0247236
1022.784 .0247390
1023.372 .0247547
1023.960 .0247707
1024.547 .0247871
1025.135 .0248037
1025.722 .0248208
1026.309 .0248382
1026.896 .0248561
1027.483 .0248745
1028.069 .0248935
1028.655 .0249129
1029.241 .0249327
1029.827 .0249530
1030.412 .0249735
1030.997 .0249942
1031.582 .0250150
1032.167 .0250357
1032.752 .0250564
1033.336 .0250768
1033.921 .0250970
1034.505 .0251169
1035.089 .0251365
1035.672 .0251557
1036.256 .0251743
1036.839 .0251922
1037.422 .0252093
1038.005 .0252255
1038.588 .0252408
1039.171 .0252551
1039.753 .0252684
1040.335 .0252809
1040.918 .0252926
1041.500 .0253037
1042.081 .0253144
1042.663 .0253247
1043.244 .0253349
1043.826 .0253449
1044.407 .0253550
1044.988 .0253652
1045.569 .0253753
1046.150 .0253855
1046.730 .0253956
1047.311 .0254058
1047.891 .0254159
1048.471 .0254260
1049.052 .0254362
1049.632 .0254465
1050.211 .0254569
1050.791 .0254674
1051.371 .0254780
1051.950 .0254884
1052.530 .0254987
1053.109 .0255087
1053.688 .0255184
1054.268 .0255279
1054.847 .0255373
1055.426 .0255466
1056.005 .0255560
1056.583 .0255655
1057.162 .0255752
1057.741 .0255850
1058.319 .0255947
1058.898 .0256043
1059.476 .0256136
1060.055 .0256225
1060.633 .0256310
1061.211 .0256390
1061.790 .0256464
1062.368 .0256535
1062.946 .0256600
1063.524 .0256661
1064.102 .0256717
1064.680 .0256768
1065.258 .0256814
1065.836 .0256853
1066.414 .0256888
1066.992 .0256919
1067.570 .0256947
1068.148 .0256976
1068.726 .0257006
1069.304 .0257041
1069.882 .0257080
1070.460 .0257124
1071.038 .0257172
1071.616 .0257224
1072.194 .0257277
1072.772 .0257329
1073.350 .0257381
1073.928 .0257429
1074.506 .0257474
1075.084 .0257514
1075.662 .0257550
1076.240 .0257581
1076.819 .0257607
1077.397 .0257627
1077.976 .0257642
1078.554 .0257649
1079.133 .0257650
1079.711 .0257645
1080.290 .0257635
1080.869 .0257622
1081.448 .0257606
1082.027 .0257590
1082.606 .0257574
1083.185 .0257561
1083.764 .0257550
1084.343 .0257543
1084.923 .0257538
1085.502 .0257537
1086.082 .0257540
1086.662 .0257547
1087.242 .0257559
1087.822 .0257576
1088.402 .0257597
1088.983 .0257620
1089.563 .0257647
1090.144 .0257677
1090.725 .0257711
1091.306 .0257750
1091.887 .0257797
1092.469 .0257853
1093.050 .0257920
1093.632 .0257998
1094.214 .0258088
1094.796 .0258191
1095.379 .0258305
1095.961 .0258428
1096.544 .0258561
1097.127 .0258701
1097.710 .0258850
1098.294 .0259008
1098.877 .0259179
1099.461 .0259363
1100.046 .0259560
1100.630 .0259770
1101.215 .0259992
1101.800 .0260223
1102.385 .0260460
1102.970 .0260700
1103.556 .0260943
1104.142 .0261186
1104.728 .0261431
1105.315 .0261681
1105.902 .0261938
1106.489 .0262205
1107.077 .0262484
1107.664 .0262775
1108.253 .0263078
1108.841 .0263389
1109.430 .0263706
1110.019 .0264027
1110.609 .0264349
1111.198 .0264673
1111.789 .0264998
1112.379 .0265325
1112.970 .0265658
1113.561 .0265996
1114.153 .0266341
1114.745 .0266692
1115.338 .0267050
1115.931 .0267408
1116.524 .0267768
1117.117 .0268127
1117.712 .0268485
1118.306 .0268843
1118.901 .0269206
1119.496 .0269574
1120.092 .0269953
1120.689 .0270343
1121.285 .0270745
1121.882 .0271160
1122.480 .0271588
1123.078 .0272026
1123.677 .0272475
1124.276 .0272934
1124.875 .0273402
1125.476 .0273883
1126.076 .0274379
1126.677 .0274891
1127.279 .0275422
1127.881 .0275972
1128.484 .0276541
1129.087 .0276781
1129.691 .0277379
1130.295 .0277994
1130.900 .0278628
1131.505 .0279283
1132.111 .0279959
1132.718 .0280662
1133.325 .0281391
1133.933 .0282150
1134.541 .0282969
1135.150 .0283792
1135.760 .0284700
1136.370 .0285484
1136.981 .0286045
1137.592 .0286910
1138.204 .0287763
1138.817 .0288612
1139.431 .0289567
1140.045 .0290548
1140.660 .0291679
1141.275 .0292772
1141.891 .0294026
1142.508 .0296115
1143.126 .0296654
1143.744 .0299551
1144.363 .0296572
1144.983 .0300996
