Measurement Sequence started on: 15-12-46-377
Integration time: 28
Scans to Average: 2 
>>>>>Begin Spectral Data<<<<<
432.689 .0000100
433.621 .0000100
434.552 .0000100
435.482 .0000100
436.410 .0000100
437.337 .0000100
438.262 .0246236
439.187 .0524038
440.110 .0869542
441.031 .1259830
441.952 .1019892
442.871 .1066499
443.789 .1110092
444.705 .1151305
445.621 .1190560
446.535 .1228188
447.447 .1251450
448.359 .1258854
449.269 .1246991
450.178 .1213608
451.086 .1159353
451.993 .1088484
452.898 .1008101
453.803 .0926315
454.706 .0850035
455.608 .0783576
456.508 .0728415
457.408 .0690895
458.306 .0661940
459.204 .0638201
460.100 .0618014
460.995 .0600461
461.888 .0584941
462.781 .0571063
463.673 .0558531
464.563 .0547161
465.452 .0536809
466.340 .0527346
467.228 .0518690
468.114 .0510754
468.999 .0503473
469.882 .0496788
470.765 .0490644
471.647 .0485004
472.528 .0479830
473.407 .0475095
474.286 .0470781
475.163 .0466872
476.040 .0463350
476.915 .0460191
477.790 .0457373
478.663 .0454870
479.535 .0452654
480.407 .0450701
481.277 .0448983
482.147 .0447477
483.015 .0446166
483.883 .0445030
484.749 .0444058
485.615 .0443241
486.479 .0442569
487.343 .0442042
488.206 .0441657
489.067 .0441418
489.928 .0441335
490.788 .0441420
491.647 .0441684
492.505 .0442145
493.362 .0442811
494.218 .0443691
495.073 .0444790
495.928 .0447273
496.781 .0448944
497.634 .0450840
498.486 .0452967
499.337 .0455345
500.187 .0457997
501.036 .0460947
501.884 .0464232
502.731 .0467883
503.578 .0471930
504.424 .0474769
505.268 .0479516
506.113 .0484734
506.956 .0490457
507.798 .0496727
508.640 .0503603
509.480 .0511154
510.320 .0519491
511.160 .0528751
511.998 .0539103
512.836 .0550732
513.672 .0563834
514.508 .0578651
515.344 .0595422
516.178 .0614384
517.012 .0635776
517.845 .0659805
518.677 .0686659
519.508 .0716484
520.339 .0749336
521.169 .0785210
521.998 .0823876
522.826 .0864983
523.654 .0908011
524.481 .0952265
525.307 .0996947
526.133 .1041146
526.958 .1083910
527.782 .1124302
528.605 .1161420
529.428 .1194500
530.250 .1222889
531.072 .1246171
531.892 .1264007
532.712 .1276195
533.532 .1282678
534.350 .1283451
535.168 .1278594
535.986 .1268204
536.802 .1252360
537.618 .1231214
538.434 .1204946
539.249 .1173928
540.063 .1138645
540.876 .1099723
541.689 .1057945
542.501 .1014172
543.313 .0969335
544.124 .0924387
544.934 .0880212
545.744 .0837622
546.553 .0797245
547.361 .0759588
548.169 .0724903
548.976 .0693320
549.783 .0664832
550.589 .0639276
551.395 .0616419
552.200 .0595979
553.004 .0577657
553.808 .0561202
554.611 .0546380
555.414 .0532987
556.216 .0520839
557.018 .0509770
557.819 .0499635
558.619 .0490295
559.419 .0481635
560.218 .0473570
561.017 .0466012
561.815 .0458902
562.613 .0452188
563.410 .0445828
564.207 .0439783
565.003 .0434019
565.799 .0428496
566.594 .0423180
567.388 .0418042
568.182 .0413057
568.976 .0408203
569.769 .0403468
570.562 .0398844
571.354 .0394327
572.145 .0389923
572.936 .0385641
573.727 .0381483
574.517 .0377458
575.307 .0373574
576.096 .0369832
576.885 .0366231
577.673 .0362773
578.461 .0359455
579.248 .0356276
580.035 .0353237
580.821 .0350337
581.607 .0347576
582.392 .0344961
583.177 .0342496
583.962 .0340182
584.746 .0338022
585.529 .0336014
586.313 .0334154
587.095 .0332439
587.878 .0330861
588.660 .0329410
589.441 .0328077
590.222 .0326853
591.003 .0325730
591.783 .0324698
592.563 .0323748
593.342 .0322872
594.121 .0322061
594.899 .0321311
595.678 .0320614
596.455 .0319964
597.233 .0319358
598.009 .0318788
598.786 .0318250
599.562 .0317736
600.338 .0317243
601.113 .0316767
601.888 .0316103
602.663 .0315665
603.437 .0315244
604.211 .0314838
604.984 .0314451
605.757 .0314081
606.530 .0313729
607.302 .0313396
608.074 .0313081
608.845 .0312782
609.616 .0312500
610.387 .0312399
611.158 .0312138
611.928 .0311893
612.697 .0311660
613.467 .0311440
614.236 .0311232
615.004 .0311034
615.773 .0310844
616.541 .0310663
617.308 .0310487
618.076 .0310316
618.843 .0310148
619.609 .0309980
620.375 .0309810
621.141 .0309637
621.907 .0309460
622.672 .0309276
623.437 .0309085
624.202 .0308887
624.966 .0308681
625.730 .0308469
626.493 .0308249
627.257 .0308023
628.020 .0307789
628.782 .0307549
629.545 .0307302
630.307 .0307048
631.068 .0306788
631.830 .0306524
632.591 .0306255
633.352 .0305984
634.112 .0305710
634.872 .0305436
635.632 .0305162
636.392 .0304887
637.151 .0304613
637.910 .0304339
638.668 .0304067
639.427 .0303797
640.185 .0303530
640.943 .0303268
641.700 .0303010
642.457 .0302758
643.214 .0302511
643.971 .0302268
644.727 .0302029
645.483 .0301793
646.239 .0301559
646.994 .0301327
647.750 .0301096
648.505 .0300867
649.259 .0300641
650.014 .0300417
650.768 .0300197
651.521 .0299979
652.275 .0299765
653.028 .0299552
653.781 .0299341
654.534 .0299132
655.286 .0298923
656.039 .0298714
656.791 .0298507
657.542 .0298299
658.294 .0298092
659.045 .0297885
659.796 .0297680
660.546 .0297475
661.297 .0297274
662.047 .0297074
662.796 .0296878
663.546 .0296685
664.295 .0296497
665.044 .0296313
665.793 .0296134
666.542 .0295960
667.290 .0295792
668.038 .0295630
668.786 .0295473
669.533 .0295321
670.281 .0295176
671.028 .0295036
671.774 .0294902
672.521 .0294774
673.267 .0294651
674.013 .0294533
674.759 .0294421
675.505 .0294312
676.250 .0294206
676.995 .0294102
677.740 .0293998
678.484 .0293893
679.229 .0293787
679.973 .0293679
680.717 .0293568
681.460 .0293455
682.204 .0293339
682.947 .0293219
683.690 .0293094
684.433 .0292966
685.175 .0292832
685.917 .0292693
686.659 .0292549
687.401 .0292399
688.142 .0292244
688.884 .0292084
689.625 .0291921
690.365 .0291754
691.106 .0291585
691.846 .0291414
692.586 .0291242
693.326 .0291068
694.066 .0290894
694.805 .0290720
695.545 .0290546
696.284 .0290374
697.022 .0290202
697.761 .0290032
698.499 .0289864
699.237 .0289698
699.975 .0289534
700.713 .0289372
701.450 .0289211
702.187 .0289052
702.924 .0288893
703.661 .0288735
704.397 .0288577
705.133 .0288418
705.869 .0288257
706.605 .0288094
707.341 .0287929
708.076 .0287761
708.811 .0287590
709.546 .0287416
710.281 .0287239
711.015 .0287060
711.749 .0286878
712.483 .0286694
713.217 .0286508
713.950 .0286320
714.684 .0286129
715.417 .0285935
716.150 .0285739
716.882 .0285540
717.615 .0285338
718.347 .0285133
719.079 .0284927
719.811 .0284720
720.542 .0284514
721.273 .0284310
722.005 .0284109
722.735 .0283911
723.466 .0283718
724.196 .0283528
724.927 .0283341
725.656 .0283158
726.386 .0282979
727.116 .0282802
727.845 .0282629
728.574 .0282459
729.303 .0282294
730.031 .0282135
730.760 .0281980
731.488 .0281831
732.216 .0281686
732.944 .0281546
733.671 .0281409
734.398 .0281274
735.125 .0281142
735.852 .0281011
736.579 .0280881
737.305 .0280752
738.031 .0280624
738.757 .0280496
739.483 .0280369
740.208 .0280243
740.933 .0280118
741.658 .0279994
742.383 .0279872
743.108 .0279752
743.832 .0279633
744.556 .0279515
745.280 .0279398
746.004 .0279282
746.727 .0279166
747.450 .0279051
748.173 .0278936
748.896 .0278821
749.618 .0278708
750.340 .0278597
751.062 .0278489
751.784 .0278382
752.506 .0278278
753.227 .0278177
753.948 .0278077
754.669 .0277980
755.389 .0277884
756.110 .0277790
756.830 .0277698
757.550 .0277606
758.269 .0277516
758.989 .0277426
759.708 .0277337
760.427 .0277248
761.146 .0277159
761.864 .0277070
762.582 .0276982
763.300 .0276894
764.018 .0276806
764.736 .0276719
765.453 .0276633
766.170 .0276547
766.887 .0276463
767.603 .0276379
768.320 .0276298
769.036 .0276218
769.751 .0276142
770.467 .0276068
771.182 .0275999
771.897 .0275934
772.612 .0275872
773.327 .0275816
774.041 .0275763
774.755 .0275714
775.469 .0275670
776.183 .0275629
776.896 .0275591
777.609 .0275558
778.322 .0275528
779.035 .0275501
779.747 .0275476
780.459 .0275454
781.171 .0275433
781.882 .0275414
782.594 .0275395
783.305 .0275375
784.016 .0275354
784.726 .0275332
785.436 .0275308
786.147 .0275256
786.856 .0275223
787.566 .0275186
788.275 .0275144
788.984 .0275096
789.693 .0275042
790.401 .0274981
791.110 .0274913
791.818 .0274839
792.525 .0274757
793.233 .0274668
793.940 .0274573
794.647 .0274509
795.353 .0274406
796.060 .0274296
796.766 .0274180
797.472 .0274057
798.177 .0273927
798.883 .0273790
799.588 .0273646
800.292 .0273496
800.997 .0273339
801.701 .0273176
802.405 .0273007
803.109 .0272833
803.812 .0272654
804.515 .0272470
805.218 .0272281
805.921 .0272087
806.623 .0271890
807.325 .0271689
808.027 .0271485
808.728 .0271280
809.429 .0271074
810.130 .0270868
810.831 .0270662
811.531 .0270457
812.231 .0270254
812.931 .0270053
813.630 .0269855
814.330 .0269661
815.029 .0269472
815.727 .0269287
816.426 .0269108
817.124 .0268935
817.821 .0268767
818.519 .0268604
819.216 .0268445
819.913 .0268291
820.609 .0268141
821.306 .0267994
822.002 .0267852
822.697 .0267715
823.393 .0267583
824.088 .0267455
824.783 .0267331
825.477 .0267212
826.171 .0267095
826.865 .0266982
827.559 .0266871
828.252 .0266762
828.945 .0266656
829.638 .0266553
830.330 .0266451
831.023 .0266351
831.714 .0266253
832.406 .0266156
833.097 .0266061
833.788 .0265966
834.479 .0265873
835.169 .0265782
835.859 .0265693
836.548 .0265608
837.238 .0265527
837.927 .0265450
838.615 .0265377
839.304 .0265307
839.992 .0265239
840.680 .0265172
841.367 .0265106
842.054 .0265041
842.741 .0264978
843.428 .0264915
844.114 .0264853
844.800 .0264792
845.485 .0264731
846.170 .0264668
846.855 .0264603
847.540 .0264534
848.224 .0264461
848.908 .0264382
849.592 .0264298
850.275 .0264210
850.958 .0264117
851.641 .0264020
852.323 .0263920
853.005 .0263816
853.687 .0263709
854.368 .0263598
855.049 .0263484
855.730 .0263366
856.410 .0263245
857.090 .0263121
857.769 .0262997
858.449 .0262872
859.128 .0262747
859.806 .0262623
860.485 .0262501
861.163 .0262380
861.840 .0262261
862.518 .0262145
863.195 .0262033
863.871 .0261925
864.548 .0261822
865.224 .0261724
865.899 .0261633
866.574 .0261549
867.249 .0261471
867.924 .0261399
868.598 .0261333
869.272 .0261273
869.946 .0261218
870.619 .0261168
871.292 .0261123
871.964 .0261084
872.636 .0261051
873.308 .0261025
873.979 .0261004
874.651 .0260990
875.321 .0260981
875.992 .0260977
876.662 .0260978
877.331 .0260982
878.001 .0260989
878.670 .0260999
879.338 .0261011
880.007 .0261026
880.675 .0261043
881.342 .0261062
882.009 .0261084
882.676 .0261107
883.343 .0261132
884.009 .0261159
884.675 .0261186
885.340 .0261214
886.005 .0261241
886.670 .0261268
887.334 .0261294
887.998 .0261318
888.662 .0261342
889.325 .0261365
889.988 .0261386
890.650 .0261407
891.312 .0261428
891.974 .0261447
892.636 .0261465
893.297 .0261482
893.957 .0261496
894.618 .0261508
895.278 .0261516
895.937 .0261520
896.596 .0261519
897.255 .0261512
897.914 .0261499
898.572 .0261480
899.230 .0261454
899.887 .0261420
900.544 .0261380
901.201 .0261333
901.857 .0261231
902.513 .0261165
903.168 .0261093
903.823 .0261015
904.478 .0260931
905.132 .0260839
905.786 .0260740
906.440 .0260634
907.093 .0260520
907.746 .0260398
908.399 .0260270
909.051 .0260135
909.703 .0259994
910.354 .0259911
911.005 .0259764
911.656 .0259612
912.306 .0259455
912.956 .0259293
913.605 .0259127
914.254 .0258956
914.903 .0258780
915.551 .0258601
916.199 .0258417
916.847 .0258231
917.494 .0258042
918.141 .0257850
918.788 .0257656
919.434 .0257459
920.079 .0257260
920.725 .0257058
921.370 .0256853
922.014 .0256646
922.658 .0256436
923.302 .0256225
923.946 .0256013
924.589 .0255800
925.231 .0255585
925.873 .0255370
926.515 .0255154
927.157 .0254937
927.798 .0254720
928.439 .0254502
929.079 .0254285
929.719 .0254069
930.359 .0253855
930.998 .0253644
931.637 .0253435
932.275 .0253229
932.913 .0253026
933.551 .0252826
934.188 .0252628
934.825 .0252434
935.462 .0252243
936.098 .0252056
936.733 .0251872
937.369 .0251692
938.004 .0251515
938.638 .0251342
939.273 .0251172
939.907 .0251005
940.540 .0250841
941.173 .0250680
941.806 .0250522
942.438 .0250366
943.070 .0250213
943.702 .0250063
944.333 .0249914
944.964 .0249767
945.594 .0249621
946.224 .0249476
946.854 .0249331
947.483 .0249186
948.112 .0249042
948.741 .0248897
949.369 .0248754
949.996 .0248610
950.624 .0248468
951.251 .0248325
951.878 .0248183
952.504 .0248040
953.130 .0247898
953.755 .0247755
954.380 .0247613
955.005 .0247471
955.629 .0247331
956.253 .0247192
956.877 .0247055
957.500 .0246919
958.123 .0246785
958.746 .0246653
959.368 .0246522
959.990 .0246393
960.611 .0246266
961.232 .0246141
961.853 .0246019
962.473 .0245901
963.093 .0245785
963.712 .0245672
964.331 .0245563
964.950 .0245457
965.569 .0245355
966.187 .0245255
966.804 .0245158
967.422 .0245063
968.039 .0244971
968.655 .0244881
969.272 .0244793
969.887 .0244707
970.503 .0244623
971.118 .0244541
971.733 .0244459
972.347 .0244380
972.961 .0244302
973.575 .0244226
974.188 .0244151
974.801 .0244078
975.414 .0244006
976.026 .0243934
976.638 .0243864
977.250 .0243795
977.861 .0243726
978.472 .0243657
979.083 .0243590
979.693 .0243523
980.303 .0243457
980.912 .0243363
981.521 .0243298
982.130 .0243233
982.738 .0243167
983.346 .0243102
983.954 .0243037
984.562 .0242974
985.169 .0242913
985.775 .0242854
986.382 .0242799
986.988 .0242748
987.594 .0242701
988.199 .0242659
988.804 .0242621
989.409 .0242611
990.013 .0242581
990.617 .0242556
991.221 .0242535
991.824 .0242520
992.427 .0242509
993.030 .0242502
993.632 .0242500
994.234 .0242501
994.836 .0242506
995.438 .0242513
996.039 .0242523
996.640 .0242536
997.240 .0242552
997.840 .0242572
998.440 .0242595
999.040 .0242622
999.639 .0242652
1000.238 .0242686
1000.836 .0242724
1001.435 .0242764
1002.033 .0242806
1002.630 .0242851
1003.228 .0242898
1003.825 .0242946
1004.422 .0242997
1005.018 .0243048
1005.614 .0243101
1006.210 .0243155
1006.806 .0243210
1007.401 .0243264
1007.996 .0243318
1008.591 .0243372
1009.186 .0243426
1009.780 .0243480
1010.374 .0243535
1010.967 .0243592
1011.561 .0243651
1012.154 .0243715
1012.746 .0243782
1013.339 .0243853
1013.931 .0243928
1014.523 .0244006
1015.115 .0244088
1015.706 .0244172
1016.298 .0244259
1016.888 .0244350
1017.479 .0244444
1018.069 .0244542
1018.660 .0244645
1019.250 .0244753
1019.839 .0244867
1020.429 .0244984
1021.018 .0245106
1021.607 .0245233
1022.195 .0245363
1022.784 .0245496
1023.372 .0245633
1023.960 .0245774
1024.547 .0245919
1025.135 .0246068
1025.722 .0246222
1026.309 .0246378
1026.896 .0246537
1027.483 .0246697
1028.069 .0246857
1028.655 .0247016
1029.241 .0247173
1029.827 .0247326
1030.412 .0247476
1030.997 .0247623
1031.582 .0247765
1032.167 .0247902
1032.752 .0248036
1033.336 .0248166
1033.921 .0248293
1034.505 .0248415
1035.089 .0248534
1035.672 .0248648
1036.256 .0248758
1036.839 .0248863
1037.422 .0248964
1038.005 .0249060
1038.588 .0249150
1039.171 .0249234
1039.753 .0249313
1040.335 .0249387
1040.918 .0249455
1041.500 .0249519
1042.081 .0249579
1042.663 .0249635
1043.244 .0249687
1043.826 .0249737
1044.407 .0249783
1044.988 .0249826
1045.569 .0249866
1046.150 .0249902
1046.730 .0249936
1047.311 .0249968
1047.891 .0249999
1048.471 .0250030
1049.052 .0250061
1049.632 .0250093
1050.211 .0250126
1050.791 .0250158
1051.371 .0250190
1051.950 .0250220
1052.530 .0250247
1053.109 .0250273
1053.688 .0250297
1054.268 .0250321
1054.847 .0250345
1055.426 .0250372
1056.005 .0250402
1056.583 .0250435
1057.162 .0250470
1057.741 .0250506
1058.319 .0250541
1058.898 .0250575
1059.476 .0250607
1060.055 .0250635
1060.633 .0250660
1061.211 .0250684
1061.790 .0250707
1062.368 .0250730
1062.946 .0250753
1063.524 .0250777
1064.102 .0250798
1064.680 .0250818
1065.258 .0250835
1065.836 .0250848
1066.414 .0250858
1066.992 .0250866
1067.570 .0250873
1068.148 .0250880
1068.726 .0250889
1069.304 .0250900
1069.882 .0250913
1070.460 .0250926
1071.038 .0250937
1071.616 .0250945
1072.194 .0250948
1072.772 .0250944
1073.350 .0250933
1073.928 .0250915
1074.506 .0250889
1075.084 .0250858
1075.662 .0250822
1076.240 .0250782
1076.819 .0250738
1077.397 .0250692
1077.976 .0250644
1078.554 .0250593
1079.133 .0250541
1079.711 .0250488
1080.290 .0250435
1080.869 .0250383
1081.448 .0250334
1082.027 .0250287
1082.606 .0250244
1083.185 .0250204
1083.764 .0250166
1084.343 .0250130
1084.923 .0250096
1085.502 .0250063
1086.082 .0250031
1086.662 .0250001
1087.242 .0249972
1087.822 .0249947
1088.402 .0249926
1088.983 .0249912
1089.563 .0249904
1090.144 .0249905
1090.725 .0249914
1091.306 .0249932
1091.887 .0249961
1092.469 .0249999
1093.050 .0250048
1093.632 .0250108
1094.214 .0250179
1094.796 .0250262
1095.379 .0250356
1095.961 .0250461
1096.544 .0250575
1097.127 .0250698
1097.710 .0250828
1098.294 .0250962
1098.877 .0251100
1099.461 .0251241
1100.046 .0251383
1100.630 .0251527
1101.215 .0251674
1101.800 .0251825
1102.385 .0251979
1102.970 .0252138
1103.556 .0252302
1104.142 .0252470
1104.728 .0252643
1105.315 .0252820
1105.902 .0253002
1106.489 .0253191
1107.077 .0253389
1107.664 .0253600
1108.253 .0253825
1108.841 .0254069
1109.430 .0254332
1110.019 .0254613
1110.609 .0254914
1111.198 .0255229
1111.789 .0255557
1112.379 .0255896
1112.970 .0256245
1113.561 .0256602
1114.153 .0256969
1114.745 .0257347
1115.338 .0257734
1115.931 .0258130
1116.524 .0258533
1117.117 .0258937
1117.712 .0259343
1118.306 .0259744
1118.901 .0260140
1119.496 .0260529
1120.092 .0260915
1120.689 .0261298
1121.285 .0261683
1121.882 .0262074
1122.480 .0262471
1123.078 .0262877
1123.677 .0263290
1124.276 .0263710
1124.875 .0264137
1125.476 .0264570
1126.076 .0265010
1126.677 .0265460
1127.279 .0265921
1127.881 .0266397
1128.484 .0266890
1129.087 .0267080
1129.691 .0267590
1130.295 .0268123
1130.900 .0268680
1131.505 .0269259
1132.111 .0269861
1132.718 .0270487
1133.325 .0271142
1133.933 .0271827
1134.541 .0272547
1135.150 .0273317
1135.760 .0274100
1136.370 .0274987
1136.981 .0275226
1137.592 .0276435
1138.204 .0277634
1138.817 .0278817
1139.431 .0279963
1140.045 .0281112
1140.660 .0282218
1141.275 .0283386
1141.891 .0284530
1142.508 .0285688
1143.126 .0287189
1143.744 .0287571
1144.363 .0290460
1144.983 .0289718
