Measurement Sequence started on: 15-12-46-377
Integration time: 28
Scans to Average: 2 
>>>>>Begin Spectral Data<<<<<
432.689 .0000100
433.621 .0000100
434.552 .0000100
435.482 .0000100
436.410 .0000100
437.337 .0000100
438.262 .0280840
439.187 .0594907
440.110 .0985554
441.031 .1425932
441.952 .1140827
442.871 .1190940
443.789 .1237463
444.705 .1281120
445.621 .1322419
446.535 .1361758
447.447 .1384650
448.359 .1389567
449.269 .1372682
450.178 .1331521
451.086 .1266899
451.993 .1183725
452.898 .1090113
453.803 .0995264
454.706 .0907010
455.608 .0830217
456.508 .0766528
457.408 .0723176
458.306 .0689722
459.204 .0662426
460.100 .0639410
460.995 .0619617
461.888 .0602345
462.781 .0587111
463.673 .0573541
464.563 .0561372
465.452 .0550405
466.340 .0540462
467.228 .0531422
468.114 .0523190
468.999 .0515678
469.882 .0508812
470.765 .0502530
471.647 .0496778
472.528 .0491513
473.407 .0486696
474.286 .0482301
475.163 .0478309
476.040 .0474711
476.915 .0471488
477.790 .0468623
478.663 .0466106
479.535 .0463921
480.407 .0462055
481.277 .0460488
482.147 .0459199
483.015 .0458162
483.883 .0457361
484.749 .0456773
485.615 .0456385
486.479 .0456185
487.343 .0456170
488.206 .0456338
489.067 .0456688
489.928 .0457220
490.788 .0457938
491.647 .0458848
492.505 .0459957
493.362 .0461268
494.218 .0462791
495.073 .0464521
495.928 .0467889
496.781 .0470151
497.634 .0472615
498.486 .0475287
499.337 .0478184
500.187 .0481324
501.036 .0484727
501.884 .0488425
502.731 .0492452
503.578 .0496839
504.424 .0499760
505.268 .0504795
506.113 .0510277
506.956 .0516235
507.798 .0522711
508.640 .0529767
509.480 .0537500
510.320 .0546019
511.160 .0555458
511.998 .0565968
512.836 .0577729
513.672 .0590923
514.508 .0605749
515.344 .0622405
516.178 .0641100
517.012 .0662072
517.845 .0685549
518.677 .0711753
519.508 .0740887
520.339 .0773051
521.169 .0808298
521.998 .0846420
522.826 .0887109
523.654 .0929815
524.481 .0973892
525.307 .1018565
526.133 .1062958
526.958 .1106143
527.782 .1147229
528.605 .1185400
529.428 .1219958
530.250 .1250257
531.072 .1275851
531.892 .1296346
532.712 .1311522
533.532 .1321197
534.350 .1325256
535.168 .1323659
535.986 .1316423
536.802 .1303560
537.618 .1285161
538.434 .1261360
539.249 .1232558
540.063 .1199243
540.876 .1162081
541.689 .1121821
542.501 .1079304
543.313 .1035422
544.124 .0991064
544.934 .0947053
545.744 .0904104
546.553 .0862800
547.361 .0823648
548.169 .0786944
548.976 .0752946
549.783 .0721731
550.589 .0693311
551.395 .0667595
552.200 .0644416
553.004 .0623532
553.808 .0604698
554.611 .0587690
555.414 .0572270
556.216 .0558194
557.018 .0545247
557.819 .0533264
558.619 .0522107
559.419 .0511669
560.218 .0501875
561.017 .0492668
561.815 .0484009
562.613 .0475860
563.410 .0468182
564.207 .0460932
565.003 .0454068
565.799 .0447523
566.594 .0441238
567.388 .0435170
568.182 .0429280
568.976 .0423540
569.769 .0417947
570.562 .0412506
571.354 .0407230
572.145 .0402138
572.936 .0397249
573.727 .0392572
574.517 .0388107
575.307 .0383852
576.096 .0379791
576.885 .0375916
577.673 .0372216
578.461 .0368678
579.248 .0365305
580.035 .0362097
580.821 .0359059
581.607 .0356196
582.392 .0353516
583.177 .0351019
583.962 .0348703
584.746 .0346559
585.529 .0344576
586.313 .0342740
587.095 .0341037
587.878 .0339455
588.660 .0337982
589.441 .0336612
590.222 .0335338
591.003 .0334158
591.783 .0333070
592.563 .0332070
593.342 .0331153
594.121 .0330309
594.899 .0329532
595.678 .0328813
596.455 .0328141
597.233 .0327510
598.009 .0326914
598.786 .0326348
599.562 .0325808
600.338 .0325292
601.113 .0324799
601.888 .0324133
602.663 .0323691
603.437 .0323267
604.211 .0322862
604.984 .0322473
605.757 .0322100
606.530 .0321741
607.302 .0321395
608.074 .0321062
608.845 .0320740
609.616 .0320432
610.387 .0320308
611.158 .0320018
611.928 .0319740
612.697 .0319474
613.467 .0319218
614.236 .0318973
615.004 .0318738
615.773 .0318511
616.541 .0318291
617.308 .0318078
618.076 .0317869
618.843 .0317663
619.609 .0317459
620.375 .0317255
621.141 .0317051
621.907 .0316844
622.672 .0316634
623.437 .0316418
624.202 .0316197
624.966 .0315969
625.730 .0315734
626.493 .0315491
627.257 .0315240
628.020 .0314982
628.782 .0314716
629.545 .0314443
630.307 .0314164
631.068 .0313878
631.830 .0313588
632.591 .0313292
633.352 .0312994
634.112 .0312693
634.872 .0312391
635.632 .0312090
636.392 .0311790
637.151 .0311493
637.910 .0311199
638.668 .0310910
639.427 .0310626
640.185 .0310349
640.943 .0310078
641.700 .0309815
642.457 .0309559
643.214 .0309311
643.971 .0309068
644.727 .0308832
645.483 .0308600
646.239 .0308372
646.994 .0308147
647.750 .0307923
648.505 .0307700
649.259 .0307477
650.014 .0307252
650.768 .0307026
651.521 .0306797
652.275 .0306564
653.028 .0306328
653.781 .0306088
654.534 .0305843
655.286 .0305593
656.039 .0305339
656.791 .0305082
657.542 .0304821
658.294 .0304556
659.045 .0304289
659.796 .0304020
660.546 .0303749
661.297 .0303477
662.047 .0303204
662.796 .0302930
663.546 .0302658
664.295 .0302387
665.044 .0302118
665.793 .0301851
666.542 .0301588
667.290 .0301329
668.038 .0301075
668.786 .0300825
669.533 .0300581
670.281 .0300343
671.028 .0300111
671.774 .0299886
672.521 .0299666
673.267 .0299452
674.013 .0299244
674.759 .0299041
675.505 .0298843
676.250 .0298650
676.995 .0298460
677.740 .0298274
678.484 .0298091
679.229 .0297911
679.973 .0297734
680.717 .0297561
681.460 .0297390
682.204 .0297222
682.947 .0297057
683.690 .0296893
684.433 .0296731
685.175 .0296570
685.917 .0296410
686.659 .0296249
687.401 .0296089
688.142 .0295928
688.884 .0295769
689.625 .0295610
690.365 .0295452
691.106 .0295296
691.846 .0295140
692.586 .0294984
693.326 .0294828
694.066 .0294672
694.805 .0294516
695.545 .0294358
696.284 .0294200
697.022 .0294043
697.761 .0293885
698.499 .0293729
699.237 .0293574
699.975 .0293421
700.713 .0293270
701.450 .0293120
702.187 .0292973
702.924 .0292827
703.661 .0292681
704.397 .0292535
705.133 .0292388
705.869 .0292241
706.605 .0292092
707.341 .0291941
708.076 .0291790
708.811 .0291638
709.546 .0291486
710.281 .0291333
711.015 .0291179
711.749 .0291025
712.483 .0290869
713.217 .0290712
713.950 .0290553
714.684 .0290391
715.417 .0290227
716.150 .0290060
716.882 .0289891
717.615 .0289720
718.347 .0289547
719.079 .0289373
719.811 .0289197
720.542 .0289020
721.273 .0288841
722.005 .0288662
722.735 .0288481
723.466 .0288299
724.196 .0288116
724.927 .0287933
725.656 .0287751
726.386 .0287569
727.116 .0287388
727.845 .0287210
728.574 .0287035
729.303 .0286864
730.031 .0286696
730.760 .0286534
731.488 .0286375
732.216 .0286220
732.944 .0286068
733.671 .0285919
734.398 .0285771
735.125 .0285624
735.852 .0285479
736.579 .0285334
737.305 .0285190
738.031 .0285047
738.757 .0284904
739.483 .0284761
740.208 .0284617
740.933 .0284471
741.658 .0284323
742.383 .0284170
743.108 .0284013
743.832 .0283852
744.556 .0283686
745.280 .0283515
746.004 .0283341
746.727 .0283163
747.450 .0282982
748.173 .0282799
748.896 .0282614
749.618 .0282427
750.340 .0282238
751.062 .0282049
751.784 .0281859
752.506 .0281668
753.227 .0281478
753.948 .0281289
754.669 .0281101
755.389 .0280914
756.110 .0280730
756.830 .0280549
757.550 .0280371
758.269 .0280196
758.989 .0280025
759.708 .0279858
760.427 .0279693
761.146 .0279530
761.864 .0279369
762.582 .0279208
763.300 .0279048
764.018 .0278886
764.736 .0278725
765.453 .0278563
766.170 .0278401
766.887 .0278240
767.603 .0278079
768.320 .0277919
769.036 .0277759
769.751 .0277600
770.467 .0277443
771.182 .0277286
771.897 .0277132
772.612 .0276980
773.327 .0276832
774.041 .0276688
774.755 .0276549
775.469 .0276415
776.183 .0276288
776.896 .0276167
777.609 .0276054
778.322 .0275948
779.035 .0275850
779.747 .0275759
780.459 .0275677
781.171 .0275602
781.882 .0275535
782.594 .0275474
783.305 .0275419
784.016 .0275369
784.726 .0275324
785.436 .0275283
786.147 .0275233
786.856 .0275197
787.566 .0275163
788.275 .0275130
788.984 .0275098
789.693 .0275065
790.401 .0275032
791.110 .0274997
791.818 .0274961
792.525 .0274924
793.233 .0274885
793.940 .0274845
794.647 .0274819
795.353 .0274779
796.060 .0274739
796.766 .0274698
797.472 .0274657
798.177 .0274614
798.883 .0274571
799.588 .0274528
800.292 .0274484
800.997 .0274441
801.701 .0274397
802.405 .0274355
803.109 .0274312
803.812 .0274270
804.515 .0274227
805.218 .0274182
805.921 .0274136
806.623 .0274087
807.325 .0274035
808.027 .0273981
808.728 .0273924
809.429 .0273865
810.130 .0273803
810.831 .0273738
811.531 .0273669
812.231 .0273597
812.931 .0273521
813.630 .0273440
814.330 .0273355
815.029 .0273267
815.727 .0273175
816.426 .0273082
817.124 .0272986
817.821 .0272890
818.519 .0272794
819.216 .0272697
819.913 .0272601
820.609 .0272507
821.306 .0272414
822.002 .0272325
822.697 .0272239
823.393 .0272158
824.088 .0272082
824.783 .0272011
825.477 .0271945
826.171 .0271884
826.865 .0271828
827.559 .0271775
828.252 .0271725
828.945 .0271679
829.638 .0271637
830.330 .0271598
831.023 .0271562
831.714 .0271528
832.406 .0271496
833.097 .0271465
833.788 .0271434
834.479 .0271402
835.169 .0271368
835.859 .0271332
836.548 .0271295
837.238 .0271255
837.927 .0271213
838.615 .0271168
839.304 .0271119
839.992 .0271066
840.680 .0271009
841.367 .0270945
842.054 .0270876
842.741 .0270801
843.428 .0270720
844.114 .0270633
844.800 .0270540
845.485 .0270441
846.170 .0270335
846.855 .0270222
847.540 .0270102
848.224 .0269974
848.908 .0269838
849.592 .0269693
850.275 .0269541
850.958 .0269380
851.641 .0269213
852.323 .0269038
853.005 .0268856
853.687 .0268668
854.368 .0268472
855.049 .0268270
855.730 .0268062
856.410 .0267848
857.090 .0267629
857.769 .0267405
858.449 .0267178
859.128 .0266949
859.806 .0266716
860.485 .0266482
861.163 .0266247
861.840 .0266010
862.518 .0265773
863.195 .0265536
863.871 .0265300
864.548 .0265065
865.224 .0264833
865.899 .0264602
866.574 .0264375
867.249 .0264150
867.924 .0263929
868.598 .0263710
869.272 .0263494
869.946 .0263282
870.619 .0263073
871.292 .0262868
871.964 .0262667
872.636 .0262469
873.308 .0262276
873.979 .0262088
874.651 .0261904
875.321 .0261725
875.992 .0261550
876.662 .0261379
877.331 .0261213
878.001 .0261052
878.670 .0260896
879.338 .0260745
880.007 .0260598
880.675 .0260457
881.342 .0260320
882.009 .0260189
882.676 .0260062
883.343 .0259941
884.009 .0259825
884.675 .0259715
885.340 .0259611
886.005 .0259512
886.670 .0259420
887.334 .0259332
887.998 .0259250
888.662 .0259173
889.325 .0259101
889.988 .0259033
890.650 .0258969
891.312 .0258909
891.974 .0258853
892.636 .0258801
893.297 .0258754
893.957 .0258710
894.618 .0258669
895.278 .0258631
895.937 .0258593
896.596 .0258557
897.255 .0258519
897.914 .0258480
898.572 .0258439
899.230 .0258395
899.887 .0258347
900.544 .0258296
901.201 .0258240
901.857 .0258132
902.513 .0258063
903.168 .0257988
903.823 .0257907
904.478 .0257821
905.132 .0257729
905.786 .0257632
906.440 .0257529
907.093 .0257423
907.746 .0257312
908.399 .0257198
909.051 .0257081
909.703 .0256962
910.354 .0256897
911.005 .0256777
911.656 .0256656
912.306 .0256533
912.956 .0256410
913.605 .0256288
914.254 .0256168
914.903 .0256049
915.551 .0255934
916.199 .0255823
916.847 .0255716
917.494 .0255613
918.141 .0255513
918.788 .0255417
919.434 .0255325
920.079 .0255237
920.725 .0255153
921.370 .0255072
922.014 .0254996
922.658 .0254923
923.302 .0254855
923.946 .0254789
924.589 .0254725
925.231 .0254663
925.873 .0254601
926.515 .0254539
927.157 .0254477
927.798 .0254413
928.439 .0254350
929.079 .0254286
929.719 .0254221
930.359 .0254157
930.998 .0254092
931.637 .0254026
932.275 .0253961
932.913 .0253895
933.551 .0253830
934.188 .0253767
934.825 .0253707
935.462 .0253649
936.098 .0253596
936.733 .0253547
937.369 .0253502
938.004 .0253462
938.638 .0253428
939.273 .0253399
939.907 .0253375
940.540 .0253358
941.173 .0253347
941.806 .0253343
942.438 .0253346
943.070 .0253355
943.702 .0253371
944.333 .0253391
944.964 .0253416
945.594 .0253445
946.224 .0253477
946.854 .0253511
947.483 .0253547
948.112 .0253584
948.741 .0253622
949.369 .0253661
949.996 .0253699
950.624 .0253737
951.251 .0253772
951.878 .0253806
952.504 .0253836
953.130 .0253864
953.755 .0253888
954.380 .0253908
955.005 .0253924
955.629 .0253935
956.253 .0253941
956.877 .0253941
957.500 .0253936
958.123 .0253925
958.746 .0253909
959.368 .0253888
959.990 .0253864
960.611 .0253836
961.232 .0253806
961.853 .0253775
962.473 .0253742
963.093 .0253707
963.712 .0253672
964.331 .0253636
964.950 .0253599
965.569 .0253562
966.187 .0253525
966.804 .0253489
967.422 .0253454
968.039 .0253419
968.655 .0253384
969.272 .0253349
969.887 .0253312
970.503 .0253274
971.118 .0253234
971.733 .0253192
972.347 .0253147
972.961 .0253099
973.575 .0253049
974.188 .0252996
974.801 .0252940
975.414 .0252881
976.026 .0252818
976.638 .0252751
977.250 .0252680
977.861 .0252603
978.472 .0252521
979.083 .0252435
979.693 .0252344
980.303 .0252249
980.912 .0252087
981.521 .0251983
982.130 .0251876
982.738 .0251765
983.346 .0251651
983.954 .0251535
984.562 .0251417
985.169 .0251297
985.775 .0251177
986.382 .0251056
986.988 .0250936
987.594 .0250817
988.199 .0250700
988.804 .0250585
989.409 .0250534
990.013 .0250422
990.617 .0250312
991.221 .0250203
991.824 .0250097
992.427 .0249993
993.030 .0249890
993.632 .0249789
994.234 .0249690
994.836 .0249591
995.438 .0249494
996.039 .0249398
996.640 .0249303
997.240 .0249208
997.840 .0249114
998.440 .0249021
999.040 .0248928
999.639 .0248834
1000.238 .0248741
1000.836 .0248646
1001.435 .0248550
1002.033 .0248453
1002.630 .0248354
1003.228 .0248253
1003.825 .0248150
1004.422 .0248046
1005.018 .0247939
1005.614 .0247830
1006.210 .0247718
1006.806 .0247605
1007.401 .0247489
1007.996 .0247373
1008.591 .0247255
1009.186 .0247137
1009.780 .0247019
1010.374 .0246901
1010.967 .0246783
1011.561 .0246665
1012.154 .0246548
1012.746 .0246431
1013.339 .0246315
1013.931 .0246199
1014.523 .0246085
1015.115 .0245973
1015.706 .0245864
1016.298 .0245757
1016.888 .0245654
1017.479 .0245555
1018.069 .0245460
1018.660 .0245369
1019.250 .0245281
1019.839 .0245198
1020.429 .0245119
1021.018 .0245045
1021.607 .0244975
1022.195 .0244911
1022.784 .0244851
1023.372 .0244797
1023.960 .0244747
1024.547 .0244702
1025.135 .0244660
1025.722 .0244620
1026.309 .0244583
1026.896 .0244548
1027.483 .0244515
1028.069 .0244483
1028.655 .0244454
1029.241 .0244427
1029.827 .0244402
1030.412 .0244380
1030.997 .0244360
1031.582 .0244341
1032.167 .0244324
1032.752 .0244308
1033.336 .0244293
1033.921 .0244277
1034.505 .0244260
1035.089 .0244243
1035.672 .0244224
1036.256 .0244203
1036.839 .0244181
1037.422 .0244156
1038.005 .0244130
1038.588 .0244100
1039.171 .0244067
1039.753 .0244032
1040.335 .0243994
1040.918 .0243953
1041.500 .0243910
1042.081 .0243866
1042.663 .0243820
1043.244 .0243774
1043.826 .0243729
1044.407 .0243683
1044.988 .0243638
1045.569 .0243592
1046.150 .0243547
1046.730 .0243500
1047.311 .0243453
1047.891 .0243405
1048.471 .0243356
1049.052 .0243305
1049.632 .0243253
1050.211 .0243199
1050.791 .0243143
1051.371 .0243084
1051.950 .0243022
1052.530 .0242958
1053.109 .0242891
1053.688 .0242822
1054.268 .0242753
1054.847 .0242683
1055.426 .0242616
1056.005 .0242550
1056.583 .0242487
1057.162 .0242428
1057.741 .0242371
1058.319 .0242317
1058.898 .0242265
1059.476 .0242214
1060.055 .0242163
1060.633 .0242112
1061.211 .0242061
1061.790 .0242011
1062.368 .0241960
1062.946 .0241910
1063.524 .0241861
1064.102 .0241813
1064.680 .0241766
1065.258 .0241721
1065.836 .0241677
1066.414 .0241635
1066.992 .0241595
1067.570 .0241557
1068.148 .0241523
1068.726 .0241495
1069.304 .0241473
1069.882 .0241461
1070.460 .0241458
1071.038 .0241466
1071.616 .0241485
1072.194 .0241514
1072.772 .0241551
1073.350 .0241594
1073.928 .0241641
1074.506 .0241692
1075.084 .0241745
1075.662 .0241801
1076.240 .0241859
1076.819 .0241921
1077.397 .0241989
1077.976 .0242062
1078.554 .0242142
1079.133 .0242228
1079.711 .0242320
1080.290 .0242417
1080.869 .0242519
1081.448 .0242623
1082.027 .0242730
1082.606 .0242840
1083.185 .0242955
1083.764 .0243077
1084.343 .0243206
1084.923 .0243345
1085.502 .0243494
1086.082 .0243650
1086.662 .0243814
1087.242 .0243981
1087.822 .0244150
1088.402 .0244319
1088.983 .0244486
1089.563 .0244652
1090.144 .0244818
1090.725 .0244986
1091.306 .0245159
1091.887 .0245338
1092.469 .0245523
1093.050 .0245716
1093.632 .0245915
1094.214 .0246120
1094.796 .0246328
1095.379 .0246540
1095.961 .0246756
1096.544 .0246976
1097.127 .0247200
1097.710 .0247431
1098.294 .0247670
1098.877 .0247917
1099.461 .0248172
1100.046 .0248435
1100.630 .0248705
1101.215 .0248980
1101.800 .0249260
1102.385 .0249544
1102.970 .0249832
1103.556 .0250125
1104.142 .0250422
1104.728 .0250723
1105.315 .0251028
1105.902 .0251339
1106.489 .0251654
1107.077 .0251976
1107.664 .0252302
1108.253 .0252636
1108.841 .0252976
1109.430 .0253326
1110.019 .0253685
1110.609 .0254056
1111.198 .0254440
1111.789 .0254838
1112.379 .0255250
1112.970 .0255675
1113.561 .0256113
1114.153 .0256563
1114.745 .0257022
1115.338 .0257490
1115.931 .0257966
1116.524 .0258450
1117.117 .0258943
1117.712 .0259446
1118.306 .0259957
1118.901 .0260477
1119.496 .0261004
1120.092 .0261537
1120.689 .0262075
1121.285 .0262617
1121.882 .0263162
1122.480 .0263712
1123.078 .0264267
1123.677 .0264829
1124.276 .0265400
1124.875 .0265982
1125.476 .0266578
1126.076 .0267189
1126.677 .0267814
1127.279 .0268454
1127.881 .0269109
1128.484 .0269778
1129.087 .0270083
1129.691 .0270764
1130.295 .0271456
1130.900 .0272162
1131.505 .0272880
1132.111 .0273615
1132.718 .0274369
1133.325 .0275140
1133.933 .0275928
1134.541 .0276732
1135.150 .0277609
1135.760 .0278485
1136.370 .0279279
1136.981 .0279944
1137.592 .0280963
1138.204 .0281956
1138.817 .0282934
1139.431 .0283905
1140.045 .0284923
1140.660 .0285987
1141.275 .0287018
1141.891 .0288072
1142.508 .0289082
1143.126 .0291725
1143.744 .0292354
1144.363 .0290707
1144.983 .0292507
