Measurement Sequence started on: 15-12-46-377
Integration time: 28
Scans to Average: 2 
>>>>>Begin Spectral Data<<<<<
432.689 .0000100
433.621 .0000100
434.552 .0000100
435.482 .0000100
436.410 .0000100
437.337 .0000100
438.262 .0267977
439.187 .0568022
440.110 .0941300
441.031 .1362893
441.952 .1095530
442.871 .1144014
443.789 .1188979
444.705 .1231133
445.621 .1270993
446.535 .1308964
447.447 .1331266
448.359 .1336437
449.269 .1320833
450.178 .1282071
451.086 .1220905
451.993 .1141966
452.898 .1052976
453.803 .0962693
454.706 .0878609
455.608 .0805384
456.508 .0744625
457.408 .0703280
458.306 .0671454
459.204 .0645601
460.100 .0623948
460.995 .0605482
461.888 .0589520
462.781 .0575564
463.673 .0563237
464.563 .0552238
465.452 .0542361
466.340 .0533416
467.228 .0525268
468.114 .0517815
468.999 .0510990
469.882 .0504735
470.765 .0499006
471.647 .0493766
472.528 .0488984
473.407 .0484629
474.286 .0480675
475.163 .0477097
476.040 .0473874
476.915 .0470980
477.790 .0468399
478.663 .0466101
479.535 .0464073
480.407 .0462291
481.277 .0460743
482.147 .0459413
483.015 .0458290
483.883 .0457362
484.749 .0456626
485.615 .0456077
486.479 .0455709
487.343 .0455517
488.206 .0455499
489.067 .0455646
489.928 .0455954
490.788 .0456418
491.647 .0457042
492.505 .0457829
493.362 .0458793
494.218 .0459946
495.073 .0461306
495.928 .0464144
496.781 .0466087
497.634 .0468266
498.486 .0470677
499.337 .0473321
500.187 .0476192
501.036 .0479296
501.884 .0482647
502.731 .0486272
503.578 .0490203
504.424 .0492830
505.268 .0497363
506.113 .0502332
506.956 .0507787
507.798 .0513795
508.640 .0520412
509.480 .0527724
510.320 .0535824
511.160 .0544829
511.998 .0554868
512.836 .0566110
513.672 .0578729
514.508 .0592965
515.344 .0609047
516.178 .0627225
517.012 .0647753
517.845 .0670904
518.677 .0696916
519.508 .0725976
520.339 .0758172
521.169 .0793542
521.998 .0831862
522.826 .0872808
523.654 .0915820
524.481 .0960260
525.307 .1005344
526.133 .1050199
526.958 .1093893
527.782 .1135528
528.605 .1174228
529.428 .1209244
530.250 .1239869
531.072 .1265615
531.892 .1286001
532.712 .1300745
533.532 .1309650
534.350 .1312647
535.168 .1309725
535.986 .1300942
536.802 .1286391
537.618 .1266270
538.434 .1240760
539.249 .1210283
540.063 .1175337
540.876 .1136607
541.689 .1094828
542.501 .1050831
543.313 .1005518
544.124 .0959816
544.934 .0914594
545.744 .0870669
546.553 .0828713
547.361 .0789306
548.169 .0752789
548.976 .0719431
549.783 .0689304
550.589 .0662354
551.395 .0638386
552.200 .0617128
553.004 .0598268
553.808 .0581490
554.611 .0566479
555.414 .0552979
556.216 .0540756
557.018 .0529594
557.819 .0519321
558.619 .0509788
559.419 .0500887
560.218 .0492527
561.017 .0484623
561.815 .0477105
562.613 .0469915
563.410 .0462993
564.207 .0456295
565.003 .0449796
565.799 .0443466
566.594 .0437285
567.388 .0431259
568.182 .0425393
568.976 .0419693
569.769 .0414168
570.562 .0408832
571.354 .0403686
572.145 .0398738
572.936 .0393983
573.727 .0389415
574.517 .0385033
575.307 .0380835
576.096 .0376815
576.885 .0372976
577.673 .0369319
578.461 .0365842
579.248 .0362541
580.035 .0359418
580.821 .0356464
581.607 .0353672
582.392 .0351039
583.177 .0348560
583.962 .0346232
584.746 .0344053
585.529 .0342018
586.313 .0340125
587.095 .0338369
587.878 .0336744
588.660 .0335243
589.441 .0333860
590.222 .0332590
591.003 .0331425
591.783 .0330361
592.563 .0329391
593.342 .0328505
594.121 .0327695
594.899 .0326953
595.678 .0326268
596.455 .0325631
597.233 .0325033
598.009 .0324469
598.786 .0323932
599.562 .0323419
600.338 .0322928
601.113 .0322457
601.888 .0321803
602.663 .0321376
603.437 .0320966
604.211 .0320571
604.984 .0320190
605.757 .0319821
606.530 .0319464
607.302 .0319118
608.074 .0318783
608.845 .0318460
609.616 .0318150
610.387 .0318033
611.158 .0317745
611.928 .0317472
612.697 .0317213
613.467 .0316968
614.236 .0316738
615.004 .0316521
615.773 .0316315
616.541 .0316120
617.308 .0315934
618.076 .0315756
618.843 .0315585
619.609 .0315418
620.375 .0315254
621.141 .0315092
621.907 .0314930
622.672 .0314766
623.437 .0314600
624.202 .0314430
624.966 .0314255
625.730 .0314073
626.493 .0313883
627.257 .0313683
628.020 .0313473
628.782 .0313253
629.545 .0313021
630.307 .0312779
631.068 .0312527
631.830 .0312264
632.591 .0311991
633.352 .0311709
634.112 .0311420
634.872 .0311123
635.632 .0310819
636.392 .0310510
637.151 .0310197
637.910 .0309879
638.668 .0309560
639.427 .0309239
640.185 .0308919
640.943 .0308600
641.700 .0308285
642.457 .0307973
643.214 .0307666
643.971 .0307366
644.727 .0307072
645.483 .0306787
646.239 .0306509
646.994 .0306240
647.750 .0305979
648.505 .0305726
649.259 .0305482
650.014 .0305246
650.768 .0305016
651.521 .0304793
652.275 .0304575
653.028 .0304362
653.781 .0304153
654.534 .0303946
655.286 .0303740
656.039 .0303536
656.791 .0303331
657.542 .0303126
658.294 .0302919
659.045 .0302712
659.796 .0302502
660.546 .0302292
661.297 .0302079
662.047 .0301865
662.796 .0301649
663.546 .0301432
664.295 .0301215
665.044 .0300997
665.793 .0300780
666.542 .0300565
667.290 .0300352
668.038 .0300143
668.786 .0299938
669.533 .0299738
670.281 .0299544
671.028 .0299356
671.774 .0299174
672.521 .0298998
673.267 .0298829
674.013 .0298667
674.759 .0298511
675.505 .0298361
676.250 .0298217
676.995 .0298077
677.740 .0297940
678.484 .0297806
679.229 .0297674
679.973 .0297542
680.717 .0297412
681.460 .0297281
682.204 .0297150
682.947 .0297016
683.690 .0296880
684.433 .0296740
685.175 .0296597
685.917 .0296448
686.659 .0296295
687.401 .0296138
688.142 .0295978
688.884 .0295814
689.625 .0295648
690.365 .0295480
691.106 .0295310
691.846 .0295138
692.586 .0294964
693.326 .0294788
694.066 .0294610
694.805 .0294432
695.545 .0294253
696.284 .0294073
697.022 .0293892
697.761 .0293711
698.499 .0293530
699.237 .0293347
699.975 .0293164
700.713 .0292981
701.450 .0292799
702.187 .0292618
702.924 .0292439
703.661 .0292261
704.397 .0292085
705.133 .0291911
705.869 .0291737
706.605 .0291562
707.341 .0291387
708.076 .0291210
708.811 .0291033
709.546 .0290856
710.281 .0290678
711.015 .0290500
711.749 .0290323
712.483 .0290145
713.217 .0289968
713.950 .0289789
714.684 .0289610
715.417 .0289429
716.150 .0289247
716.882 .0289064
717.615 .0288880
718.347 .0288695
719.079 .0288510
719.811 .0288324
720.542 .0288138
721.273 .0287953
722.005 .0287767
722.735 .0287583
723.466 .0287399
724.196 .0287217
724.927 .0287037
725.656 .0286860
726.386 .0286684
727.116 .0286511
727.845 .0286341
728.574 .0286174
729.303 .0286010
730.031 .0285850
730.760 .0285695
731.488 .0285545
732.216 .0285399
732.944 .0285259
733.671 .0285122
734.398 .0284991
735.125 .0284864
735.852 .0284740
736.579 .0284620
737.305 .0284502
738.031 .0284385
738.757 .0284271
739.483 .0284156
740.208 .0284043
740.933 .0283930
741.658 .0283816
742.383 .0283702
743.108 .0283588
743.832 .0283473
744.556 .0283357
745.280 .0283240
746.004 .0283121
746.727 .0283000
747.450 .0282878
748.173 .0282755
748.896 .0282631
749.618 .0282506
750.340 .0282382
751.062 .0282259
751.784 .0282135
752.506 .0282012
753.227 .0281888
753.948 .0281764
754.669 .0281639
755.389 .0281514
756.110 .0281389
756.830 .0281264
757.550 .0281141
758.269 .0281018
758.989 .0280897
759.708 .0280776
760.427 .0280656
761.146 .0280537
761.864 .0280418
762.582 .0280299
763.300 .0280180
764.018 .0280061
764.736 .0279942
765.453 .0279824
766.170 .0279706
766.887 .0279588
767.603 .0279471
768.320 .0279354
769.036 .0279238
769.751 .0279121
770.467 .0279005
771.182 .0278890
771.897 .0278775
772.612 .0278662
773.327 .0278549
774.041 .0278438
774.755 .0278328
775.469 .0278221
776.183 .0278117
776.896 .0278016
777.609 .0277919
778.322 .0277825
779.035 .0277735
779.747 .0277649
780.459 .0277565
781.171 .0277484
781.882 .0277405
782.594 .0277327
783.305 .0277250
784.016 .0277173
784.726 .0277095
785.436 .0277017
786.147 .0276895
786.856 .0276811
787.566 .0276725
788.275 .0276637
788.984 .0276546
789.693 .0276452
790.401 .0276354
791.110 .0276253
791.818 .0276147
792.525 .0276036
793.233 .0275922
793.940 .0275804
794.647 .0275734
795.353 .0275614
796.060 .0275491
796.766 .0275367
797.472 .0275239
798.177 .0275108
798.883 .0274974
799.588 .0274836
800.292 .0274695
800.997 .0274549
801.701 .0274399
802.405 .0274247
803.109 .0274091
803.812 .0273934
804.515 .0273776
805.218 .0273616
805.921 .0273455
806.623 .0273293
807.325 .0273130
808.027 .0272968
808.728 .0272805
809.429 .0272643
810.130 .0272482
810.831 .0272322
811.531 .0272164
812.231 .0272008
812.931 .0271853
813.630 .0271700
814.330 .0271550
815.029 .0271402
815.727 .0271257
816.426 .0271117
817.124 .0270981
817.821 .0270851
818.519 .0270727
819.216 .0270609
819.913 .0270497
820.609 .0270393
821.306 .0270295
822.002 .0270204
822.697 .0270120
823.393 .0270042
824.088 .0269971
824.783 .0269907
825.477 .0269848
826.171 .0269795
826.865 .0269746
827.559 .0269702
828.252 .0269661
828.945 .0269624
829.638 .0269589
830.330 .0269555
831.023 .0269523
831.714 .0269492
832.406 .0269461
833.097 .0269430
833.788 .0269398
834.479 .0269365
835.169 .0269332
835.859 .0269298
836.548 .0269263
837.238 .0269227
837.927 .0269191
838.615 .0269153
839.304 .0269113
839.992 .0269071
840.680 .0269026
841.367 .0268979
842.054 .0268929
842.741 .0268875
843.428 .0268818
844.114 .0268758
844.800 .0268694
845.485 .0268625
846.170 .0268553
846.855 .0268477
847.540 .0268396
848.224 .0268312
848.908 .0268223
849.592 .0268131
850.275 .0268035
850.958 .0267936
851.641 .0267833
852.323 .0267726
853.005 .0267615
853.687 .0267499
854.368 .0267380
855.049 .0267256
855.730 .0267129
856.410 .0266999
857.090 .0266867
857.769 .0266733
858.449 .0266597
859.128 .0266460
859.806 .0266322
860.485 .0266183
861.163 .0266043
861.840 .0265902
862.518 .0265759
863.195 .0265616
863.871 .0265472
864.548 .0265327
865.224 .0265183
865.899 .0265039
866.574 .0264895
867.249 .0264754
867.924 .0264614
868.598 .0264475
869.272 .0264338
869.946 .0264202
870.619 .0264067
871.292 .0263932
871.964 .0263798
872.636 .0263664
873.308 .0263532
873.979 .0263401
874.651 .0263272
875.321 .0263145
875.992 .0263020
876.662 .0262898
877.331 .0262778
878.001 .0262660
878.670 .0262544
879.338 .0262430
880.007 .0262319
880.675 .0262212
881.342 .0262108
882.009 .0262008
882.676 .0261913
883.343 .0261823
884.009 .0261738
884.675 .0261657
885.340 .0261581
886.005 .0261509
886.670 .0261443
887.334 .0261380
887.998 .0261323
888.662 .0261269
889.325 .0261219
889.988 .0261173
890.650 .0261129
891.312 .0261087
891.974 .0261045
892.636 .0261004
893.297 .0260962
893.957 .0260919
894.618 .0260875
895.278 .0260829
895.937 .0260780
896.596 .0260729
897.255 .0260672
897.914 .0260611
898.572 .0260544
899.230 .0260470
899.887 .0260388
900.544 .0260298
901.201 .0260201
901.857 .0260022
902.513 .0259906
903.168 .0259784
903.823 .0259655
904.478 .0259519
905.132 .0259377
905.786 .0259230
906.440 .0259077
907.093 .0258920
907.746 .0258758
908.399 .0258594
909.051 .0258427
909.703 .0258259
910.354 .0258176
911.005 .0258008
911.656 .0257841
912.306 .0257675
912.956 .0257510
913.605 .0257347
914.254 .0257186
914.903 .0257026
915.551 .0256869
916.199 .0256713
916.847 .0256558
917.494 .0256405
918.141 .0256252
918.788 .0256100
919.434 .0255949
920.079 .0255799
920.725 .0255650
921.370 .0255503
922.014 .0255356
922.658 .0255210
923.302 .0255064
923.946 .0254919
924.589 .0254773
925.231 .0254628
925.873 .0254483
926.515 .0254338
927.157 .0254195
927.798 .0254052
928.439 .0253911
929.079 .0253771
929.719 .0253634
930.359 .0253499
930.998 .0253367
931.637 .0253238
932.275 .0253113
932.913 .0252993
933.551 .0252879
934.188 .0252770
934.825 .0252669
935.462 .0252574
936.098 .0252487
936.733 .0252407
937.369 .0252333
938.004 .0252265
938.638 .0252203
939.273 .0252148
939.907 .0252098
940.540 .0252053
941.173 .0252014
941.806 .0251979
942.438 .0251947
943.070 .0251918
943.702 .0251890
944.333 .0251863
944.964 .0251835
945.594 .0251807
946.224 .0251779
946.854 .0251749
947.483 .0251720
948.112 .0251690
948.741 .0251660
949.369 .0251630
949.996 .0251600
950.624 .0251568
951.251 .0251534
951.878 .0251499
952.504 .0251462
953.130 .0251424
953.755 .0251384
954.380 .0251344
955.005 .0251304
955.629 .0251264
956.253 .0251224
956.877 .0251183
957.500 .0251142
958.123 .0251099
958.746 .0251056
959.368 .0251012
959.990 .0250968
960.611 .0250925
961.232 .0250882
961.853 .0250841
962.473 .0250801
963.093 .0250762
963.712 .0250724
964.331 .0250686
964.950 .0250649
965.569 .0250612
966.187 .0250574
966.804 .0250536
967.422 .0250497
968.039 .0250458
968.655 .0250417
969.272 .0250375
969.887 .0250331
970.503 .0250285
971.118 .0250237
971.733 .0250187
972.347 .0250135
972.961 .0250081
973.575 .0250025
974.188 .0249969
974.801 .0249912
975.414 .0249854
976.026 .0249795
976.638 .0249736
977.250 .0249676
977.861 .0249615
978.472 .0249553
979.083 .0249490
979.693 .0249425
980.303 .0249357
980.912 .0249246
981.521 .0249173
982.130 .0249098
982.738 .0249021
983.346 .0248940
983.954 .0248857
984.562 .0248771
985.169 .0248682
985.775 .0248590
986.382 .0248496
986.988 .0248400
987.594 .0248302
988.199 .0248203
988.804 .0248102
989.409 .0248047
990.013 .0247946
990.617 .0247844
991.221 .0247742
991.824 .0247639
992.427 .0247535
993.030 .0247432
993.632 .0247329
994.234 .0247226
994.836 .0247123
995.438 .0247020
996.039 .0246918
996.640 .0246817
997.240 .0246718
997.840 .0246620
998.440 .0246523
999.040 .0246429
999.639 .0246336
1000.238 .0246245
1000.836 .0246157
1001.435 .0246071
1002.033 .0245988
1002.630 .0245908
1003.228 .0245831
1003.825 .0245757
1004.422 .0245687
1005.018 .0245619
1005.614 .0245555
1006.210 .0245493
1006.806 .0245433
1007.401 .0245374
1007.996 .0245316
1008.591 .0245258
1009.186 .0245200
1009.780 .0245143
1010.374 .0245086
1010.967 .0245030
1011.561 .0244974
1012.154 .0244919
1012.746 .0244866
1013.339 .0244813
1013.931 .0244761
1014.523 .0244709
1015.115 .0244658
1015.706 .0244607
1016.298 .0244556
1016.888 .0244506
1017.479 .0244458
1018.069 .0244412
1018.660 .0244368
1019.250 .0244327
1019.839 .0244289
1020.429 .0244254
1021.018 .0244220
1021.607 .0244188
1022.195 .0244157
1022.784 .0244126
1023.372 .0244097
1023.960 .0244069
1024.547 .0244043
1025.135 .0244019
1025.722 .0243999
1026.309 .0243982
1026.896 .0243969
1027.483 .0243960
1028.069 .0243956
1028.655 .0243956
1029.241 .0243960
1029.827 .0243969
1030.412 .0243981
1030.997 .0243998
1031.582 .0244019
1032.167 .0244046
1032.752 .0244076
1033.336 .0244112
1033.921 .0244151
1034.505 .0244195
1035.089 .0244240
1035.672 .0244287
1036.256 .0244333
1036.839 .0244378
1037.422 .0244420
1038.005 .0244459
1038.588 .0244493
1039.171 .0244524
1039.753 .0244551
1040.335 .0244575
1040.918 .0244596
1041.500 .0244614
1042.081 .0244630
1042.663 .0244644
1043.244 .0244654
1043.826 .0244662
1044.407 .0244666
1044.988 .0244666
1045.569 .0244664
1046.150 .0244658
1046.730 .0244649
1047.311 .0244638
1047.891 .0244625
1048.471 .0244612
1049.052 .0244598
1049.632 .0244585
1050.211 .0244571
1050.791 .0244558
1051.371 .0244544
1051.950 .0244529
1052.530 .0244513
1053.109 .0244497
1053.688 .0244480
1054.268 .0244463
1054.847 .0244448
1055.426 .0244436
1056.005 .0244426
1056.583 .0244419
1057.162 .0244414
1057.741 .0244410
1058.319 .0244406
1058.898 .0244401
1059.476 .0244395
1060.055 .0244386
1060.633 .0244375
1061.211 .0244362
1061.790 .0244348
1062.368 .0244335
1062.946 .0244323
1063.524 .0244313
1064.102 .0244306
1064.680 .0244302
1065.258 .0244300
1065.836 .0244301
1066.414 .0244305
1066.992 .0244312
1067.570 .0244322
1068.148 .0244338
1068.726 .0244361
1069.304 .0244392
1069.882 .0244431
1070.460 .0244480
1071.038 .0244538
1071.616 .0244603
1072.194 .0244674
1072.772 .0244751
1073.350 .0244832
1073.928 .0244917
1074.506 .0245006
1075.084 .0245102
1075.662 .0245205
1076.240 .0245315
1076.819 .0245433
1077.397 .0245560
1077.976 .0245693
1078.554 .0245833
1079.133 .0245977
1079.711 .0246125
1080.290 .0246273
1080.869 .0246423
1081.448 .0246571
1082.027 .0246720
1082.606 .0246866
1083.185 .0247011
1083.764 .0247151
1084.343 .0247289
1084.923 .0247423
1085.502 .0247554
1086.082 .0247681
1086.662 .0247807
1087.242 .0247932
1087.822 .0248056
1088.402 .0248182
1088.983 .0248309
1089.563 .0248439
1090.144 .0248574
1090.725 .0248713
1091.306 .0248857
1091.887 .0249008
1092.469 .0249165
1093.050 .0249327
1093.632 .0249494
1094.214 .0249663
1094.796 .0249835
1095.379 .0250006
1095.961 .0250178
1096.544 .0250348
1097.127 .0250517
1097.710 .0250687
1098.294 .0250857
1098.877 .0251029
1099.461 .0251203
1100.046 .0251381
1100.630 .0251563
1101.215 .0251750
1101.800 .0251943
1102.385 .0252142
1102.970 .0252348
1103.556 .0252562
1104.142 .0252786
1104.728 .0253021
1105.315 .0253271
1105.902 .0253534
1106.489 .0253812
1107.077 .0254107
1107.664 .0254416
1108.253 .0254739
1108.841 .0255074
1109.430 .0255420
1110.019 .0255777
1110.609 .0256144
1111.198 .0256523
1111.789 .0256915
1112.379 .0257322
1112.970 .0257744
1113.561 .0258182
1114.153 .0258635
1114.745 .0259103
1115.338 .0259582
1115.931 .0260073
1116.524 .0260573
1117.117 .0261082
1117.712 .0261599
1118.306 .0262126
1118.901 .0262664
1119.496 .0263214
1120.092 .0263776
1120.689 .0264349
1121.285 .0264937
1121.882 .0265537
1122.480 .0266148
1123.078 .0266771
1123.677 .0267407
1124.276 .0268058
1124.875 .0268724
1125.476 .0269410
1126.076 .0270116
1126.677 .0270843
1127.279 .0271591
1127.881 .0272358
1128.484 .0273142
1129.087 .0273467
1129.691 .0274275
1130.295 .0275097
1130.900 .0275934
1131.505 .0276785
1132.111 .0277652
1132.718 .0278532
1133.325 .0279426
1133.933 .0280336
1134.541 .0281333
1135.150 .0282262
1135.760 .0283111
1136.370 .0284042
1136.981 .0286257
1137.592 .0287239
1138.204 .0288147
1138.817 .0289061
1139.431 .0290021
1140.045 .0290943
1140.660 .0291794
1141.275 .0292652
1141.891 .0293559
1142.508 .0296431
1143.126 .0295025
1143.744 .0293329
1144.363 .0296233
1144.983 .0299556
