Measurement Sequence started on: 15-12-46-377
Integration time: 28
Scans to Average: 2 
>>>>>Begin Spectral Data<<<<<
432.689 .0000100
433.621 .0000100
434.552 .0000100
435.482 .0000100
436.410 .0000100
437.337 .0000100
438.262 .0289393
439.187 .0614436
440.110 .1018599
441.031 .1474797
441.952 .1180985
442.871 .1232866
443.789 .1281106
444.705 .1326469
445.621 .1369491
446.535 .1410580
447.447 .1434802
448.359 .1440495
449.269 .1423687
450.178 .1381793
451.086 .1315640
451.993 .1230277
452.898 .1134093
453.803 .1036622
454.706 .0945994
455.608 .0867265
456.508 .0802148
457.408 .0758095
458.306 .0724367
459.204 .0697028
460.100 .0674097
460.995 .0654434
461.888 .0637301
462.781 .0622184
463.673 .0608702
464.563 .0596588
465.452 .0585645
466.340 .0575708
467.228 .0566653
468.114 .0558388
468.999 .0550832
469.882 .0543920
470.765 .0537591
471.647 .0531800
472.528 .0526517
473.407 .0521702
474.286 .0517337
475.163 .0513402
476.040 .0509876
476.915 .0506734
477.790 .0503953
478.663 .0501512
479.535 .0499389
480.407 .0497559
481.277 .0496006
482.147 .0494708
483.015 .0493648
483.883 .0492807
484.749 .0492176
485.615 .0491744
486.479 .0491501
487.343 .0491429
488.206 .0491523
489.067 .0491765
489.928 .0492153
490.788 .0492684
491.647 .0493364
492.505 .0494206
493.362 .0495227
494.218 .0496449
495.073 .0497892
495.928 .0500921
496.781 .0502997
497.634 .0505321
498.486 .0507896
499.337 .0510723
500.187 .0513806
501.036 .0517161
501.884 .0520807
502.731 .0524776
503.578 .0529104
504.424 .0532049
505.268 .0537058
506.113 .0542549
506.956 .0548571
507.798 .0555176
508.640 .0562430
509.480 .0570414
510.320 .0579224
511.160 .0588982
511.998 .0599827
512.836 .0611929
513.672 .0625455
514.508 .0640606
515.344 .0657591
516.178 .0676626
517.012 .0697946
517.845 .0721787
518.677 .0748357
519.508 .0777873
520.339 .0810471
521.169 .0846225
521.998 .0884974
522.826 .0926450
523.654 .0970139
524.481 .1015369
525.307 .1061350
526.133 .1107171
526.958 .1151858
527.782 .1194475
528.605 .1234117
529.428 .1270006
530.250 .1301473
531.072 .1328041
531.892 .1349294
532.712 .1364989
533.532 .1374959
534.350 .1379101
535.168 .1377385
535.986 .1369851
536.802 .1356523
537.618 .1337472
538.434 .1312833
539.249 .1282943
540.063 .1248250
540.876 .1209400
541.689 .1167174
542.501 .1122443
543.313 .1076154
544.124 .1029273
544.934 .0982713
545.744 .0937305
546.553 .0893743
547.361 .0852573
548.169 .0814151
548.976 .0778742
549.783 .0746413
550.589 .0717136
551.395 .0690796
552.200 .0667184
553.004 .0646046
553.808 .0627111
554.611 .0610130
555.414 .0594854
556.216 .0581060
557.018 .0568515
557.819 .0557033
558.619 .0546449
559.419 .0536627
560.218 .0527455
561.017 .0518844
561.815 .0510711
562.613 .0502992
563.410 .0495618
564.207 .0488535
565.003 .0481681
565.799 .0475015
566.594 .0468499
567.388 .0462121
568.182 .0455864
568.976 .0449728
569.769 .0443712
570.562 .0437830
571.354 .0432090
572.145 .0426507
572.936 .0421087
573.727 .0415845
574.517 .0410787
575.307 .0405923
576.096 .0401252
576.885 .0396781
577.673 .0392509
578.461 .0388442
579.248 .0384577
580.035 .0380921
580.821 .0377473
581.607 .0374238
582.392 .0371212
583.177 .0368395
583.962 .0365780
584.746 .0363361
585.529 .0361130
586.313 .0359075
587.095 .0357185
587.878 .0355450
588.660 .0353858
589.441 .0352400
590.222 .0351067
591.003 .0349853
591.783 .0348748
592.563 .0347744
593.342 .0346832
594.121 .0346003
594.899 .0345246
595.678 .0344552
596.455 .0343913
597.233 .0343318
598.009 .0342761
598.786 .0342233
599.562 .0341730
600.338 .0341245
601.113 .0340774
601.888 .0340093
602.663 .0339642
603.437 .0339198
604.211 .0338760
604.984 .0338328
605.757 .0337904
606.530 .0337485
607.302 .0337074
608.074 .0336669
608.845 .0336272
609.616 .0335881
610.387 .0335710
611.158 .0335335
611.928 .0334970
612.697 .0334614
613.467 .0334267
614.236 .0333931
615.004 .0333603
615.773 .0333284
616.541 .0332970
617.308 .0332661
618.076 .0332356
618.843 .0332052
619.609 .0331749
620.375 .0331447
621.141 .0331144
621.907 .0330838
622.672 .0330530
623.437 .0330218
624.202 .0329899
624.966 .0329574
625.730 .0329239
626.493 .0328895
627.257 .0328541
628.020 .0328178
628.782 .0327805
629.545 .0327423
630.307 .0327032
631.068 .0326633
631.830 .0326226
632.591 .0325814
633.352 .0325397
634.112 .0324977
634.872 .0324555
635.632 .0324134
636.392 .0323713
637.151 .0323294
637.910 .0322879
638.668 .0322468
639.427 .0322062
640.185 .0321663
640.943 .0321272
641.700 .0320892
642.457 .0320522
643.214 .0320164
643.971 .0319817
644.727 .0319483
645.483 .0319158
646.239 .0318842
646.994 .0318534
647.750 .0318233
648.505 .0317939
649.259 .0317650
650.014 .0317369
650.768 .0317093
651.521 .0316825
652.275 .0316563
653.028 .0316308
653.781 .0316060
654.534 .0315817
655.286 .0315580
656.039 .0315348
656.791 .0315119
657.542 .0314895
658.294 .0314675
659.045 .0314458
659.796 .0314245
660.546 .0314035
661.297 .0313829
662.047 .0313628
662.796 .0313431
663.546 .0313238
664.295 .0313051
665.044 .0312870
665.793 .0312693
666.542 .0312522
667.290 .0312357
668.038 .0312196
668.786 .0312040
669.533 .0311888
670.281 .0311741
671.028 .0311597
671.774 .0311457
672.521 .0311319
673.267 .0311184
674.013 .0311052
674.759 .0310921
675.505 .0310791
676.250 .0310662
676.995 .0310532
677.740 .0310401
678.484 .0310268
679.229 .0310132
679.973 .0309995
680.717 .0309854
681.460 .0309712
682.204 .0309566
682.947 .0309417
683.690 .0309265
684.433 .0309108
685.175 .0308946
685.917 .0308778
686.659 .0308603
687.401 .0308420
688.142 .0308229
688.884 .0308029
689.625 .0307822
690.365 .0307606
691.106 .0307381
691.846 .0307148
692.586 .0306906
693.326 .0306655
694.066 .0306396
694.805 .0306129
695.545 .0305854
696.284 .0305574
697.022 .0305288
697.761 .0304997
698.499 .0304703
699.237 .0304407
699.975 .0304109
700.713 .0303809
701.450 .0303509
702.187 .0303210
702.924 .0302911
703.661 .0302614
704.397 .0302320
705.133 .0302029
705.869 .0301742
706.605 .0301459
707.341 .0301178
708.076 .0300902
708.811 .0300628
709.546 .0300358
710.281 .0300092
711.015 .0299828
711.749 .0299567
712.483 .0299308
713.217 .0299053
713.950 .0298800
714.684 .0298548
715.417 .0298298
716.150 .0298050
716.882 .0297801
717.615 .0297553
718.347 .0297305
719.079 .0297057
719.811 .0296809
720.542 .0296563
721.273 .0296317
722.005 .0296073
722.735 .0295832
723.466 .0295593
724.196 .0295358
724.927 .0295128
725.656 .0294903
726.386 .0294682
727.116 .0294468
727.845 .0294260
728.574 .0294058
729.303 .0293862
730.031 .0293674
730.760 .0293492
731.488 .0293317
732.216 .0293149
732.944 .0292988
733.671 .0292834
734.398 .0292688
735.125 .0292549
735.852 .0292418
736.579 .0292294
737.305 .0292177
738.031 .0292067
738.757 .0291964
739.483 .0291868
740.208 .0291779
740.933 .0291696
741.658 .0291619
742.383 .0291548
743.108 .0291482
743.832 .0291421
744.556 .0291364
745.280 .0291309
746.004 .0291257
746.727 .0291207
747.450 .0291159
748.173 .0291112
748.896 .0291067
749.618 .0291023
750.340 .0290981
751.062 .0290940
751.784 .0290899
752.506 .0290859
753.227 .0290819
753.948 .0290778
754.669 .0290736
755.389 .0290693
756.110 .0290649
756.830 .0290604
757.550 .0290559
758.269 .0290512
758.989 .0290463
759.708 .0290413
760.427 .0290360
761.146 .0290305
761.864 .0290246
762.582 .0290184
763.300 .0290117
764.018 .0290047
764.736 .0289972
765.453 .0289894
766.170 .0289812
766.887 .0289727
767.603 .0289640
768.320 .0289551
769.036 .0289460
769.751 .0289368
770.467 .0289276
771.182 .0289183
771.897 .0289089
772.612 .0288995
773.327 .0288900
774.041 .0288806
774.755 .0288711
775.469 .0288617
776.183 .0288525
776.896 .0288435
777.609 .0288347
778.322 .0288262
779.035 .0288180
779.747 .0288100
780.459 .0288022
781.171 .0287947
781.882 .0287872
782.594 .0287798
783.305 .0287725
784.016 .0287651
784.726 .0287577
785.436 .0287501
786.147 .0287377
786.856 .0287293
787.566 .0287206
788.275 .0287114
788.984 .0287018
789.693 .0286915
790.401 .0286806
791.110 .0286690
791.818 .0286565
792.525 .0286432
793.233 .0286290
793.940 .0286139
794.647 .0286040
795.353 .0285876
796.060 .0285704
796.766 .0285524
797.472 .0285337
798.177 .0285141
798.883 .0284938
799.588 .0284728
800.292 .0284510
800.997 .0284285
801.701 .0284053
802.405 .0283815
803.109 .0283572
803.812 .0283323
804.515 .0283069
805.218 .0282811
805.921 .0282549
806.623 .0282283
807.325 .0282013
808.027 .0281740
808.728 .0281465
809.429 .0281188
810.130 .0280911
810.831 .0280633
811.531 .0280356
812.231 .0280081
812.931 .0279808
813.630 .0279538
814.330 .0279271
815.029 .0279009
815.727 .0278753
816.426 .0278503
817.124 .0278260
817.821 .0278025
818.519 .0277798
819.216 .0277580
819.913 .0277370
820.609 .0277169
821.306 .0276976
822.002 .0276792
822.697 .0276617
823.393 .0276452
824.088 .0276295
824.783 .0276148
825.477 .0276011
826.171 .0275884
826.865 .0275766
827.559 .0275657
828.252 .0275556
828.945 .0275463
829.638 .0275377
830.330 .0275298
831.023 .0275223
831.714 .0275154
832.406 .0275089
833.097 .0275028
833.788 .0274971
834.479 .0274917
835.169 .0274866
835.859 .0274818
836.548 .0274773
837.238 .0274730
837.927 .0274690
838.615 .0274651
839.304 .0274615
839.992 .0274581
840.680 .0274548
841.367 .0274516
842.054 .0274487
842.741 .0274459
843.428 .0274433
844.114 .0274409
844.800 .0274387
845.485 .0274366
846.170 .0274347
846.855 .0274330
847.540 .0274313
848.224 .0274296
848.908 .0274278
849.592 .0274259
850.275 .0274238
850.958 .0274215
851.641 .0274188
852.323 .0274159
853.005 .0274127
853.687 .0274093
854.368 .0274057
855.049 .0274020
855.730 .0273981
856.410 .0273940
857.090 .0273897
857.769 .0273852
858.449 .0273806
859.128 .0273758
859.806 .0273708
860.485 .0273658
861.163 .0273609
861.840 .0273560
862.518 .0273512
863.195 .0273467
863.871 .0273423
864.548 .0273382
865.224 .0273343
865.899 .0273307
866.574 .0273274
867.249 .0273244
867.924 .0273217
868.598 .0273194
869.272 .0273175
869.946 .0273158
870.619 .0273144
871.292 .0273133
871.964 .0273124
872.636 .0273117
873.308 .0273113
873.979 .0273113
874.651 .0273116
875.321 .0273122
875.992 .0273131
876.662 .0273143
877.331 .0273157
878.001 .0273172
878.670 .0273188
879.338 .0273204
880.007 .0273221
880.675 .0273238
881.342 .0273257
882.009 .0273277
882.676 .0273300
883.343 .0273325
884.009 .0273351
884.675 .0273380
885.340 .0273409
886.005 .0273439
886.670 .0273470
887.334 .0273501
887.998 .0273532
888.662 .0273564
889.325 .0273597
889.988 .0273630
890.650 .0273662
891.312 .0273695
891.974 .0273726
892.636 .0273754
893.297 .0273779
893.957 .0273800
894.618 .0273817
895.278 .0273828
895.937 .0273834
896.596 .0273832
897.255 .0273824
897.914 .0273807
898.572 .0273781
899.230 .0273744
899.887 .0273696
900.544 .0273636
901.201 .0273564
901.857 .0273399
902.513 .0273293
903.168 .0273173
903.823 .0273041
904.478 .0272895
905.132 .0272736
905.786 .0272563
906.440 .0272376
907.093 .0272175
907.746 .0271961
908.399 .0271735
909.051 .0271497
909.703 .0271248
910.354 .0271098
911.005 .0270839
911.656 .0270572
912.306 .0270300
912.956 .0270021
913.605 .0269737
914.254 .0269447
914.903 .0269153
915.551 .0268854
916.199 .0268551
916.847 .0268246
917.494 .0267938
918.141 .0267629
918.788 .0267319
919.434 .0267009
920.079 .0266699
920.725 .0266388
921.370 .0266076
922.014 .0265764
922.658 .0265450
923.302 .0265135
923.946 .0264820
924.589 .0264503
925.231 .0264187
925.873 .0263870
926.515 .0263553
927.157 .0263236
927.798 .0262918
928.439 .0262600
929.079 .0262282
929.719 .0261962
930.359 .0261643
930.998 .0261323
931.637 .0261005
932.275 .0260688
932.913 .0260373
933.551 .0260062
934.188 .0259755
934.825 .0259453
935.462 .0259157
936.098 .0258867
936.733 .0258584
937.369 .0258308
938.004 .0258040
938.638 .0257779
939.273 .0257527
939.907 .0257282
940.540 .0257047
941.173 .0256820
941.806 .0256602
942.438 .0256391
943.070 .0256189
943.702 .0255993
944.333 .0255803
944.964 .0255618
945.594 .0255438
946.224 .0255262
946.854 .0255090
947.483 .0254920
948.112 .0254753
948.741 .0254589
949.369 .0254428
949.996 .0254269
950.624 .0254111
951.251 .0253956
951.878 .0253801
952.504 .0253648
953.130 .0253495
953.755 .0253344
954.380 .0253193
955.005 .0253045
955.629 .0252898
956.253 .0252754
956.877 .0252612
957.500 .0252473
958.123 .0252335
958.746 .0252201
959.368 .0252069
959.990 .0251941
960.611 .0251816
961.232 .0251695
961.853 .0251579
962.473 .0251468
963.093 .0251361
963.712 .0251261
964.331 .0251166
964.950 .0251076
965.569 .0250993
966.187 .0250915
966.804 .0250842
967.422 .0250773
968.039 .0250709
968.655 .0250648
969.272 .0250589
969.887 .0250532
970.503 .0250477
971.118 .0250424
971.733 .0250372
972.347 .0250322
972.961 .0250273
973.575 .0250226
974.188 .0250181
974.801 .0250136
975.414 .0250093
976.026 .0250050
976.638 .0250008
977.250 .0249968
977.861 .0249929
978.472 .0249892
979.083 .0249858
979.693 .0249826
980.303 .0249797
980.912 .0249761
981.521 .0249735
982.130 .0249710
982.738 .0249685
983.346 .0249661
983.954 .0249640
984.562 .0249621
985.169 .0249605
985.775 .0249595
986.382 .0249589
986.988 .0249588
987.594 .0249592
988.199 .0249600
988.804 .0249614
989.409 .0249634
990.013 .0249658
990.617 .0249689
991.221 .0249727
991.824 .0249773
992.427 .0249827
993.030 .0249888
993.632 .0249956
994.234 .0250031
994.836 .0250110
995.438 .0250195
996.039 .0250283
996.640 .0250377
997.240 .0250475
997.840 .0250578
998.440 .0250688
999.040 .0250804
999.639 .0250925
1000.238 .0251052
1000.836 .0251184
1001.435 .0251321
1002.033 .0251461
1002.630 .0251605
1003.228 .0251751
1003.825 .0251901
1004.422 .0252052
1005.018 .0252206
1005.614 .0252362
1006.210 .0252519
1006.806 .0252677
1007.401 .0252835
1007.996 .0252993
1008.591 .0253151
1009.186 .0253309
1009.780 .0253469
1010.374 .0253630
1010.967 .0253794
1011.561 .0253962
1012.154 .0254133
1012.746 .0254308
1013.339 .0254487
1013.931 .0254669
1014.523 .0254854
1015.115 .0255042
1015.706 .0255231
1016.298 .0255423
1016.888 .0255617
1017.479 .0255813
1018.069 .0256010
1018.660 .0256209
1019.250 .0256410
1019.839 .0256612
1020.429 .0256815
1021.018 .0257019
1021.607 .0257223
1022.195 .0257429
1022.784 .0257634
1023.372 .0257839
1023.960 .0258044
1024.547 .0258249
1025.135 .0258452
1025.722 .0258654
1026.309 .0258854
1026.896 .0259052
1027.483 .0259246
1028.069 .0259437
1028.655 .0259623
1029.241 .0259804
1029.827 .0259978
1030.412 .0260147
1030.997 .0260308
1031.582 .0260463
1032.167 .0260611
1032.752 .0260753
1033.336 .0260888
1033.921 .0261018
1034.505 .0261141
1035.089 .0261260
1035.672 .0261373
1036.256 .0261480
1036.839 .0261581
1037.422 .0261676
1038.005 .0261765
1038.588 .0261846
1039.171 .0261920
1039.753 .0261987
1040.335 .0262045
1040.918 .0262095
1041.500 .0262137
1042.081 .0262171
1042.663 .0262198
1043.244 .0262218
1043.826 .0262233
1044.407 .0262242
1044.988 .0262248
1045.569 .0262251
1046.150 .0262249
1046.730 .0262245
1047.311 .0262236
1047.891 .0262223
1048.471 .0262206
1049.052 .0262184
1049.632 .0262158
1050.211 .0262128
1050.791 .0262094
1051.371 .0262057
1051.950 .0262016
1052.530 .0261972
1053.109 .0261923
1053.688 .0261870
1054.268 .0261812
1054.847 .0261751
1055.426 .0261687
1056.005 .0261622
1056.583 .0261557
1057.162 .0261493
1057.741 .0261432
1058.319 .0261373
1058.898 .0261316
1059.476 .0261258
1060.055 .0261199
1060.633 .0261137
1061.211 .0261071
1061.790 .0261001
1062.368 .0260925
1062.946 .0260846
1063.524 .0260762
1064.102 .0260675
1064.680 .0260583
1065.258 .0260486
1065.836 .0260385
1066.414 .0260279
1066.992 .0260167
1067.570 .0260051
1068.148 .0259932
1068.726 .0259809
1069.304 .0259685
1069.882 .0259560
1070.460 .0259435
1071.038 .0259309
1071.616 .0259182
1072.194 .0259053
1072.772 .0258923
1073.350 .0258791
1073.928 .0258655
1074.506 .0258518
1075.084 .0258379
1075.662 .0258241
1076.240 .0258102
1076.819 .0257965
1077.397 .0257829
1077.976 .0257696
1078.554 .0257566
1079.133 .0257439
1079.711 .0257316
1080.290 .0257198
1080.869 .0257086
1081.448 .0256982
1082.027 .0256887
1082.606 .0256802
1083.185 .0256729
1083.764 .0256667
1084.343 .0256616
1084.923 .0256572
1085.502 .0256536
1086.082 .0256505
1086.662 .0256477
1087.242 .0256450
1087.822 .0256423
1088.402 .0256397
1088.983 .0256372
1089.563 .0256350
1090.144 .0256330
1090.725 .0256316
1091.306 .0256309
1091.887 .0256307
1092.469 .0256312
1093.050 .0256323
1093.632 .0256339
1094.214 .0256359
1094.796 .0256383
1095.379 .0256410
1095.961 .0256439
1096.544 .0256473
1097.127 .0256513
1097.710 .0256557
1098.294 .0256609
1098.877 .0256667
1099.461 .0256729
1100.046 .0256796
1100.630 .0256862
1101.215 .0256928
1101.800 .0256992
1102.385 .0257053
1102.970 .0257113
1103.556 .0257172
1104.142 .0257236
1104.728 .0257305
1105.315 .0257383
1105.902 .0257470
1106.489 .0257566
1107.077 .0257670
1107.664 .0257781
1108.253 .0257897
1108.841 .0258018
1109.430 .0258145
1110.019 .0258278
1110.609 .0258417
1111.198 .0258563
1111.789 .0258717
1112.379 .0258879
1112.970 .0259050
1113.561 .0259230
1114.153 .0259416
1114.745 .0259611
1115.338 .0259813
1115.931 .0260021
1116.524 .0260238
1117.117 .0260462
1117.712 .0260697
1118.306 .0260943
1118.901 .0261202
1119.496 .0261475
1120.092 .0261766
1120.689 .0262077
1121.285 .0262408
1121.882 .0262761
1122.480 .0263138
1123.078 .0263536
1123.677 .0263958
1124.276 .0264404
1124.875 .0264872
1125.476 .0265366
1126.076 .0265884
1126.677 .0266427
1127.279 .0266997
1127.881 .0267596
1128.484 .0268227
1129.087 .0268474
1129.691 .0269150
1130.295 .0269862
1130.900 .0270612
1131.505 .0271399
1132.111 .0272227
1132.718 .0273095
1133.325 .0274010
1133.933 .0274989
1134.541 .0275970
1135.150 .0277030
1135.760 .0278129
1136.370 .0279405
1136.981 .0279317
1137.592 .0280558
1138.204 .0281892
1138.817 .0283277
1139.431 .0284703
1140.045 .0286218
1140.660 .0287783
1141.275 .0289541
1141.891 .0291777
1142.508 .0292251
1143.126 .0294895
1143.744 .0296405
1144.363 .0301726
1144.983 .0312498
