Measurement Sequence started on: 15-12-46-377
Integration time: 28
Scans to Average: 2 
>>>>>Begin Spectral Data<<<<<
432.689 .0000100
433.621 .0000100
434.552 .0000100
435.482 .0000100
436.410 .0000100
437.337 .0000100
438.262 .0266872
439.187 .0566735
440.110 .0938866
441.031 .1358691
441.952 .1087262
442.871 .1135054
443.789 .1179500
444.705 .1221321
445.621 .1261008
446.535 .1298914
447.447 .1321260
448.359 .1326518
449.269 .1311049
450.178 .1272486
451.086 .1211584
451.993 .1133028
452.898 .1044575
453.803 .0954999
454.706 .0871786
455.608 .0799589
456.508 .0739967
457.408 .0699766
458.306 .0669078
459.204 .0644244
460.100 .0623449
460.995 .0605670
461.888 .0590209
462.781 .0576602
463.673 .0564525
464.563 .0553736
465.452 .0544046
466.340 .0535310
467.228 .0527408
468.114 .0520233
468.999 .0513698
469.882 .0507716
470.765 .0502222
471.647 .0497158
472.528 .0492490
473.407 .0488189
474.286 .0484248
475.163 .0480667
476.040 .0477436
476.915 .0474553
477.790 .0472005
478.663 .0469776
479.535 .0467852
480.407 .0466210
481.277 .0464831
482.147 .0463694
483.015 .0462783
483.883 .0462082
484.749 .0461586
485.615 .0461290
486.479 .0461195
487.343 .0461295
488.206 .0461590
489.067 .0462063
489.928 .0462706
490.788 .0463505
491.647 .0464448
492.505 .0465524
493.362 .0466721
494.218 .0468035
495.073 .0469472
495.928 .0472068
496.781 .0473847
497.634 .0475788
498.486 .0477910
499.337 .0480237
500.187 .0482792
501.036 .0485595
501.884 .0488677
502.731 .0492073
503.578 .0495812
504.424 .0498472
505.268 .0502878
506.113 .0507752
506.956 .0513151
507.798 .0519157
508.640 .0525872
509.480 .0533423
510.320 .0541949
511.160 .0551587
511.998 .0562496
512.836 .0574848
513.672 .0588808
514.508 .0604563
515.344 .0622312
516.178 .0642253
517.012 .0664600
517.845 .0689587
518.677 .0717408
519.508 .0748259
520.339 .0782221
521.169 .0819312
521.998 .0859254
522.826 .0901642
523.654 .0945859
524.481 .0991176
525.307 .1036803
526.133 .1081835
526.958 .1125350
527.782 .1166505
528.605 .1204513
529.428 .1238724
530.250 .1268516
531.072 .1293492
531.892 .1313258
532.712 .1327559
533.532 .1336218
534.350 .1339140
535.168 .1336309
535.986 .1327780
536.802 .1313567
537.618 .1293773
538.434 .1268527
539.249 .1238261
540.063 .1203506
540.876 .1164964
541.689 .1123417
542.501 .1079697
543.313 .1034701
544.124 .0989322
544.934 .0944344
545.744 .0900506
546.553 .0858371
547.361 .0818463
548.169 .0781058
548.976 .0746411
549.783 .0714607
550.589 .0685651
551.395 .0659429
552.200 .0635727
553.004 .0614289
553.808 .0594883
554.611 .0577293
555.414 .0561350
556.216 .0546860
557.018 .0533660
557.819 .0521605
558.619 .0510583
559.419 .0500470
560.218 .0491171
561.017 .0482586
561.815 .0474629
562.613 .0467212
563.410 .0460253
564.207 .0453676
565.003 .0447420
565.799 .0441434
566.594 .0435669
567.388 .0430095
568.182 .0424683
568.976 .0419410
569.769 .0414269
570.562 .0409256
571.354 .0404370
572.145 .0399615
572.936 .0394998
573.727 .0390522
574.517 .0386193
575.307 .0382016
576.096 .0377995
576.885 .0374135
577.673 .0370444
578.461 .0366927
579.248 .0363587
580.035 .0360430
580.821 .0357459
581.607 .0354673
582.392 .0352071
583.177 .0349651
583.962 .0347405
584.746 .0345330
585.529 .0343418
586.313 .0341657
587.095 .0340037
587.878 .0338551
588.660 .0337187
589.441 .0335934
590.222 .0334785
591.003 .0333730
591.783 .0332760
592.563 .0331869
593.342 .0331047
594.121 .0330286
594.899 .0329578
595.678 .0328916
596.455 .0328292
597.233 .0327698
598.009 .0327130
598.786 .0326582
599.562 .0326053
600.338 .0325539
601.113 .0325038
601.888 .0324326
602.663 .0323856
603.437 .0323398
604.211 .0322953
604.984 .0322519
605.757 .0322097
606.530 .0321686
607.302 .0321286
608.074 .0320897
608.845 .0320518
609.616 .0320150
610.387 .0319996
611.158 .0319647
611.928 .0319310
612.697 .0318986
613.467 .0318674
614.236 .0318375
615.004 .0318088
615.773 .0317811
616.541 .0317544
617.308 .0317285
618.076 .0317035
618.843 .0316791
619.609 .0316553
620.375 .0316320
621.141 .0316090
621.907 .0315862
622.672 .0315633
623.437 .0315404
624.202 .0315174
624.966 .0314941
625.730 .0314705
626.493 .0314466
627.257 .0314222
628.020 .0313973
628.782 .0313718
629.545 .0313457
630.307 .0313189
631.068 .0312914
631.830 .0312632
632.591 .0312343
633.352 .0312051
634.112 .0311755
634.872 .0311458
635.632 .0311161
636.392 .0310865
637.151 .0310570
637.910 .0310277
638.668 .0309987
639.427 .0309698
640.185 .0309412
640.943 .0309128
641.700 .0308847
642.457 .0308569
643.214 .0308294
643.971 .0308024
644.727 .0307758
645.483 .0307497
646.239 .0307242
646.994 .0306993
647.750 .0306749
648.505 .0306510
649.259 .0306275
650.014 .0306044
650.768 .0305815
651.521 .0305589
652.275 .0305364
653.028 .0305141
653.781 .0304920
654.534 .0304700
655.286 .0304483
656.039 .0304268
656.791 .0304056
657.542 .0303845
658.294 .0303637
659.045 .0303431
659.796 .0303227
660.546 .0303024
661.297 .0302822
662.047 .0302620
662.796 .0302419
663.546 .0302218
664.295 .0302016
665.044 .0301814
665.793 .0301613
666.542 .0301412
667.290 .0301213
668.038 .0301016
668.786 .0300820
669.533 .0300624
670.281 .0300428
671.028 .0300230
671.774 .0300029
672.521 .0299826
673.267 .0299618
674.013 .0299407
674.759 .0299194
675.505 .0298978
676.250 .0298762
676.995 .0298546
677.740 .0298330
678.484 .0298115
679.229 .0297902
679.973 .0297689
680.717 .0297479
681.460 .0297272
682.204 .0297067
682.947 .0296864
683.690 .0296665
684.433 .0296467
685.175 .0296272
685.917 .0296079
686.659 .0295889
687.401 .0295702
688.142 .0295518
688.884 .0295338
689.625 .0295160
690.365 .0294986
691.106 .0294813
691.846 .0294642
692.586 .0294471
693.326 .0294300
694.066 .0294129
694.805 .0293956
695.545 .0293782
696.284 .0293608
697.022 .0293434
697.761 .0293261
698.499 .0293088
699.237 .0292916
699.975 .0292743
700.713 .0292571
701.450 .0292398
702.187 .0292225
702.924 .0292051
703.661 .0291875
704.397 .0291699
705.133 .0291522
705.869 .0291344
706.605 .0291165
707.341 .0290986
708.076 .0290806
708.811 .0290626
709.546 .0290446
710.281 .0290266
711.015 .0290087
711.749 .0289908
712.483 .0289729
713.217 .0289550
713.950 .0289371
714.684 .0289192
715.417 .0289012
716.150 .0288831
716.882 .0288650
717.615 .0288468
718.347 .0288285
719.079 .0288103
719.811 .0287921
720.542 .0287740
721.273 .0287560
722.005 .0287381
722.735 .0287204
723.466 .0287030
724.196 .0286858
724.927 .0286688
725.656 .0286521
726.386 .0286357
727.116 .0286195
727.845 .0286036
728.574 .0285881
729.303 .0285728
730.031 .0285577
730.760 .0285429
731.488 .0285283
732.216 .0285139
732.944 .0284996
733.671 .0284854
734.398 .0284714
735.125 .0284575
735.852 .0284436
736.579 .0284297
737.305 .0284157
738.031 .0284018
738.757 .0283877
739.483 .0283737
740.208 .0283597
740.933 .0283457
741.658 .0283318
742.383 .0283180
743.108 .0283043
743.832 .0282908
744.556 .0282774
745.280 .0282641
746.004 .0282509
746.727 .0282378
747.450 .0282247
748.173 .0282115
748.896 .0281984
749.618 .0281853
750.340 .0281722
751.062 .0281592
751.784 .0281463
752.506 .0281335
753.227 .0281208
753.948 .0281080
754.669 .0280952
755.389 .0280821
756.110 .0280688
756.830 .0280551
757.550 .0280411
758.269 .0280267
758.989 .0280121
759.708 .0279974
760.427 .0279825
761.146 .0279676
761.864 .0279526
762.582 .0279376
763.300 .0279225
764.018 .0279073
764.736 .0278920
765.453 .0278767
766.170 .0278613
766.887 .0278459
767.603 .0278305
768.320 .0278153
769.036 .0278003
769.751 .0277855
770.467 .0277710
771.182 .0277569
771.897 .0277430
772.612 .0277295
773.327 .0277163
774.041 .0277035
774.755 .0276908
775.469 .0276784
776.183 .0276662
776.896 .0276543
777.609 .0276425
778.322 .0276311
779.035 .0276200
779.747 .0276093
780.459 .0275992
781.171 .0275895
781.882 .0275803
782.594 .0275715
783.305 .0275630
784.016 .0275547
784.726 .0275465
785.436 .0275384
786.147 .0275271
786.856 .0275189
787.566 .0275107
788.275 .0275026
788.984 .0274944
789.693 .0274862
790.401 .0274778
791.110 .0274693
791.818 .0274605
792.525 .0274514
793.233 .0274419
793.940 .0274321
794.647 .0274255
795.353 .0274151
796.060 .0274045
796.766 .0273935
797.472 .0273822
798.177 .0273706
798.883 .0273585
799.588 .0273461
800.292 .0273332
800.997 .0273201
801.701 .0273065
802.405 .0272927
803.109 .0272786
803.812 .0272642
804.515 .0272495
805.218 .0272346
805.921 .0272195
806.623 .0272042
807.325 .0271887
808.027 .0271732
808.728 .0271577
809.429 .0271421
810.130 .0271266
810.831 .0271111
811.531 .0270957
812.231 .0270803
812.931 .0270649
813.630 .0270496
814.330 .0270344
815.029 .0270194
815.727 .0270047
816.426 .0269902
817.124 .0269762
817.821 .0269625
818.519 .0269493
819.216 .0269365
819.913 .0269242
820.609 .0269125
821.306 .0269013
822.002 .0268908
822.697 .0268810
823.393 .0268720
824.088 .0268638
824.783 .0268565
825.477 .0268498
826.171 .0268439
826.865 .0268386
827.559 .0268338
828.252 .0268295
828.945 .0268255
829.638 .0268218
830.330 .0268182
831.023 .0268148
831.714 .0268114
832.406 .0268080
833.097 .0268046
833.788 .0268011
834.479 .0267974
835.169 .0267936
835.859 .0267896
836.548 .0267854
837.238 .0267809
837.927 .0267761
838.615 .0267711
839.304 .0267657
839.992 .0267600
840.680 .0267539
841.367 .0267473
842.054 .0267403
842.741 .0267328
843.428 .0267249
844.114 .0267166
844.800 .0267078
845.485 .0266986
846.170 .0266891
846.855 .0266791
847.540 .0266688
848.224 .0266580
848.908 .0266469
849.592 .0266353
850.275 .0266234
850.958 .0266112
851.641 .0265988
852.323 .0265862
853.005 .0265736
853.687 .0265608
854.368 .0265479
855.049 .0265350
855.730 .0265221
856.410 .0265091
857.090 .0264961
857.769 .0264831
858.449 .0264703
859.128 .0264575
859.806 .0264450
860.485 .0264328
861.163 .0264209
861.840 .0264094
862.518 .0263983
863.195 .0263876
863.871 .0263772
864.548 .0263671
865.224 .0263575
865.899 .0263482
866.574 .0263393
867.249 .0263308
867.924 .0263226
868.598 .0263149
869.272 .0263077
869.946 .0263008
870.619 .0262942
871.292 .0262878
871.964 .0262816
872.636 .0262755
873.308 .0262695
873.979 .0262636
874.651 .0262578
875.321 .0262521
875.992 .0262465
876.662 .0262410
877.331 .0262357
878.001 .0262305
878.670 .0262252
879.338 .0262200
880.007 .0262147
880.675 .0262094
881.342 .0262040
882.009 .0261987
882.676 .0261935
883.343 .0261884
884.009 .0261834
884.675 .0261786
885.340 .0261739
886.005 .0261693
886.670 .0261647
887.334 .0261602
887.998 .0261560
888.662 .0261519
889.325 .0261481
889.988 .0261447
890.650 .0261416
891.312 .0261388
891.974 .0261362
892.636 .0261337
893.297 .0261314
893.957 .0261292
894.618 .0261271
895.278 .0261250
895.937 .0261230
896.596 .0261212
897.255 .0261195
897.914 .0261177
898.572 .0261159
899.230 .0261138
899.887 .0261113
900.544 .0261083
901.201 .0261047
901.857 .0260962
902.513 .0260908
903.168 .0260847
903.823 .0260780
904.478 .0260705
905.132 .0260624
905.786 .0260535
906.440 .0260439
907.093 .0260334
907.746 .0260222
908.399 .0260102
909.051 .0259975
909.703 .0259843
910.354 .0259761
911.005 .0259624
911.656 .0259483
912.306 .0259338
912.956 .0259191
913.605 .0259041
914.254 .0258889
914.903 .0258735
915.551 .0258580
916.199 .0258425
916.847 .0258268
917.494 .0258111
918.141 .0257953
918.788 .0257795
919.434 .0257636
920.079 .0257476
920.725 .0257316
921.370 .0257154
922.014 .0256992
922.658 .0256829
923.302 .0256665
923.946 .0256500
924.589 .0256334
925.231 .0256167
925.873 .0255999
926.515 .0255830
927.157 .0255659
927.798 .0255487
928.439 .0255314
929.079 .0255139
929.719 .0254964
930.359 .0254788
930.998 .0254611
931.637 .0254434
932.275 .0254257
932.913 .0254080
933.551 .0253905
934.188 .0253732
934.825 .0253562
935.462 .0253396
936.098 .0253234
936.733 .0253075
937.369 .0252921
938.004 .0252770
938.638 .0252624
939.273 .0252481
939.907 .0252343
940.540 .0252209
941.173 .0252080
941.806 .0251956
942.438 .0251838
943.070 .0251726
943.702 .0251618
944.333 .0251514
944.964 .0251413
945.594 .0251313
946.224 .0251215
946.854 .0251117
947.483 .0251019
948.112 .0250921
948.741 .0250823
949.369 .0250725
949.996 .0250627
950.624 .0250529
951.251 .0250429
951.878 .0250328
952.504 .0250224
953.130 .0250117
953.755 .0250008
954.380 .0249896
955.005 .0249782
955.629 .0249667
956.253 .0249550
956.877 .0249433
957.500 .0249315
958.123 .0249196
958.746 .0249075
959.368 .0248952
959.990 .0248829
960.611 .0248705
961.232 .0248582
961.853 .0248459
962.473 .0248339
963.093 .0248220
963.712 .0248105
964.331 .0247992
964.950 .0247882
965.569 .0247774
966.187 .0247667
966.804 .0247562
967.422 .0247458
968.039 .0247354
968.655 .0247251
969.272 .0247149
969.887 .0247048
970.503 .0246948
971.118 .0246847
971.733 .0246746
972.347 .0246644
972.961 .0246540
973.575 .0246433
974.188 .0246323
974.801 .0246209
975.414 .0246092
976.026 .0245972
976.638 .0245849
977.250 .0245724
977.861 .0245596
978.472 .0245466
979.083 .0245334
979.693 .0245199
980.303 .0245062
980.912 .0244849
981.521 .0244709
982.130 .0244570
982.738 .0244431
983.346 .0244293
983.954 .0244159
984.562 .0244027
985.169 .0243900
985.775 .0243776
986.382 .0243657
986.988 .0243542
987.594 .0243431
988.199 .0243326
988.804 .0243225
989.409 .0243197
990.013 .0243105
990.617 .0243020
991.221 .0242941
991.824 .0242868
992.427 .0242801
993.030 .0242739
993.632 .0242681
994.234 .0242627
994.836 .0242575
995.438 .0242526
996.039 .0242479
996.640 .0242433
997.240 .0242390
997.840 .0242350
998.440 .0242312
999.040 .0242278
999.639 .0242246
1000.238 .0242217
1000.836 .0242191
1001.435 .0242168
1002.033 .0242146
1002.630 .0242127
1003.228 .0242109
1003.825 .0242094
1004.422 .0242080
1005.018 .0242067
1005.614 .0242055
1006.210 .0242044
1006.806 .0242034
1007.401 .0242024
1007.996 .0242016
1008.591 .0242007
1009.186 .0242000
1009.780 .0241993
1010.374 .0241987
1010.967 .0241982
1011.561 .0241979
1012.154 .0241978
1012.746 .0241979
1013.339 .0241982
1013.931 .0241988
1014.523 .0241997
1015.115 .0242009
1015.706 .0242024
1016.298 .0242042
1016.888 .0242061
1017.479 .0242083
1018.069 .0242107
1018.660 .0242133
1019.250 .0242161
1019.839 .0242190
1020.429 .0242222
1021.018 .0242256
1021.607 .0242293
1022.195 .0242333
1022.784 .0242377
1023.372 .0242425
1023.960 .0242477
1024.547 .0242534
1025.135 .0242596
1025.722 .0242663
1026.309 .0242735
1026.896 .0242813
1027.483 .0242897
1028.069 .0242986
1028.655 .0243079
1029.241 .0243176
1029.827 .0243277
1030.412 .0243381
1030.997 .0243486
1031.582 .0243593
1032.167 .0243701
1032.752 .0243808
1033.336 .0243913
1033.921 .0244016
1034.505 .0244116
1035.089 .0244212
1035.672 .0244305
1036.256 .0244392
1036.839 .0244476
1037.422 .0244555
1038.005 .0244630
1038.588 .0244700
1039.171 .0244766
1039.753 .0244828
1040.335 .0244885
1040.918 .0244937
1041.500 .0244986
1042.081 .0245029
1042.663 .0245069
1043.244 .0245105
1043.826 .0245137
1044.407 .0245166
1044.988 .0245193
1045.569 .0245216
1046.150 .0245237
1046.730 .0245255
1047.311 .0245270
1047.891 .0245282
1048.471 .0245291
1049.052 .0245298
1049.632 .0245301
1050.211 .0245304
1050.791 .0245306
1051.371 .0245310
1051.950 .0245315
1052.530 .0245324
1053.109 .0245335
1053.688 .0245351
1054.268 .0245370
1054.847 .0245394
1055.426 .0245423
1056.005 .0245456
1056.583 .0245494
1057.162 .0245536
1057.741 .0245582
1058.319 .0245632
1058.898 .0245686
1059.476 .0245742
1060.055 .0245799
1060.633 .0245858
1061.211 .0245918
1061.790 .0245979
1062.368 .0246042
1062.946 .0246106
1063.524 .0246172
1064.102 .0246242
1064.680 .0246313
1065.258 .0246388
1065.836 .0246465
1066.414 .0246544
1066.992 .0246625
1067.570 .0246708
1068.148 .0246791
1068.726 .0246874
1069.304 .0246955
1069.882 .0247035
1070.460 .0247111
1071.038 .0247184
1071.616 .0247252
1072.194 .0247314
1072.772 .0247372
1073.350 .0247425
1073.928 .0247474
1074.506 .0247518
1075.084 .0247560
1075.662 .0247599
1076.240 .0247636
1076.819 .0247671
1077.397 .0247706
1077.976 .0247741
1078.554 .0247778
1079.133 .0247816
1079.711 .0247859
1080.290 .0247906
1080.869 .0247959
1081.448 .0248016
1082.027 .0248078
1082.606 .0248143
1083.185 .0248210
1083.764 .0248277
1084.343 .0248344
1084.923 .0248411
1085.502 .0248478
1086.082 .0248547
1086.662 .0248619
1087.242 .0248698
1087.822 .0248784
1088.402 .0248879
1088.983 .0248984
1089.563 .0249097
1090.144 .0249218
1090.725 .0249347
1091.306 .0249482
1091.887 .0249624
1092.469 .0249773
1093.050 .0249930
1093.632 .0250096
1094.214 .0250273
1094.796 .0250459
1095.379 .0250657
1095.961 .0250863
1096.544 .0251078
1097.127 .0251298
1097.710 .0251522
1098.294 .0251750
1098.877 .0251981
1099.461 .0252214
1100.046 .0252451
1100.630 .0252691
1101.215 .0252935
1101.800 .0253182
1102.385 .0253431
1102.970 .0253681
1103.556 .0253929
1104.142 .0254172
1104.728 .0254408
1105.315 .0254636
1105.902 .0254855
1106.489 .0255066
1107.077 .0255270
1107.664 .0255471
1108.253 .0255669
1108.841 .0255868
1109.430 .0256071
1110.019 .0256280
1110.609 .0256495
1111.198 .0256718
1111.789 .0256949
1112.379 .0257188
1112.970 .0257436
1113.561 .0257693
1114.153 .0257962
1114.745 .0258245
1115.338 .0258541
1115.931 .0258854
1116.524 .0259184
1117.117 .0259531
1117.712 .0259895
1118.306 .0260274
1118.901 .0260666
1119.496 .0261071
1120.092 .0261485
1120.689 .0261908
1121.285 .0262341
1121.882 .0262782
1122.480 .0263234
1123.078 .0263697
1123.677 .0264172
1124.276 .0264663
1124.875 .0265171
1125.476 .0265699
1126.076 .0266248
1126.677 .0266817
1127.279 .0267408
1127.881 .0268021
1128.484 .0268655
1129.087 .0268956
1129.691 .0269612
1130.295 .0270289
1130.900 .0270990
1131.505 .0271717
1132.111 .0272474
1132.718 .0273263
1133.325 .0274089
1133.933 .0274957
1134.541 .0275892
1135.150 .0276869
1135.760 .0277843
1136.370 .0278898
1136.981 .0278009
1137.592 .0279247
1138.204 .0280550
1138.817 .0281892
1139.431 .0283348
1140.045 .0284905
1140.660 .0286532
1141.275 .0288277
1141.891 .0290205
1142.508 .0292731
1143.126 .0294570
1143.744 .0295053
1144.363 .0297837
1144.983 .0302468
