Measurement Sequence started on: 15-12-46-377
Integration time: 28
Scans to Average: 2 
>>>>>Begin Spectral Data<<<<<
432.689 .0000100
433.621 .0000100
434.552 .0000100
435.482 .0000100
436.410 .0000100
437.337 .0000100
438.262 .0273045
439.187 .0578009
440.110 .0958049
441.031 .1386537
441.952 .1111544
442.871 .1160572
443.789 .1206123
444.705 .1248910
445.621 .1289429
446.535 .1328077
447.447 .1350762
448.359 .1356015
449.269 .1340068
450.178 .1300521
451.086 .1238164
451.993 .1157749
452.898 .1067158
453.803 .0975346
454.706 .0889935
455.608 .0815676
456.508 .0754172
457.408 .0712465
458.306 .0680406
459.204 .0654375
460.100 .0632517
460.995 .0613798
461.888 .0597531
462.781 .0583243
463.673 .0570566
464.563 .0559247
465.452 .0549093
466.340 .0539940
467.228 .0531652
468.114 .0524118
468.999 .0517240
469.882 .0510929
470.765 .0505111
471.647 .0499736
472.528 .0494768
473.407 .0490174
474.286 .0485935
475.163 .0482041
476.040 .0478482
476.915 .0475253
477.790 .0472337
478.663 .0469724
479.535 .0467399
480.407 .0465346
481.277 .0463550
482.147 .0461992
483.015 .0460661
483.883 .0459552
484.749 .0458657
485.615 .0457981
486.479 .0457525
487.343 .0457296
488.206 .0457304
489.067 .0457546
489.928 .0458024
490.788 .0458738
491.647 .0459683
492.505 .0460854
493.362 .0462244
494.218 .0463850
495.073 .0465663
495.928 .0469164
496.781 .0471526
497.634 .0474117
498.486 .0476955
499.337 .0480056
500.187 .0483435
501.036 .0487106
501.884 .0491087
502.731 .0495397
503.578 .0500060
504.424 .0503124
505.268 .0508395
506.113 .0514092
506.956 .0520258
507.798 .0526948
508.640 .0534241
509.480 .0542235
510.320 .0551043
511.160 .0560787
511.998 .0571613
512.836 .0583677
513.672 .0597145
514.508 .0612208
515.344 .0629061
516.178 .0647903
517.012 .0668950
517.845 .0692418
518.677 .0718493
519.508 .0747325
520.339 .0778969
521.169 .0813416
521.998 .0850428
522.826 .0889659
523.654 .0930580
524.481 .0972539
525.307 .1014800
526.133 .1056539
526.958 .1096883
527.782 .1135012
528.605 .1170150
529.428 .1201620
530.250 .1228811
531.072 .1251318
531.892 .1268785
532.712 .1280987
533.532 .1287799
534.350 .1289171
535.168 .1285107
535.986 .1275684
536.802 .1260978
537.618 .1241134
538.434 .1216325
539.249 .1186953
540.063 .1153501
540.876 .1116593
541.689 .1076956
542.501 .1035379
543.313 .0992687
544.124 .0949736
544.934 .0907300
545.744 .0866081
546.553 .0826666
547.361 .0789562
548.169 .0755038
548.976 .0723295
549.783 .0694404
550.589 .0668307
551.395 .0644844
552.200 .0623795
553.004 .0604885
553.808 .0587854
554.611 .0572467
555.414 .0558511
556.216 .0545784
557.018 .0534113
557.819 .0523352
558.619 .0513367
559.419 .0504057
560.218 .0495341
561.017 .0487138
561.815 .0479384
562.613 .0472032
563.410 .0465018
564.207 .0458285
565.003 .0451792
565.799 .0445493
566.594 .0439344
567.388 .0433320
568.182 .0427409
568.976 .0421600
569.769 .0415902
570.562 .0410332
571.354 .0404912
572.145 .0399666
572.936 .0394609
573.727 .0389753
574.517 .0385106
575.307 .0380675
576.096 .0376453
576.885 .0372440
577.673 .0368638
578.461 .0365046
579.248 .0361663
580.035 .0358490
580.821 .0355530
581.607 .0352784
582.392 .0350248
583.177 .0347915
583.962 .0345775
584.746 .0343815
585.529 .0342022
586.313 .0340383
587.095 .0338883
587.878 .0337511
588.660 .0336257
589.441 .0335111
590.222 .0334064
591.003 .0333107
591.783 .0332230
592.563 .0331423
593.342 .0330676
594.121 .0329979
594.899 .0329321
595.678 .0328696
596.455 .0328098
597.233 .0327523
598.009 .0326966
598.786 .0326427
599.562 .0325902
600.338 .0325390
601.113 .0324889
601.888 .0324160
602.663 .0323677
603.437 .0323200
604.211 .0322731
604.984 .0322269
605.757 .0321816
606.530 .0321372
607.302 .0320939
608.074 .0320521
608.845 .0320118
609.616 .0319731
610.387 .0319577
611.158 .0319218
611.928 .0318875
612.697 .0318550
613.467 .0318241
614.236 .0317949
615.004 .0317672
615.773 .0317411
616.541 .0317163
617.308 .0316929
618.076 .0316708
618.843 .0316499
619.609 .0316303
620.375 .0316116
621.141 .0315939
621.907 .0315768
622.672 .0315601
623.437 .0315436
624.202 .0315270
624.966 .0315101
625.730 .0314927
626.493 .0314747
627.257 .0314560
628.020 .0314367
628.782 .0314168
629.545 .0313961
630.307 .0313747
631.068 .0313525
631.830 .0313294
632.591 .0313054
633.352 .0312805
634.112 .0312547
634.872 .0312281
635.632 .0312008
636.392 .0311729
637.151 .0311446
637.910 .0311160
638.668 .0310872
639.427 .0310583
640.185 .0310293
640.943 .0310004
641.700 .0309715
642.457 .0309427
643.214 .0309142
643.971 .0308859
644.727 .0308577
645.483 .0308298
646.239 .0308021
646.994 .0307746
647.750 .0307472
648.505 .0307201
649.259 .0306932
650.014 .0306666
650.768 .0306403
651.521 .0306143
652.275 .0305886
653.028 .0305630
653.781 .0305375
654.534 .0305120
655.286 .0304864
656.039 .0304608
656.791 .0304350
657.542 .0304092
658.294 .0303833
659.045 .0303574
659.796 .0303316
660.546 .0303059
661.297 .0302802
662.047 .0302545
662.796 .0302289
663.546 .0302033
664.295 .0301777
665.044 .0301522
665.793 .0301269
666.542 .0301018
667.290 .0300770
668.038 .0300526
668.786 .0300287
669.533 .0300052
670.281 .0299822
671.028 .0299596
671.774 .0299375
672.521 .0299159
673.267 .0298947
674.013 .0298739
674.759 .0298536
675.505 .0298336
676.250 .0298141
676.995 .0297949
677.740 .0297761
678.484 .0297575
679.229 .0297393
679.973 .0297213
680.717 .0297035
681.460 .0296859
682.204 .0296684
682.947 .0296509
683.690 .0296334
684.433 .0296158
685.175 .0295981
685.917 .0295803
686.659 .0295624
687.401 .0295444
688.142 .0295265
688.884 .0295085
689.625 .0294905
690.365 .0294725
691.106 .0294545
691.846 .0294365
692.586 .0294185
693.326 .0294005
694.066 .0293827
694.805 .0293651
695.545 .0293478
696.284 .0293309
697.022 .0293144
697.761 .0292983
698.499 .0292825
699.237 .0292671
699.975 .0292520
700.713 .0292372
701.450 .0292227
702.187 .0292084
702.924 .0291943
703.661 .0291804
704.397 .0291667
705.133 .0291532
705.869 .0291397
706.605 .0291263
707.341 .0291129
708.076 .0290995
708.811 .0290860
709.546 .0290725
710.281 .0290588
711.015 .0290449
711.749 .0290306
712.483 .0290159
713.217 .0290009
713.950 .0289855
714.684 .0289698
715.417 .0289538
716.150 .0289376
716.882 .0289213
717.615 .0289048
718.347 .0288882
719.079 .0288716
719.811 .0288547
720.542 .0288377
721.273 .0288204
722.005 .0288030
722.735 .0287855
723.466 .0287679
724.196 .0287503
724.927 .0287328
725.656 .0287153
726.386 .0286979
727.116 .0286807
727.845 .0286636
728.574 .0286467
729.303 .0286299
730.031 .0286134
730.760 .0285970
731.488 .0285807
732.216 .0285647
732.944 .0285488
733.671 .0285330
734.398 .0285174
735.125 .0285021
735.852 .0284869
736.579 .0284720
737.305 .0284573
738.031 .0284429
738.757 .0284288
739.483 .0284149
740.208 .0284011
740.933 .0283875
741.658 .0283738
742.383 .0283601
743.108 .0283462
743.832 .0283320
744.556 .0283176
745.280 .0283030
746.004 .0282881
746.727 .0282729
747.450 .0282574
748.173 .0282416
748.896 .0282255
749.618 .0282090
750.340 .0281921
751.062 .0281749
751.784 .0281571
752.506 .0281390
753.227 .0281205
753.948 .0281016
754.669 .0280824
755.389 .0280630
756.110 .0280432
756.830 .0280232
757.550 .0280029
758.269 .0279826
758.989 .0279622
759.708 .0279418
760.427 .0279214
761.146 .0279012
761.864 .0278812
762.582 .0278614
763.300 .0278417
764.018 .0278222
764.736 .0278029
765.453 .0277837
766.170 .0277647
766.887 .0277459
767.603 .0277275
768.320 .0277095
769.036 .0276918
769.751 .0276747
770.467 .0276580
771.182 .0276417
771.897 .0276259
772.612 .0276106
773.327 .0275956
774.041 .0275811
774.755 .0275670
775.469 .0275533
776.183 .0275402
776.896 .0275274
777.609 .0275151
778.322 .0275032
779.035 .0274917
779.747 .0274806
780.459 .0274699
781.171 .0274596
781.882 .0274497
782.594 .0274403
783.305 .0274314
784.016 .0274229
784.726 .0274147
785.436 .0274068
786.147 .0273957
786.856 .0273881
787.566 .0273806
788.275 .0273732
788.984 .0273659
789.693 .0273588
790.401 .0273519
791.110 .0273452
791.818 .0273386
792.525 .0273321
793.233 .0273255
793.940 .0273190
794.647 .0273155
795.353 .0273088
796.060 .0273020
796.766 .0272952
797.472 .0272884
798.177 .0272815
798.883 .0272747
799.588 .0272679
800.292 .0272609
800.997 .0272539
801.701 .0272467
802.405 .0272394
803.109 .0272320
803.812 .0272246
804.515 .0272171
805.218 .0272097
805.921 .0272022
806.623 .0271948
807.325 .0271873
808.027 .0271797
808.728 .0271721
809.429 .0271645
810.130 .0271568
810.831 .0271492
811.531 .0271417
812.231 .0271343
812.931 .0271271
813.630 .0271201
814.330 .0271134
815.029 .0271068
815.727 .0271005
816.426 .0270943
817.124 .0270884
817.821 .0270828
818.519 .0270774
819.216 .0270723
819.913 .0270676
820.609 .0270633
821.306 .0270594
822.002 .0270559
822.697 .0270528
823.393 .0270501
824.088 .0270478
824.783 .0270459
825.477 .0270444
826.171 .0270431
826.865 .0270422
827.559 .0270416
828.252 .0270411
828.945 .0270408
829.638 .0270406
830.330 .0270403
831.023 .0270401
831.714 .0270397
832.406 .0270391
833.097 .0270383
833.788 .0270372
834.479 .0270359
835.169 .0270342
835.859 .0270322
836.548 .0270298
837.238 .0270270
837.927 .0270236
838.615 .0270197
839.304 .0270152
839.992 .0270101
840.680 .0270043
841.367 .0269979
842.054 .0269908
842.741 .0269831
843.428 .0269747
844.114 .0269658
844.800 .0269563
845.485 .0269462
846.170 .0269355
846.855 .0269242
847.540 .0269122
848.224 .0268997
848.908 .0268865
849.592 .0268727
850.275 .0268584
850.958 .0268434
851.641 .0268279
852.323 .0268119
853.005 .0267953
853.687 .0267781
854.368 .0267603
855.049 .0267419
855.730 .0267229
856.410 .0267034
857.090 .0266833
857.769 .0266627
858.449 .0266416
859.128 .0266200
859.806 .0265981
860.485 .0265757
861.163 .0265531
861.840 .0265302
862.518 .0265072
863.195 .0264841
863.871 .0264609
864.548 .0264377
865.224 .0264146
865.899 .0263916
866.574 .0263687
867.249 .0263459
867.924 .0263232
868.598 .0263008
869.272 .0262787
869.946 .0262569
870.619 .0262356
871.292 .0262147
871.964 .0261944
872.636 .0261746
873.308 .0261554
873.979 .0261367
874.651 .0261185
875.321 .0261008
875.992 .0260835
876.662 .0260666
877.331 .0260502
878.001 .0260342
878.670 .0260186
879.338 .0260033
880.007 .0259886
880.675 .0259742
881.342 .0259603
882.009 .0259469
882.676 .0259339
883.343 .0259214
884.009 .0259092
884.675 .0258975
885.340 .0258861
886.005 .0258750
886.670 .0258643
887.334 .0258539
887.998 .0258439
888.662 .0258343
889.325 .0258251
889.988 .0258164
890.650 .0258081
891.312 .0258002
891.974 .0257926
892.636 .0257851
893.297 .0257779
893.957 .0257706
894.618 .0257633
895.278 .0257560
895.937 .0257485
896.596 .0257409
897.255 .0257330
897.914 .0257249
898.572 .0257164
899.230 .0257074
899.887 .0256981
900.544 .0256882
901.201 .0256778
901.857 .0256592
902.513 .0256474
903.168 .0256350
903.823 .0256221
904.478 .0256088
905.132 .0255949
905.786 .0255805
906.440 .0255657
907.093 .0255504
907.746 .0255347
908.399 .0255188
909.051 .0255027
909.703 .0254866
910.354 .0254790
911.005 .0254633
911.656 .0254478
912.306 .0254325
912.956 .0254176
913.605 .0254030
914.254 .0253887
914.903 .0253747
915.551 .0253610
916.199 .0253478
916.847 .0253349
917.494 .0253224
918.141 .0253104
918.788 .0252989
919.434 .0252877
920.079 .0252770
920.725 .0252666
921.370 .0252565
922.014 .0252466
922.658 .0252369
923.302 .0252274
923.946 .0252180
924.589 .0252087
925.231 .0251996
925.873 .0251906
926.515 .0251817
927.157 .0251730
927.798 .0251645
928.439 .0251560
929.079 .0251477
929.719 .0251396
930.359 .0251316
930.998 .0251239
931.637 .0251165
932.275 .0251094
932.913 .0251026
933.551 .0250964
934.188 .0250907
934.825 .0250856
935.462 .0250810
936.098 .0250771
936.733 .0250738
937.369 .0250712
938.004 .0250691
938.638 .0250677
939.273 .0250668
939.907 .0250666
940.540 .0250671
941.173 .0250681
941.806 .0250698
942.438 .0250720
943.070 .0250748
943.702 .0250779
944.333 .0250814
944.964 .0250851
945.594 .0250890
946.224 .0250930
946.854 .0250971
947.483 .0251012
948.112 .0251052
948.741 .0251091
949.369 .0251128
949.996 .0251163
950.624 .0251194
951.251 .0251222
951.878 .0251247
952.504 .0251267
953.130 .0251285
953.755 .0251299
954.380 .0251311
955.005 .0251321
955.629 .0251329
956.253 .0251335
956.877 .0251338
957.500 .0251340
958.123 .0251340
958.746 .0251338
959.368 .0251336
959.990 .0251334
960.611 .0251333
961.232 .0251334
961.853 .0251337
962.473 .0251342
963.093 .0251348
963.712 .0251356
964.331 .0251364
964.950 .0251373
965.569 .0251382
966.187 .0251391
966.804 .0251400
967.422 .0251409
968.039 .0251418
968.655 .0251426
969.272 .0251432
969.887 .0251435
970.503 .0251435
971.118 .0251431
971.733 .0251422
972.347 .0251407
972.961 .0251387
973.575 .0251361
974.188 .0251329
974.801 .0251292
975.414 .0251249
976.026 .0251199
976.638 .0251143
977.250 .0251081
977.861 .0251012
978.472 .0250937
979.083 .0250855
979.693 .0250769
980.303 .0250679
980.912 .0250531
981.521 .0250436
982.130 .0250338
982.738 .0250238
983.346 .0250136
983.954 .0250033
984.562 .0249928
985.169 .0249821
985.775 .0249714
986.382 .0249606
986.988 .0249498
987.594 .0249391
988.199 .0249285
988.804 .0249181
989.409 .0249134
990.013 .0249032
990.617 .0248931
991.221 .0248833
991.824 .0248738
992.427 .0248645
993.030 .0248555
993.632 .0248468
994.234 .0248383
994.836 .0248301
995.438 .0248221
996.039 .0248143
996.640 .0248066
997.240 .0247990
997.840 .0247916
998.440 .0247842
999.040 .0247770
999.639 .0247698
1000.238 .0247627
1000.836 .0247556
1001.435 .0247487
1002.033 .0247417
1002.630 .0247348
1003.228 .0247278
1003.825 .0247209
1004.422 .0247139
1005.018 .0247069
1005.614 .0247000
1006.210 .0246932
1006.806 .0246865
1007.401 .0246799
1007.996 .0246734
1008.591 .0246670
1009.186 .0246606
1009.780 .0246543
1010.374 .0246480
1010.967 .0246415
1011.561 .0246350
1012.154 .0246284
1012.746 .0246216
1013.339 .0246148
1013.931 .0246081
1014.523 .0246013
1015.115 .0245947
1015.706 .0245882
1016.298 .0245818
1016.888 .0245755
1017.479 .0245694
1018.069 .0245633
1018.660 .0245574
1019.250 .0245517
1019.839 .0245462
1020.429 .0245411
1021.018 .0245362
1021.607 .0245318
1022.195 .0245278
1022.784 .0245241
1023.372 .0245208
1023.960 .0245177
1024.547 .0245148
1025.135 .0245120
1025.722 .0245092
1026.309 .0245064
1026.896 .0245035
1027.483 .0245005
1028.069 .0244974
1028.655 .0244941
1029.241 .0244907
1029.827 .0244870
1030.412 .0244831
1030.997 .0244788
1031.582 .0244740
1032.167 .0244688
1032.752 .0244631
1033.336 .0244568
1033.921 .0244500
1034.505 .0244427
1035.089 .0244350
1035.672 .0244269
1036.256 .0244185
1036.839 .0244096
1037.422 .0244004
1038.005 .0243908
1038.588 .0243807
1039.171 .0243702
1039.753 .0243592
1040.335 .0243480
1040.918 .0243366
1041.500 .0243251
1042.081 .0243136
1042.663 .0243021
1043.244 .0242909
1043.826 .0242800
1044.407 .0242692
1044.988 .0242589
1045.569 .0242488
1046.150 .0242391
1046.730 .0242297
1047.311 .0242208
1047.891 .0242122
1048.471 .0242042
1049.052 .0241967
1049.632 .0241898
1050.211 .0241833
1050.791 .0241773
1051.371 .0241717
1051.950 .0241663
1052.530 .0241611
1053.109 .0241560
1053.688 .0241507
1054.268 .0241455
1054.847 .0241401
1055.426 .0241346
1056.005 .0241290
1056.583 .0241235
1057.162 .0241180
1057.741 .0241126
1058.319 .0241074
1058.898 .0241024
1059.476 .0240974
1060.055 .0240926
1060.633 .0240878
1061.211 .0240831
1061.790 .0240784
1062.368 .0240737
1062.946 .0240692
1063.524 .0240648
1064.102 .0240608
1064.680 .0240571
1065.258 .0240539
1065.836 .0240510
1066.414 .0240485
1066.992 .0240463
1067.570 .0240441
1068.148 .0240420
1068.726 .0240400
1069.304 .0240379
1069.882 .0240360
1070.460 .0240343
1071.038 .0240330
1071.616 .0240321
1072.194 .0240318
1072.772 .0240319
1073.350 .0240324
1073.928 .0240332
1074.506 .0240341
1075.084 .0240350
1075.662 .0240362
1076.240 .0240375
1076.819 .0240391
1077.397 .0240411
1077.976 .0240438
1078.554 .0240472
1079.133 .0240514
1079.711 .0240562
1080.290 .0240616
1080.869 .0240676
1081.448 .0240739
1082.027 .0240803
1082.606 .0240869
1083.185 .0240937
1083.764 .0241006
1084.343 .0241077
1084.923 .0241151
1085.502 .0241230
1086.082 .0241313
1086.662 .0241404
1087.242 .0241502
1087.822 .0241608
1088.402 .0241722
1088.983 .0241845
1089.563 .0241976
1090.144 .0242116
1090.725 .0242265
1091.306 .0242423
1091.887 .0242591
1092.469 .0242767
1093.050 .0242952
1093.632 .0243146
1094.214 .0243347
1094.796 .0243554
1095.379 .0243766
1095.961 .0243983
1096.544 .0244203
1097.127 .0244427
1097.710 .0244654
1098.294 .0244885
1098.877 .0245123
1099.461 .0245369
1100.046 .0245626
1100.630 .0245896
1101.215 .0246180
1101.800 .0246480
1102.385 .0246795
1102.970 .0247122
1103.556 .0247461
1104.142 .0247809
1104.728 .0248163
1105.315 .0248523
1105.902 .0248887
1106.489 .0249256
1107.077 .0249628
1107.664 .0250005
1108.253 .0250386
1108.841 .0250768
1109.430 .0251153
1110.019 .0251540
1110.609 .0251928
1111.198 .0252318
1111.789 .0252713
1112.379 .0253114
1112.970 .0253525
1113.561 .0253947
1114.153 .0254382
1114.745 .0254833
1115.338 .0255300
1115.931 .0255782
1116.524 .0256278
1117.117 .0256785
1117.712 .0257300
1118.306 .0257820
1118.901 .0258344
1119.496 .0258869
1120.092 .0259397
1120.689 .0259924
1121.285 .0260452
1121.882 .0260980
1122.480 .0261511
1123.078 .0262043
1123.677 .0262580
1124.276 .0263121
1124.875 .0263667
1125.476 .0264221
1126.076 .0264785
1126.677 .0265362
1127.279 .0265956
1127.881 .0266574
1128.484 .0267219
1129.087 .0267534
1129.691 .0268216
1130.295 .0268934
1130.900 .0269695
1131.505 .0270498
1132.111 .0271353
1132.718 .0272263
1133.325 .0273241
1133.933 .0274287
1134.541 .0275349
1135.150 .0276586
1135.760 .0277892
1136.370 .0279394
1136.981 .0276659
1137.592 .0278084
1138.204 .0279697
1138.817 .0281507
1139.431 .0283437
1140.045 .0285607
1140.660 .0287938
1141.275 .0290581
1141.891 .0293295
1142.508 .0294466
1143.126 .0300074
1143.744 .0302648
1144.363 .0308736
1144.983 .0306908
