Measurement Sequence started on: 15-12-46-377
Integration time: 28
Scans to Average: 2 
>>>>>Begin Spectral Data<<<<<
432.689 .0000100
433.621 .0000100
434.552 .0000100
435.482 .0000100
436.410 .0000100
437.337 .0000100
438.262 .0248092
439.187 .0524774
440.110 .0869558
441.031 .1259052
441.952 .1014396
442.871 .1060088
443.789 .1102769
444.705 .1143101
445.621 .1181540
446.535 .1218421
447.447 .1240926
448.359 .1247709
449.269 .1235319
450.178 .1201491
451.086 .1146899
451.993 .1075811
452.898 .0995350
453.803 .0913605
454.706 .0837491
455.608 .0771323
456.508 .0716573
457.408 .0679637
458.306 .0651286
459.204 .0628236
460.100 .0608806
460.995 .0592021
461.888 .0577238
462.781 .0564023
463.673 .0552073
464.563 .0541186
465.452 .0531233
466.340 .0522112
467.228 .0513761
468.114 .0506115
468.999 .0499122
469.882 .0492727
470.765 .0486882
471.647 .0481542
472.528 .0476669
473.407 .0472226
474.286 .0468183
475.163 .0464520
476.040 .0461222
476.915 .0458278
477.790 .0455674
478.663 .0453397
479.535 .0451435
480.407 .0449769
481.277 .0448375
482.147 .0447225
483.015 .0446296
483.883 .0445557
484.749 .0444980
485.615 .0444537
486.479 .0444205
487.343 .0443968
488.206 .0443821
489.067 .0443762
489.928 .0443799
490.788 .0443954
491.647 .0444243
492.505 .0444684
493.362 .0445293
494.218 .0446074
495.073 .0447033
495.928 .0449129
496.781 .0450580
497.634 .0452235
498.486 .0454115
499.337 .0456246
500.187 .0458661
501.036 .0461401
501.884 .0464511
502.731 .0468043
503.578 .0472051
504.424 .0475082
505.268 .0479979
506.113 .0485502
506.956 .0491712
507.798 .0498672
508.640 .0506457
509.480 .0515151
510.320 .0524848
511.160 .0535661
511.998 .0547717
512.836 .0561168
513.672 .0576200
514.508 .0593016
515.344 .0611841
516.178 .0632888
517.012 .0656393
517.845 .0682556
518.677 .0711562
519.508 .0743507
520.339 .0778405
521.169 .0816185
521.998 .0856558
522.826 .0899094
523.654 .0943230
524.481 .0988272
525.307 .1033471
526.133 .1077976
526.958 .1120902
527.782 .1161379
528.605 .1198606
529.428 .1231846
530.250 .1260460
531.072 .1283958
531.892 .1301960
532.712 .1314197
533.532 .1320554
534.350 .1320971
535.168 .1315506
535.986 .1304269
536.802 .1287408
537.618 .1265112
538.434 .1237622
539.249 .1205372
540.063 .1168922
540.876 .1128929
541.689 .1086167
542.501 .1041434
543.313 .0995595
544.124 .0949530
544.934 .0904086
545.744 .0860008
546.553 .0817953
547.361 .0778447
548.169 .0741829
548.976 .0708306
549.783 .0677936
550.589 .0650633
551.395 .0626222
552.200 .0604442
553.004 .0584982
553.808 .0567560
554.611 .0551930
555.414 .0537863
556.216 .0525166
557.018 .0513638
557.819 .0503119
558.619 .0493457
559.419 .0484527
560.218 .0476233
561.017 .0468491
561.815 .0461221
562.613 .0454363
563.410 .0447861
564.207 .0441672
565.003 .0435749
565.799 .0430053
566.594 .0424557
567.388 .0419237
568.182 .0414072
568.976 .0409041
569.769 .0404138
570.562 .0399368
571.354 .0394734
572.145 .0390247
572.936 .0385912
573.727 .0381734
574.517 .0377716
575.307 .0373858
576.096 .0370159
576.885 .0366613
577.673 .0363218
578.461 .0359973
579.248 .0356878
580.035 .0353934
580.821 .0351141
581.607 .0348502
582.392 .0346015
583.177 .0343674
583.962 .0341471
584.746 .0339399
585.529 .0337450
586.313 .0335619
587.095 .0333900
587.878 .0332292
588.660 .0330789
589.441 .0329391
590.222 .0328093
591.003 .0326893
591.783 .0325786
592.563 .0324763
593.342 .0323816
594.121 .0322937
594.899 .0322119
595.678 .0321354
596.455 .0320638
597.233 .0319967
598.009 .0319335
598.786 .0318740
599.562 .0318179
600.338 .0317649
601.113 .0317145
601.888 .0316472
602.663 .0316028
603.437 .0315606
604.211 .0315204
604.984 .0314821
605.757 .0314456
606.530 .0314108
607.302 .0313774
608.074 .0313455
608.845 .0313151
609.616 .0312862
610.387 .0312755
611.158 .0312491
611.928 .0312244
612.697 .0312013
613.467 .0311798
614.236 .0311598
615.004 .0311413
615.773 .0311239
616.541 .0311075
617.308 .0310920
618.076 .0310772
618.843 .0310629
619.609 .0310489
620.375 .0310351
621.141 .0310214
621.907 .0310075
622.672 .0309933
623.437 .0309788
624.202 .0309638
624.966 .0309481
625.730 .0309318
626.493 .0309146
627.257 .0308965
628.020 .0308773
628.782 .0308570
629.545 .0308355
630.307 .0308128
631.068 .0307889
631.830 .0307640
632.591 .0307381
633.352 .0307114
634.112 .0306842
634.872 .0306564
635.632 .0306283
636.392 .0306000
637.151 .0305716
637.910 .0305432
638.668 .0305150
639.427 .0304872
640.185 .0304597
640.943 .0304328
641.700 .0304065
642.457 .0303809
643.214 .0303562
643.971 .0303322
644.727 .0303091
645.483 .0302869
646.239 .0302656
646.994 .0302451
647.750 .0302256
648.505 .0302068
649.259 .0301887
650.014 .0301711
650.768 .0301539
651.521 .0301370
652.275 .0301203
653.028 .0301036
653.781 .0300869
654.534 .0300701
655.286 .0300531
656.039 .0300358
656.791 .0300183
657.542 .0300006
658.294 .0299826
659.045 .0299643
659.796 .0299457
660.546 .0299268
661.297 .0299077
662.047 .0298885
662.796 .0298691
663.546 .0298495
664.295 .0298299
665.044 .0298102
665.793 .0297904
666.542 .0297709
667.290 .0297514
668.038 .0297322
668.786 .0297133
669.533 .0296946
670.281 .0296763
671.028 .0296583
671.774 .0296407
672.521 .0296233
673.267 .0296064
674.013 .0295897
674.759 .0295734
675.505 .0295573
676.250 .0295413
676.995 .0295256
677.740 .0295098
678.484 .0294941
679.229 .0294784
679.973 .0294626
680.717 .0294468
681.460 .0294310
682.204 .0294153
682.947 .0293995
683.690 .0293839
684.433 .0293682
685.175 .0293527
685.917 .0293373
686.659 .0293220
687.401 .0293069
688.142 .0292921
688.884 .0292774
689.625 .0292630
690.365 .0292488
691.106 .0292348
691.846 .0292209
692.586 .0292071
693.326 .0291935
694.066 .0291799
694.805 .0291666
695.545 .0291533
696.284 .0291402
697.022 .0291272
697.761 .0291142
698.499 .0291012
699.237 .0290880
699.975 .0290747
700.713 .0290613
701.450 .0290477
702.187 .0290340
702.924 .0290202
703.661 .0290063
704.397 .0289924
705.133 .0289785
705.869 .0289645
706.605 .0289503
707.341 .0289360
708.076 .0289216
708.811 .0289071
709.546 .0288925
710.281 .0288777
711.015 .0288628
711.749 .0288477
712.483 .0288323
713.217 .0288168
713.950 .0288010
714.684 .0287849
715.417 .0287686
716.150 .0287521
716.882 .0287354
717.615 .0287185
718.347 .0287014
719.079 .0286842
719.811 .0286667
720.542 .0286490
721.273 .0286311
722.005 .0286130
722.735 .0285948
723.466 .0285766
724.196 .0285583
724.927 .0285402
725.656 .0285222
726.386 .0285045
727.116 .0284870
727.845 .0284698
728.574 .0284531
729.303 .0284368
730.031 .0284209
730.760 .0284055
731.488 .0283906
732.216 .0283762
732.944 .0283623
733.671 .0283487
734.398 .0283355
735.125 .0283226
735.852 .0283101
736.579 .0282980
737.305 .0282862
738.031 .0282748
738.757 .0282636
739.483 .0282527
740.208 .0282421
740.933 .0282317
741.658 .0282216
742.383 .0282117
743.108 .0282019
743.832 .0281924
744.556 .0281830
745.280 .0281737
746.004 .0281646
746.727 .0281555
747.450 .0281464
748.173 .0281373
748.896 .0281281
749.618 .0281188
750.340 .0281094
751.062 .0280999
751.784 .0280902
752.506 .0280802
753.227 .0280701
753.948 .0280597
754.669 .0280491
755.389 .0280381
756.110 .0280268
756.830 .0280152
757.550 .0280031
758.269 .0279907
758.989 .0279779
759.708 .0279647
760.427 .0279512
761.146 .0279373
761.864 .0279232
762.582 .0279088
763.300 .0278942
764.018 .0278793
764.736 .0278643
765.453 .0278492
766.170 .0278340
766.887 .0278189
767.603 .0278038
768.320 .0277890
769.036 .0277744
769.751 .0277601
770.467 .0277462
771.182 .0277327
771.897 .0277198
772.612 .0277074
773.327 .0276956
774.041 .0276845
774.755 .0276741
775.469 .0276645
776.183 .0276555
776.896 .0276473
777.609 .0276397
778.322 .0276326
779.035 .0276261
779.747 .0276202
780.459 .0276146
781.171 .0276095
781.882 .0276047
782.594 .0276002
783.305 .0275959
784.016 .0275917
784.726 .0275876
785.436 .0275834
786.147 .0275766
786.856 .0275721
787.566 .0275674
788.275 .0275625
788.984 .0275573
789.693 .0275517
790.401 .0275457
791.110 .0275392
791.818 .0275321
792.525 .0275244
793.233 .0275162
793.940 .0275074
794.647 .0275017
795.353 .0274923
796.060 .0274824
796.766 .0274720
797.472 .0274610
798.177 .0274495
798.883 .0274374
799.588 .0274248
800.292 .0274116
800.997 .0273979
801.701 .0273838
802.405 .0273693
803.109 .0273544
803.812 .0273394
804.515 .0273240
805.218 .0273085
805.921 .0272928
806.623 .0272769
807.325 .0272608
808.027 .0272445
808.728 .0272281
809.429 .0272115
810.130 .0271949
810.831 .0271783
811.531 .0271616
812.231 .0271450
812.931 .0271284
813.630 .0271121
814.330 .0270959
815.029 .0270801
815.727 .0270646
816.426 .0270496
817.124 .0270350
817.821 .0270210
818.519 .0270075
819.216 .0269945
819.913 .0269820
820.609 .0269700
821.306 .0269585
822.002 .0269475
822.697 .0269369
823.393 .0269269
824.088 .0269173
824.783 .0269083
825.477 .0268998
826.171 .0268919
826.865 .0268846
827.559 .0268777
828.252 .0268713
828.945 .0268653
829.638 .0268597
830.330 .0268544
831.023 .0268493
831.714 .0268444
832.406 .0268398
833.097 .0268353
833.788 .0268309
834.479 .0268269
835.169 .0268230
835.859 .0268194
836.548 .0268159
837.238 .0268125
837.927 .0268091
838.615 .0268056
839.304 .0268018
839.992 .0267978
840.680 .0267934
841.367 .0267886
842.054 .0267835
842.741 .0267781
843.428 .0267724
844.114 .0267663
844.800 .0267600
845.485 .0267532
846.170 .0267459
846.855 .0267381
847.540 .0267298
848.224 .0267208
848.908 .0267114
849.592 .0267014
850.275 .0266910
850.958 .0266802
851.641 .0266690
852.323 .0266574
853.005 .0266453
853.687 .0266328
854.368 .0266200
855.049 .0266067
855.730 .0265932
856.410 .0265794
857.090 .0265655
857.769 .0265516
858.449 .0265375
859.128 .0265235
859.806 .0265093
860.485 .0264952
861.163 .0264810
861.840 .0264668
862.518 .0264528
863.195 .0264390
863.871 .0264255
864.548 .0264123
865.224 .0263995
865.899 .0263870
866.574 .0263748
867.249 .0263628
867.924 .0263511
868.598 .0263397
869.272 .0263286
869.946 .0263178
870.619 .0263074
871.292 .0262974
871.964 .0262879
872.636 .0262787
873.308 .0262699
873.979 .0262614
874.651 .0262532
875.321 .0262452
875.992 .0262375
876.662 .0262301
877.331 .0262230
878.001 .0262161
878.670 .0262096
879.338 .0262033
880.007 .0261972
880.675 .0261913
881.342 .0261855
882.009 .0261797
882.676 .0261741
883.343 .0261686
884.009 .0261633
884.675 .0261582
885.340 .0261533
886.005 .0261486
886.670 .0261441
887.334 .0261398
887.998 .0261357
888.662 .0261318
889.325 .0261281
889.988 .0261246
890.650 .0261214
891.312 .0261185
891.974 .0261159
892.636 .0261134
893.297 .0261112
893.957 .0261091
894.618 .0261070
895.278 .0261049
895.937 .0261027
896.596 .0261003
897.255 .0260976
897.914 .0260947
898.572 .0260914
899.230 .0260878
899.887 .0260837
900.544 .0260790
901.201 .0260738
901.857 .0260628
902.513 .0260558
903.168 .0260481
903.823 .0260397
904.478 .0260304
905.132 .0260204
905.786 .0260097
906.440 .0259983
907.093 .0259862
907.746 .0259734
908.399 .0259601
909.051 .0259463
909.703 .0259318
910.354 .0259234
911.005 .0259084
911.656 .0258928
912.306 .0258768
912.956 .0258603
913.605 .0258435
914.254 .0258265
914.903 .0258092
915.551 .0257919
916.199 .0257744
916.847 .0257570
917.494 .0257396
918.141 .0257221
918.788 .0257047
919.434 .0256873
920.079 .0256698
920.725 .0256523
921.370 .0256348
922.014 .0256174
922.658 .0255999
923.302 .0255825
923.946 .0255651
924.589 .0255476
925.231 .0255302
925.873 .0255127
926.515 .0254952
927.157 .0254776
927.798 .0254600
928.439 .0254423
929.079 .0254246
929.719 .0254069
930.359 .0253892
930.998 .0253716
931.637 .0253541
932.275 .0253367
932.913 .0253194
933.551 .0253024
934.188 .0252857
934.825 .0252693
935.462 .0252532
936.098 .0252374
936.733 .0252219
937.369 .0252068
938.004 .0251919
938.638 .0251773
939.273 .0251631
939.907 .0251492
940.540 .0251356
941.173 .0251225
941.806 .0251098
942.438 .0250974
943.070 .0250856
943.702 .0250741
944.333 .0250631
944.964 .0250526
945.594 .0250424
946.224 .0250326
946.854 .0250231
947.483 .0250140
948.112 .0250051
948.741 .0249964
949.369 .0249879
949.996 .0249796
950.624 .0249714
951.251 .0249633
951.878 .0249553
952.504 .0249475
953.130 .0249397
953.755 .0249321
954.380 .0249246
955.005 .0249173
955.629 .0249101
956.253 .0249032
956.877 .0248963
957.500 .0248896
958.123 .0248830
958.746 .0248765
959.368 .0248701
959.990 .0248637
960.611 .0248575
961.232 .0248513
961.853 .0248453
962.473 .0248394
963.093 .0248337
963.712 .0248282
964.331 .0248229
964.950 .0248178
965.569 .0248129
966.187 .0248082
966.804 .0248037
967.422 .0247992
968.039 .0247949
968.655 .0247906
969.272 .0247863
969.887 .0247821
970.503 .0247778
971.118 .0247735
971.733 .0247691
972.347 .0247645
972.961 .0247597
973.575 .0247546
974.188 .0247494
974.801 .0247438
975.414 .0247380
976.026 .0247319
976.638 .0247255
977.250 .0247187
977.861 .0247116
978.472 .0247040
979.083 .0246961
979.693 .0246878
980.303 .0246790
980.912 .0246642
981.521 .0246548
982.130 .0246450
982.738 .0246351
983.346 .0246249
983.954 .0246145
984.562 .0246039
985.169 .0245932
985.775 .0245823
986.382 .0245714
986.988 .0245606
987.594 .0245499
988.199 .0245394
988.804 .0245294
989.409 .0245256
990.013 .0245167
990.617 .0245084
991.221 .0245008
991.824 .0244939
992.427 .0244879
993.030 .0244825
993.632 .0244779
994.234 .0244741
994.836 .0244709
995.438 .0244684
996.039 .0244666
996.640 .0244654
997.240 .0244649
997.840 .0244651
998.440 .0244657
999.040 .0244670
999.639 .0244687
1000.238 .0244709
1000.836 .0244736
1001.435 .0244767
1002.033 .0244803
1002.630 .0244842
1003.228 .0244884
1003.825 .0244929
1004.422 .0244975
1005.018 .0245022
1005.614 .0245069
1006.210 .0245116
1006.806 .0245161
1007.401 .0245206
1007.996 .0245249
1008.591 .0245291
1009.186 .0245332
1009.780 .0245371
1010.374 .0245407
1010.967 .0245442
1011.561 .0245475
1012.154 .0245506
1012.746 .0245537
1013.339 .0245567
1013.931 .0245598
1014.523 .0245629
1015.115 .0245663
1015.706 .0245699
1016.298 .0245737
1016.888 .0245778
1017.479 .0245822
1018.069 .0245868
1018.660 .0245917
1019.250 .0245969
1019.839 .0246025
1020.429 .0246085
1021.018 .0246149
1021.607 .0246217
1022.195 .0246291
1022.784 .0246369
1023.372 .0246452
1023.960 .0246538
1024.547 .0246629
1025.135 .0246722
1025.722 .0246817
1026.309 .0246913
1026.896 .0247010
1027.483 .0247106
1028.069 .0247203
1028.655 .0247298
1029.241 .0247393
1029.827 .0247486
1030.412 .0247578
1030.997 .0247669
1031.582 .0247758
1032.167 .0247844
1032.752 .0247928
1033.336 .0248009
1033.921 .0248087
1034.505 .0248162
1035.089 .0248233
1035.672 .0248301
1036.256 .0248365
1036.839 .0248426
1037.422 .0248482
1038.005 .0248535
1038.588 .0248582
1039.171 .0248625
1039.753 .0248661
1040.335 .0248690
1040.918 .0248712
1041.500 .0248727
1042.081 .0248737
1042.663 .0248741
1043.244 .0248741
1043.826 .0248739
1044.407 .0248737
1044.988 .0248735
1045.569 .0248735
1046.150 .0248738
1046.730 .0248743
1047.311 .0248751
1047.891 .0248762
1048.471 .0248774
1049.052 .0248789
1049.632 .0248806
1050.211 .0248826
1050.791 .0248848
1051.371 .0248872
1051.950 .0248897
1052.530 .0248924
1053.109 .0248952
1053.688 .0248980
1054.268 .0249007
1054.847 .0249032
1055.426 .0249057
1056.005 .0249081
1056.583 .0249104
1057.162 .0249129
1057.741 .0249154
1058.319 .0249180
1058.898 .0249208
1059.476 .0249235
1060.055 .0249261
1060.633 .0249285
1061.211 .0249307
1061.790 .0249324
1062.368 .0249336
1062.946 .0249342
1063.524 .0249341
1064.102 .0249334
1064.680 .0249320
1065.258 .0249298
1065.836 .0249268
1066.414 .0249231
1066.992 .0249186
1067.570 .0249134
1068.148 .0249078
1068.726 .0249018
1069.304 .0248956
1069.882 .0248894
1070.460 .0248833
1071.038 .0248776
1071.616 .0248723
1072.194 .0248676
1072.772 .0248634
1073.350 .0248599
1073.928 .0248569
1074.506 .0248546
1075.084 .0248528
1075.662 .0248514
1076.240 .0248505
1076.819 .0248500
1077.397 .0248498
1077.976 .0248501
1078.554 .0248510
1079.133 .0248523
1079.711 .0248542
1080.290 .0248566
1080.869 .0248596
1081.448 .0248629
1082.027 .0248664
1082.606 .0248700
1083.185 .0248736
1083.764 .0248772
1084.343 .0248809
1084.923 .0248849
1085.502 .0248892
1086.082 .0248940
1086.662 .0248994
1087.242 .0249055
1087.822 .0249120
1088.402 .0249190
1088.983 .0249262
1089.563 .0249333
1090.144 .0249404
1090.725 .0249473
1091.306 .0249543
1091.887 .0249613
1092.469 .0249686
1093.050 .0249764
1093.632 .0249847
1094.214 .0249937
1094.796 .0250031
1095.379 .0250131
1095.961 .0250234
1096.544 .0250340
1097.127 .0250449
1097.710 .0250561
1098.294 .0250679
1098.877 .0250803
1099.461 .0250938
1100.046 .0251083
1100.630 .0251240
1101.215 .0251408
1101.800 .0251586
1102.385 .0251771
1102.970 .0251960
1103.556 .0252153
1104.142 .0252346
1104.728 .0252540
1105.315 .0252736
1105.902 .0252935
1106.489 .0253140
1107.077 .0253353
1107.664 .0253574
1108.253 .0253804
1108.841 .0254044
1109.430 .0254291
1110.019 .0254548
1110.609 .0254815
1111.198 .0255092
1111.789 .0255383
1112.379 .0255687
1112.970 .0256006
1113.561 .0256341
1114.153 .0256690
1114.745 .0257055
1115.338 .0257433
1115.931 .0257822
1116.524 .0258218
1117.117 .0258621
1117.712 .0259028
1118.306 .0259439
1118.901 .0259852
1119.496 .0260268
1120.092 .0260688
1120.689 .0261114
1121.285 .0261548
1121.882 .0261992
1122.480 .0262451
1123.078 .0262927
1123.677 .0263424
1124.276 .0263945
1124.875 .0264492
1125.476 .0265066
1126.076 .0265668
1126.677 .0266299
1127.279 .0266958
1127.881 .0267644
1128.484 .0268354
1129.087 .0268638
1129.691 .0269376
1130.295 .0270136
1130.900 .0270918
1131.505 .0271721
1132.111 .0272545
1132.718 .0273393
1133.325 .0274263
1133.933 .0275155
1134.541 .0276088
1135.150 .0276993
1135.760 .0278047
1136.370 .0279063
1136.981 .0280428
1137.592 .0281672
1138.204 .0282895
1138.817 .0284100
1139.431 .0285292
1140.045 .0286430
1140.660 .0287607
1141.275 .0288732
1141.891 .0289729
1142.508 .0291262
1143.126 .0290826
1143.744 .0295338
1144.363 .0294637
1144.983 .0291703
