Measurement Sequence started on: 15-12-46-377
Integration time: 28
Scans to Average: 2 
>>>>>Begin Spectral Data<<<<<
432.689 .0000100
433.621 .0000100
434.552 .0000100
435.482 .0000100
436.410 .0000100
437.337 .0000100
438.262 .0266807
439.187 .0564167
440.110 .0933261
441.031 .1348729
441.952 .1074184
442.871 .1121378
443.789 .1165325
444.705 .1206701
445.621 .1245970
446.535 .1283476
447.447 .1305445
448.359 .1310476
449.269 .1294971
450.178 .1256640
451.086 .1196276
451.993 .1118558
452.898 .1031190
453.803 .0942866
454.706 .0860940
455.608 .0789937
456.508 .0731325
457.408 .0691898
458.306 .0661667
459.204 .0637064
460.100 .0616313
460.995 .0598457
461.888 .0582852
462.781 .0569064
463.673 .0556778
464.563 .0545770
465.452 .0535854
466.340 .0526873
467.228 .0518703
468.114 .0511247
468.999 .0504432
469.882 .0498193
470.765 .0492480
471.647 .0487262
472.528 .0482520
473.407 .0478228
474.286 .0474376
475.163 .0470955
476.040 .0467941
476.915 .0465322
477.790 .0463068
478.663 .0461150
479.535 .0459539
480.407 .0458203
481.277 .0457106
482.147 .0456222
483.015 .0455535
483.883 .0455025
484.749 .0454680
485.615 .0454499
486.479 .0454474
487.343 .0454602
488.206 .0454886
489.067 .0455313
489.928 .0455880
490.788 .0456584
491.647 .0457414
492.505 .0458373
493.362 .0459469
494.218 .0460714
495.073 .0462126
495.928 .0464960
496.781 .0466916
497.634 .0469105
498.486 .0471541
499.337 .0474228
500.187 .0477180
501.036 .0480409
501.884 .0483930
502.731 .0487776
503.578 .0491979
504.424 .0494867
505.268 .0499737
506.113 .0505076
506.956 .0510932
507.798 .0517356
508.640 .0524417
509.480 .0532201
510.320 .0540809
511.160 .0550352
511.998 .0560967
512.836 .0572834
513.672 .0586129
514.508 .0601056
515.344 .0617838
516.178 .0636702
517.012 .0657893
517.845 .0681641
518.677 .0708147
519.508 .0737580
520.339 .0770013
521.169 .0805424
521.998 .0843560
522.826 .0884061
523.654 .0926366
524.481 .0969798
525.307 .1013601
526.133 .1056922
526.958 .1098860
527.782 .1138590
528.605 .1175325
529.428 .1208377
530.250 .1237120
531.072 .1261127
531.892 .1280027
532.712 .1293599
533.532 .1301688
534.350 .1304214
535.168 .1301178
535.986 .1292635
536.802 .1278616
537.618 .1259229
538.434 .1234652
539.249 .1205279
540.063 .1171587
540.876 .1134242
541.689 .1093999
542.501 .1051684
543.313 .1008171
544.124 .0964350
544.934 .0920997
545.744 .0878824
546.553 .0838410
547.361 .0800228
548.169 .0764549
548.976 .0731574
549.783 .0701338
550.589 .0673803
551.395 .0648836
552.200 .0626230
553.004 .0605742
553.808 .0587179
554.611 .0570334
555.414 .0555028
556.216 .0541078
557.018 .0528325
557.819 .0516619
558.619 .0505839
559.419 .0495861
560.218 .0486596
561.017 .0477959
561.815 .0469889
562.613 .0462333
563.410 .0455243
564.207 .0448571
565.003 .0442276
565.799 .0436305
566.594 .0430610
567.388 .0425148
568.182 .0419887
568.976 .0414792
569.769 .0409841
570.562 .0405021
571.354 .0400323
572.145 .0395746
572.936 .0391298
573.727 .0386979
574.517 .0382792
575.307 .0378740
576.096 .0374825
576.885 .0371049
577.673 .0367422
578.461 .0363947
579.248 .0360633
580.035 .0357485
580.821 .0354507
581.607 .0351705
582.392 .0349081
583.177 .0346636
583.962 .0344365
584.746 .0342263
585.529 .0340324
586.313 .0338538
587.095 .0336896
587.878 .0335390
588.660 .0334009
589.441 .0332745
590.222 .0331585
591.003 .0330520
591.783 .0329540
592.563 .0328631
593.342 .0327783
594.121 .0326985
594.899 .0326229
595.678 .0325508
596.455 .0324818
597.233 .0324158
598.009 .0323525
598.786 .0322918
599.562 .0322337
600.338 .0321779
601.113 .0321244
601.888 .0320511
602.663 .0320023
603.437 .0319553
604.211 .0319098
604.984 .0318659
605.757 .0318234
606.530 .0317824
607.302 .0317430
608.074 .0317049
608.845 .0316683
609.616 .0316331
610.387 .0316187
611.158 .0315855
611.928 .0315537
612.697 .0315232
613.467 .0314941
614.236 .0314663
615.004 .0314396
615.773 .0314141
616.541 .0313896
617.308 .0313660
618.076 .0313433
618.843 .0313214
619.609 .0313003
620.375 .0312800
621.141 .0312603
621.907 .0312413
622.672 .0312228
623.437 .0312045
624.202 .0311864
624.966 .0311681
625.730 .0311497
626.493 .0311308
627.257 .0311116
628.020 .0310918
628.782 .0310716
629.545 .0310508
630.307 .0310296
631.068 .0310080
631.830 .0309859
632.591 .0309633
633.352 .0309402
634.112 .0309166
634.872 .0308925
635.632 .0308681
636.392 .0308434
637.151 .0308184
637.910 .0307933
638.668 .0307681
639.427 .0307429
640.185 .0307177
640.943 .0306926
641.700 .0306675
642.457 .0306427
643.214 .0306181
643.971 .0305937
644.727 .0305696
645.483 .0305457
646.239 .0305221
646.994 .0304986
647.750 .0304751
648.505 .0304516
649.259 .0304279
650.014 .0304041
650.768 .0303802
651.521 .0303561
652.275 .0303319
653.028 .0303077
653.781 .0302833
654.534 .0302587
655.286 .0302340
656.039 .0302091
656.791 .0301840
657.542 .0301587
658.294 .0301333
659.045 .0301079
659.796 .0300826
660.546 .0300575
661.297 .0300327
662.047 .0300082
662.796 .0299841
663.546 .0299603
664.295 .0299370
665.044 .0299140
665.793 .0298915
666.542 .0298695
667.290 .0298479
668.038 .0298268
668.786 .0298062
669.533 .0297861
670.281 .0297663
671.028 .0297470
671.774 .0297279
672.521 .0297091
673.267 .0296905
674.013 .0296719
674.759 .0296534
675.505 .0296349
676.250 .0296164
676.995 .0295977
677.740 .0295791
678.484 .0295603
679.229 .0295416
679.973 .0295228
680.717 .0295042
681.460 .0294856
682.204 .0294671
682.947 .0294488
683.690 .0294305
684.433 .0294122
685.175 .0293939
685.917 .0293755
686.659 .0293571
687.401 .0293386
688.142 .0293200
688.884 .0293014
689.625 .0292827
690.365 .0292639
691.106 .0292450
691.846 .0292261
692.586 .0292070
693.326 .0291878
694.066 .0291684
694.805 .0291489
695.545 .0291292
696.284 .0291093
697.022 .0290894
697.761 .0290692
698.499 .0290490
699.237 .0290288
699.975 .0290086
700.713 .0289885
701.450 .0289685
702.187 .0289488
702.924 .0289292
703.661 .0289097
704.397 .0288904
705.133 .0288712
705.869 .0288520
706.605 .0288330
707.341 .0288140
708.076 .0287953
708.811 .0287768
709.546 .0287585
710.281 .0287406
711.015 .0287230
711.749 .0287057
712.483 .0286886
713.217 .0286717
713.950 .0286549
714.684 .0286381
715.417 .0286215
716.150 .0286049
716.882 .0285882
717.615 .0285716
718.347 .0285547
719.079 .0285377
719.811 .0285205
720.542 .0285029
721.273 .0284850
722.005 .0284667
722.735 .0284482
723.466 .0284293
724.196 .0284101
724.927 .0283907
725.656 .0283711
726.386 .0283514
727.116 .0283316
727.845 .0283117
728.574 .0282918
729.303 .0282719
730.031 .0282522
730.760 .0282325
731.488 .0282131
732.216 .0281939
732.944 .0281750
733.671 .0281564
734.398 .0281382
735.125 .0281205
735.852 .0281035
736.579 .0280871
737.305 .0280715
738.031 .0280567
738.757 .0280426
739.483 .0280293
740.208 .0280167
740.933 .0280048
741.658 .0279934
742.383 .0279825
743.108 .0279721
743.832 .0279622
744.556 .0279528
745.280 .0279438
746.004 .0279352
746.727 .0279269
747.450 .0279187
748.173 .0279106
748.896 .0279023
749.618 .0278938
750.340 .0278850
751.062 .0278759
751.784 .0278664
752.506 .0278565
753.227 .0278462
753.948 .0278356
754.669 .0278247
755.389 .0278135
756.110 .0278020
756.830 .0277904
757.550 .0277784
758.269 .0277663
758.989 .0277539
759.708 .0277411
760.427 .0277281
761.146 .0277147
761.864 .0277010
762.582 .0276871
763.300 .0276730
764.018 .0276588
764.736 .0276445
765.453 .0276304
766.170 .0276162
766.887 .0276022
767.603 .0275882
768.320 .0275742
769.036 .0275604
769.751 .0275467
770.467 .0275331
771.182 .0275198
771.897 .0275067
772.612 .0274940
773.327 .0274817
774.041 .0274697
774.755 .0274582
775.469 .0274471
776.183 .0274364
776.896 .0274262
777.609 .0274164
778.322 .0274071
779.035 .0273983
779.747 .0273900
780.459 .0273821
781.171 .0273746
781.882 .0273675
782.594 .0273607
783.305 .0273543
784.016 .0273482
784.726 .0273423
785.436 .0273366
786.147 .0273284
786.856 .0273228
787.566 .0273171
788.275 .0273113
788.984 .0273052
789.693 .0272988
790.401 .0272921
791.110 .0272850
791.818 .0272774
792.525 .0272695
793.233 .0272611
793.940 .0272522
794.647 .0272464
795.353 .0272370
796.060 .0272273
796.766 .0272173
797.472 .0272069
798.177 .0271963
798.883 .0271855
799.588 .0271744
800.292 .0271631
800.997 .0271516
801.701 .0271399
802.405 .0271279
803.109 .0271157
803.812 .0271032
804.515 .0270905
805.218 .0270775
805.921 .0270642
806.623 .0270507
807.325 .0270369
808.027 .0270228
808.728 .0270085
809.429 .0269939
810.130 .0269791
810.831 .0269642
811.531 .0269491
812.231 .0269339
812.931 .0269187
813.630 .0269034
814.330 .0268882
815.029 .0268731
815.727 .0268580
816.426 .0268432
817.124 .0268284
817.821 .0268138
818.519 .0267994
819.216 .0267852
819.913 .0267711
820.609 .0267573
821.306 .0267438
822.002 .0267305
822.697 .0267175
823.393 .0267049
824.088 .0266927
824.783 .0266809
825.477 .0266694
826.171 .0266582
826.865 .0266473
827.559 .0266367
828.252 .0266262
828.945 .0266159
829.638 .0266057
830.330 .0265957
831.023 .0265857
831.714 .0265757
832.406 .0265658
833.097 .0265560
833.788 .0265462
834.479 .0265364
835.169 .0265265
835.859 .0265166
836.548 .0265067
837.238 .0264967
837.927 .0264866
838.615 .0264765
839.304 .0264662
839.992 .0264559
840.680 .0264454
841.367 .0264348
842.054 .0264241
842.741 .0264132
843.428 .0264023
844.114 .0263912
844.800 .0263800
845.485 .0263686
846.170 .0263570
846.855 .0263451
847.540 .0263330
848.224 .0263204
848.908 .0263073
849.592 .0262938
850.275 .0262798
850.958 .0262654
851.641 .0262506
852.323 .0262355
853.005 .0262201
853.687 .0262045
854.368 .0261886
855.049 .0261725
855.730 .0261563
856.410 .0261399
857.090 .0261234
857.769 .0261070
858.449 .0260906
859.128 .0260743
859.806 .0260582
860.485 .0260424
861.163 .0260268
861.840 .0260115
862.518 .0259965
863.195 .0259819
863.871 .0259676
864.548 .0259537
865.224 .0259401
865.899 .0259270
866.574 .0259142
867.249 .0259018
867.924 .0258897
868.598 .0258777
869.272 .0258660
869.946 .0258544
870.619 .0258430
871.292 .0258318
871.964 .0258208
872.636 .0258102
873.308 .0257998
873.979 .0257899
874.651 .0257802
875.321 .0257709
875.992 .0257618
876.662 .0257529
877.331 .0257441
878.001 .0257356
878.670 .0257274
879.338 .0257194
880.007 .0257118
880.675 .0257045
881.342 .0256976
882.009 .0256911
882.676 .0256850
883.343 .0256792
884.009 .0256738
884.675 .0256688
885.340 .0256644
886.005 .0256604
886.670 .0256569
887.334 .0256539
887.998 .0256513
888.662 .0256492
889.325 .0256473
889.988 .0256457
890.650 .0256443
891.312 .0256430
891.974 .0256419
892.636 .0256410
893.297 .0256402
893.957 .0256395
894.618 .0256388
895.278 .0256382
895.937 .0256374
896.596 .0256365
897.255 .0256354
897.914 .0256339
898.572 .0256320
899.230 .0256296
899.887 .0256268
900.544 .0256236
901.201 .0256198
901.857 .0256115
902.513 .0256062
903.168 .0256003
903.823 .0255937
904.478 .0255865
905.132 .0255785
905.786 .0255699
906.440 .0255607
907.093 .0255509
907.746 .0255406
908.399 .0255298
909.051 .0255187
909.703 .0255073
910.354 .0255011
911.005 .0254897
911.656 .0254783
912.306 .0254668
912.956 .0254555
913.605 .0254443
914.254 .0254333
914.903 .0254226
915.551 .0254122
916.199 .0254021
916.847 .0253922
917.494 .0253824
918.141 .0253728
918.788 .0253633
919.434 .0253538
920.079 .0253443
920.725 .0253349
921.370 .0253255
922.014 .0253161
922.658 .0253067
923.302 .0252972
923.946 .0252876
924.589 .0252779
925.231 .0252679
925.873 .0252577
926.515 .0252473
927.157 .0252365
927.798 .0252254
928.439 .0252141
929.079 .0252025
929.719 .0251908
930.359 .0251788
930.998 .0251667
931.637 .0251544
932.275 .0251419
932.913 .0251294
933.551 .0251168
934.188 .0251043
934.825 .0250918
935.462 .0250795
936.098 .0250674
936.733 .0250556
937.369 .0250442
938.004 .0250332
938.638 .0250227
939.273 .0250126
939.907 .0250030
940.540 .0249940
941.173 .0249855
941.806 .0249775
942.438 .0249702
943.070 .0249633
943.702 .0249570
944.333 .0249511
944.964 .0249456
945.594 .0249404
946.224 .0249353
946.854 .0249303
947.483 .0249253
948.112 .0249202
948.741 .0249151
949.369 .0249099
949.996 .0249047
950.624 .0248995
951.251 .0248941
951.878 .0248887
952.504 .0248831
953.130 .0248773
953.755 .0248713
954.380 .0248651
955.005 .0248587
955.629 .0248521
956.253 .0248454
956.877 .0248386
957.500 .0248318
958.123 .0248249
958.746 .0248179
959.368 .0248109
959.990 .0248038
960.611 .0247965
961.232 .0247891
961.853 .0247817
962.473 .0247742
963.093 .0247667
963.712 .0247593
964.331 .0247519
964.950 .0247447
965.569 .0247375
966.187 .0247303
966.804 .0247232
967.422 .0247160
968.039 .0247088
968.655 .0247015
969.272 .0246941
969.887 .0246866
970.503 .0246790
971.118 .0246712
971.733 .0246633
972.347 .0246551
972.961 .0246466
973.575 .0246377
974.188 .0246284
974.801 .0246187
975.414 .0246086
976.026 .0245982
976.638 .0245875
977.250 .0245767
977.861 .0245656
978.472 .0245545
979.083 .0245432
979.693 .0245319
980.303 .0245205
980.912 .0245033
981.521 .0244921
982.130 .0244810
982.738 .0244700
983.346 .0244592
983.954 .0244484
984.562 .0244378
985.169 .0244273
985.775 .0244168
986.382 .0244065
986.988 .0243964
987.594 .0243864
988.199 .0243767
988.804 .0243673
989.409 .0243636
990.013 .0243546
990.617 .0243460
991.221 .0243378
991.824 .0243298
992.427 .0243220
993.030 .0243145
993.632 .0243071
994.234 .0242997
994.836 .0242925
995.438 .0242853
996.039 .0242783
996.640 .0242712
997.240 .0242643
997.840 .0242573
998.440 .0242504
999.040 .0242434
999.639 .0242363
1000.238 .0242290
1000.836 .0242216
1001.435 .0242140
1002.033 .0242064
1002.630 .0241987
1003.228 .0241911
1003.825 .0241836
1004.422 .0241763
1005.018 .0241692
1005.614 .0241622
1006.210 .0241554
1006.806 .0241487
1007.401 .0241420
1007.996 .0241353
1008.591 .0241287
1009.186 .0241221
1009.780 .0241156
1010.374 .0241091
1010.967 .0241029
1011.561 .0240970
1012.154 .0240913
1012.746 .0240860
1013.339 .0240810
1013.931 .0240763
1014.523 .0240718
1015.115 .0240677
1015.706 .0240638
1016.298 .0240602
1016.888 .0240569
1017.479 .0240540
1018.069 .0240515
1018.660 .0240494
1019.250 .0240479
1019.839 .0240469
1020.429 .0240464
1021.018 .0240464
1021.607 .0240467
1022.195 .0240473
1022.784 .0240481
1023.372 .0240491
1023.960 .0240503
1024.547 .0240518
1025.135 .0240535
1025.722 .0240556
1026.309 .0240580
1026.896 .0240607
1027.483 .0240638
1028.069 .0240671
1028.655 .0240704
1029.241 .0240738
1029.827 .0240771
1030.412 .0240802
1030.997 .0240831
1031.582 .0240859
1032.167 .0240887
1032.752 .0240913
1033.336 .0240938
1033.921 .0240963
1034.505 .0240985
1035.089 .0241006
1035.672 .0241022
1036.256 .0241035
1036.839 .0241042
1037.422 .0241045
1038.005 .0241043
1038.588 .0241037
1039.171 .0241028
1039.753 .0241017
1040.335 .0241003
1040.918 .0240987
1041.500 .0240969
1042.081 .0240949
1042.663 .0240928
1043.244 .0240905
1043.826 .0240882
1044.407 .0240859
1044.988 .0240837
1045.569 .0240817
1046.150 .0240799
1046.730 .0240784
1047.311 .0240772
1047.891 .0240761
1048.471 .0240750
1049.052 .0240741
1049.632 .0240730
1050.211 .0240720
1050.791 .0240709
1051.371 .0240699
1051.950 .0240688
1052.530 .0240676
1053.109 .0240663
1053.688 .0240650
1054.268 .0240636
1054.847 .0240620
1055.426 .0240604
1056.005 .0240588
1056.583 .0240572
1057.162 .0240558
1057.741 .0240546
1058.319 .0240536
1058.898 .0240529
1059.476 .0240523
1060.055 .0240519
1060.633 .0240514
1061.211 .0240510
1061.790 .0240504
1062.368 .0240498
1062.946 .0240491
1063.524 .0240483
1064.102 .0240473
1064.680 .0240463
1065.258 .0240452
1065.836 .0240441
1066.414 .0240430
1066.992 .0240418
1067.570 .0240406
1068.148 .0240395
1068.726 .0240384
1069.304 .0240374
1069.882 .0240366
1070.460 .0240359
1071.038 .0240353
1071.616 .0240348
1072.194 .0240344
1072.772 .0240341
1073.350 .0240339
1073.928 .0240337
1074.506 .0240337
1075.084 .0240337
1075.662 .0240340
1076.240 .0240344
1076.819 .0240350
1077.397 .0240359
1077.976 .0240372
1078.554 .0240388
1079.133 .0240408
1079.711 .0240433
1080.290 .0240462
1080.869 .0240495
1081.448 .0240532
1082.027 .0240572
1082.606 .0240614
1083.185 .0240658
1083.764 .0240703
1084.343 .0240749
1084.923 .0240796
1085.502 .0240843
1086.082 .0240892
1086.662 .0240944
1087.242 .0241001
1087.822 .0241064
1088.402 .0241135
1088.983 .0241215
1089.563 .0241305
1090.144 .0241405
1090.725 .0241516
1091.306 .0241637
1091.887 .0241767
1092.469 .0241905
1093.050 .0242051
1093.632 .0242204
1094.214 .0242362
1094.796 .0242525
1095.379 .0242691
1095.961 .0242859
1096.544 .0243029
1097.127 .0243200
1097.710 .0243371
1098.294 .0243543
1098.877 .0243716
1099.461 .0243890
1100.046 .0244066
1100.630 .0244246
1101.215 .0244430
1101.800 .0244621
1102.385 .0244817
1102.970 .0245020
1103.556 .0245229
1104.142 .0245444
1104.728 .0245664
1105.315 .0245888
1105.902 .0246116
1106.489 .0246345
1107.077 .0246574
1107.664 .0246801
1108.253 .0247026
1108.841 .0247246
1109.430 .0247465
1110.019 .0247682
1110.609 .0247899
1111.198 .0248117
1111.789 .0248339
1112.379 .0248567
1112.970 .0248803
1113.561 .0249046
1114.153 .0249299
1114.745 .0249561
1115.338 .0249835
1115.931 .0250121
1116.524 .0250424
1117.117 .0250744
1117.712 .0251084
1118.306 .0251443
1118.901 .0251822
1119.496 .0252220
1120.092 .0252637
1120.689 .0253069
1121.285 .0253516
1121.882 .0253977
1122.480 .0254453
1123.078 .0254946
1123.677 .0255457
1124.276 .0255991
1124.875 .0256549
1125.476 .0257135
1126.076 .0257747
1126.677 .0258386
1127.279 .0259051
1127.881 .0259740
1128.484 .0260454
1129.087 .0260758
1129.691 .0261505
1130.295 .0262279
1130.900 .0263080
1131.505 .0263912
1132.111 .0264775
1132.718 .0265671
1133.325 .0266605
1133.933 .0267572
1134.541 .0268561
1135.150 .0269559
1135.760 .0270613
1136.370 .0271797
1136.981 .0272249
1137.592 .0273292
1138.204 .0274439
1138.817 .0275648
1139.431 .0276926
1140.045 .0278241
1140.660 .0279615
1141.275 .0281130
1141.891 .0282624
1142.508 .0283836
1143.126 .0284749
1143.744 .0287033
1144.363 .0291409
1144.983 .0290129
