Measurement Sequence started on: 15-12-46-377
Integration time: 28
Scans to Average: 2 
>>>>>Begin Spectral Data<<<<<
432.689 .0000100
433.621 .0000100
434.552 .0000100
435.482 .0000100
436.410 .0000100
437.337 .0000100
438.262 .0287345
439.187 .0608136
440.110 .1006867
441.031 .1456610
441.952 .1167360
442.871 .1219096
443.789 .1267153
444.705 .1312280
445.621 .1354992
446.535 .1395710
447.447 .1419634
448.359 .1425261
449.269 .1408706
450.178 .1367435
451.086 .1302260
451.993 .1218188
452.898 .1123460
453.803 .1027435
454.706 .0938062
455.608 .0860279
456.508 .0795754
457.408 .0751893
458.306 .0718029
459.204 .0690378
460.100 .0667070
460.995 .0647048
461.888 .0629584
462.781 .0614179
463.673 .0600433
464.563 .0588049
465.452 .0576790
466.340 .0566465
467.228 .0556950
468.114 .0548158
468.999 .0540021
469.882 .0532490
470.765 .0525518
471.647 .0519069
472.528 .0513110
473.407 .0507607
474.286 .0502536
475.163 .0497884
476.040 .0493640
476.915 .0489801
477.790 .0486367
478.663 .0483337
479.535 .0480705
480.407 .0478462
481.277 .0476592
482.147 .0475074
483.015 .0473887
483.883 .0473013
484.749 .0472438
485.615 .0472154
486.479 .0472153
487.343 .0472429
488.206 .0472980
489.067 .0473794
489.928 .0474856
490.788 .0476145
491.647 .0477641
492.505 .0479320
493.362 .0481161
494.218 .0483155
495.073 .0485296
495.928 .0489038
496.781 .0491589
497.634 .0494321
498.486 .0497244
499.337 .0500369
500.187 .0503714
501.036 .0507293
501.884 .0511123
502.731 .0515241
503.578 .0519679
504.424 .0522625
505.268 .0527704
506.113 .0533224
506.956 .0539230
507.798 .0545787
508.640 .0552982
509.480 .0560926
510.320 .0569753
511.160 .0579614
511.998 .0590690
512.836 .0603192
513.672 .0617323
514.508 .0633300
515.344 .0651364
516.178 .0671746
517.012 .0694682
517.845 .0720400
518.677 .0749132
519.508 .0781086
520.339 .0816379
521.169 .0855086
521.998 .0897013
522.826 .0941844
523.654 .0989048
524.481 .1037884
525.307 .1087511
526.133 .1136934
526.958 .1185081
527.782 .1230922
528.605 .1273502
529.428 .1312000
530.250 .1345667
531.072 .1374022
531.892 .1396669
532.712 .1413332
533.532 .1423861
534.350 .1428166
535.168 .1426236
535.986 .1418104
536.802 .1403781
537.618 .1383344
538.434 .1356918
539.249 .1324884
540.063 .1287743
540.876 .1246169
541.689 .1201032
542.501 .1153266
543.313 .1103899
544.124 .1054003
544.934 .1004558
545.744 .0956421
546.553 .0910297
547.361 .0866768
548.169 .0826150
548.976 .0788662
549.783 .0754378
550.589 .0723241
551.395 .0695125
552.200 .0669807
553.004 .0647022
553.808 .0626522
554.611 .0608076
555.414 .0591444
556.216 .0576390
557.018 .0562690
557.819 .0550152
558.619 .0538599
559.419 .0527888
560.218 .0517906
561.017 .0508558
561.815 .0499771
562.613 .0491497
563.410 .0483669
564.207 .0476237
565.003 .0469151
565.799 .0462360
566.594 .0455814
567.388 .0449476
568.182 .0443322
568.976 .0437337
569.769 .0431516
570.562 .0425868
571.354 .0420403
572.145 .0415137
572.936 .0410080
573.727 .0405235
574.517 .0400607
575.307 .0396198
576.096 .0391998
576.885 .0388002
577.673 .0384202
578.461 .0380587
579.248 .0377148
580.035 .0373884
580.821 .0370792
581.607 .0367874
582.392 .0365132
583.177 .0362570
583.962 .0360187
584.746 .0357981
585.529 .0355946
586.313 .0354069
587.095 .0352340
587.878 .0350745
588.660 .0349268
589.441 .0347900
590.222 .0346631
591.003 .0345454
591.783 .0344364
592.563 .0343353
593.342 .0342418
594.121 .0341553
594.899 .0340752
595.678 .0340007
596.455 .0339311
597.233 .0338656
598.009 .0338033
598.786 .0337437
599.562 .0336861
600.338 .0336301
601.113 .0335754
601.888 .0334970
602.663 .0334450
603.437 .0333943
604.211 .0333448
604.984 .0332964
605.757 .0332491
606.530 .0332030
607.302 .0331580
608.074 .0331140
608.845 .0330711
609.616 .0330293
610.387 .0330113
611.158 .0329714
611.928 .0329327
612.697 .0328951
613.467 .0328588
614.236 .0328238
615.004 .0327900
615.773 .0327574
616.541 .0327260
617.308 .0326955
618.076 .0326659
618.843 .0326371
619.609 .0326090
620.375 .0325814
621.141 .0325542
621.907 .0325272
622.672 .0325004
623.437 .0324735
624.202 .0324465
624.966 .0324192
625.730 .0323916
626.493 .0323635
627.257 .0323348
628.020 .0323056
628.782 .0322758
629.545 .0322454
630.307 .0322144
631.068 .0321829
631.830 .0321509
632.591 .0321185
633.352 .0320859
634.112 .0320529
634.872 .0320198
635.632 .0319864
636.392 .0319529
637.151 .0319193
637.910 .0318855
638.668 .0318518
639.427 .0318183
640.185 .0317851
640.943 .0317524
641.700 .0317204
642.457 .0316891
643.214 .0316586
643.971 .0316290
644.727 .0316003
645.483 .0315725
646.239 .0315455
646.994 .0315193
647.750 .0314940
648.505 .0314694
649.259 .0314455
650.014 .0314224
650.768 .0314000
651.521 .0313782
652.275 .0313571
653.028 .0313365
653.781 .0313165
654.534 .0312969
655.286 .0312777
656.039 .0312588
656.791 .0312400
657.542 .0312212
658.294 .0312023
659.045 .0311831
659.796 .0311635
660.546 .0311435
661.297 .0311231
662.047 .0311023
662.796 .0310811
663.546 .0310596
664.295 .0310377
665.044 .0310156
665.793 .0309932
666.542 .0309706
667.290 .0309477
668.038 .0309245
668.786 .0309012
669.533 .0308778
670.281 .0308543
671.028 .0308308
671.774 .0308075
672.521 .0307844
673.267 .0307615
674.013 .0307390
674.759 .0307169
675.505 .0306952
676.250 .0306741
676.995 .0306534
677.740 .0306330
678.484 .0306130
679.229 .0305931
679.973 .0305735
680.717 .0305540
681.460 .0305346
682.204 .0305154
682.947 .0304963
683.690 .0304773
684.433 .0304584
685.175 .0304395
685.917 .0304207
686.659 .0304018
687.401 .0303828
688.142 .0303635
688.884 .0303439
689.625 .0303239
690.365 .0303037
691.106 .0302832
691.846 .0302623
692.586 .0302412
693.326 .0302198
694.066 .0301983
694.805 .0301766
695.545 .0301549
696.284 .0301332
697.022 .0301115
697.761 .0300897
698.499 .0300680
699.237 .0300462
699.975 .0300245
700.713 .0300027
701.450 .0299810
702.187 .0299594
702.924 .0299379
703.661 .0299166
704.397 .0298955
705.133 .0298747
705.869 .0298541
706.605 .0298338
707.341 .0298136
708.076 .0297937
708.811 .0297740
709.546 .0297543
710.281 .0297348
711.015 .0297155
711.749 .0296962
712.483 .0296770
713.217 .0296580
713.950 .0296390
714.684 .0296202
715.417 .0296016
716.150 .0295831
716.882 .0295648
717.615 .0295466
718.347 .0295286
719.079 .0295106
719.811 .0294927
720.542 .0294748
721.273 .0294570
722.005 .0294393
722.735 .0294215
723.466 .0294039
724.196 .0293862
724.927 .0293687
725.656 .0293513
726.386 .0293340
727.116 .0293167
727.845 .0292996
728.574 .0292827
729.303 .0292658
730.031 .0292491
730.760 .0292325
731.488 .0292159
732.216 .0291994
732.944 .0291828
733.671 .0291663
734.398 .0291499
735.125 .0291337
735.852 .0291176
736.579 .0291018
737.305 .0290863
738.031 .0290712
738.757 .0290564
739.483 .0290421
740.208 .0290281
740.933 .0290144
741.658 .0290011
742.383 .0289881
743.108 .0289755
743.832 .0289632
744.556 .0289513
745.280 .0289397
746.004 .0289285
746.727 .0289174
747.450 .0289066
748.173 .0288960
748.896 .0288856
749.618 .0288753
750.340 .0288651
751.062 .0288550
751.784 .0288449
752.506 .0288347
753.227 .0288243
753.948 .0288138
754.669 .0288029
755.389 .0287917
756.110 .0287802
756.830 .0287682
757.550 .0287559
758.269 .0287434
758.989 .0287305
759.708 .0287174
760.427 .0287040
761.146 .0286903
761.864 .0286763
762.582 .0286620
763.300 .0286474
764.018 .0286326
764.736 .0286176
765.453 .0286026
766.170 .0285875
766.887 .0285724
767.603 .0285574
768.320 .0285426
769.036 .0285278
769.751 .0285133
770.467 .0284990
771.182 .0284850
771.897 .0284715
772.612 .0284583
773.327 .0284456
774.041 .0284333
774.755 .0284215
775.469 .0284101
776.183 .0283991
776.896 .0283887
777.609 .0283787
778.322 .0283692
779.035 .0283603
779.747 .0283519
780.459 .0283441
781.171 .0283366
781.882 .0283297
782.594 .0283230
783.305 .0283167
784.016 .0283106
784.726 .0283047
785.436 .0282990
786.147 .0282910
786.856 .0282855
787.566 .0282799
788.275 .0282742
788.984 .0282683
789.693 .0282620
790.401 .0282555
791.110 .0282486
791.818 .0282413
792.525 .0282337
793.233 .0282257
793.940 .0282172
794.647 .0282114
795.353 .0282021
796.060 .0281923
796.766 .0281819
797.472 .0281711
798.177 .0281597
798.883 .0281478
799.588 .0281356
800.292 .0281228
800.997 .0281097
801.701 .0280961
802.405 .0280820
803.109 .0280675
803.812 .0280525
804.515 .0280370
805.218 .0280212
805.921 .0280050
806.623 .0279886
807.325 .0279719
808.027 .0279551
808.728 .0279381
809.429 .0279209
810.130 .0279034
810.831 .0278858
811.531 .0278681
812.231 .0278503
812.931 .0278326
813.630 .0278150
814.330 .0277976
815.029 .0277806
815.727 .0277639
816.426 .0277476
817.124 .0277318
817.821 .0277163
818.519 .0277013
819.216 .0276868
819.913 .0276728
820.609 .0276593
821.306 .0276465
822.002 .0276344
822.697 .0276230
823.393 .0276123
824.088 .0276023
824.783 .0275931
825.477 .0275846
826.171 .0275768
826.865 .0275695
827.559 .0275629
828.252 .0275567
828.945 .0275510
829.638 .0275458
830.330 .0275408
831.023 .0275362
831.714 .0275319
832.406 .0275277
833.097 .0275237
833.788 .0275197
834.479 .0275158
835.169 .0275119
835.859 .0275079
836.548 .0275040
837.238 .0275000
837.927 .0274959
838.615 .0274917
839.304 .0274873
839.992 .0274828
840.680 .0274781
841.367 .0274733
842.054 .0274683
842.741 .0274632
843.428 .0274580
844.114 .0274526
844.800 .0274472
845.485 .0274415
846.170 .0274356
846.855 .0274294
847.540 .0274229
848.224 .0274160
848.908 .0274086
849.592 .0274007
850.275 .0273924
850.958 .0273836
851.641 .0273742
852.323 .0273643
853.005 .0273538
853.687 .0273427
854.368 .0273310
855.049 .0273188
855.730 .0273060
856.410 .0272928
857.090 .0272792
857.769 .0272652
858.449 .0272509
859.128 .0272363
859.806 .0272216
860.485 .0272067
861.163 .0271917
861.840 .0271768
862.518 .0271620
863.195 .0271474
863.871 .0271332
864.548 .0271194
865.224 .0271061
865.899 .0270931
866.574 .0270806
867.249 .0270684
867.924 .0270566
868.598 .0270452
869.272 .0270342
869.946 .0270236
870.619 .0270136
871.292 .0270041
871.964 .0269952
872.636 .0269868
873.308 .0269790
873.979 .0269717
874.651 .0269647
875.321 .0269580
875.992 .0269516
876.662 .0269455
877.331 .0269397
878.001 .0269341
878.670 .0269288
879.338 .0269238
880.007 .0269190
880.675 .0269146
881.342 .0269103
882.009 .0269064
882.676 .0269027
883.343 .0268994
884.009 .0268964
884.675 .0268938
885.340 .0268917
886.005 .0268900
886.670 .0268887
887.334 .0268878
887.998 .0268873
888.662 .0268871
889.325 .0268871
889.988 .0268872
890.650 .0268875
891.312 .0268879
891.974 .0268884
892.636 .0268889
893.297 .0268893
893.957 .0268896
894.618 .0268897
895.278 .0268894
895.937 .0268885
896.596 .0268870
897.255 .0268848
897.914 .0268817
898.572 .0268777
899.230 .0268728
899.887 .0268670
900.544 .0268603
901.201 .0268526
901.857 .0268368
902.513 .0268269
903.168 .0268162
903.823 .0268046
904.478 .0267921
905.132 .0267788
905.786 .0267646
906.440 .0267497
907.093 .0267340
907.746 .0267177
908.399 .0267010
909.051 .0266838
909.703 .0266663
910.354 .0266573
911.005 .0266397
911.656 .0266219
912.306 .0266040
912.956 .0265860
913.605 .0265679
914.254 .0265499
914.903 .0265319
915.551 .0265140
916.199 .0264962
916.847 .0264783
917.494 .0264605
918.141 .0264426
918.788 .0264245
919.434 .0264062
920.079 .0263876
920.725 .0263687
921.370 .0263495
922.014 .0263300
922.658 .0263100
923.302 .0262897
923.946 .0262690
924.589 .0262478
925.231 .0262261
925.873 .0262040
926.515 .0261814
927.157 .0261583
927.798 .0261349
928.439 .0261113
929.079 .0260874
929.719 .0260635
930.359 .0260397
930.998 .0260159
931.637 .0259923
932.275 .0259691
932.913 .0259462
933.551 .0259237
934.188 .0259019
934.825 .0258808
935.462 .0258605
936.098 .0258411
936.733 .0258225
937.369 .0258049
938.004 .0257882
938.638 .0257724
939.273 .0257575
939.907 .0257436
940.540 .0257306
941.173 .0257186
941.806 .0257075
942.438 .0256974
943.070 .0256881
943.702 .0256797
944.333 .0256720
944.964 .0256649
945.594 .0256583
946.224 .0256522
946.854 .0256463
947.483 .0256408
948.112 .0256355
948.741 .0256303
949.369 .0256252
949.996 .0256202
950.624 .0256150
951.251 .0256097
951.878 .0256040
952.504 .0255980
953.130 .0255916
953.755 .0255848
954.380 .0255775
955.005 .0255699
955.629 .0255618
956.253 .0255534
956.877 .0255446
957.500 .0255354
958.123 .0255258
958.746 .0255159
959.368 .0255057
959.990 .0254952
960.611 .0254847
961.232 .0254741
961.853 .0254635
962.473 .0254530
963.093 .0254426
963.712 .0254322
964.331 .0254218
964.950 .0254113
965.569 .0254008
966.187 .0253902
966.804 .0253794
967.422 .0253686
968.039 .0253576
968.655 .0253466
969.272 .0253355
969.887 .0253244
970.503 .0253131
971.118 .0253018
971.733 .0252904
972.347 .0252790
972.961 .0252675
973.575 .0252561
974.188 .0252448
974.801 .0252337
975.414 .0252227
976.026 .0252118
976.638 .0252009
977.250 .0251900
977.861 .0251790
978.472 .0251678
979.083 .0251565
979.693 .0251450
980.303 .0251334
980.912 .0251162
981.521 .0251047
982.130 .0250932
982.738 .0250818
983.346 .0250704
983.954 .0250592
984.562 .0250481
985.169 .0250372
985.775 .0250267
986.382 .0250167
986.988 .0250073
987.594 .0249987
988.199 .0249908
988.804 .0249838
989.409 .0249823
990.013 .0249767
990.617 .0249719
991.221 .0249679
991.824 .0249646
992.427 .0249619
993.030 .0249598
993.632 .0249582
994.234 .0249572
994.836 .0249567
995.438 .0249567
996.039 .0249570
996.640 .0249578
997.240 .0249590
997.840 .0249605
998.440 .0249624
999.040 .0249646
999.639 .0249671
1000.238 .0249700
1000.836 .0249732
1001.435 .0249767
1002.033 .0249804
1002.630 .0249844
1003.228 .0249885
1003.825 .0249927
1004.422 .0249969
1005.018 .0250012
1005.614 .0250053
1006.210 .0250094
1006.806 .0250135
1007.401 .0250174
1007.996 .0250213
1008.591 .0250251
1009.186 .0250289
1009.780 .0250327
1010.374 .0250365
1010.967 .0250404
1011.561 .0250445
1012.154 .0250488
1012.746 .0250534
1013.339 .0250584
1013.931 .0250638
1014.523 .0250697
1015.115 .0250761
1015.706 .0250830
1016.298 .0250905
1016.888 .0250984
1017.479 .0251070
1018.069 .0251160
1018.660 .0251256
1019.250 .0251356
1019.839 .0251461
1020.429 .0251570
1021.018 .0251683
1021.607 .0251799
1022.195 .0251918
1022.784 .0252039
1023.372 .0252161
1023.960 .0252284
1024.547 .0252409
1025.135 .0252533
1025.722 .0252657
1026.309 .0252780
1026.896 .0252903
1027.483 .0253023
1028.069 .0253141
1028.655 .0253257
1029.241 .0253371
1029.827 .0253481
1030.412 .0253588
1030.997 .0253692
1031.582 .0253793
1032.167 .0253892
1032.752 .0253988
1033.336 .0254082
1033.921 .0254173
1034.505 .0254261
1035.089 .0254346
1035.672 .0254427
1036.256 .0254503
1036.839 .0254575
1037.422 .0254642
1038.005 .0254704
1038.588 .0254761
1039.171 .0254814
1039.753 .0254862
1040.335 .0254907
1040.918 .0254947
1041.500 .0254984
1042.081 .0255017
1042.663 .0255046
1043.244 .0255072
1043.826 .0255097
1044.407 .0255121
1044.988 .0255145
1045.569 .0255171
1046.150 .0255199
1046.730 .0255230
1047.311 .0255265
1047.891 .0255303
1048.471 .0255345
1049.052 .0255389
1049.632 .0255437
1050.211 .0255488
1050.791 .0255542
1051.371 .0255599
1051.950 .0255660
1052.530 .0255725
1053.109 .0255793
1053.688 .0255865
1054.268 .0255939
1054.847 .0256014
1055.426 .0256090
1056.005 .0256167
1056.583 .0256243
1057.162 .0256318
1057.741 .0256393
1058.319 .0256467
1058.898 .0256541
1059.476 .0256614
1060.055 .0256686
1060.633 .0256756
1061.211 .0256823
1061.790 .0256887
1062.368 .0256947
1062.946 .0257002
1063.524 .0257053
1064.102 .0257100
1064.680 .0257143
1065.258 .0257182
1065.836 .0257217
1066.414 .0257248
1066.992 .0257274
1067.570 .0257294
1068.148 .0257308
1068.726 .0257315
1069.304 .0257314
1069.882 .0257307
1070.460 .0257294
1071.038 .0257276
1071.616 .0257254
1072.194 .0257230
1072.772 .0257205
1073.350 .0257178
1073.928 .0257151
1074.506 .0257124
1075.084 .0257098
1075.662 .0257072
1076.240 .0257047
1076.819 .0257026
1077.397 .0257009
1077.976 .0256997
1078.554 .0256992
1079.133 .0256993
1079.711 .0257000
1080.290 .0257012
1080.869 .0257029
1081.448 .0257049
1082.027 .0257072
1082.606 .0257099
1083.185 .0257127
1083.764 .0257159
1084.343 .0257196
1084.923 .0257239
1085.502 .0257288
1086.082 .0257343
1086.662 .0257406
1087.242 .0257475
1087.822 .0257550
1088.402 .0257631
1088.983 .0257719
1089.563 .0257812
1090.144 .0257912
1090.725 .0258020
1091.306 .0258135
1091.887 .0258258
1092.469 .0258389
1093.050 .0258528
1093.632 .0258673
1094.214 .0258822
1094.796 .0258976
1095.379 .0259133
1095.961 .0259292
1096.544 .0259454
1097.127 .0259616
1097.710 .0259780
1098.294 .0259947
1098.877 .0260114
1099.461 .0260282
1100.046 .0260451
1100.630 .0260618
1101.215 .0260783
1101.800 .0260944
1102.385 .0261104
1102.970 .0261261
1103.556 .0261418
1104.142 .0261576
1104.728 .0261734
1105.315 .0261893
1105.902 .0262052
1106.489 .0262210
1107.077 .0262367
1107.664 .0262519
1108.253 .0262666
1108.841 .0262807
1109.430 .0262945
1110.019 .0263080
1110.609 .0263214
1111.198 .0263351
1111.789 .0263490
1112.379 .0263633
1112.970 .0263780
1113.561 .0263930
1114.153 .0264085
1114.745 .0264243
1115.338 .0264407
1115.931 .0264578
1116.524 .0264761
1117.117 .0264958
1117.712 .0265173
1118.306 .0265409
1118.901 .0265667
1119.496 .0265946
1120.092 .0266246
1120.689 .0266562
1121.285 .0266893
1121.882 .0267235
1122.480 .0267589
1123.078 .0267954
1123.677 .0268331
1124.276 .0268723
1124.875 .0269136
1125.476 .0269574
1126.076 .0270041
1126.677 .0270541
1127.279 .0271076
1127.881 .0271648
1128.484 .0272258
1129.087 .0272505
1129.691 .0273166
1130.295 .0273869
1130.900 .0274616
1131.505 .0275411
1132.111 .0276262
1132.718 .0277167
1133.325 .0278126
1133.933 .0279137
1134.541 .0280241
1135.150 .0281429
1135.760 .0282568
1136.370 .0283680
1136.981 .0282736
1137.592 .0284152
1138.204 .0285632
1138.817 .0287194
1139.431 .0288872
1140.045 .0290715
1140.660 .0292603
1141.275 .0294498
1141.891 .0296475
1142.508 .0299614
1143.126 .0302632
1143.744 .0301918
1144.363 .0301875
1144.983 .0306214
