Measurement Sequence started on: 15-12-46-377
Integration time: 28
Scans to Average: 2 
>>>>>Begin Spectral Data<<<<<
432.689 .0000100
433.621 .0000100
434.552 .0000100
435.482 .0000100
436.410 .0000100
437.337 .0000100
438.262 .0246477
439.187 .0523141
440.110 .0866703
441.031 .1254328
441.952 .1004725
442.871 .1049223
443.789 .1090644
444.705 .1129596
445.621 .1166510
446.535 .1201699
447.447 .1222422
448.359 .1227268
449.269 .1212885
450.178 .1177083
451.086 .1120586
451.993 .1047708
452.898 .0965605
453.803 .0882382
454.706 .0804930
455.608 .0737531
456.508 .0681623
457.408 .0643539
458.306 .0614128
459.204 .0590051
460.100 .0569668
460.995 .0552054
461.888 .0536622
462.781 .0522970
463.673 .0510805
464.563 .0499923
465.452 .0490163
466.340 .0481381
467.228 .0473470
468.114 .0466337
468.999 .0459892
469.882 .0454056
470.765 .0448762
471.647 .0443955
472.528 .0439587
473.407 .0435617
474.286 .0432021
475.163 .0428773
476.040 .0425856
476.915 .0423245
477.790 .0420922
478.663 .0418869
479.535 .0417063
480.407 .0415488
481.277 .0414131
482.147 .0412973
483.015 .0412002
483.883 .0411202
484.749 .0410570
485.615 .0410095
486.479 .0409772
487.343 .0409593
488.206 .0409553
489.067 .0409646
489.928 .0409868
490.788 .0410220
491.647 .0410716
492.505 .0411363
493.362 .0412181
494.218 .0413185
495.073 .0414385
495.928 .0416913
496.781 .0418630
497.634 .0420542
498.486 .0422644
499.337 .0424939
500.187 .0427439
501.036 .0430170
501.884 .0433164
502.731 .0436467
503.578 .0440125
504.424 .0442697
505.268 .0447024
506.113 .0451804
506.956 .0457059
507.798 .0462832
508.640 .0469154
509.480 .0476071
510.320 .0483649
511.160 .0491984
511.998 .0501179
512.836 .0511377
513.672 .0522745
514.508 .0535471
515.344 .0549734
516.178 .0565741
517.012 .0583683
517.845 .0603739
518.677 .0626094
519.508 .0650871
520.339 .0678126
521.169 .0707888
521.998 .0739959
522.826 .0774067
523.654 .0809774
524.481 .0846549
525.307 .0883726
526.133 .0920584
526.958 .0956366
527.782 .0990295
528.605 .1021645
529.428 .1049802
530.250 .1074187
531.072 .1094421
531.892 .1110170
532.712 .1121249
533.532 .1127559
534.350 .1129102
535.168 .1125931
535.986 .1118110
536.802 .1105739
537.618 .1088950
538.434 .1067851
539.249 .1042768
540.063 .1014089
540.876 .0982326
541.689 .0948085
542.501 .0912060
543.313 .0874983
544.124 .0837609
544.934 .0800678
545.744 .0764848
546.553 .0730661
547.361 .0698574
548.169 .0668836
548.976 .0641624
549.783 .0616974
550.589 .0594801
551.395 .0574925
552.200 .0557121
553.004 .0541123
553.808 .0526685
554.611 .0513579
555.414 .0501626
556.216 .0490662
557.018 .0480534
557.819 .0471127
558.619 .0462338
559.419 .0454093
560.218 .0446336
561.017 .0439010
561.815 .0432070
562.613 .0425478
563.410 .0419196
564.207 .0413195
565.003 .0407444
565.799 .0401922
566.594 .0396602
567.388 .0391467
568.182 .0386500
568.976 .0381685
569.769 .0377013
570.562 .0372483
571.354 .0368091
572.145 .0363845
572.936 .0359749
573.727 .0355806
574.517 .0352022
575.307 .0348403
576.096 .0344948
576.885 .0341655
577.673 .0338524
578.461 .0335553
579.248 .0332737
580.035 .0330075
580.821 .0327566
581.607 .0325205
582.392 .0322991
583.177 .0320918
583.962 .0318982
584.746 .0317180
585.529 .0315503
586.313 .0313945
587.095 .0312498
587.878 .0311153
588.660 .0309900
589.441 .0308733
590.222 .0307645
591.003 .0306630
591.783 .0305681
592.563 .0304796
593.342 .0303970
594.121 .0303201
594.899 .0302485
595.678 .0301821
596.455 .0301204
597.233 .0300630
598.009 .0300094
598.786 .0299591
599.562 .0299116
600.338 .0298665
601.113 .0298235
601.888 .0297659
602.663 .0297280
603.437 .0296922
604.211 .0296586
604.984 .0296271
605.757 .0295977
606.530 .0295703
607.302 .0295448
608.074 .0295211
608.845 .0294991
609.616 .0294788
610.387 .0294731
611.158 .0294554
611.928 .0294396
612.697 .0294255
613.467 .0294130
614.236 .0294021
615.004 .0293924
615.773 .0293839
616.541 .0293765
617.308 .0293700
618.076 .0293642
618.843 .0293590
619.609 .0293541
620.375 .0293493
621.141 .0293445
621.907 .0293394
622.672 .0293336
623.437 .0293272
624.202 .0293197
624.966 .0293112
625.730 .0293016
626.493 .0292907
627.257 .0292783
628.020 .0292645
628.782 .0292490
629.545 .0292319
630.307 .0292130
631.068 .0291925
631.830 .0291706
632.591 .0291473
633.352 .0291229
634.112 .0290974
634.872 .0290711
635.632 .0290441
636.392 .0290164
637.151 .0289880
637.910 .0289590
638.668 .0289295
639.427 .0288997
640.185 .0288697
640.943 .0288397
641.700 .0288100
642.457 .0287807
643.214 .0287520
643.971 .0287240
644.727 .0286968
645.483 .0286705
646.239 .0286450
646.994 .0286203
647.750 .0285965
648.505 .0285734
649.259 .0285512
650.014 .0285297
650.768 .0285091
651.521 .0284892
652.275 .0284702
653.028 .0284520
653.781 .0284347
654.534 .0284181
655.286 .0284024
656.039 .0283874
656.791 .0283730
657.542 .0283593
658.294 .0283461
659.045 .0283334
659.796 .0283213
660.546 .0283098
661.297 .0282988
662.047 .0282885
662.796 .0282789
663.546 .0282699
664.295 .0282616
665.044 .0282540
665.793 .0282470
666.542 .0282407
667.290 .0282349
668.038 .0282298
668.786 .0282251
669.533 .0282208
670.281 .0282168
671.028 .0282131
671.774 .0282095
672.521 .0282061
673.267 .0282028
674.013 .0281997
674.759 .0281965
675.505 .0281934
676.250 .0281903
676.995 .0281871
677.740 .0281837
678.484 .0281800
679.229 .0281759
679.973 .0281713
680.717 .0281663
681.460 .0281607
682.204 .0281546
682.947 .0281477
683.690 .0281402
684.433 .0281319
685.175 .0281228
685.917 .0281129
686.659 .0281020
687.401 .0280902
688.142 .0280774
688.884 .0280636
689.625 .0280488
690.365 .0280330
691.106 .0280163
691.846 .0279986
692.586 .0279799
693.326 .0279604
694.066 .0279401
694.805 .0279189
695.545 .0278971
696.284 .0278746
697.022 .0278516
697.761 .0278282
698.499 .0278045
699.237 .0277804
699.975 .0277562
700.713 .0277317
701.450 .0277072
702.187 .0276827
702.924 .0276581
703.661 .0276337
704.397 .0276094
705.133 .0275853
705.869 .0275613
706.605 .0275377
707.341 .0275144
708.076 .0274914
708.811 .0274688
709.546 .0274465
710.281 .0274245
711.015 .0274029
711.749 .0273816
712.483 .0273606
713.217 .0273399
713.950 .0273194
714.684 .0272992
715.417 .0272793
716.150 .0272595
716.882 .0272400
717.615 .0272207
718.347 .0272016
719.079 .0271827
719.811 .0271641
720.542 .0271457
721.273 .0271276
722.005 .0271099
722.735 .0270927
723.466 .0270760
724.196 .0270598
724.927 .0270442
725.656 .0270293
726.386 .0270149
727.116 .0270013
727.845 .0269884
728.574 .0269762
729.303 .0269648
730.031 .0269541
730.760 .0269443
731.488 .0269352
732.216 .0269270
732.944 .0269195
733.671 .0269128
734.398 .0269068
735.125 .0269015
735.852 .0268969
736.579 .0268930
737.305 .0268897
738.031 .0268869
738.757 .0268846
739.483 .0268828
740.208 .0268813
740.933 .0268802
741.658 .0268795
742.383 .0268790
743.108 .0268787
743.832 .0268785
744.556 .0268784
745.280 .0268783
746.004 .0268781
746.727 .0268776
747.450 .0268769
748.173 .0268758
748.896 .0268744
749.618 .0268725
750.340 .0268702
751.062 .0268675
751.784 .0268644
752.506 .0268607
753.227 .0268566
753.948 .0268518
754.669 .0268464
755.389 .0268403
756.110 .0268335
756.830 .0268258
757.550 .0268172
758.269 .0268078
758.989 .0267975
759.708 .0267863
760.427 .0267743
761.146 .0267615
761.864 .0267479
762.582 .0267334
763.300 .0267181
764.018 .0267021
764.736 .0266853
765.453 .0266678
766.170 .0266496
766.887 .0266308
767.603 .0266115
768.320 .0265918
769.036 .0265717
769.751 .0265513
770.467 .0265307
771.182 .0265099
771.897 .0264889
772.612 .0264678
773.327 .0264467
774.041 .0264256
774.755 .0264045
775.469 .0263834
776.183 .0263624
776.896 .0263414
777.609 .0263205
778.322 .0262995
779.035 .0262787
779.747 .0262578
780.459 .0262370
781.171 .0262163
781.882 .0261955
782.594 .0261747
783.305 .0261539
784.016 .0261330
784.726 .0261120
785.436 .0260909
786.147 .0260589
786.856 .0260377
787.566 .0260165
788.275 .0259953
788.984 .0259742
789.693 .0259531
790.401 .0259320
791.110 .0259110
791.818 .0258900
792.525 .0258690
793.233 .0258481
793.940 .0258271
794.647 .0258170
795.353 .0257962
796.060 .0257757
796.766 .0257555
797.472 .0257356
798.177 .0257162
798.883 .0256972
799.588 .0256787
800.292 .0256608
800.997 .0256435
801.701 .0256268
802.405 .0256107
803.109 .0255953
803.812 .0255805
804.515 .0255664
805.218 .0255531
805.921 .0255404
806.623 .0255285
807.325 .0255173
808.027 .0255068
808.728 .0254971
809.429 .0254879
810.130 .0254794
810.831 .0254714
811.531 .0254641
812.231 .0254572
812.931 .0254510
813.630 .0254453
814.330 .0254403
815.029 .0254359
815.727 .0254322
816.426 .0254294
817.124 .0254273
817.821 .0254260
818.519 .0254257
819.216 .0254263
819.913 .0254278
820.609 .0254302
821.306 .0254336
822.002 .0254378
822.697 .0254430
823.393 .0254490
824.088 .0254559
824.783 .0254636
825.477 .0254720
826.171 .0254811
826.865 .0254908
827.559 .0255011
828.252 .0255119
828.945 .0255231
829.638 .0255345
830.330 .0255461
831.023 .0255577
831.714 .0255692
832.406 .0255804
833.097 .0255912
833.788 .0256015
834.479 .0256110
835.169 .0256198
835.859 .0256276
836.548 .0256344
837.238 .0256401
837.927 .0256447
838.615 .0256482
839.304 .0256506
839.992 .0256518
840.680 .0256519
841.367 .0256509
842.054 .0256488
842.741 .0256456
843.428 .0256415
844.114 .0256365
844.800 .0256306
845.485 .0256239
846.170 .0256165
846.855 .0256083
847.540 .0255994
848.224 .0255897
848.908 .0255792
849.592 .0255679
850.275 .0255558
850.958 .0255430
851.641 .0255293
852.323 .0255149
853.005 .0254996
853.687 .0254836
854.368 .0254667
855.049 .0254489
855.730 .0254302
856.410 .0254105
857.090 .0253899
857.769 .0253683
858.449 .0253457
859.128 .0253223
859.806 .0252982
860.485 .0252732
861.163 .0252477
861.840 .0252215
862.518 .0251949
863.195 .0251678
863.871 .0251403
864.548 .0251125
865.224 .0250844
865.899 .0250562
866.574 .0250278
867.249 .0249995
867.924 .0249712
868.598 .0249430
869.272 .0249150
869.946 .0248872
870.619 .0248596
871.292 .0248323
871.964 .0248052
872.636 .0247785
873.308 .0247521
873.979 .0247261
874.651 .0247005
875.321 .0246754
875.992 .0246507
876.662 .0246263
877.331 .0246023
878.001 .0245787
878.670 .0245553
879.338 .0245322
880.007 .0245094
880.675 .0244870
881.342 .0244651
882.009 .0244437
882.676 .0244228
883.343 .0244024
884.009 .0243826
884.675 .0243633
885.340 .0243444
886.005 .0243260
886.670 .0243081
887.334 .0242908
887.998 .0242741
888.662 .0242580
889.325 .0242425
889.988 .0242277
890.650 .0242136
891.312 .0242000
891.974 .0241871
892.636 .0241747
893.297 .0241629
893.957 .0241516
894.618 .0241409
895.278 .0241308
895.937 .0241212
896.596 .0241121
897.255 .0241033
897.914 .0240948
898.572 .0240866
899.230 .0240785
899.887 .0240706
900.544 .0240628
901.201 .0240552
901.857 .0240443
902.513 .0240372
903.168 .0240304
903.823 .0240238
904.478 .0240176
905.132 .0240116
905.786 .0240059
906.440 .0240004
907.093 .0239952
907.746 .0239904
908.399 .0239858
909.051 .0239817
909.703 .0239779
910.354 .0239773
911.005 .0239742
911.656 .0239715
912.306 .0239692
912.956 .0239672
913.605 .0239657
914.254 .0239645
914.903 .0239639
915.551 .0239636
916.199 .0239639
916.847 .0239646
917.494 .0239657
918.141 .0239672
918.788 .0239690
919.434 .0239710
920.079 .0239733
920.725 .0239758
921.370 .0239784
922.014 .0239813
922.658 .0239843
923.302 .0239875
923.946 .0239909
924.589 .0239945
925.231 .0239982
925.873 .0240020
926.515 .0240059
927.157 .0240097
927.798 .0240135
928.439 .0240173
929.079 .0240211
929.719 .0240249
930.359 .0240286
930.998 .0240324
931.637 .0240361
932.275 .0240399
932.913 .0240437
933.551 .0240475
934.188 .0240513
934.825 .0240550
935.462 .0240587
936.098 .0240623
936.733 .0240659
937.369 .0240693
938.004 .0240726
938.638 .0240758
939.273 .0240789
939.907 .0240819
940.540 .0240847
941.173 .0240874
941.806 .0240899
942.438 .0240923
943.070 .0240944
943.702 .0240964
944.333 .0240982
944.964 .0240998
945.594 .0241011
946.224 .0241022
946.854 .0241031
947.483 .0241037
948.112 .0241040
948.741 .0241041
949.369 .0241039
949.996 .0241034
950.624 .0241026
951.251 .0241014
951.878 .0240998
952.504 .0240978
953.130 .0240954
953.755 .0240925
954.380 .0240891
955.005 .0240853
955.629 .0240809
956.253 .0240758
956.877 .0240701
957.500 .0240636
958.123 .0240563
958.746 .0240482
959.368 .0240391
959.990 .0240292
960.611 .0240184
961.232 .0240069
961.853 .0239946
962.473 .0239815
963.093 .0239677
963.712 .0239532
964.331 .0239379
964.950 .0239219
965.569 .0239050
966.187 .0238874
966.804 .0238691
967.422 .0238501
968.039 .0238305
968.655 .0238103
969.272 .0237895
969.887 .0237683
970.503 .0237466
971.118 .0237245
971.733 .0237019
972.347 .0236789
972.961 .0236555
973.575 .0236316
974.188 .0236074
974.801 .0235828
975.414 .0235580
976.026 .0235329
976.638 .0235076
977.250 .0234821
977.861 .0234564
978.472 .0234305
979.083 .0234044
979.693 .0233779
980.303 .0233511
980.912 .0233097
981.521 .0232822
982.130 .0232545
982.738 .0232265
983.346 .0231983
983.954 .0231700
984.562 .0231416
985.169 .0231132
985.775 .0230848
986.382 .0230564
986.988 .0230282
987.594 .0230002
988.199 .0229725
988.804 .0229452
989.409 .0229327
990.013 .0229062
990.617 .0228803
991.221 .0228549
991.824 .0228303
992.427 .0228063
993.030 .0227830
993.632 .0227604
994.234 .0227384
994.836 .0227171
995.438 .0226963
996.039 .0226762
996.640 .0226566
997.240 .0226377
997.840 .0226194
998.440 .0226017
999.040 .0225848
999.639 .0225685
1000.238 .0225530
1000.836 .0225381
1001.435 .0225239
1002.033 .0225102
1002.630 .0224971
1003.228 .0224845
1003.825 .0224723
1004.422 .0224606
1005.018 .0224494
1005.614 .0224385
1006.210 .0224280
1006.806 .0224178
1007.401 .0224079
1007.996 .0223982
1008.591 .0223888
1009.186 .0223796
1009.780 .0223707
1010.374 .0223620
1010.967 .0223536
1011.561 .0223455
1012.154 .0223380
1012.746 .0223310
1013.339 .0223246
1013.931 .0223190
1014.523 .0223143
1015.115 .0223104
1015.706 .0223073
1016.298 .0223050
1016.888 .0223036
1017.479 .0223030
1018.069 .0223034
1018.660 .0223047
1019.250 .0223070
1019.839 .0223103
1020.429 .0223146
1021.018 .0223199
1021.607 .0223263
1022.195 .0223335
1022.784 .0223416
1023.372 .0223505
1023.960 .0223601
1024.547 .0223706
1025.135 .0223818
1025.722 .0223939
1026.309 .0224069
1026.896 .0224206
1027.483 .0224352
1028.069 .0224505
1028.655 .0224665
1029.241 .0224829
1029.827 .0224997
1030.412 .0225167
1030.997 .0225338
1031.582 .0225510
1032.167 .0225683
1032.752 .0225856
1033.336 .0226030
1033.921 .0226205
1034.505 .0226381
1035.089 .0226557
1035.672 .0226733
1036.256 .0226908
1036.839 .0227080
1037.422 .0227248
1038.005 .0227412
1038.588 .0227571
1039.171 .0227727
1039.753 .0227879
1040.335 .0228030
1040.918 .0228179
1041.500 .0228327
1042.081 .0228475
1042.663 .0228622
1043.244 .0228769
1043.826 .0228914
1044.407 .0229059
1044.988 .0229204
1045.569 .0229350
1046.150 .0229498
1046.730 .0229651
1047.311 .0229810
1047.891 .0229975
1048.471 .0230146
1049.052 .0230323
1049.632 .0230504
1050.211 .0230689
1050.791 .0230877
1051.371 .0231068
1051.950 .0231262
1052.530 .0231458
1053.109 .0231658
1053.688 .0231862
1054.268 .0232070
1054.847 .0232283
1055.426 .0232499
1056.005 .0232720
1056.583 .0232943
1057.162 .0233170
1057.741 .0233398
1058.319 .0233630
1058.898 .0233865
1059.476 .0234104
1060.055 .0234346
1060.633 .0234592
1061.211 .0234840
1061.790 .0235091
1062.368 .0235341
1062.946 .0235590
1063.524 .0235835
1064.102 .0236076
1064.680 .0236311
1065.258 .0236540
1065.836 .0236762
1066.414 .0236978
1066.992 .0237186
1067.570 .0237388
1068.148 .0237581
1068.726 .0237767
1069.304 .0237945
1069.882 .0238116
1070.460 .0238280
1071.038 .0238438
1071.616 .0238592
1072.194 .0238742
1072.772 .0238889
1073.350 .0239034
1073.928 .0239175
1074.506 .0239314
1075.084 .0239450
1075.662 .0239582
1076.240 .0239709
1076.819 .0239832
1077.397 .0239951
1077.976 .0240065
1078.554 .0240174
1079.133 .0240280
1079.711 .0240381
1080.290 .0240480
1080.869 .0240575
1081.448 .0240669
1082.027 .0240760
1082.606 .0240851
1083.185 .0240940
1083.764 .0241029
1084.343 .0241117
1084.923 .0241206
1085.502 .0241295
1086.082 .0241386
1086.662 .0241480
1087.242 .0241578
1087.822 .0241680
1088.402 .0241789
1088.983 .0241904
1089.563 .0242024
1090.144 .0242151
1090.725 .0242283
1091.306 .0242420
1091.887 .0242560
1092.469 .0242703
1093.050 .0242849
1093.632 .0242997
1094.214 .0243146
1094.796 .0243296
1095.379 .0243448
1095.961 .0243602
1096.544 .0243759
1097.127 .0243917
1097.710 .0244078
1098.294 .0244242
1098.877 .0244410
1099.461 .0244581
1100.046 .0244756
1100.630 .0244935
1101.215 .0245118
1101.800 .0245305
1102.385 .0245495
1102.970 .0245687
1103.556 .0245881
1104.142 .0246077
1104.728 .0246271
1105.315 .0246464
1105.902 .0246655
1106.489 .0246843
1107.077 .0247027
1107.664 .0247207
1108.253 .0247383
1108.841 .0247553
1109.430 .0247719
1110.019 .0247881
1110.609 .0248040
1111.198 .0248198
1111.789 .0248355
1112.379 .0248512
1112.970 .0248668
1113.561 .0248824
1114.153 .0248978
1114.745 .0249129
1115.338 .0249276
1115.931 .0249419
1116.524 .0249558
1117.117 .0249697
1117.712 .0249837
1118.306 .0249983
1118.901 .0250138
1119.496 .0250304
1120.092 .0250484
1120.689 .0250678
1121.285 .0250887
1121.882 .0251112
1122.480 .0251355
1123.078 .0251617
1123.677 .0251900
1124.276 .0252210
1124.875 .0252550
1125.476 .0252922
1126.076 .0253328
1126.677 .0253767
1127.279 .0254239
1127.881 .0254740
1128.484 .0255267
1129.087 .0255438
1129.691 .0256000
1130.295 .0256583
1130.900 .0257183
1131.505 .0257803
1132.111 .0258443
1132.718 .0259108
1133.325 .0259803
1133.933 .0260524
1134.541 .0261268
1135.150 .0262036
1135.760 .0262888
1136.370 .0263805
1136.981 .0265574
1137.592 .0266381
1138.204 .0267108
1138.817 .0267757
1139.431 .0268392
1140.045 .0269041
1140.660 .0269786
1141.275 .0270654
1141.891 .0271490
1142.508 .0272240
1143.126 .0273139
1143.744 .0275823
1144.363 .0278020
1144.983 .0273770
