Measurement Sequence started on: 15-12-46-377
Integration time: 28
Scans to Average: 2 
>>>>>Begin Spectral Data<<<<<
432.689 .0000100
433.621 .0000100
434.552 .0000100
435.482 .0000100
436.410 .0000100
437.337 .0000100
438.262 .0266118
439.187 .0563339
440.110 .0933751
441.031 .1350883
441.952 .1082115
442.871 .1130250
443.789 .1175113
444.705 .1217383
445.621 .1257504
446.535 .1295821
447.447 .1318588
448.359 .1324369
449.269 .1309477
450.178 .1271587
451.086 .1211444
451.993 .1133695
452.898 .1046013
453.803 .0957104
454.706 .0874374
455.608 .0802423
456.508 .0742786
457.408 .0702306
458.306 .0671071
459.204 .0645561
460.100 .0623968
460.995 .0605324
461.888 .0588974
462.781 .0574500
463.673 .0561585
464.563 .0550003
465.452 .0539589
466.340 .0530208
467.228 .0521758
468.114 .0514165
468.999 .0507366
469.882 .0501291
470.765 .0495867
471.647 .0491032
472.528 .0486723
473.407 .0482883
474.286 .0479459
475.163 .0476419
476.040 .0473734
476.915 .0471386
477.790 .0469357
478.663 .0467632
479.535 .0466198
480.407 .0465029
481.277 .0464098
482.147 .0463370
483.015 .0462812
483.883 .0462400
484.749 .0462112
485.615 .0461946
486.479 .0461901
487.343 .0461985
488.206 .0462206
489.067 .0462572
489.928 .0463094
490.788 .0463777
491.647 .0464622
492.505 .0465627
493.362 .0466788
494.218 .0468103
495.073 .0469572
495.928 .0472351
496.781 .0474221
497.634 .0476259
498.486 .0478476
499.337 .0480891
500.187 .0483526
501.036 .0486403
501.884 .0489552
502.731 .0493004
503.578 .0496792
504.424 .0499398
505.268 .0503841
506.113 .0508745
506.956 .0514146
507.798 .0520100
508.640 .0526679
509.480 .0533982
510.320 .0542117
511.160 .0551215
511.998 .0561425
512.836 .0572933
513.672 .0585911
514.508 .0600556
515.344 .0617072
516.178 .0635676
517.012 .0656575
517.845 .0679966
518.677 .0706024
519.508 .0734897
520.339 .0766664
521.169 .0801387
521.998 .0838874
522.826 .0878843
523.654 .0920822
524.481 .0964184
525.307 .1008190
526.133 .1051955
526.958 .1094515
527.782 .1134926
528.605 .1172292
529.428 .1205823
530.250 .1234821
531.072 .1258877
531.892 .1277664
532.712 .1290997
533.532 .1298806
534.350 .1301077
535.168 .1297867
535.986 .1289246
536.802 .1275262
537.618 .1256002
538.434 .1231558
539.249 .1202267
540.063 .1168553
540.876 .1131001
541.689 .1090358
542.501 .1047450
543.313 .1003209
544.124 .0958599
544.934 .0914520
545.744 .0871792
546.553 .0831089
547.361 .0792948
548.169 .0757628
548.976 .0725284
549.783 .0695926
550.589 .0669421
551.395 .0645584
552.200 .0624161
553.004 .0604898
553.808 .0587576
554.611 .0571988
555.414 .0557941
556.216 .0545236
557.018 .0533682
557.819 .0523097
558.619 .0513310
559.419 .0504175
560.218 .0495573
561.017 .0487410
561.815 .0479622
562.613 .0472164
563.410 .0464999
564.207 .0458106
565.003 .0451464
565.799 .0445046
566.594 .0438821
567.388 .0432767
568.182 .0426866
568.976 .0421104
569.769 .0415478
570.562 .0409991
571.354 .0404658
572.145 .0399499
572.936 .0394533
573.727 .0389773
574.517 .0385230
575.307 .0380910
576.096 .0376810
576.885 .0372928
577.673 .0369259
578.461 .0365800
579.248 .0362546
580.035 .0359496
580.821 .0356644
581.607 .0353986
582.392 .0351517
583.177 .0349235
583.962 .0347132
584.746 .0345202
585.529 .0343429
586.313 .0341802
587.095 .0340305
587.878 .0338924
588.660 .0337643
589.441 .0336451
590.222 .0335338
591.003 .0334299
591.783 .0333328
592.563 .0332419
593.342 .0331570
594.121 .0330775
594.899 .0330026
595.678 .0329318
596.455 .0328644
597.233 .0328000
598.009 .0327383
598.786 .0326790
599.562 .0326221
600.338 .0325673
601.113 .0325148
601.888 .0324438
602.663 .0323965
603.437 .0323512
604.211 .0323078
604.984 .0322663
605.757 .0322264
606.530 .0321881
607.302 .0321514
608.074 .0321162
608.845 .0320825
609.616 .0320501
610.387 .0320367
611.158 .0320060
611.928 .0319765
612.697 .0319483
613.467 .0319213
614.236 .0318955
615.004 .0318707
615.773 .0318468
616.541 .0318237
617.308 .0318014
618.076 .0317797
618.843 .0317587
619.609 .0317383
620.375 .0317183
621.141 .0316989
621.907 .0316797
622.672 .0316607
623.437 .0316418
624.202 .0316228
624.966 .0316034
625.730 .0315837
626.493 .0315634
627.257 .0315427
628.020 .0315214
628.782 .0314997
629.545 .0314774
630.307 .0314544
631.068 .0314307
631.830 .0314063
632.591 .0313811
633.352 .0313551
634.112 .0313286
634.872 .0313015
635.632 .0312740
636.392 .0312463
637.151 .0312183
637.910 .0311901
638.668 .0311619
639.427 .0311336
640.185 .0311054
640.943 .0310772
641.700 .0310493
642.457 .0310218
643.214 .0309947
643.971 .0309683
644.727 .0309423
645.483 .0309170
646.239 .0308921
646.994 .0308676
647.750 .0308434
648.505 .0308196
649.259 .0307960
650.014 .0307726
650.768 .0307494
651.521 .0307264
652.275 .0307037
653.028 .0306813
653.781 .0306590
654.534 .0306370
655.286 .0306151
656.039 .0305935
656.791 .0305720
657.542 .0305507
658.294 .0305296
659.045 .0305086
659.796 .0304879
660.546 .0304672
661.297 .0304466
662.047 .0304262
662.796 .0304059
663.546 .0303858
664.295 .0303659
665.044 .0303463
665.793 .0303269
666.542 .0303081
667.290 .0302896
668.038 .0302715
668.786 .0302538
669.533 .0302364
670.281 .0302192
671.028 .0302022
671.774 .0301855
672.521 .0301690
673.267 .0301528
674.013 .0301369
674.759 .0301213
675.505 .0301062
676.250 .0300916
676.995 .0300773
677.740 .0300635
678.484 .0300501
679.229 .0300369
679.973 .0300239
680.717 .0300111
681.460 .0299984
682.204 .0299858
682.947 .0299732
683.690 .0299604
684.433 .0299474
685.175 .0299342
685.917 .0299207
686.659 .0299068
687.401 .0298924
688.142 .0298775
688.884 .0298620
689.625 .0298459
690.365 .0298290
691.106 .0298113
691.846 .0297928
692.586 .0297732
693.326 .0297527
694.066 .0297312
694.805 .0297088
695.545 .0296857
696.284 .0296619
697.022 .0296375
697.761 .0296128
698.499 .0295878
699.237 .0295625
699.975 .0295370
700.713 .0295113
701.450 .0294855
702.187 .0294595
702.924 .0294334
703.661 .0294073
704.397 .0293813
705.133 .0293555
705.869 .0293300
706.605 .0293047
707.341 .0292797
708.076 .0292551
708.811 .0292308
709.546 .0292067
710.281 .0291829
711.015 .0291593
711.749 .0291361
712.483 .0291131
713.217 .0290904
713.950 .0290681
714.684 .0290461
715.417 .0290244
716.150 .0290031
716.882 .0289821
717.615 .0289615
718.347 .0289413
719.079 .0289214
719.811 .0289020
720.542 .0288828
721.273 .0288639
722.005 .0288452
722.735 .0288267
723.466 .0288084
724.196 .0287902
724.927 .0287722
725.656 .0287545
726.386 .0287372
727.116 .0287203
727.845 .0287038
728.574 .0286879
729.303 .0286724
730.031 .0286574
730.760 .0286429
731.488 .0286287
732.216 .0286150
732.944 .0286017
733.671 .0285890
734.398 .0285768
735.125 .0285653
735.852 .0285545
736.579 .0285444
737.305 .0285350
738.031 .0285264
738.757 .0285185
739.483 .0285112
740.208 .0285045
740.933 .0284983
741.658 .0284925
742.383 .0284871
743.108 .0284819
743.832 .0284768
744.556 .0284720
745.280 .0284672
746.004 .0284625
746.727 .0284578
747.450 .0284531
748.173 .0284483
748.896 .0284433
749.618 .0284380
750.340 .0284324
751.062 .0284263
751.784 .0284197
752.506 .0284125
753.227 .0284048
753.948 .0283965
754.669 .0283876
755.389 .0283782
756.110 .0283682
756.830 .0283577
757.550 .0283467
758.269 .0283354
758.989 .0283238
759.708 .0283119
760.427 .0282997
761.146 .0282872
761.864 .0282745
762.582 .0282614
763.300 .0282482
764.018 .0282347
764.736 .0282209
765.453 .0282071
766.170 .0281932
766.887 .0281793
767.603 .0281654
768.320 .0281517
769.036 .0281380
769.751 .0281243
770.467 .0281107
771.182 .0280972
771.897 .0280838
772.612 .0280705
773.327 .0280572
774.041 .0280441
774.755 .0280311
775.469 .0280182
776.183 .0280055
776.896 .0279929
777.609 .0279805
778.322 .0279683
779.035 .0279563
779.747 .0279445
780.459 .0279329
781.171 .0279215
781.882 .0279102
782.594 .0278989
783.305 .0278877
784.016 .0278764
784.726 .0278649
785.436 .0278533
786.147 .0278351
786.856 .0278227
787.566 .0278100
788.275 .0277968
788.984 .0277832
789.693 .0277692
790.401 .0277545
791.110 .0277392
791.818 .0277233
792.525 .0277067
793.233 .0276894
793.940 .0276714
794.647 .0276603
795.353 .0276416
796.060 .0276223
796.766 .0276025
797.472 .0275822
798.177 .0275614
798.883 .0275402
799.588 .0275185
800.292 .0274965
800.997 .0274741
801.701 .0274515
802.405 .0274288
803.109 .0274060
803.812 .0273832
804.515 .0273604
805.218 .0273378
805.921 .0273153
806.623 .0272931
807.325 .0272710
808.027 .0272493
808.728 .0272279
809.429 .0272069
810.130 .0271863
810.831 .0271662
811.531 .0271466
812.231 .0271275
812.931 .0271090
813.630 .0270909
814.330 .0270734
815.029 .0270565
815.727 .0270402
816.426 .0270246
817.124 .0270097
817.821 .0269956
818.519 .0269823
819.216 .0269698
819.913 .0269580
820.609 .0269471
821.306 .0269370
822.002 .0269277
822.697 .0269193
823.393 .0269118
824.088 .0269054
824.783 .0268999
825.477 .0268954
826.171 .0268918
826.865 .0268890
827.559 .0268872
828.252 .0268861
828.945 .0268856
829.638 .0268859
830.330 .0268868
831.023 .0268882
831.714 .0268901
832.406 .0268925
833.097 .0268953
833.788 .0268984
834.479 .0269018
835.169 .0269054
835.859 .0269091
836.548 .0269130
837.238 .0269169
837.927 .0269208
838.615 .0269247
839.304 .0269284
839.992 .0269319
840.680 .0269350
841.367 .0269378
842.054 .0269400
842.741 .0269419
843.428 .0269433
844.114 .0269443
844.800 .0269449
845.485 .0269450
846.170 .0269447
846.855 .0269439
847.540 .0269425
848.224 .0269406
848.908 .0269382
849.592 .0269352
850.275 .0269318
850.958 .0269278
851.641 .0269234
852.323 .0269185
853.005 .0269132
853.687 .0269073
854.368 .0269010
855.049 .0268943
855.730 .0268871
856.410 .0268796
857.090 .0268716
857.769 .0268634
858.449 .0268549
859.128 .0268461
859.806 .0268370
860.485 .0268278
861.163 .0268182
861.840 .0268085
862.518 .0267987
863.195 .0267887
863.871 .0267787
864.548 .0267687
865.224 .0267587
865.899 .0267488
866.574 .0267388
867.249 .0267289
867.924 .0267189
868.598 .0267089
869.272 .0266988
869.946 .0266887
870.619 .0266785
871.292 .0266682
871.964 .0266579
872.636 .0266476
873.308 .0266373
873.979 .0266269
874.651 .0266166
875.321 .0266062
875.992 .0265959
876.662 .0265855
877.331 .0265750
878.001 .0265645
878.670 .0265538
879.338 .0265431
880.007 .0265321
880.675 .0265210
881.342 .0265097
882.009 .0264984
882.676 .0264869
883.343 .0264754
884.009 .0264639
884.675 .0264524
885.340 .0264409
886.005 .0264293
886.670 .0264177
887.334 .0264061
887.998 .0263943
888.662 .0263825
889.325 .0263705
889.988 .0263586
890.650 .0263466
891.312 .0263345
891.974 .0263223
892.636 .0263101
893.297 .0262976
893.957 .0262849
894.618 .0262719
895.278 .0262585
895.937 .0262447
896.596 .0262304
897.255 .0262156
897.914 .0262001
898.572 .0261839
899.230 .0261670
899.887 .0261492
900.544 .0261306
901.201 .0261111
901.857 .0260780
902.513 .0260564
903.168 .0260340
903.823 .0260109
904.478 .0259871
905.132 .0259627
905.786 .0259376
906.440 .0259119
907.093 .0258858
907.746 .0258592
908.399 .0258322
909.051 .0258051
909.703 .0257778
910.354 .0257644
911.005 .0257373
911.656 .0257102
912.306 .0256833
912.956 .0256565
913.605 .0256300
914.254 .0256039
914.903 .0255780
915.551 .0255526
916.199 .0255276
916.847 .0255030
917.494 .0254788
918.141 .0254549
918.788 .0254314
919.434 .0254083
920.079 .0253855
920.725 .0253631
921.370 .0253411
922.014 .0253194
922.658 .0252980
923.302 .0252769
923.946 .0252561
924.589 .0252355
925.231 .0252151
925.873 .0251949
926.515 .0251749
927.157 .0251551
927.798 .0251357
928.439 .0251167
929.079 .0250981
929.719 .0250799
930.359 .0250621
930.998 .0250448
931.637 .0250279
932.275 .0250114
932.913 .0249953
933.551 .0249798
934.188 .0249649
934.825 .0249507
935.462 .0249373
936.098 .0249247
936.733 .0249130
937.369 .0249020
938.004 .0248919
938.638 .0248825
939.273 .0248739
939.907 .0248661
940.540 .0248591
941.173 .0248530
941.806 .0248478
942.438 .0248436
943.070 .0248403
943.702 .0248380
944.333 .0248365
944.964 .0248356
945.594 .0248354
946.224 .0248358
946.854 .0248367
947.483 .0248380
948.112 .0248398
948.741 .0248421
949.369 .0248449
949.996 .0248481
950.624 .0248516
951.251 .0248555
951.878 .0248595
952.504 .0248636
953.130 .0248678
953.755 .0248721
954.380 .0248764
955.005 .0248809
955.629 .0248854
956.253 .0248902
956.877 .0248950
957.500 .0249000
958.123 .0249049
958.746 .0249098
959.368 .0249145
959.990 .0249192
960.611 .0249238
961.232 .0249284
961.853 .0249329
962.473 .0249375
963.093 .0249422
963.712 .0249470
964.331 .0249518
964.950 .0249567
965.569 .0249616
966.187 .0249665
966.804 .0249714
967.422 .0249762
968.039 .0249811
968.655 .0249860
969.272 .0249909
969.887 .0249958
970.503 .0250007
971.118 .0250056
971.733 .0250104
972.347 .0250150
972.961 .0250194
973.575 .0250237
974.188 .0250277
974.801 .0250315
975.414 .0250351
976.026 .0250384
976.638 .0250414
977.250 .0250441
977.861 .0250463
978.472 .0250481
979.083 .0250494
979.693 .0250502
980.303 .0250506
980.912 .0250489
981.521 .0250480
982.130 .0250467
982.738 .0250449
983.346 .0250429
983.954 .0250405
984.562 .0250380
985.169 .0250354
985.775 .0250329
986.382 .0250304
986.988 .0250281
987.594 .0250260
988.199 .0250241
988.804 .0250225
989.409 .0250225
990.013 .0250214
990.617 .0250205
991.221 .0250199
991.824 .0250195
992.427 .0250193
993.030 .0250193
993.632 .0250195
994.234 .0250197
994.836 .0250201
995.438 .0250204
996.039 .0250208
996.640 .0250211
997.240 .0250214
997.840 .0250218
998.440 .0250223
999.040 .0250230
999.639 .0250237
1000.238 .0250246
1000.836 .0250256
1001.435 .0250265
1002.033 .0250274
1002.630 .0250280
1003.228 .0250282
1003.825 .0250281
1004.422 .0250275
1005.018 .0250264
1005.614 .0250248
1006.210 .0250226
1006.806 .0250198
1007.401 .0250165
1007.996 .0250125
1008.591 .0250078
1009.186 .0250026
1009.780 .0249967
1010.374 .0249901
1010.967 .0249830
1011.561 .0249753
1012.154 .0249673
1012.746 .0249590
1013.339 .0249505
1013.931 .0249419
1014.523 .0249332
1015.115 .0249246
1015.706 .0249158
1016.298 .0249070
1016.888 .0248982
1017.479 .0248892
1018.069 .0248802
1018.660 .0248711
1019.250 .0248619
1019.839 .0248529
1020.429 .0248439
1021.018 .0248351
1021.607 .0248264
1022.195 .0248177
1022.784 .0248091
1023.372 .0248006
1023.960 .0247920
1024.547 .0247835
1025.135 .0247749
1025.722 .0247664
1026.309 .0247579
1026.896 .0247494
1027.483 .0247409
1028.069 .0247324
1028.655 .0247239
1029.241 .0247153
1029.827 .0247065
1030.412 .0246976
1030.997 .0246884
1031.582 .0246790
1032.167 .0246693
1032.752 .0246594
1033.336 .0246492
1033.921 .0246388
1034.505 .0246280
1035.089 .0246169
1035.672 .0246055
1036.256 .0245938
1036.839 .0245817
1037.422 .0245693
1038.005 .0245566
1038.588 .0245434
1039.171 .0245300
1039.753 .0245162
1040.335 .0245021
1040.918 .0244876
1041.500 .0244729
1042.081 .0244579
1042.663 .0244428
1043.244 .0244276
1043.826 .0244125
1044.407 .0243976
1044.988 .0243829
1045.569 .0243685
1046.150 .0243545
1046.730 .0243408
1047.311 .0243274
1047.891 .0243144
1048.471 .0243018
1049.052 .0242896
1049.632 .0242779
1050.211 .0242666
1050.791 .0242560
1051.371 .0242460
1051.950 .0242366
1052.530 .0242278
1053.109 .0242194
1053.688 .0242115
1054.268 .0242039
1054.847 .0241967
1055.426 .0241899
1056.005 .0241837
1056.583 .0241780
1057.162 .0241730
1057.741 .0241686
1058.319 .0241649
1058.898 .0241617
1059.476 .0241589
1060.055 .0241563
1060.633 .0241538
1061.211 .0241514
1061.790 .0241491
1062.368 .0241468
1062.946 .0241445
1063.524 .0241424
1064.102 .0241404
1064.680 .0241383
1065.258 .0241362
1065.836 .0241339
1066.414 .0241313
1066.992 .0241283
1067.570 .0241249
1068.148 .0241211
1068.726 .0241172
1069.304 .0241132
1069.882 .0241092
1070.460 .0241055
1071.038 .0241021
1071.616 .0240989
1072.194 .0240958
1072.772 .0240928
1073.350 .0240898
1073.928 .0240869
1074.506 .0240840
1075.084 .0240812
1075.662 .0240789
1076.240 .0240771
1076.819 .0240759
1077.397 .0240755
1077.976 .0240757
1078.554 .0240767
1079.133 .0240782
1079.711 .0240803
1080.290 .0240831
1080.869 .0240865
1081.448 .0240907
1082.027 .0240958
1082.606 .0241019
1083.185 .0241092
1083.764 .0241175
1084.343 .0241270
1084.923 .0241374
1085.502 .0241486
1086.082 .0241604
1086.662 .0241729
1087.242 .0241860
1087.822 .0241998
1088.402 .0242144
1088.983 .0242297
1089.563 .0242458
1090.144 .0242627
1090.725 .0242804
1091.306 .0242988
1091.887 .0243179
1092.469 .0243376
1093.050 .0243580
1093.632 .0243791
1094.214 .0244011
1094.796 .0244240
1095.379 .0244479
1095.961 .0244728
1096.544 .0244985
1097.127 .0245250
1097.710 .0245521
1098.294 .0245798
1098.877 .0246080
1099.461 .0246365
1100.046 .0246653
1100.630 .0246944
1101.215 .0247237
1101.800 .0247530
1102.385 .0247822
1102.970 .0248110
1103.556 .0248393
1104.142 .0248669
1104.728 .0248939
1105.315 .0249205
1105.902 .0249467
1106.489 .0249729
1107.077 .0249994
1107.664 .0250263
1108.253 .0250538
1108.841 .0250821
1109.430 .0251113
1110.019 .0251414
1110.609 .0251723
1111.198 .0252042
1111.789 .0252373
1112.379 .0252720
1112.970 .0253086
1113.561 .0253471
1114.153 .0253878
1114.745 .0254307
1115.338 .0254756
1115.931 .0255225
1116.524 .0255715
1117.117 .0256222
1117.712 .0256747
1118.306 .0257289
1118.901 .0257849
1119.496 .0258427
1120.092 .0259028
1120.689 .0259650
1121.285 .0260293
1121.882 .0260955
1122.480 .0261634
1123.078 .0262328
1123.677 .0263036
1124.276 .0263756
1124.875 .0264489
1125.476 .0265235
1126.076 .0265993
1126.677 .0266764
1127.279 .0267551
1127.881 .0268352
1128.484 .0269168
1129.087 .0269584
1129.691 .0270410
1130.295 .0271241
1130.900 .0272076
1131.505 .0272916
1132.111 .0273761
1132.718 .0274611
1133.325 .0275464
1133.933 .0276323
1134.541 .0277214
1135.150 .0278132
1135.760 .0278978
1136.370 .0279779
1136.981 .0280400
1137.592 .0281485
1138.204 .0282567
1138.817 .0283645
1139.431 .0284759
1140.045 .0285881
1140.660 .0286965
1141.275 .0287968
1141.891 .0289067
1142.508 .0290810
1143.126 .0292387
1143.744 .0291189
1144.363 .0290633
1144.983 .0296709
