Measurement Sequence started on: 15-12-46-377
Integration time: 28
Scans to Average: 2 
>>>>>Begin Spectral Data<<<<<
432.689 .0000100
433.621 .0000100
434.552 .0000100
435.482 .0000100
436.410 .0000100
437.337 .0000100
438.262 .0263869
439.187 .0559919
440.110 .0927915
441.031 .1342809
441.952 .1076162
442.871 .1123779
443.789 .1168059
444.705 .1209670
445.621 .1249086
446.535 .1286669
447.447 .1308804
448.359 .1314008
449.269 .1298667
450.178 .1260453
451.086 .1200120
451.993 .1122274
452.898 .1034541
453.803 .0945583
454.706 .0862772
455.608 .0790695
456.508 .0730895
457.408 .0690165
458.306 .0658725
459.204 .0633035
460.100 .0611325
460.995 .0592616
461.888 .0576266
462.781 .0561828
463.673 .0548964
464.563 .0537431
465.452 .0527036
466.340 .0517632
467.228 .0509095
468.114 .0501336
468.999 .0494273
469.882 .0487840
470.765 .0481971
471.647 .0476615
472.528 .0471727
473.407 .0467258
474.286 .0463177
475.163 .0459459
476.040 .0456077
476.915 .0453013
477.790 .0450244
478.663 .0447752
479.535 .0445524
480.407 .0443546
481.277 .0441802
482.147 .0440276
483.015 .0438948
483.883 .0437808
484.749 .0436839
485.615 .0436037
486.479 .0435391
487.343 .0434903
488.206 .0434578
489.067 .0434414
489.928 .0434415
490.788 .0434591
491.647 .0434945
492.505 .0435484
493.362 .0436213
494.218 .0437131
495.073 .0438239
495.928 .0440592
496.781 .0442197
497.634 .0444003
498.486 .0446019
499.337 .0448255
500.187 .0450729
501.036 .0453469
501.884 .0456500
502.731 .0459866
503.578 .0463605
504.424 .0466251
505.268 .0470669
506.113 .0475542
506.956 .0480897
507.798 .0486776
508.640 .0493234
509.480 .0500339
510.320 .0508182
511.160 .0516875
511.998 .0526543
512.836 .0537338
513.672 .0549420
514.508 .0562948
515.344 .0578074
516.178 .0594944
517.012 .0613703
517.845 .0634501
518.677 .0657472
519.508 .0682746
520.339 .0710408
521.169 .0740529
521.998 .0772965
522.826 .0807483
523.654 .0843715
524.481 .0881159
525.307 .0919182
526.133 .0957067
526.958 .0994024
527.782 .1029293
528.605 .1062144
529.428 .1091963
530.250 .1118180
531.072 .1140418
531.892 .1158351
532.712 .1171765
533.532 .1180554
534.350 .1184665
535.168 .1184078
535.986 .1178835
536.802 .1168946
537.618 .1154441
538.434 .1135356
539.249 .1111961
540.063 .1084597
540.876 .1053736
541.689 .1019976
542.501 .0984007
543.313 .0946583
544.124 .0908504
544.934 .0870500
545.744 .0833242
546.553 .0797276
547.361 .0763058
548.169 .0730839
548.976 .0700823
549.783 .0673097
550.589 .0647638
551.395 .0624367
552.200 .0603163
553.004 .0583850
553.808 .0566277
554.611 .0550305
555.414 .0535794
556.216 .0522591
557.018 .0510541
557.819 .0499498
558.619 .0489325
559.419 .0479903
560.218 .0471126
561.017 .0462902
561.815 .0455163
562.613 .0447859
563.410 .0440936
564.207 .0434363
565.003 .0428109
565.799 .0422137
566.594 .0416413
567.388 .0410916
568.182 .0405619
568.976 .0400493
569.769 .0395520
570.562 .0390688
571.354 .0385987
572.145 .0381420
572.936 .0376992
573.727 .0372716
574.517 .0368605
575.307 .0364674
576.096 .0360929
576.885 .0357379
577.673 .0354027
578.461 .0350869
579.248 .0347894
580.035 .0345095
580.821 .0342459
581.607 .0339975
582.392 .0337637
583.177 .0335445
583.962 .0333395
584.746 .0331488
585.529 .0329721
586.313 .0328089
587.095 .0326585
587.878 .0325197
588.660 .0323913
589.441 .0322721
590.222 .0321607
591.003 .0320564
591.783 .0319585
592.563 .0318667
593.342 .0317807
594.121 .0317004
594.899 .0316257
595.678 .0315562
596.455 .0314914
597.233 .0314310
598.009 .0313744
598.786 .0313212
599.562 .0312706
600.338 .0312223
601.113 .0311761
601.888 .0311120
602.663 .0310693
603.437 .0310281
604.211 .0309884
604.984 .0309500
605.757 .0309130
606.530 .0308772
607.302 .0308426
608.074 .0308090
608.845 .0307763
609.616 .0307444
610.387 .0307301
611.158 .0306993
611.928 .0306693
612.697 .0306400
613.467 .0306115
614.236 .0305838
615.004 .0305569
615.773 .0305310
616.541 .0305060
617.308 .0304820
618.076 .0304590
618.843 .0304370
619.609 .0304158
620.375 .0303953
621.141 .0303754
621.907 .0303560
622.672 .0303368
623.437 .0303180
624.202 .0302993
624.966 .0302809
625.730 .0302627
626.493 .0302447
627.257 .0302269
628.020 .0302093
628.782 .0301918
629.545 .0301746
630.307 .0301575
631.068 .0301405
631.830 .0301237
632.591 .0301070
633.352 .0300905
634.112 .0300742
634.872 .0300581
635.632 .0300421
636.392 .0300262
637.151 .0300104
637.910 .0299945
638.668 .0299787
639.427 .0299629
640.185 .0299473
640.943 .0299320
641.700 .0299169
642.457 .0299020
643.214 .0298874
643.971 .0298729
644.727 .0298584
645.483 .0298437
646.239 .0298288
646.994 .0298135
647.750 .0297980
648.505 .0297821
649.259 .0297661
650.014 .0297500
650.768 .0297339
651.521 .0297178
652.275 .0297016
653.028 .0296855
653.781 .0296694
654.534 .0296533
655.286 .0296369
656.039 .0296204
656.791 .0296037
657.542 .0295866
658.294 .0295693
659.045 .0295517
659.796 .0295338
660.546 .0295158
661.297 .0294975
662.047 .0294793
662.796 .0294609
663.546 .0294426
664.295 .0294243
665.044 .0294060
665.793 .0293875
666.542 .0293689
667.290 .0293500
668.038 .0293310
668.786 .0293117
669.533 .0292924
670.281 .0292731
671.028 .0292540
671.774 .0292351
672.521 .0292165
673.267 .0291983
674.013 .0291804
674.759 .0291629
675.505 .0291456
676.250 .0291286
676.995 .0291118
677.740 .0290951
678.484 .0290786
679.229 .0290624
679.973 .0290464
680.717 .0290307
681.460 .0290152
682.204 .0290001
682.947 .0289851
683.690 .0289702
684.433 .0289554
685.175 .0289406
685.917 .0289257
686.659 .0289108
687.401 .0288958
688.142 .0288806
688.884 .0288655
689.625 .0288504
690.365 .0288355
691.106 .0288208
691.846 .0288063
692.586 .0287921
693.326 .0287783
694.066 .0287648
694.805 .0287517
695.545 .0287391
696.284 .0287269
697.022 .0287150
697.761 .0287035
698.499 .0286924
699.237 .0286816
699.975 .0286711
700.713 .0286610
701.450 .0286512
702.187 .0286416
702.924 .0286323
703.661 .0286231
704.397 .0286140
705.133 .0286049
705.869 .0285956
706.605 .0285862
707.341 .0285765
708.076 .0285665
708.811 .0285561
709.546 .0285454
710.281 .0285342
711.015 .0285226
711.749 .0285104
712.483 .0284978
713.217 .0284847
713.950 .0284712
714.684 .0284572
715.417 .0284429
716.150 .0284282
716.882 .0284130
717.615 .0283974
718.347 .0283812
719.079 .0283645
719.811 .0283471
720.542 .0283292
721.273 .0283108
722.005 .0282920
722.735 .0282729
723.466 .0282536
724.196 .0282342
724.927 .0282147
725.656 .0281951
726.386 .0281754
727.116 .0281556
727.845 .0281357
728.574 .0281156
729.303 .0280953
730.031 .0280750
730.760 .0280546
731.488 .0280342
732.216 .0280138
732.944 .0279936
733.671 .0279734
734.398 .0279535
735.125 .0279337
735.852 .0279142
736.579 .0278949
737.305 .0278758
738.031 .0278568
738.757 .0278379
739.483 .0278191
740.208 .0278002
740.933 .0277813
741.658 .0277624
742.383 .0277435
743.108 .0277246
743.832 .0277059
744.556 .0276873
745.280 .0276691
746.004 .0276510
746.727 .0276333
747.450 .0276158
748.173 .0275987
748.896 .0275817
749.618 .0275651
750.340 .0275488
751.062 .0275328
751.784 .0275172
752.506 .0275021
753.227 .0274873
753.948 .0274731
754.669 .0274594
755.389 .0274461
756.110 .0274332
756.830 .0274206
757.550 .0274084
758.269 .0273963
758.989 .0273845
759.708 .0273728
760.427 .0273614
761.146 .0273502
761.864 .0273393
762.582 .0273287
763.300 .0273185
764.018 .0273086
764.736 .0272990
765.453 .0272897
766.170 .0272807
766.887 .0272719
767.603 .0272634
768.320 .0272552
769.036 .0272473
769.751 .0272397
770.467 .0272323
771.182 .0272252
771.897 .0272182
772.612 .0272113
773.327 .0272045
774.041 .0271978
774.755 .0271911
775.469 .0271844
776.183 .0271778
776.896 .0271711
777.609 .0271645
778.322 .0271579
779.035 .0271512
779.747 .0271444
780.459 .0271374
781.171 .0271302
781.882 .0271228
782.594 .0271152
783.305 .0271074
784.016 .0270993
784.726 .0270911
785.436 .0270827
786.147 .0270704
786.856 .0270620
787.566 .0270535
788.275 .0270449
788.984 .0270363
789.693 .0270276
790.401 .0270187
791.110 .0270098
791.818 .0270007
792.525 .0269915
793.233 .0269819
793.940 .0269721
794.647 .0269662
795.353 .0269558
796.060 .0269452
796.766 .0269342
797.472 .0269228
798.177 .0269111
798.883 .0268989
799.588 .0268862
800.292 .0268731
800.997 .0268594
801.701 .0268450
802.405 .0268301
803.109 .0268145
803.812 .0267982
804.515 .0267814
805.218 .0267640
805.921 .0267461
806.623 .0267278
807.325 .0267091
808.027 .0266902
808.728 .0266710
809.429 .0266516
810.130 .0266320
810.831 .0266121
811.531 .0265919
812.231 .0265714
812.931 .0265506
813.630 .0265295
814.330 .0265081
815.029 .0264866
815.727 .0264649
816.426 .0264432
817.124 .0264215
817.821 .0263999
818.519 .0263783
819.216 .0263569
819.913 .0263355
820.609 .0263143
821.306 .0262933
822.002 .0262724
822.697 .0262516
823.393 .0262310
824.088 .0262105
824.783 .0261902
825.477 .0261700
826.171 .0261498
826.865 .0261298
827.559 .0261099
828.252 .0260901
828.945 .0260705
829.638 .0260511
830.330 .0260318
831.023 .0260126
831.714 .0259936
832.406 .0259745
833.097 .0259555
833.788 .0259365
834.479 .0259176
835.169 .0258989
835.859 .0258804
836.548 .0258622
837.238 .0258445
837.927 .0258273
838.615 .0258107
839.304 .0257946
839.992 .0257790
840.680 .0257640
841.367 .0257496
842.054 .0257357
842.741 .0257225
843.428 .0257100
844.114 .0256983
844.800 .0256873
845.485 .0256771
846.170 .0256677
846.855 .0256591
847.540 .0256511
848.224 .0256437
848.908 .0256369
849.592 .0256308
850.275 .0256252
850.958 .0256201
851.641 .0256155
852.323 .0256114
853.005 .0256076
853.687 .0256042
854.368 .0256009
855.049 .0255978
855.730 .0255948
856.410 .0255919
857.090 .0255891
857.769 .0255863
858.449 .0255837
859.128 .0255812
859.806 .0255789
860.485 .0255767
861.163 .0255747
861.840 .0255729
862.518 .0255713
863.195 .0255699
863.871 .0255688
864.548 .0255679
865.224 .0255672
865.899 .0255667
866.574 .0255665
867.249 .0255664
867.924 .0255664
868.598 .0255665
869.272 .0255668
869.946 .0255672
870.619 .0255676
871.292 .0255681
871.964 .0255685
872.636 .0255690
873.308 .0255694
873.979 .0255697
874.651 .0255698
875.321 .0255698
875.992 .0255697
876.662 .0255693
877.331 .0255687
878.001 .0255679
878.670 .0255669
879.338 .0255656
880.007 .0255640
880.675 .0255621
881.342 .0255601
882.009 .0255577
882.676 .0255552
883.343 .0255525
884.009 .0255496
884.675 .0255466
885.340 .0255433
886.005 .0255398
886.670 .0255360
887.334 .0255320
887.998 .0255276
888.662 .0255230
889.325 .0255180
889.988 .0255128
890.650 .0255072
891.312 .0255014
891.974 .0254953
892.636 .0254889
893.297 .0254822
893.957 .0254750
894.618 .0254674
895.278 .0254593
895.937 .0254507
896.596 .0254416
897.255 .0254319
897.914 .0254216
898.572 .0254107
899.230 .0253992
899.887 .0253870
900.544 .0253743
901.201 .0253609
901.857 .0253378
902.513 .0253226
903.168 .0253066
903.823 .0252900
904.478 .0252726
905.132 .0252545
905.786 .0252359
906.440 .0252167
907.093 .0251969
907.746 .0251768
908.399 .0251561
909.051 .0251351
909.703 .0251138
910.354 .0251021
911.005 .0250804
911.656 .0250584
912.306 .0250361
912.956 .0250137
913.605 .0249910
914.254 .0249683
914.903 .0249456
915.551 .0249228
916.199 .0249000
916.847 .0248772
917.494 .0248544
918.141 .0248316
918.788 .0248087
919.434 .0247860
920.079 .0247633
920.725 .0247407
921.370 .0247182
922.014 .0246958
922.658 .0246735
923.302 .0246512
923.946 .0246289
924.589 .0246064
925.231 .0245838
925.873 .0245609
926.515 .0245378
927.157 .0245145
927.798 .0244909
928.439 .0244672
929.079 .0244433
929.719 .0244193
930.359 .0243951
930.998 .0243707
931.637 .0243462
932.275 .0243214
932.913 .0242966
933.551 .0242716
934.188 .0242467
934.825 .0242218
935.462 .0241971
936.098 .0241725
936.733 .0241482
937.369 .0241241
938.004 .0241002
938.638 .0240765
939.273 .0240530
939.907 .0240296
940.540 .0240066
941.173 .0239838
941.806 .0239613
942.438 .0239393
943.070 .0239178
943.702 .0238968
944.333 .0238762
944.964 .0238561
945.594 .0238364
946.224 .0238171
946.854 .0237982
947.483 .0237797
948.112 .0237617
948.741 .0237443
949.369 .0237275
949.996 .0237113
950.624 .0236958
951.251 .0236808
951.878 .0236664
952.504 .0236524
953.130 .0236388
953.755 .0236256
954.380 .0236128
955.005 .0236006
955.629 .0235888
956.253 .0235777
956.877 .0235671
957.500 .0235570
958.123 .0235476
958.746 .0235386
959.368 .0235300
959.990 .0235220
960.611 .0235144
961.232 .0235073
961.853 .0235009
962.473 .0234950
963.093 .0234898
963.712 .0234853
964.331 .0234813
964.950 .0234777
965.569 .0234746
966.187 .0234717
966.804 .0234691
967.422 .0234668
968.039 .0234647
968.655 .0234628
969.272 .0234612
969.887 .0234600
970.503 .0234590
971.118 .0234584
971.733 .0234580
972.347 .0234578
972.961 .0234579
973.575 .0234583
974.188 .0234591
974.801 .0234601
975.414 .0234616
976.026 .0234635
976.638 .0234658
977.250 .0234686
977.861 .0234717
978.472 .0234752
979.083 .0234790
979.693 .0234831
980.303 .0234875
980.912 .0234958
981.521 .0235010
982.130 .0235065
982.738 .0235122
983.346 .0235183
983.954 .0235248
984.562 .0235316
985.169 .0235389
985.775 .0235465
986.382 .0235546
986.988 .0235632
987.594 .0235723
988.199 .0235818
988.804 .0235917
989.409 .0235977
990.013 .0236082
990.617 .0236191
991.221 .0236302
991.824 .0236415
992.427 .0236530
993.030 .0236646
993.632 .0236763
994.234 .0236880
994.836 .0236997
995.438 .0237114
996.039 .0237229
996.640 .0237344
997.240 .0237459
997.840 .0237572
998.440 .0237685
999.040 .0237797
999.639 .0237908
1000.238 .0238018
1000.836 .0238126
1001.435 .0238233
1002.033 .0238338
1002.630 .0238442
1003.228 .0238542
1003.825 .0238641
1004.422 .0238736
1005.018 .0238829
1005.614 .0238920
1006.210 .0239007
1006.806 .0239092
1007.401 .0239173
1007.996 .0239252
1008.591 .0239328
1009.186 .0239402
1009.780 .0239473
1010.374 .0239543
1010.967 .0239611
1011.561 .0239676
1012.154 .0239740
1012.746 .0239801
1013.339 .0239859
1013.931 .0239915
1014.523 .0239967
1015.115 .0240017
1015.706 .0240063
1016.298 .0240107
1016.888 .0240149
1017.479 .0240189
1018.069 .0240227
1018.660 .0240264
1019.250 .0240299
1019.839 .0240332
1020.429 .0240364
1021.018 .0240393
1021.607 .0240419
1022.195 .0240443
1022.784 .0240463
1023.372 .0240480
1023.960 .0240495
1024.547 .0240507
1025.135 .0240517
1025.722 .0240525
1026.309 .0240530
1026.896 .0240531
1027.483 .0240529
1028.069 .0240523
1028.655 .0240513
1029.241 .0240498
1029.827 .0240479
1030.412 .0240456
1030.997 .0240431
1031.582 .0240403
1032.167 .0240373
1032.752 .0240342
1033.336 .0240308
1033.921 .0240273
1034.505 .0240233
1035.089 .0240190
1035.672 .0240142
1036.256 .0240089
1036.839 .0240031
1037.422 .0239968
1038.005 .0239901
1038.588 .0239830
1039.171 .0239756
1039.753 .0239678
1040.335 .0239599
1040.918 .0239517
1041.500 .0239433
1042.081 .0239347
1042.663 .0239259
1043.244 .0239169
1043.826 .0239079
1044.407 .0238988
1044.988 .0238897
1045.569 .0238807
1046.150 .0238718
1046.730 .0238629
1047.311 .0238540
1047.891 .0238452
1048.471 .0238363
1049.052 .0238274
1049.632 .0238183
1050.211 .0238091
1050.791 .0237996
1051.371 .0237901
1051.950 .0237805
1052.530 .0237710
1053.109 .0237616
1053.688 .0237524
1054.268 .0237434
1054.847 .0237347
1055.426 .0237263
1056.005 .0237180
1056.583 .0237097
1057.162 .0237014
1057.741 .0236930
1058.319 .0236845
1058.898 .0236758
1059.476 .0236670
1060.055 .0236581
1060.633 .0236490
1061.211 .0236397
1061.790 .0236302
1062.368 .0236202
1062.946 .0236099
1063.524 .0235991
1064.102 .0235878
1064.680 .0235760
1065.258 .0235639
1065.836 .0235515
1066.414 .0235390
1066.992 .0235266
1067.570 .0235142
1068.148 .0235018
1068.726 .0234894
1069.304 .0234770
1069.882 .0234644
1070.460 .0234517
1071.038 .0234390
1071.616 .0234261
1072.194 .0234133
1072.772 .0234005
1073.350 .0233879
1073.928 .0233756
1074.506 .0233635
1075.084 .0233516
1075.662 .0233399
1076.240 .0233284
1076.819 .0233172
1077.397 .0233063
1077.976 .0232960
1078.554 .0232864
1079.133 .0232778
1079.711 .0232701
1080.290 .0232636
1080.869 .0232581
1081.448 .0232535
1082.027 .0232497
1082.606 .0232464
1083.185 .0232434
1083.764 .0232406
1084.343 .0232382
1084.923 .0232363
1085.502 .0232350
1086.082 .0232343
1086.662 .0232345
1087.242 .0232353
1087.822 .0232367
1088.402 .0232386
1088.983 .0232408
1089.563 .0232431
1090.144 .0232456
1090.725 .0232484
1091.306 .0232517
1091.887 .0232559
1092.469 .0232612
1093.050 .0232676
1093.632 .0232753
1094.214 .0232842
1094.796 .0232940
1095.379 .0233046
1095.961 .0233158
1096.544 .0233273
1097.127 .0233391
1097.710 .0233512
1098.294 .0233636
1098.877 .0233765
1099.461 .0233900
1100.046 .0234042
1100.630 .0234192
1101.215 .0234349
1101.800 .0234511
1102.385 .0234677
1102.970 .0234846
1103.556 .0235017
1104.142 .0235191
1104.728 .0235368
1105.315 .0235550
1105.902 .0235738
1106.489 .0235936
1107.077 .0236144
1107.664 .0236365
1108.253 .0236598
1108.841 .0236843
1109.430 .0237098
1110.019 .0237360
1110.609 .0237629
1111.198 .0237905
1111.789 .0238186
1112.379 .0238473
1112.970 .0238768
1113.561 .0239074
1114.153 .0239389
1114.745 .0239716
1115.338 .0240056
1115.931 .0240410
1116.524 .0240777
1117.117 .0241158
1117.712 .0241552
1118.306 .0241959
1118.901 .0242382
1119.496 .0242820
1120.092 .0243278
1120.689 .0243755
1121.285 .0244255
1121.882 .0244780
1122.480 .0245331
1123.078 .0245909
1123.677 .0246513
1124.276 .0247143
1124.875 .0247797
1125.476 .0248476
1126.076 .0249178
1126.677 .0249905
1127.279 .0250657
1127.881 .0251435
1128.484 .0252240
1129.087 .0252569
1129.691 .0253413
1130.295 .0254282
1130.900 .0255175
1131.505 .0256092
1132.111 .0257030
1132.718 .0257988
1133.325 .0258962
1133.933 .0259948
1134.541 .0260990
1135.150 .0262024
1135.760 .0263089
1136.370 .0264055
1136.981 .0265907
1137.592 .0267146
1138.204 .0268332
1138.817 .0269483
1139.431 .0270631
1140.045 .0271739
1140.660 .0272833
1141.275 .0273826
1141.891 .0274732
1142.508 .0276859
1143.126 .0277204
1143.744 .0278666
1144.363 .0276490
1144.983 .0276270
