Measurement Sequence started on: 15-12-46-377
Integration time: 28
Scans to Average: 2 
>>>>>Begin Spectral Data<<<<<
432.689 .0000100
433.621 .0000100
434.552 .0000100
435.482 .0000100
436.410 .0000100
437.337 .0000100
438.262 .0244219
439.187 .0517849
440.110 .0857338
441.031 .1239920
441.952 .0992789
442.871 .1036656
443.789 .1077427
444.705 .1115740
445.621 .1152052
446.535 .1186719
447.447 .1207161
448.359 .1212037
449.269 .1198058
450.178 .1163076
451.086 .1107782
451.993 .1036430
452.898 .0956062
453.803 .0874653
454.706 .0798991
455.608 .0733282
456.508 .0678943
457.408 .0642259
458.306 .0614178
459.204 .0591425
460.100 .0572385
460.995 .0556160
461.888 .0542135
462.781 .0529874
463.673 .0519048
464.563 .0509409
465.452 .0500770
466.340 .0492976
467.228 .0485921
468.114 .0479526
468.999 .0473720
469.882 .0468446
470.765 .0463658
471.647 .0459311
472.528 .0455371
473.407 .0451806
474.286 .0448587
475.163 .0445693
476.040 .0443091
476.915 .0440761
477.790 .0438678
478.663 .0436824
479.535 .0435177
480.407 .0433719
481.277 .0432434
482.147 .0431305
483.015 .0430318
483.883 .0429473
484.749 .0428763
485.615 .0428193
486.479 .0427767
487.343 .0427492
488.206 .0427375
489.067 .0427419
489.928 .0427629
490.788 .0428011
491.647 .0428567
492.505 .0429303
493.362 .0430227
494.218 .0431349
495.073 .0432681
495.928 .0435479
496.781 .0437378
497.634 .0439513
498.486 .0441891
499.337 .0444519
500.187 .0447399
501.036 .0450544
501.884 .0453972
502.731 .0457717
503.578 .0461812
504.424 .0464599
505.268 .0469387
506.113 .0474657
506.956 .0480451
507.798 .0486832
508.640 .0493853
509.480 .0501593
510.320 .0510132
511.160 .0519565
511.998 .0529993
512.836 .0541562
513.672 .0554405
514.508 .0568690
515.344 .0584610
516.178 .0602347
517.012 .0622088
517.845 .0644046
518.677 .0668374
519.508 .0695213
520.339 .0724622
521.169 .0756619
521.998 .0790963
522.826 .0827375
523.654 .0865390
524.481 .0904440
525.307 .0943882
526.133 .0982983
526.958 .1020923
527.782 .1056957
528.605 .1090358
529.428 .1120480
530.250 .1146726
531.072 .1168721
531.892 .1186099
532.712 .1198647
533.532 .1206230
534.350 .1208791
535.168 .1206313
535.986 .1198864
536.802 .1186474
537.618 .1169234
538.434 .1147271
539.249 .1120947
540.063 .1090660
540.876 .1056980
541.689 .1020565
542.501 .0982131
543.313 .0942453
544.124 .0902359
544.934 .0862568
545.744 .0823757
546.553 .0786511
547.361 .0751313
548.169 .0718426
548.976 .0688081
549.783 .0660322
550.589 .0635123
551.395 .0612360
552.200 .0591845
553.004 .0573342
553.808 .0556656
554.611 .0541591
555.414 .0527947
556.216 .0515541
557.018 .0504204
557.819 .0493773
558.619 .0484116
559.419 .0475105
560.218 .0466651
561.017 .0458675
561.815 .0451120
562.613 .0443949
563.410 .0437117
564.207 .0430589
565.003 .0424335
565.799 .0418317
566.594 .0412506
567.388 .0406882
568.182 .0401431
568.976 .0396147
569.769 .0391029
570.562 .0386086
571.354 .0381326
572.145 .0376765
572.936 .0372411
573.727 .0368261
574.517 .0364315
575.307 .0360569
576.096 .0357004
576.885 .0353616
577.673 .0350396
578.461 .0347339
579.248 .0344443
580.035 .0341705
580.821 .0339126
581.607 .0336702
582.392 .0334432
583.177 .0332314
583.962 .0330339
584.746 .0328501
585.529 .0326788
586.313 .0325192
587.095 .0323704
587.878 .0322317
588.660 .0321028
589.441 .0319834
590.222 .0318734
591.003 .0317722
591.783 .0316798
592.563 .0315957
593.342 .0315192
594.121 .0314496
594.899 .0313861
595.678 .0313279
596.455 .0312742
597.233 .0312243
598.009 .0311777
598.786 .0311340
599.562 .0310929
600.338 .0310541
601.113 .0310170
601.888 .0309656
602.663 .0309315
603.437 .0308984
604.211 .0308660
604.984 .0308340
605.757 .0308023
606.530 .0307708
607.302 .0307392
608.074 .0307076
608.845 .0306760
609.616 .0306444
610.387 .0306283
611.158 .0305967
611.928 .0305652
612.697 .0305339
613.467 .0305028
614.236 .0304720
615.004 .0304415
615.773 .0304112
616.541 .0303812
617.308 .0303515
618.076 .0303222
618.843 .0302932
619.609 .0302646
620.375 .0302365
621.141 .0302088
621.907 .0301816
622.672 .0301549
623.437 .0301288
624.202 .0301032
624.966 .0300782
625.730 .0300539
626.493 .0300301
627.257 .0300070
628.020 .0299844
628.782 .0299624
629.545 .0299409
630.307 .0299200
631.068 .0298996
631.830 .0298797
632.591 .0298604
633.352 .0298418
634.112 .0298238
634.872 .0298065
635.632 .0297898
636.392 .0297737
637.151 .0297581
637.910 .0297430
638.668 .0297284
639.427 .0297144
640.185 .0297008
640.943 .0296879
641.700 .0296757
642.457 .0296642
643.214 .0296532
643.971 .0296430
644.727 .0296334
645.483 .0296242
646.239 .0296155
646.994 .0296070
647.750 .0295987
648.505 .0295904
649.259 .0295820
650.014 .0295733
650.768 .0295643
651.521 .0295548
652.275 .0295446
653.028 .0295338
653.781 .0295222
654.534 .0295097
655.286 .0294964
656.039 .0294821
656.791 .0294667
657.542 .0294503
658.294 .0294329
659.045 .0294146
659.796 .0293955
660.546 .0293756
661.297 .0293550
662.047 .0293339
662.796 .0293122
663.546 .0292901
664.295 .0292676
665.044 .0292448
665.793 .0292217
666.542 .0291985
667.290 .0291752
668.038 .0291520
668.786 .0291290
669.533 .0291063
670.281 .0290839
671.028 .0290618
671.774 .0290402
672.521 .0290190
673.267 .0289981
674.013 .0289776
674.759 .0289573
675.505 .0289373
676.250 .0289174
676.995 .0288977
677.740 .0288781
678.484 .0288585
679.229 .0288390
679.973 .0288196
680.717 .0288002
681.460 .0287810
682.204 .0287618
682.947 .0287427
683.690 .0287235
684.433 .0287043
685.175 .0286849
685.917 .0286653
686.659 .0286456
687.401 .0286258
688.142 .0286060
688.884 .0285862
689.625 .0285665
690.365 .0285469
691.106 .0285276
691.846 .0285085
692.586 .0284895
693.326 .0284707
694.066 .0284521
694.805 .0284335
695.545 .0284151
696.284 .0283969
697.022 .0283789
697.761 .0283612
698.499 .0283438
699.237 .0283270
699.975 .0283108
700.713 .0282954
701.450 .0282807
702.187 .0282669
702.924 .0282539
703.661 .0282417
704.397 .0282303
705.133 .0282197
705.869 .0282097
706.605 .0282003
707.341 .0281915
708.076 .0281832
708.811 .0281754
709.546 .0281679
710.281 .0281608
711.015 .0281540
711.749 .0281475
712.483 .0281411
713.217 .0281347
713.950 .0281282
714.684 .0281216
715.417 .0281147
716.150 .0281074
716.882 .0280996
717.615 .0280912
718.347 .0280822
719.079 .0280724
719.811 .0280620
720.542 .0280509
721.273 .0280391
722.005 .0280267
722.735 .0280137
723.466 .0280001
724.196 .0279860
724.927 .0279713
725.656 .0279561
726.386 .0279404
727.116 .0279243
727.845 .0279078
728.574 .0278910
729.303 .0278740
730.031 .0278567
730.760 .0278394
731.488 .0278220
732.216 .0278046
732.944 .0277872
733.671 .0277698
734.398 .0277526
735.125 .0277354
735.852 .0277184
736.579 .0277014
737.305 .0276844
738.031 .0276674
738.757 .0276504
739.483 .0276332
740.208 .0276160
740.933 .0275985
741.658 .0275808
742.383 .0275629
743.108 .0275447
743.832 .0275263
744.556 .0275076
745.280 .0274886
746.004 .0274693
746.727 .0274496
747.450 .0274296
748.173 .0274091
748.896 .0273882
749.618 .0273670
750.340 .0273453
751.062 .0273233
751.784 .0273011
752.506 .0272786
753.227 .0272561
753.948 .0272335
754.669 .0272109
755.389 .0271884
756.110 .0271661
756.830 .0271440
757.550 .0271222
758.269 .0271006
758.989 .0270793
759.708 .0270583
760.427 .0270377
761.146 .0270175
761.864 .0269977
762.582 .0269784
763.300 .0269595
764.018 .0269411
764.736 .0269231
765.453 .0269055
766.170 .0268884
766.887 .0268716
767.603 .0268553
768.320 .0268394
769.036 .0268240
769.751 .0268093
770.467 .0267951
771.182 .0267817
771.897 .0267690
772.612 .0267572
773.327 .0267461
774.041 .0267359
774.755 .0267264
775.469 .0267177
776.183 .0267097
776.896 .0267024
777.609 .0266958
778.322 .0266898
779.035 .0266844
779.747 .0266797
780.459 .0266755
781.171 .0266719
781.882 .0266688
782.594 .0266661
783.305 .0266639
784.016 .0266621
784.726 .0266606
785.436 .0266593
786.147 .0266576
786.856 .0266569
787.566 .0266565
788.275 .0266562
788.984 .0266561
789.693 .0266561
790.401 .0266563
791.110 .0266565
791.818 .0266569
792.525 .0266574
793.233 .0266579
793.940 .0266583
794.647 .0266587
795.353 .0266586
796.060 .0266582
796.766 .0266575
797.472 .0266564
798.177 .0266548
798.883 .0266527
799.588 .0266502
800.292 .0266473
800.997 .0266440
801.701 .0266402
802.405 .0266360
803.109 .0266314
803.812 .0266262
804.515 .0266203
805.218 .0266139
805.921 .0266067
806.623 .0265988
807.325 .0265902
808.027 .0265808
808.728 .0265707
809.429 .0265599
810.130 .0265484
810.831 .0265363
811.531 .0265235
812.231 .0265101
812.931 .0264961
813.630 .0264816
814.330 .0264667
815.029 .0264514
815.727 .0264357
816.426 .0264198
817.124 .0264036
817.821 .0263872
818.519 .0263705
819.216 .0263536
819.913 .0263365
820.609 .0263191
821.306 .0263015
822.002 .0262837
822.697 .0262658
823.393 .0262478
824.088 .0262296
824.783 .0262114
825.477 .0261931
826.171 .0261748
826.865 .0261564
827.559 .0261379
828.252 .0261195
828.945 .0261010
829.638 .0260827
830.330 .0260645
831.023 .0260465
831.714 .0260286
832.406 .0260110
833.097 .0259935
833.788 .0259761
834.479 .0259587
835.169 .0259413
835.859 .0259237
836.548 .0259059
837.238 .0258880
837.927 .0258697
838.615 .0258512
839.304 .0258323
839.992 .0258129
840.680 .0257931
841.367 .0257728
842.054 .0257519
842.741 .0257306
843.428 .0257088
844.114 .0256866
844.800 .0256642
845.485 .0256415
846.170 .0256188
846.855 .0255960
847.540 .0255732
848.224 .0255505
848.908 .0255278
849.592 .0255053
850.275 .0254830
850.958 .0254609
851.641 .0254392
852.323 .0254178
853.005 .0253969
853.687 .0253765
854.368 .0253567
855.049 .0253374
855.730 .0253188
856.410 .0253007
857.090 .0252831
857.769 .0252662
858.449 .0252498
859.128 .0252341
859.806 .0252190
860.485 .0252046
861.163 .0251909
861.840 .0251779
862.518 .0251655
863.195 .0251537
863.871 .0251425
864.548 .0251318
865.224 .0251216
865.899 .0251117
866.574 .0251024
867.249 .0250935
867.924 .0250850
868.598 .0250771
869.272 .0250698
869.946 .0250630
870.619 .0250569
871.292 .0250513
871.964 .0250463
872.636 .0250421
873.308 .0250385
873.979 .0250356
874.651 .0250336
875.321 .0250325
875.992 .0250322
876.662 .0250327
877.331 .0250341
878.001 .0250362
878.670 .0250391
879.338 .0250426
880.007 .0250466
880.675 .0250512
881.342 .0250562
882.009 .0250617
882.676 .0250676
883.343 .0250738
884.009 .0250803
884.675 .0250871
885.340 .0250940
886.005 .0251012
886.670 .0251084
887.334 .0251157
887.998 .0251231
888.662 .0251306
889.325 .0251380
889.988 .0251454
890.650 .0251527
891.312 .0251600
891.974 .0251671
892.636 .0251740
893.297 .0251808
893.957 .0251873
894.618 .0251936
895.278 .0251997
895.937 .0252056
896.596 .0252113
897.255 .0252167
897.914 .0252219
898.572 .0252267
899.230 .0252313
899.887 .0252354
900.544 .0252391
901.201 .0252423
901.857 .0252448
902.513 .0252465
903.168 .0252477
903.823 .0252482
904.478 .0252481
905.132 .0252472
905.786 .0252456
906.440 .0252432
907.093 .0252399
907.746 .0252357
908.399 .0252307
909.051 .0252247
909.703 .0252179
910.354 .0252122
911.005 .0252044
911.656 .0251958
912.306 .0251866
912.956 .0251767
913.605 .0251662
914.254 .0251550
914.903 .0251432
915.551 .0251308
916.199 .0251178
916.847 .0251042
917.494 .0250900
918.141 .0250753
918.788 .0250602
919.434 .0250445
920.079 .0250284
920.725 .0250119
921.370 .0249950
922.014 .0249776
922.658 .0249599
923.302 .0249419
923.946 .0249236
924.589 .0249050
925.231 .0248861
925.873 .0248670
926.515 .0248476
927.157 .0248280
927.798 .0248080
928.439 .0247877
929.079 .0247671
929.719 .0247460
930.359 .0247245
930.998 .0247025
931.637 .0246800
932.275 .0246570
932.913 .0246335
933.551 .0246094
934.188 .0245849
934.825 .0245599
935.462 .0245345
936.098 .0245087
936.733 .0244825
937.369 .0244560
938.004 .0244291
938.638 .0244020
939.273 .0243747
939.907 .0243474
940.540 .0243199
941.173 .0242925
941.806 .0242652
942.438 .0242382
943.070 .0242113
943.702 .0241847
944.333 .0241584
944.964 .0241323
945.594 .0241065
946.224 .0240810
946.854 .0240558
947.483 .0240311
948.112 .0240067
948.741 .0239828
949.369 .0239594
949.996 .0239365
950.624 .0239139
951.251 .0238917
951.878 .0238699
952.504 .0238483
953.130 .0238271
953.755 .0238061
954.380 .0237854
955.005 .0237650
955.629 .0237450
956.253 .0237251
956.877 .0237055
957.500 .0236861
958.123 .0236668
958.746 .0236476
959.368 .0236285
959.990 .0236095
960.611 .0235907
961.232 .0235722
961.853 .0235538
962.473 .0235357
963.093 .0235179
963.712 .0235002
964.331 .0234828
964.950 .0234655
965.569 .0234485
966.187 .0234317
966.804 .0234152
967.422 .0233990
968.039 .0233832
968.655 .0233679
969.272 .0233531
969.887 .0233387
970.503 .0233248
971.118 .0233113
971.733 .0232982
972.347 .0232855
972.961 .0232731
973.575 .0232611
974.188 .0232495
974.801 .0232382
975.414 .0232273
976.026 .0232168
976.638 .0232067
977.250 .0231968
977.861 .0231873
978.472 .0231780
979.083 .0231690
979.693 .0231602
980.303 .0231515
980.912 .0231400
981.521 .0231321
982.130 .0231246
982.738 .0231175
983.346 .0231109
983.954 .0231048
984.562 .0230992
985.169 .0230941
985.775 .0230897
986.382 .0230858
986.988 .0230826
987.594 .0230801
988.199 .0230782
988.804 .0230771
989.409 .0230784
990.013 .0230784
990.617 .0230791
991.221 .0230804
991.824 .0230824
992.427 .0230850
993.030 .0230882
993.632 .0230918
994.234 .0230959
994.836 .0231004
995.438 .0231053
996.039 .0231106
996.640 .0231163
997.240 .0231224
997.840 .0231289
998.440 .0231359
999.040 .0231433
999.639 .0231512
1000.238 .0231595
1000.836 .0231681
1001.435 .0231773
1002.033 .0231868
1002.630 .0231968
1003.228 .0232072
1003.825 .0232181
1004.422 .0232294
1005.018 .0232412
1005.614 .0232533
1006.210 .0232657
1006.806 .0232785
1007.401 .0232914
1007.996 .0233046
1008.591 .0233180
1009.186 .0233317
1009.780 .0233456
1010.374 .0233599
1010.967 .0233745
1011.561 .0233895
1012.154 .0234050
1012.746 .0234208
1013.339 .0234370
1013.931 .0234536
1014.523 .0234705
1015.115 .0234877
1015.706 .0235051
1016.298 .0235227
1016.888 .0235407
1017.479 .0235588
1018.069 .0235772
1018.660 .0235957
1019.250 .0236142
1019.839 .0236327
1020.429 .0236511
1021.018 .0236694
1021.607 .0236873
1022.195 .0237050
1022.784 .0237225
1023.372 .0237398
1023.960 .0237569
1024.547 .0237740
1025.135 .0237912
1025.722 .0238085
1026.309 .0238259
1026.896 .0238432
1027.483 .0238606
1028.069 .0238778
1028.655 .0238947
1029.241 .0239114
1029.827 .0239278
1030.412 .0239439
1030.997 .0239597
1031.582 .0239753
1032.167 .0239907
1032.752 .0240059
1033.336 .0240209
1033.921 .0240355
1034.505 .0240497
1035.089 .0240634
1035.672 .0240765
1036.256 .0240890
1036.839 .0241008
1037.422 .0241121
1038.005 .0241228
1038.588 .0241331
1039.171 .0241428
1039.753 .0241521
1040.335 .0241608
1040.918 .0241688
1041.500 .0241760
1042.081 .0241823
1042.663 .0241876
1043.244 .0241920
1043.826 .0241954
1044.407 .0241981
1044.988 .0242001
1045.569 .0242016
1046.150 .0242028
1046.730 .0242035
1047.311 .0242039
1047.891 .0242040
1048.471 .0242037
1049.052 .0242030
1049.632 .0242020
1050.211 .0242007
1050.791 .0241992
1051.371 .0241976
1051.950 .0241960
1052.530 .0241943
1053.109 .0241925
1053.688 .0241904
1054.268 .0241881
1054.847 .0241853
1055.426 .0241820
1056.005 .0241784
1056.583 .0241743
1057.162 .0241700
1057.741 .0241656
1058.319 .0241611
1058.898 .0241567
1059.476 .0241524
1060.055 .0241481
1060.633 .0241438
1061.211 .0241394
1061.790 .0241348
1062.368 .0241302
1062.946 .0241254
1063.524 .0241205
1064.102 .0241157
1064.680 .0241109
1065.258 .0241062
1065.836 .0241015
1066.414 .0240967
1066.992 .0240918
1067.570 .0240866
1068.148 .0240812
1068.726 .0240754
1069.304 .0240695
1069.882 .0240635
1070.460 .0240574
1071.038 .0240514
1071.616 .0240457
1072.194 .0240401
1072.772 .0240346
1073.350 .0240293
1073.928 .0240238
1074.506 .0240181
1075.084 .0240123
1075.662 .0240061
1076.240 .0239997
1076.819 .0239932
1077.397 .0239867
1077.976 .0239801
1078.554 .0239735
1079.133 .0239670
1079.711 .0239603
1080.290 .0239536
1080.869 .0239465
1081.448 .0239391
1082.027 .0239315
1082.606 .0239235
1083.185 .0239155
1083.764 .0239074
1084.343 .0238996
1084.923 .0238921
1085.502 .0238851
1086.082 .0238784
1086.662 .0238722
1087.242 .0238663
1087.822 .0238606
1088.402 .0238552
1088.983 .0238501
1089.563 .0238453
1090.144 .0238411
1090.725 .0238376
1091.306 .0238349
1091.887 .0238330
1092.469 .0238319
1093.050 .0238316
1093.632 .0238317
1094.214 .0238319
1094.796 .0238321
1095.379 .0238321
1095.961 .0238317
1096.544 .0238308
1097.127 .0238295
1097.710 .0238281
1098.294 .0238265
1098.877 .0238249
1099.461 .0238233
1100.046 .0238217
1100.630 .0238201
1101.215 .0238184
1101.800 .0238166
1102.385 .0238145
1102.970 .0238122
1103.556 .0238098
1104.142 .0238075
1104.728 .0238052
1105.315 .0238034
1105.902 .0238021
1106.489 .0238015
1107.077 .0238017
1107.664 .0238029
1108.253 .0238050
1108.841 .0238082
1109.430 .0238123
1110.019 .0238174
1110.609 .0238234
1111.198 .0238305
1111.789 .0238388
1112.379 .0238484
1112.970 .0238597
1113.561 .0238728
1114.153 .0238880
1114.745 .0239055
1115.338 .0239255
1115.931 .0239480
1116.524 .0239731
1117.117 .0240003
1117.712 .0240295
1118.306 .0240602
1118.901 .0240925
1119.496 .0241260
1120.092 .0241609
1120.689 .0241971
1121.285 .0242347
1121.882 .0242741
1122.480 .0243152
1123.078 .0243582
1123.677 .0244031
1124.276 .0244497
1124.875 .0244979
1125.476 .0245476
1126.076 .0245988
1126.677 .0246515
1127.279 .0247057
1127.881 .0247615
1128.484 .0248193
1129.087 .0248448
1129.691 .0249058
1130.295 .0249690
1130.900 .0250345
1131.505 .0251023
1132.111 .0251721
1132.718 .0252435
1133.325 .0253162
1133.933 .0253916
1134.541 .0254722
1135.150 .0255472
1135.760 .0256179
1136.370 .0256989
1136.981 .0257542
1137.592 .0258401
1138.204 .0259304
1138.817 .0260287
1139.431 .0261397
1140.045 .0262491
1140.660 .0263519
1141.275 .0264553
1141.891 .0265944
1142.508 .0268022
1143.126 .0267010
1143.744 .0266255
1144.363 .0269561
1144.983 .0281152
