Measurement Sequence started on: 15-12-46-377
Integration time: 28
Scans to Average: 2 
>>>>>Begin Spectral Data<<<<<
432.689 .0000100
433.621 .0000100
434.552 .0000100
435.482 .0000100
436.410 .0000100
437.337 .0000100
438.262 .0255851
439.187 .0541447
440.110 .0895587
441.031 .1294806
441.952 .1033367
442.871 .1079121
443.789 .1121818
444.705 .1162092
445.621 .1200372
446.535 .1236973
447.447 .1258660
448.359 .1264038
449.269 .1249660
450.178 .1213279
451.086 .1155669
451.993 .1081312
452.898 .0997601
453.803 .0912878
454.706 .0834213
455.608 .0765956
456.508 .0709511
457.408 .0671396
458.306 .0642041
459.204 .0618002
460.100 .0597604
460.995 .0579915
461.888 .0564337
462.781 .0550472
463.673 .0538038
464.563 .0526830
465.452 .0516692
466.340 .0507479
467.228 .0499076
468.114 .0491389
468.999 .0484344
469.882 .0477883
470.765 .0471962
471.647 .0466562
472.528 .0461659
473.407 .0457231
474.286 .0453255
475.163 .0449702
476.040 .0446537
476.915 .0443722
477.790 .0441222
478.663 .0439009
479.535 .0437064
480.407 .0435370
481.277 .0433919
482.147 .0432698
483.015 .0431703
483.883 .0430921
484.749 .0430334
485.615 .0429922
486.479 .0429666
487.343 .0429554
488.206 .0429573
489.067 .0429721
489.928 .0430009
490.788 .0430445
491.647 .0431047
492.505 .0431831
493.362 .0432813
494.218 .0434006
495.073 .0435421
495.928 .0438342
496.781 .0440354
497.634 .0442598
498.486 .0445075
499.337 .0447795
500.187 .0450775
501.036 .0454047
501.884 .0457645
502.731 .0461614
503.578 .0465995
504.424 .0469069
505.268 .0474222
506.113 .0479894
506.956 .0486114
507.798 .0492914
508.640 .0500339
509.480 .0508461
510.320 .0517365
511.160 .0527165
511.998 .0537998
512.836 .0550017
513.672 .0563377
514.508 .0578271
515.344 .0594871
516.178 .0613352
517.012 .0633901
517.845 .0656700
518.677 .0681887
519.508 .0709593
520.339 .0739903
521.169 .0772856
521.998 .0808281
522.826 .0845913
523.654 .0885282
524.481 .0925832
525.307 .0966886
526.133 .1007642
526.958 .1047246
527.782 .1084869
528.605 .1119723
529.428 .1151103
530.250 .1178400
531.072 .1201206
531.892 .1219165
532.712 .1232107
533.532 .1239923
534.350 .1242580
535.168 .1240127
535.986 .1232661
536.802 .1220254
537.618 .1202969
538.434 .1180899
539.249 .1154318
540.063 .1123594
540.876 .1089279
541.689 .1052004
542.501 .1012515
543.313 .0971664
544.124 .0930321
544.934 .0889294
545.744 .0849310
546.553 .0810975
547.361 .0774763
548.169 .0740943
548.976 .0709702
549.783 .0681052
550.589 .0654946
551.395 .0631247
552.200 .0609741
553.004 .0590191
553.808 .0572384
554.611 .0556144
555.414 .0541310
556.216 .0527723
557.018 .0515238
557.819 .0503726
558.619 .0493076
559.419 .0483179
560.218 .0473938
561.017 .0465265
561.815 .0457095
562.613 .0449372
563.410 .0442054
564.207 .0435110
565.003 .0428515
565.799 .0422240
566.594 .0416262
567.388 .0410559
568.182 .0405101
568.976 .0399862
569.769 .0394826
570.562 .0389976
571.354 .0385302
572.145 .0380797
572.936 .0376468
573.727 .0372321
574.517 .0368364
575.307 .0364601
576.096 .0361030
576.885 .0357651
577.673 .0354454
578.461 .0351432
579.248 .0348577
580.035 .0345884
580.821 .0343349
581.607 .0340967
582.392 .0338737
583.177 .0336656
583.962 .0334720
584.746 .0332925
585.529 .0331262
586.313 .0329723
587.095 .0328297
587.878 .0326975
588.660 .0325747
589.441 .0324607
590.222 .0323548
591.003 .0322562
591.783 .0321643
592.563 .0320782
593.342 .0319971
594.121 .0319203
594.899 .0318471
595.678 .0317771
596.455 .0317097
597.233 .0316448
598.009 .0315820
598.786 .0315213
599.562 .0314625
600.338 .0314056
601.113 .0313506
601.888 .0312741
602.663 .0312234
603.437 .0311742
604.211 .0311266
604.984 .0310806
605.757 .0310361
606.530 .0309932
607.302 .0309519
608.074 .0309122
608.845 .0308742
609.616 .0308380
610.387 .0308238
611.158 .0307902
611.928 .0307584
612.697 .0307283
613.467 .0306997
614.236 .0306727
615.004 .0306471
615.773 .0306229
616.541 .0305999
617.308 .0305783
618.076 .0305578
618.843 .0305385
619.609 .0305202
620.375 .0305028
621.141 .0304863
621.907 .0304705
622.672 .0304552
623.437 .0304403
624.202 .0304256
624.966 .0304111
625.730 .0303966
626.493 .0303821
627.257 .0303674
628.020 .0303525
628.782 .0303372
629.545 .0303215
630.307 .0303053
631.068 .0302885
631.830 .0302712
632.591 .0302534
633.352 .0302351
634.112 .0302164
634.872 .0301975
635.632 .0301783
636.392 .0301590
637.151 .0301396
637.910 .0301201
638.668 .0301004
639.427 .0300806
640.185 .0300606
640.943 .0300405
641.700 .0300202
642.457 .0299999
643.214 .0299795
643.971 .0299590
644.727 .0299385
645.483 .0299179
646.239 .0298972
646.994 .0298765
647.750 .0298558
648.505 .0298350
649.259 .0298142
650.014 .0297933
650.768 .0297723
651.521 .0297512
652.275 .0297298
653.028 .0297080
653.781 .0296859
654.534 .0296633
655.286 .0296402
656.039 .0296167
656.791 .0295929
657.542 .0295687
658.294 .0295442
659.045 .0295194
659.796 .0294944
660.546 .0294691
661.297 .0294435
662.047 .0294176
662.796 .0293914
663.546 .0293650
664.295 .0293385
665.044 .0293119
665.793 .0292854
666.542 .0292591
667.290 .0292331
668.038 .0292075
668.786 .0291823
669.533 .0291575
670.281 .0291333
671.028 .0291095
671.774 .0290864
672.521 .0290638
673.267 .0290418
674.013 .0290205
674.759 .0290000
675.505 .0289803
676.250 .0289617
676.995 .0289442
677.740 .0289278
678.484 .0289127
679.229 .0288987
679.973 .0288858
680.717 .0288741
681.460 .0288634
682.204 .0288536
682.947 .0288447
683.690 .0288367
684.433 .0288293
685.175 .0288227
685.917 .0288166
686.659 .0288109
687.401 .0288056
688.142 .0288006
688.884 .0287958
689.625 .0287910
690.365 .0287863
691.106 .0287816
691.846 .0287768
692.586 .0287718
693.326 .0287666
694.066 .0287612
694.805 .0287554
695.545 .0287493
696.284 .0287428
697.022 .0287360
697.761 .0287288
698.499 .0287214
699.237 .0287137
699.975 .0287058
700.713 .0286976
701.450 .0286891
702.187 .0286802
702.924 .0286709
703.661 .0286611
704.397 .0286509
705.133 .0286402
705.869 .0286292
706.605 .0286177
707.341 .0286058
708.076 .0285934
708.811 .0285807
709.546 .0285675
710.281 .0285539
711.015 .0285397
711.749 .0285250
712.483 .0285097
713.217 .0284938
713.950 .0284773
714.684 .0284601
715.417 .0284421
716.150 .0284234
716.882 .0284039
717.615 .0283836
718.347 .0283625
719.079 .0283406
719.811 .0283180
720.542 .0282947
721.273 .0282708
722.005 .0282463
722.735 .0282213
723.466 .0281960
724.196 .0281702
724.927 .0281441
725.656 .0281178
726.386 .0280913
727.116 .0280647
727.845 .0280380
728.574 .0280114
729.303 .0279849
730.031 .0279586
730.760 .0279327
731.488 .0279072
732.216 .0278822
732.944 .0278577
733.671 .0278338
734.398 .0278105
735.125 .0277878
735.852 .0277658
736.579 .0277444
737.305 .0277237
738.031 .0277036
738.757 .0276843
739.483 .0276658
740.208 .0276480
740.933 .0276311
741.658 .0276149
742.383 .0275995
743.108 .0275847
743.832 .0275706
744.556 .0275570
745.280 .0275440
746.004 .0275314
746.727 .0275192
747.450 .0275074
748.173 .0274959
748.896 .0274848
749.618 .0274741
750.340 .0274637
751.062 .0274537
751.784 .0274440
752.506 .0274346
753.227 .0274255
753.948 .0274166
754.669 .0274080
755.389 .0273996
756.110 .0273915
756.830 .0273836
757.550 .0273760
758.269 .0273686
758.989 .0273614
759.708 .0273545
760.427 .0273478
761.146 .0273413
761.864 .0273351
762.582 .0273290
763.300 .0273232
764.018 .0273177
764.736 .0273125
765.453 .0273076
766.170 .0273031
766.887 .0272990
767.603 .0272952
768.320 .0272920
769.036 .0272893
769.751 .0272871
770.467 .0272855
771.182 .0272845
771.897 .0272841
772.612 .0272842
773.327 .0272850
774.041 .0272862
774.755 .0272880
775.469 .0272902
776.183 .0272929
776.896 .0272961
777.609 .0272998
778.322 .0273038
779.035 .0273083
779.747 .0273130
780.459 .0273179
781.171 .0273229
781.882 .0273278
782.594 .0273326
783.305 .0273370
784.016 .0273411
784.726 .0273446
785.436 .0273476
786.147 .0273491
786.856 .0273500
787.566 .0273501
788.275 .0273493
788.984 .0273474
789.693 .0273445
790.401 .0273405
791.110 .0273354
791.818 .0273292
792.525 .0273218
793.233 .0273134
793.940 .0273039
794.647 .0272963
795.353 .0272852
796.060 .0272732
796.766 .0272602
797.472 .0272461
798.177 .0272312
798.883 .0272153
799.588 .0271985
800.292 .0271808
800.997 .0271622
801.701 .0271427
802.405 .0271224
803.109 .0271013
803.812 .0270794
804.515 .0270568
805.218 .0270335
805.921 .0270095
806.623 .0269848
807.325 .0269595
808.027 .0269336
808.728 .0269071
809.429 .0268800
810.130 .0268524
810.831 .0268244
811.531 .0267960
812.231 .0267674
812.931 .0267384
813.630 .0267094
814.330 .0266802
815.029 .0266511
815.727 .0266221
816.426 .0265932
817.124 .0265646
817.821 .0265364
818.519 .0265086
819.216 .0264812
819.913 .0264545
820.609 .0264284
821.306 .0264031
822.002 .0263786
822.697 .0263550
823.393 .0263323
824.088 .0263105
824.783 .0262898
825.477 .0262699
826.171 .0262510
826.865 .0262330
827.559 .0262158
828.252 .0261994
828.945 .0261837
829.638 .0261688
830.330 .0261547
831.023 .0261414
831.714 .0261287
832.406 .0261168
833.097 .0261055
833.788 .0260949
834.479 .0260847
835.169 .0260750
835.859 .0260657
836.548 .0260568
837.238 .0260483
837.927 .0260402
838.615 .0260324
839.304 .0260249
839.992 .0260177
840.680 .0260107
841.367 .0260040
842.054 .0259975
842.741 .0259913
843.428 .0259855
844.114 .0259800
844.800 .0259749
845.485 .0259701
846.170 .0259656
846.855 .0259613
847.540 .0259572
848.224 .0259533
848.908 .0259496
849.592 .0259460
850.275 .0259427
850.958 .0259397
851.641 .0259369
852.323 .0259344
853.005 .0259323
853.687 .0259305
854.368 .0259290
855.049 .0259279
855.730 .0259270
856.410 .0259265
857.090 .0259264
857.769 .0259268
858.449 .0259277
859.128 .0259290
859.806 .0259308
860.485 .0259331
861.163 .0259358
861.840 .0259389
862.518 .0259425
863.195 .0259464
863.871 .0259507
864.548 .0259554
865.224 .0259603
865.899 .0259654
866.574 .0259706
867.249 .0259760
867.924 .0259814
868.598 .0259868
869.272 .0259923
869.946 .0259978
870.619 .0260035
871.292 .0260092
871.964 .0260151
872.636 .0260210
873.308 .0260271
873.979 .0260331
874.651 .0260391
875.321 .0260451
875.992 .0260511
876.662 .0260570
877.331 .0260628
878.001 .0260687
878.670 .0260745
879.338 .0260804
880.007 .0260862
880.675 .0260921
881.342 .0260979
882.009 .0261038
882.676 .0261095
883.343 .0261152
884.009 .0261207
884.675 .0261261
885.340 .0261313
886.005 .0261361
886.670 .0261406
887.334 .0261446
887.998 .0261481
888.662 .0261510
889.325 .0261534
889.988 .0261550
890.650 .0261560
891.312 .0261561
891.974 .0261555
892.636 .0261540
893.297 .0261515
893.957 .0261482
894.618 .0261438
895.278 .0261386
895.937 .0261323
896.596 .0261251
897.255 .0261170
897.914 .0261079
898.572 .0260979
899.230 .0260871
899.887 .0260753
900.544 .0260626
901.201 .0260490
901.857 .0260250
902.513 .0260090
903.168 .0259921
903.823 .0259742
904.478 .0259554
905.132 .0259356
905.786 .0259148
906.440 .0258931
907.093 .0258704
907.746 .0258469
908.399 .0258227
909.051 .0257976
909.703 .0257719
910.354 .0257569
911.005 .0257304
911.656 .0257032
912.306 .0256754
912.956 .0256470
913.605 .0256180
914.254 .0255883
914.903 .0255580
915.551 .0255271
916.199 .0254955
916.847 .0254634
917.494 .0254308
918.141 .0253977
918.788 .0253641
919.434 .0253301
920.079 .0252957
920.725 .0252610
921.370 .0252260
922.014 .0251907
922.658 .0251551
923.302 .0251193
923.946 .0250833
924.589 .0250471
925.231 .0250109
925.873 .0249746
926.515 .0249383
927.157 .0249021
927.798 .0248661
928.439 .0248303
929.079 .0247948
929.719 .0247597
930.359 .0247252
930.998 .0246912
931.637 .0246578
932.275 .0246251
932.913 .0245931
933.551 .0245618
934.188 .0245313
934.825 .0245017
935.462 .0244731
936.098 .0244454
936.733 .0244187
937.369 .0243931
938.004 .0243684
938.638 .0243447
939.273 .0243220
939.907 .0243003
940.540 .0242794
941.173 .0242595
941.806 .0242404
942.438 .0242222
943.070 .0242048
943.702 .0241882
944.333 .0241725
944.964 .0241575
945.594 .0241432
946.224 .0241296
946.854 .0241166
947.483 .0241043
948.112 .0240926
948.741 .0240814
949.369 .0240709
949.996 .0240609
950.624 .0240515
951.251 .0240425
951.878 .0240340
952.504 .0240257
953.130 .0240178
953.755 .0240103
954.380 .0240030
955.005 .0239962
955.629 .0239897
956.253 .0239838
956.877 .0239784
957.500 .0239737
958.123 .0239696
958.746 .0239662
959.368 .0239635
959.990 .0239615
960.611 .0239602
961.232 .0239597
961.853 .0239600
962.473 .0239611
963.093 .0239629
963.712 .0239654
964.331 .0239687
964.950 .0239727
965.569 .0239774
966.187 .0239826
966.804 .0239884
967.422 .0239948
968.039 .0240016
968.655 .0240089
969.272 .0240165
969.887 .0240246
970.503 .0240331
971.118 .0240418
971.733 .0240509
972.347 .0240603
972.961 .0240698
973.575 .0240796
974.188 .0240894
974.801 .0240993
975.414 .0241091
976.026 .0241189
976.638 .0241286
977.250 .0241380
977.861 .0241473
978.472 .0241563
979.083 .0241651
979.693 .0241736
980.303 .0241817
980.912 .0241927
981.521 .0242003
982.130 .0242076
982.738 .0242147
983.346 .0242216
983.954 .0242285
984.562 .0242354
985.169 .0242424
985.775 .0242498
986.382 .0242574
986.988 .0242655
987.594 .0242740
988.199 .0242829
988.804 .0242923
989.409 .0242987
990.013 .0243089
990.617 .0243196
991.221 .0243307
991.824 .0243424
992.427 .0243545
993.030 .0243671
993.632 .0243802
994.234 .0243937
994.836 .0244075
995.438 .0244216
996.039 .0244359
996.640 .0244505
997.240 .0244653
997.840 .0244803
998.440 .0244955
999.040 .0245109
999.639 .0245264
1000.238 .0245420
1000.836 .0245577
1001.435 .0245734
1002.033 .0245890
1002.630 .0246045
1003.228 .0246198
1003.825 .0246349
1004.422 .0246498
1005.018 .0246643
1005.614 .0246786
1006.210 .0246924
1006.806 .0247057
1007.401 .0247185
1007.996 .0247308
1008.591 .0247426
1009.186 .0247537
1009.780 .0247644
1010.374 .0247744
1010.967 .0247841
1011.561 .0247932
1012.154 .0248020
1012.746 .0248104
1013.339 .0248184
1013.931 .0248260
1014.523 .0248333
1015.115 .0248402
1015.706 .0248469
1016.298 .0248534
1016.888 .0248597
1017.479 .0248660
1018.069 .0248722
1018.660 .0248785
1019.250 .0248849
1019.839 .0248913
1020.429 .0248979
1021.018 .0249046
1021.607 .0249113
1022.195 .0249181
1022.784 .0249250
1023.372 .0249320
1023.960 .0249392
1024.547 .0249465
1025.135 .0249540
1025.722 .0249617
1026.309 .0249694
1026.896 .0249771
1027.483 .0249846
1028.069 .0249919
1028.655 .0249988
1029.241 .0250051
1029.827 .0250107
1030.412 .0250157
1030.997 .0250200
1031.582 .0250236
1032.167 .0250265
1032.752 .0250287
1033.336 .0250300
1033.921 .0250303
1034.505 .0250297
1035.089 .0250279
1035.672 .0250248
1036.256 .0250204
1036.839 .0250148
1037.422 .0250078
1038.005 .0249997
1038.588 .0249905
1039.171 .0249802
1039.753 .0249689
1040.335 .0249567
1040.918 .0249435
1041.500 .0249293
1042.081 .0249142
1042.663 .0248981
1043.244 .0248813
1043.826 .0248638
1044.407 .0248460
1044.988 .0248278
1045.569 .0248096
1046.150 .0247916
1046.730 .0247737
1047.311 .0247560
1047.891 .0247386
1048.471 .0247214
1049.052 .0247044
1049.632 .0246875
1050.211 .0246708
1050.791 .0246543
1051.371 .0246379
1051.950 .0246216
1052.530 .0246055
1053.109 .0245895
1053.688 .0245735
1054.268 .0245576
1054.847 .0245415
1055.426 .0245253
1056.005 .0245090
1056.583 .0244924
1057.162 .0244756
1057.741 .0244586
1058.319 .0244414
1058.898 .0244240
1059.476 .0244064
1060.055 .0243886
1060.633 .0243707
1061.211 .0243525
1061.790 .0243342
1062.368 .0243158
1062.946 .0242974
1063.524 .0242790
1064.102 .0242607
1064.680 .0242425
1065.258 .0242243
1065.836 .0242062
1066.414 .0241882
1066.992 .0241705
1067.570 .0241530
1068.148 .0241358
1068.726 .0241191
1069.304 .0241029
1069.882 .0240871
1070.460 .0240718
1071.038 .0240571
1071.616 .0240427
1072.194 .0240286
1072.772 .0240147
1073.350 .0240011
1073.928 .0239876
1074.506 .0239743
1075.084 .0239613
1075.662 .0239484
1076.240 .0239357
1076.819 .0239231
1077.397 .0239104
1077.976 .0238978
1078.554 .0238850
1079.133 .0238721
1079.711 .0238592
1080.290 .0238463
1080.869 .0238337
1081.448 .0238215
1082.027 .0238098
1082.606 .0237988
1083.185 .0237885
1083.764 .0237788
1084.343 .0237697
1084.923 .0237612
1085.502 .0237534
1086.082 .0237464
1086.662 .0237404
1087.242 .0237355
1087.822 .0237321
1088.402 .0237303
1088.983 .0237299
1089.563 .0237310
1090.144 .0237334
1090.725 .0237369
1091.306 .0237413
1091.887 .0237465
1092.469 .0237524
1093.050 .0237592
1093.632 .0237671
1094.214 .0237762
1094.796 .0237866
1095.379 .0237983
1095.961 .0238113
1096.544 .0238252
1097.127 .0238399
1097.710 .0238548
1098.294 .0238699
1098.877 .0238850
1099.461 .0239002
1100.046 .0239155
1100.630 .0239312
1101.215 .0239473
1101.800 .0239640
1102.385 .0239812
1102.970 .0239985
1103.556 .0240159
1104.142 .0240330
1104.728 .0240497
1105.315 .0240657
1105.902 .0240813
1106.489 .0240966
1107.077 .0241122
1107.664 .0241284
1108.253 .0241455
1108.841 .0241639
1109.430 .0241838
1110.019 .0242051
1110.609 .0242277
1111.198 .0242514
1111.789 .0242764
1112.379 .0243024
1112.970 .0243296
1113.561 .0243579
1114.153 .0243877
1114.745 .0244191
1115.338 .0244525
1115.931 .0244878
1116.524 .0245249
1117.117 .0245638
1117.712 .0246043
1118.306 .0246463
1118.901 .0246896
1119.496 .0247343
1120.092 .0247806
1120.689 .0248282
1121.285 .0248774
1121.882 .0249282
1122.480 .0249805
1123.078 .0250344
1123.677 .0250900
1124.276 .0251472
1124.875 .0252058
1125.476 .0252661
1126.076 .0253283
1126.677 .0253926
1127.279 .0254594
1127.881 .0255290
1128.484 .0256016
1129.087 .0256334
1129.691 .0257103
1130.295 .0257906
1130.900 .0258747
1131.505 .0259630
1132.111 .0260558
1132.718 .0261539
1133.325 .0262573
1133.933 .0263665
1134.541 .0264864
1135.150 .0266087
1135.760 .0267471
1136.370 .0268814
1136.981 .0267683
1137.592 .0269155
1138.204 .0270615
1138.817 .0272178
1139.431 .0273919
1140.045 .0275756
1140.660 .0277832
1141.275 .0280017
1141.891 .0282297
1142.508 .0285936
1143.126 .0287298
1143.744 .0292503
1144.363 .0292026
1144.983 .0292623
