Measurement Sequence started on: 15-12-46-377
Integration time: 28
Scans to Average: 2 
>>>>>Begin Spectral Data<<<<<
432.689 .0000100
433.621 .0000100
434.552 .0000100
435.482 .0000100
436.410 .0000100
437.337 .0000100
438.262 .0274441
439.187 .0581632
440.110 .0962925
441.031 .1392353
441.952 .1114732
442.871 .1163912
443.789 .1209555
444.705 .1252366
445.621 .1292862
446.535 .1331455
447.447 .1354007
448.359 .1359022
449.269 .1342795
450.178 .1302929
451.086 .1240208
451.993 .1159386
452.898 .1068366
453.803 .0976109
454.706 .0890231
455.608 .0815463
456.508 .0753410
457.408 .0711155
458.306 .0678558
459.204 .0651970
460.100 .0629598
460.995 .0610450
461.888 .0593844
462.781 .0579282
463.673 .0566369
464.563 .0554821
465.452 .0544424
466.340 .0535005
467.228 .0526451
468.114 .0518672
468.999 .0511606
469.882 .0505186
470.765 .0499359
471.647 .0494072
472.528 .0489273
473.407 .0484912
474.286 .0480948
475.163 .0477343
476.040 .0474063
476.915 .0471080
477.790 .0468379
478.663 .0465947
479.535 .0463776
480.407 .0461857
481.277 .0460179
482.147 .0458726
483.015 .0457481
483.883 .0456433
484.749 .0455570
485.615 .0454890
486.479 .0454396
487.343 .0454088
488.206 .0453980
489.067 .0454076
489.928 .0454384
490.788 .0454908
491.647 .0455655
492.505 .0456622
493.362 .0457809
494.218 .0459222
495.073 .0460859
495.928 .0464183
496.781 .0466444
497.634 .0468965
498.486 .0471764
499.337 .0474849
500.187 .0478225
501.036 .0481905
501.884 .0485894
502.731 .0490202
503.578 .0494850
504.424 .0497893
505.268 .0503141
506.113 .0508827
506.956 .0514995
507.798 .0521703
508.640 .0529027
509.480 .0537059
510.320 .0545895
511.160 .0555642
511.998 .0566433
512.836 .0578428
513.672 .0591778
514.508 .0606679
515.344 .0623351
516.178 .0642013
517.012 .0662919
517.845 .0686297
518.677 .0712368
519.508 .0741325
520.339 .0773293
521.169 .0808364
521.998 .0846406
522.826 .0887156
523.654 .0930183
524.481 .0974892
525.307 .1020590
526.133 .1066368
526.958 .1111252
527.782 .1154272
528.605 .1194487
529.428 .1231056
530.250 .1263213
531.072 .1290453
531.892 .1312379
532.712 .1328714
533.532 .1339310
534.350 .1344076
535.168 .1343044
535.986 .1336259
536.802 .1323762
537.618 .1305631
538.434 .1281961
539.249 .1253065
540.063 .1219380
540.876 .1181465
541.689 .1140025
542.501 .1095838
543.313 .1049833
544.124 .1002991
544.934 .0956251
545.744 .0910493
546.553 .0866482
547.361 .0824867
548.169 .0786038
548.976 .0750238
549.783 .0717573
550.589 .0687991
551.395 .0661357
552.200 .0637418
553.004 .0615903
553.808 .0596562
554.611 .0579167
555.414 .0563500
556.216 .0549349
557.018 .0536500
557.819 .0524772
558.619 .0514004
559.419 .0504057
560.218 .0494824
561.017 .0486210
561.815 .0478142
562.613 .0470563
563.410 .0463405
564.207 .0456618
565.003 .0450138
565.799 .0443917
566.594 .0437901
567.388 .0432058
568.182 .0426360
568.976 .0420796
569.769 .0415363
570.562 .0410074
571.354 .0404939
572.145 .0399969
572.936 .0395164
573.727 .0390525
574.517 .0386050
575.307 .0381741
576.096 .0377589
576.885 .0373598
577.673 .0369769
578.461 .0366108
579.248 .0362619
580.035 .0359313
580.821 .0356195
581.607 .0353272
582.392 .0350546
583.177 .0348016
583.962 .0345676
584.746 .0343518
585.529 .0341534
586.313 .0339712
587.095 .0338040
587.878 .0336507
588.660 .0335102
589.441 .0333817
590.222 .0332645
591.003 .0331581
591.783 .0330616
592.563 .0329744
593.342 .0328955
594.121 .0328239
594.899 .0327587
595.678 .0326989
596.455 .0326436
597.233 .0325916
598.009 .0325422
598.786 .0324946
599.562 .0324483
600.338 .0324029
601.113 .0323582
601.888 .0322927
602.663 .0322498
603.437 .0322077
604.211 .0321663
604.984 .0321257
605.757 .0320858
606.530 .0320467
607.302 .0320084
608.074 .0319707
608.845 .0319336
609.616 .0318974
610.387 .0318817
611.158 .0318469
611.928 .0318131
612.697 .0317804
613.467 .0317488
614.236 .0317185
615.004 .0316893
615.773 .0316612
616.541 .0316341
617.308 .0316079
618.076 .0315824
618.843 .0315573
619.609 .0315327
620.375 .0315083
621.141 .0314841
621.907 .0314600
622.672 .0314361
623.437 .0314123
624.202 .0313885
624.966 .0313647
625.730 .0313410
626.493 .0313171
627.257 .0312931
628.020 .0312688
628.782 .0312442
629.545 .0312190
630.307 .0311934
631.068 .0311673
631.830 .0311406
632.591 .0311135
633.352 .0310860
634.112 .0310583
634.872 .0310304
635.632 .0310025
636.392 .0309745
637.151 .0309467
637.910 .0309189
638.668 .0308911
639.427 .0308634
640.185 .0308357
640.943 .0308082
641.700 .0307808
642.457 .0307537
643.214 .0307271
643.971 .0307009
644.727 .0306753
645.483 .0306503
646.239 .0306259
646.994 .0306021
647.750 .0305788
648.505 .0305560
649.259 .0305337
650.014 .0305117
650.768 .0304900
651.521 .0304687
652.275 .0304475
653.028 .0304265
653.781 .0304056
654.534 .0303846
655.286 .0303637
656.039 .0303428
656.791 .0303218
657.542 .0303007
658.294 .0302797
659.045 .0302585
659.796 .0302372
660.546 .0302157
661.297 .0301941
662.047 .0301721
662.796 .0301498
663.546 .0301273
664.295 .0301045
665.044 .0300815
665.793 .0300585
666.542 .0300355
667.290 .0300127
668.038 .0299902
668.786 .0299681
669.533 .0299463
670.281 .0299249
671.028 .0299039
671.774 .0298831
672.521 .0298626
673.267 .0298423
674.013 .0298223
674.759 .0298025
675.505 .0297830
676.250 .0297638
676.995 .0297450
677.740 .0297265
678.484 .0297082
679.229 .0296902
679.973 .0296723
680.717 .0296544
681.460 .0296367
682.204 .0296189
682.947 .0296011
683.690 .0295832
684.433 .0295653
685.175 .0295471
685.917 .0295287
686.659 .0295101
687.401 .0294911
688.142 .0294717
688.884 .0294521
689.625 .0294321
690.365 .0294118
691.106 .0293911
691.846 .0293702
692.586 .0293489
693.326 .0293273
694.066 .0293054
694.805 .0292833
695.545 .0292610
696.284 .0292386
697.022 .0292163
697.761 .0291942
698.499 .0291724
699.237 .0291509
699.975 .0291299
700.713 .0291093
701.450 .0290891
702.187 .0290693
702.924 .0290500
703.661 .0290311
704.397 .0290126
705.133 .0289946
705.869 .0289771
706.605 .0289600
707.341 .0289433
708.076 .0289270
708.811 .0289111
709.546 .0288953
710.281 .0288798
711.015 .0288644
711.749 .0288489
712.483 .0288334
713.217 .0288178
713.950 .0288020
714.684 .0287860
715.417 .0287697
716.150 .0287531
716.882 .0287362
717.615 .0287189
718.347 .0287012
719.079 .0286832
719.811 .0286649
720.542 .0286461
721.273 .0286271
722.005 .0286077
722.735 .0285881
723.466 .0285683
724.196 .0285484
724.927 .0285284
725.656 .0285085
726.386 .0284887
727.116 .0284691
727.845 .0284497
728.574 .0284307
729.303 .0284121
730.031 .0283938
730.760 .0283760
731.488 .0283586
732.216 .0283416
732.944 .0283248
733.671 .0283085
734.398 .0282924
735.125 .0282766
735.852 .0282610
736.579 .0282458
737.305 .0282309
738.031 .0282163
738.757 .0282020
739.483 .0281881
740.208 .0281744
740.933 .0281610
741.658 .0281478
742.383 .0281347
743.108 .0281217
743.832 .0281087
744.556 .0280957
745.280 .0280827
746.004 .0280697
746.727 .0280568
747.450 .0280438
748.173 .0280310
748.896 .0280183
749.618 .0280057
750.340 .0279931
751.062 .0279805
751.784 .0279680
752.506 .0279554
753.227 .0279429
753.948 .0279303
754.669 .0279178
755.389 .0279053
756.110 .0278928
756.830 .0278805
757.550 .0278681
758.269 .0278559
758.989 .0278437
759.708 .0278314
760.427 .0278192
761.146 .0278070
761.864 .0277948
762.582 .0277827
763.300 .0277705
764.018 .0277584
764.736 .0277462
765.453 .0277341
766.170 .0277220
766.887 .0277099
767.603 .0276979
768.320 .0276858
769.036 .0276739
769.751 .0276620
770.467 .0276501
771.182 .0276384
771.897 .0276268
772.612 .0276154
773.327 .0276042
774.041 .0275934
774.755 .0275829
775.469 .0275728
776.183 .0275631
776.896 .0275540
777.609 .0275453
778.322 .0275370
779.035 .0275290
779.747 .0275215
780.459 .0275142
781.171 .0275072
781.882 .0275005
782.594 .0274941
783.305 .0274879
784.016 .0274820
784.726 .0274763
785.436 .0274708
786.147 .0274629
786.856 .0274573
787.566 .0274516
788.275 .0274458
788.984 .0274398
789.693 .0274335
790.401 .0274269
791.110 .0274200
791.818 .0274127
792.525 .0274050
793.233 .0273970
793.940 .0273887
794.647 .0273833
795.353 .0273744
796.060 .0273652
796.766 .0273556
797.472 .0273456
798.177 .0273354
798.883 .0273247
799.588 .0273138
800.292 .0273026
800.997 .0272912
801.701 .0272796
802.405 .0272679
803.109 .0272561
803.812 .0272442
804.515 .0272322
805.218 .0272201
805.921 .0272079
806.623 .0271955
807.325 .0271830
808.027 .0271702
808.728 .0271572
809.429 .0271439
810.130 .0271303
810.831 .0271164
811.531 .0271023
812.231 .0270879
812.931 .0270733
813.630 .0270585
814.330 .0270437
815.029 .0270288
815.727 .0270139
816.426 .0269991
817.124 .0269845
817.821 .0269700
818.519 .0269557
819.216 .0269416
819.913 .0269278
820.609 .0269143
821.306 .0269012
822.002 .0268885
822.697 .0268762
823.393 .0268643
824.088 .0268530
824.783 .0268421
825.477 .0268318
826.171 .0268219
826.865 .0268124
827.559 .0268033
828.252 .0267945
828.945 .0267861
829.638 .0267780
830.330 .0267701
831.023 .0267624
831.714 .0267548
832.406 .0267472
833.097 .0267395
833.788 .0267317
834.479 .0267237
835.169 .0267154
835.859 .0267069
836.548 .0266980
837.238 .0266889
837.927 .0266794
838.615 .0266696
839.304 .0266594
839.992 .0266488
840.680 .0266378
841.367 .0266264
842.054 .0266147
842.741 .0266026
843.428 .0265903
844.114 .0265777
844.800 .0265649
845.485 .0265520
846.170 .0265390
846.855 .0265259
847.540 .0265127
848.224 .0264994
848.908 .0264858
849.592 .0264721
850.275 .0264582
850.958 .0264442
851.641 .0264299
852.323 .0264155
853.005 .0264010
853.687 .0263864
854.368 .0263716
855.049 .0263568
855.730 .0263418
856.410 .0263268
857.090 .0263117
857.769 .0262965
858.449 .0262812
859.128 .0262658
859.806 .0262503
860.485 .0262348
861.163 .0262192
861.840 .0262037
862.518 .0261882
863.195 .0261727
863.871 .0261574
864.548 .0261421
865.224 .0261270
865.899 .0261122
866.574 .0260975
867.249 .0260831
867.924 .0260690
868.598 .0260551
869.272 .0260415
869.946 .0260282
870.619 .0260149
871.292 .0260019
871.964 .0259889
872.636 .0259761
873.308 .0259634
873.979 .0259508
874.651 .0259385
875.321 .0259264
875.992 .0259146
876.662 .0259030
877.331 .0258917
878.001 .0258805
878.670 .0258696
879.338 .0258588
880.007 .0258483
880.675 .0258380
881.342 .0258281
882.009 .0258185
882.676 .0258094
883.343 .0258007
884.009 .0257926
884.675 .0257851
885.340 .0257781
886.005 .0257717
886.670 .0257659
887.334 .0257606
887.998 .0257560
888.662 .0257519
889.325 .0257484
889.988 .0257454
890.650 .0257430
891.312 .0257411
891.974 .0257396
892.636 .0257385
893.297 .0257378
893.957 .0257373
894.618 .0257370
895.278 .0257370
895.937 .0257370
896.596 .0257372
897.255 .0257372
897.914 .0257372
898.572 .0257368
899.230 .0257360
899.887 .0257347
900.544 .0257329
901.201 .0257304
901.857 .0257236
902.513 .0257193
903.168 .0257143
903.823 .0257086
904.478 .0257021
905.132 .0256948
905.786 .0256867
906.440 .0256778
907.093 .0256683
907.746 .0256580
908.399 .0256472
909.051 .0256359
909.703 .0256242
910.354 .0256172
911.005 .0256051
911.656 .0255927
912.306 .0255801
912.956 .0255673
913.605 .0255542
914.254 .0255410
914.903 .0255276
915.551 .0255142
916.199 .0255006
916.847 .0254871
917.494 .0254736
918.141 .0254601
918.788 .0254466
919.434 .0254331
920.079 .0254195
920.725 .0254060
921.370 .0253925
922.014 .0253789
922.658 .0253654
923.302 .0253519
923.946 .0253384
924.589 .0253249
925.231 .0253115
925.873 .0252980
926.515 .0252846
927.157 .0252712
927.798 .0252579
928.439 .0252445
929.079 .0252312
929.719 .0252180
930.359 .0252048
930.998 .0251916
931.637 .0251786
932.275 .0251657
932.913 .0251529
933.551 .0251404
934.188 .0251282
934.825 .0251163
935.462 .0251048
936.098 .0250937
936.733 .0250830
937.369 .0250728
938.004 .0250630
938.638 .0250536
939.273 .0250448
939.907 .0250366
940.540 .0250290
941.173 .0250222
941.806 .0250160
942.438 .0250106
943.070 .0250059
943.702 .0250018
944.333 .0249983
944.964 .0249952
945.594 .0249926
946.224 .0249905
946.854 .0249887
947.483 .0249872
948.112 .0249861
948.741 .0249852
949.369 .0249845
949.996 .0249839
950.624 .0249832
951.251 .0249824
951.878 .0249812
952.504 .0249797
953.130 .0249778
953.755 .0249755
954.380 .0249729
955.005 .0249699
955.629 .0249666
956.253 .0249629
956.877 .0249589
957.500 .0249543
958.123 .0249493
958.746 .0249438
959.368 .0249378
959.990 .0249314
960.611 .0249248
961.232 .0249180
961.853 .0249110
962.473 .0249040
963.093 .0248969
963.712 .0248898
964.331 .0248826
964.950 .0248753
965.569 .0248679
966.187 .0248605
966.804 .0248531
967.422 .0248459
968.039 .0248387
968.655 .0248319
969.272 .0248252
969.887 .0248187
970.503 .0248124
971.118 .0248062
971.733 .0247999
972.347 .0247935
972.961 .0247871
973.575 .0247805
974.188 .0247738
974.801 .0247670
975.414 .0247600
976.026 .0247529
976.638 .0247456
977.250 .0247380
977.861 .0247301
978.472 .0247217
979.083 .0247129
979.693 .0247036
980.303 .0246939
980.912 .0246777
981.521 .0246671
982.130 .0246563
982.738 .0246453
983.346 .0246341
983.954 .0246229
984.562 .0246115
985.169 .0246001
985.775 .0245888
986.382 .0245777
986.988 .0245667
987.594 .0245560
988.199 .0245457
988.804 .0245359
989.409 .0245324
990.013 .0245235
990.617 .0245151
991.221 .0245073
991.824 .0245000
992.427 .0244932
993.030 .0244869
993.632 .0244809
994.234 .0244753
994.836 .0244698
995.438 .0244646
996.039 .0244596
996.640 .0244548
997.240 .0244502
997.840 .0244459
998.440 .0244419
999.040 .0244381
999.639 .0244345
1000.238 .0244312
1000.836 .0244280
1001.435 .0244248
1002.033 .0244217
1002.630 .0244186
1003.228 .0244155
1003.825 .0244123
1004.422 .0244091
1005.018 .0244059
1005.614 .0244027
1006.210 .0243994
1006.806 .0243961
1007.401 .0243926
1007.996 .0243888
1008.591 .0243849
1009.186 .0243807
1009.780 .0243764
1010.374 .0243719
1010.967 .0243674
1011.561 .0243630
1012.154 .0243587
1012.746 .0243547
1013.339 .0243509
1013.931 .0243474
1014.523 .0243442
1015.115 .0243413
1015.706 .0243387
1016.298 .0243365
1016.888 .0243347
1017.479 .0243335
1018.069 .0243327
1018.660 .0243325
1019.250 .0243328
1019.839 .0243336
1020.429 .0243348
1021.018 .0243363
1021.607 .0243381
1022.195 .0243401
1022.784 .0243424
1023.372 .0243450
1023.960 .0243477
1024.547 .0243507
1025.135 .0243538
1025.722 .0243570
1026.309 .0243603
1026.896 .0243635
1027.483 .0243664
1028.069 .0243692
1028.655 .0243716
1029.241 .0243736
1029.827 .0243753
1030.412 .0243767
1030.997 .0243777
1031.582 .0243783
1032.167 .0243787
1032.752 .0243787
1033.336 .0243784
1033.921 .0243779
1034.505 .0243770
1035.089 .0243759
1035.672 .0243746
1036.256 .0243732
1036.839 .0243716
1037.422 .0243698
1038.005 .0243679
1038.588 .0243657
1039.171 .0243632
1039.753 .0243604
1040.335 .0243572
1040.918 .0243538
1041.500 .0243500
1042.081 .0243458
1042.663 .0243414
1043.244 .0243366
1043.826 .0243317
1044.407 .0243267
1044.988 .0243215
1045.569 .0243164
1046.150 .0243112
1046.730 .0243062
1047.311 .0243012
1047.891 .0242965
1048.471 .0242919
1049.052 .0242875
1049.632 .0242834
1050.211 .0242793
1050.791 .0242754
1051.371 .0242715
1051.950 .0242677
1052.530 .0242638
1053.109 .0242598
1053.688 .0242557
1054.268 .0242516
1054.847 .0242474
1055.426 .0242433
1056.005 .0242394
1056.583 .0242359
1057.162 .0242327
1057.741 .0242300
1058.319 .0242278
1058.898 .0242262
1059.476 .0242253
1060.055 .0242250
1060.633 .0242252
1061.211 .0242260
1061.790 .0242273
1062.368 .0242290
1062.946 .0242312
1063.524 .0242338
1064.102 .0242367
1064.680 .0242398
1065.258 .0242428
1065.836 .0242457
1066.414 .0242483
1066.992 .0242504
1067.570 .0242520
1068.148 .0242531
1068.726 .0242537
1069.304 .0242539
1069.882 .0242539
1070.460 .0242539
1071.038 .0242538
1071.616 .0242538
1072.194 .0242538
1072.772 .0242538
1073.350 .0242536
1073.928 .0242532
1074.506 .0242526
1075.084 .0242516
1075.662 .0242503
1076.240 .0242489
1076.819 .0242472
1077.397 .0242456
1077.976 .0242442
1078.554 .0242431
1079.133 .0242422
1079.711 .0242415
1080.290 .0242411
1080.869 .0242409
1081.448 .0242408
1082.027 .0242411
1082.606 .0242416
1083.185 .0242426
1083.764 .0242441
1084.343 .0242462
1084.923 .0242489
1085.502 .0242523
1086.082 .0242563
1086.662 .0242609
1087.242 .0242660
1087.822 .0242716
1088.402 .0242777
1088.983 .0242842
1089.563 .0242911
1090.144 .0242985
1090.725 .0243064
1091.306 .0243149
1091.887 .0243240
1092.469 .0243338
1093.050 .0243442
1093.632 .0243554
1094.214 .0243673
1094.796 .0243798
1095.379 .0243930
1095.961 .0244066
1096.544 .0244205
1097.127 .0244348
1097.710 .0244492
1098.294 .0244638
1098.877 .0244785
1099.461 .0244935
1100.046 .0245087
1100.630 .0245245
1101.215 .0245408
1101.800 .0245579
1102.385 .0245756
1102.970 .0245941
1103.556 .0246134
1104.142 .0246334
1104.728 .0246544
1105.315 .0246763
1105.902 .0246993
1106.489 .0247235
1107.077 .0247490
1107.664 .0247758
1108.253 .0248040
1108.841 .0248336
1109.430 .0248645
1110.019 .0248965
1110.609 .0249296
1111.198 .0249638
1111.789 .0249990
1112.379 .0250355
1112.970 .0250732
1113.561 .0251120
1114.153 .0251519
1114.745 .0251928
1115.338 .0252346
1115.931 .0252769
1116.524 .0253195
1117.117 .0253622
1117.712 .0254048
1118.306 .0254471
1118.901 .0254891
1119.496 .0255310
1120.092 .0255729
1120.689 .0256147
1121.285 .0256564
1121.882 .0256979
1122.480 .0257393
1123.078 .0257805
1123.677 .0258217
1124.276 .0258630
1124.875 .0259051
1125.476 .0259482
1126.076 .0259928
1126.677 .0260394
1127.279 .0260885
1127.881 .0261400
1128.484 .0261941
1129.087 .0262145
1129.691 .0262711
1130.295 .0263306
1130.900 .0263931
1131.505 .0264592
1132.111 .0265288
1132.718 .0266023
1133.325 .0266802
1133.933 .0267635
1134.541 .0268530
1135.150 .0269442
1135.760 .0270323
1136.370 .0271415
1136.981 .0271338
1137.592 .0272696
1138.204 .0274074
1138.817 .0275481
1139.431 .0276949
1140.045 .0278399
1140.660 .0279806
1141.275 .0281314
1141.891 .0283048
1142.508 .0284905
1143.126 .0285497
1143.744 .0284813
1144.363 .0290879
1144.983 .0297204
