Measurement Sequence started on: 15-12-46-377
Integration time: 28
Scans to Average: 2 
>>>>>Begin Spectral Data<<<<<
432.689 .0000100
433.621 .0000100
434.552 .0000100
435.482 .0000100
436.410 .0000100
437.337 .0000100
438.262 .0256805
439.187 .0544147
440.110 .0900989
441.031 .1303133
441.952 .1046387
442.871 .1093695
443.789 .1137942
444.705 .1179759
445.621 .1219575
446.535 .1257735
447.447 .1280973
448.359 .1287876
449.269 .1274957
450.178 .1239946
451.086 .1183572
451.993 .1110288
452.898 .1027461
453.803 .0943445
454.706 .0865327
455.608 .0797488
456.508 .0741359
457.408 .0703514
458.306 .0674406
459.204 .0650607
460.100 .0630434
460.995 .0612971
461.888 .0597604
462.781 .0583936
463.673 .0571645
464.563 .0560511
465.452 .0550363
466.340 .0541064
467.228 .0532521
468.114 .0524671
468.999 .0517467
469.882 .0510868
470.765 .0504833
471.647 .0499326
472.528 .0494309
473.407 .0489752
474.286 .0485628
475.163 .0481911
476.040 .0478576
476.915 .0475601
477.790 .0472959
478.663 .0470636
479.535 .0468616
480.407 .0466879
481.277 .0465403
482.147 .0464159
483.015 .0463114
483.883 .0462245
484.749 .0461532
485.615 .0460958
486.479 .0460522
487.343 .0460223
488.206 .0460067
489.067 .0460055
489.928 .0460196
490.788 .0460495
491.647 .0460957
492.505 .0461585
493.362 .0462376
494.218 .0463334
495.073 .0464462
495.928 .0466819
496.781 .0468433
497.634 .0470264
498.486 .0472323
499.337 .0474637
500.187 .0477233
501.036 .0480135
501.884 .0483369
502.731 .0486969
503.578 .0490960
504.424 .0493797
505.268 .0498482
506.113 .0503647
506.956 .0509325
507.798 .0515571
508.640 .0522461
509.480 .0530086
510.320 .0538545
511.160 .0547967
511.998 .0558495
512.836 .0570306
513.672 .0583576
514.508 .0598497
515.344 .0615276
516.178 .0634142
517.012 .0655336
517.845 .0679075
518.677 .0705581
519.508 .0735019
520.339 .0767449
521.169 .0802870
521.998 .0841054
522.826 .0881642
523.654 .0924096
524.481 .0967750
525.307 .1011821
526.133 .1055448
526.958 .1097730
527.782 .1137786
528.605 .1174810
529.428 .1208106
530.250 .1237020
531.072 .1261100
531.892 .1279982
532.712 .1293412
533.532 .1301237
534.350 .1303388
535.168 .1299860
535.986 .1290702
536.802 .1275995
537.618 .1255892
538.434 .1230583
539.249 .1200489
540.063 .1166111
540.876 .1128074
541.689 .1087117
542.501 .1044048
543.313 .0999710
544.124 .0954977
544.934 .0910690
545.744 .0867585
546.553 .0826285
547.361 .0787330
548.169 .0751044
548.976 .0717662
549.783 .0687268
550.589 .0659812
551.395 .0635131
552.200 .0613015
553.004 .0593177
553.808 .0575351
554.611 .0559298
555.414 .0544805
556.216 .0531660
557.018 .0519690
557.819 .0508768
558.619 .0498776
559.419 .0489631
560.218 .0481263
561.017 .0473591
561.815 .0466541
562.613 .0460036
563.410 .0453988
564.207 .0448317
565.003 .0442950
565.799 .0437809
566.594 .0432835
567.388 .0427995
568.182 .0423262
568.976 .0418618
569.769 .0414062
570.562 .0409593
571.354 .0405208
572.145 .0400907
572.936 .0396685
573.727 .0392540
574.517 .0388472
575.307 .0384484
576.096 .0380577
576.885 .0376765
577.673 .0373062
578.461 .0369481
579.248 .0366036
580.035 .0362743
580.821 .0359611
581.607 .0356650
582.392 .0353865
583.177 .0351259
583.962 .0348831
584.746 .0346576
585.529 .0344489
586.313 .0342559
587.095 .0340776
587.878 .0339132
588.660 .0337619
589.441 .0336228
590.222 .0334952
591.003 .0333782
591.783 .0332712
592.563 .0331734
593.342 .0330838
594.121 .0330016
594.899 .0329257
595.678 .0328555
596.455 .0327902
597.233 .0327292
598.009 .0326722
598.786 .0326186
599.562 .0325682
600.338 .0325208
601.113 .0324760
601.888 .0324162
602.663 .0323767
603.437 .0323391
604.211 .0323031
604.984 .0322684
605.757 .0322348
606.530 .0322022
607.302 .0321705
608.074 .0321398
608.845 .0321101
609.616 .0320815
610.387 .0320699
611.158 .0320434
611.928 .0320183
612.697 .0319944
613.467 .0319719
614.236 .0319506
615.004 .0319304
615.773 .0319112
616.541 .0318930
617.308 .0318756
618.076 .0318590
618.843 .0318432
619.609 .0318280
620.375 .0318133
621.141 .0317992
621.907 .0317855
622.672 .0317720
623.437 .0317586
624.202 .0317448
624.966 .0317304
625.730 .0317151
626.493 .0316986
627.257 .0316806
628.020 .0316611
628.782 .0316400
629.545 .0316173
630.307 .0315931
631.068 .0315676
631.830 .0315409
632.591 .0315131
633.352 .0314842
634.112 .0314543
634.872 .0314235
635.632 .0313918
636.392 .0313591
637.151 .0313258
637.910 .0312918
638.668 .0312574
639.427 .0312228
640.185 .0311882
640.943 .0311538
641.700 .0311199
642.457 .0310867
643.214 .0310545
643.971 .0310233
644.727 .0309931
645.483 .0309641
646.239 .0309360
646.994 .0309088
647.750 .0308824
648.505 .0308567
649.259 .0308317
650.014 .0308074
650.768 .0307838
651.521 .0307610
652.275 .0307390
653.028 .0307178
653.781 .0306973
654.534 .0306774
655.286 .0306579
656.039 .0306387
656.791 .0306198
657.542 .0306010
658.294 .0305824
659.045 .0305640
659.796 .0305459
660.546 .0305281
661.297 .0305107
662.047 .0304938
662.796 .0304773
663.546 .0304615
664.295 .0304461
665.044 .0304313
665.793 .0304171
666.542 .0304035
667.290 .0303904
668.038 .0303779
668.786 .0303658
669.533 .0303542
670.281 .0303431
671.028 .0303325
671.774 .0303223
672.521 .0303126
673.267 .0303035
674.013 .0302948
674.759 .0302865
675.505 .0302785
676.250 .0302708
676.995 .0302630
677.740 .0302552
678.484 .0302472
679.229 .0302389
679.973 .0302302
680.717 .0302211
681.460 .0302115
682.204 .0302014
682.947 .0301907
683.690 .0301794
684.433 .0301672
685.175 .0301542
685.917 .0301402
686.659 .0301251
687.401 .0301089
688.142 .0300917
688.884 .0300734
689.625 .0300541
690.365 .0300338
691.106 .0300126
691.846 .0299905
692.586 .0299676
693.326 .0299440
694.066 .0299195
694.805 .0298944
695.545 .0298686
696.284 .0298423
697.022 .0298154
697.761 .0297883
698.499 .0297608
699.237 .0297332
699.975 .0297056
700.713 .0296781
701.450 .0296508
702.187 .0296238
702.924 .0295972
703.661 .0295712
704.397 .0295457
705.133 .0295207
705.869 .0294963
706.605 .0294723
707.341 .0294488
708.076 .0294256
708.811 .0294027
709.546 .0293801
710.281 .0293578
711.015 .0293357
711.749 .0293140
712.483 .0292926
713.217 .0292715
713.950 .0292508
714.684 .0292304
715.417 .0292102
716.150 .0291902
716.882 .0291703
717.615 .0291505
718.347 .0291309
719.079 .0291113
719.811 .0290920
720.542 .0290728
721.273 .0290539
722.005 .0290353
722.735 .0290172
723.466 .0289995
724.196 .0289822
724.927 .0289654
725.656 .0289492
726.386 .0289334
727.116 .0289182
727.845 .0289036
728.574 .0288896
729.303 .0288762
730.031 .0288635
730.760 .0288514
731.488 .0288399
732.216 .0288290
732.944 .0288188
733.671 .0288093
734.398 .0288004
735.125 .0287921
735.852 .0287845
736.579 .0287775
737.305 .0287710
738.031 .0287650
738.757 .0287594
739.483 .0287540
740.208 .0287488
740.933 .0287438
741.658 .0287388
742.383 .0287338
743.108 .0287289
743.832 .0287240
744.556 .0287190
745.280 .0287138
746.004 .0287085
746.727 .0287028
747.450 .0286966
748.173 .0286900
748.896 .0286827
749.618 .0286748
750.340 .0286661
751.062 .0286567
751.784 .0286465
752.506 .0286355
753.227 .0286237
753.948 .0286111
754.669 .0285976
755.389 .0285832
756.110 .0285680
756.830 .0285520
757.550 .0285351
758.269 .0285175
758.989 .0284991
759.708 .0284800
760.427 .0284602
761.146 .0284397
761.864 .0284185
762.582 .0283967
763.300 .0283743
764.018 .0283514
764.736 .0283281
765.453 .0283044
766.170 .0282804
766.887 .0282563
767.603 .0282320
768.320 .0282077
769.036 .0281833
769.751 .0281588
770.467 .0281343
771.182 .0281098
771.897 .0280853
772.612 .0280608
773.327 .0280364
774.041 .0280120
774.755 .0279879
775.469 .0279639
776.183 .0279402
776.896 .0279168
777.609 .0278937
778.322 .0278709
779.035 .0278483
779.747 .0278259
780.459 .0278039
781.171 .0277821
781.882 .0277605
782.594 .0277393
783.305 .0277183
784.016 .0276977
784.726 .0276773
785.436 .0276571
786.147 .0276280
786.856 .0276085
787.566 .0275892
788.275 .0275702
788.984 .0275514
789.693 .0275329
790.401 .0275146
791.110 .0274967
791.818 .0274790
792.525 .0274616
793.233 .0274445
793.940 .0274276
794.647 .0274200
795.353 .0274035
796.060 .0273874
796.766 .0273717
797.472 .0273564
798.177 .0273414
798.883 .0273268
799.588 .0273125
800.292 .0272986
800.997 .0272849
801.701 .0272715
802.405 .0272584
803.109 .0272456
803.812 .0272331
804.515 .0272210
805.218 .0272093
805.921 .0271980
806.623 .0271871
807.325 .0271765
808.027 .0271662
808.728 .0271562
809.429 .0271466
810.130 .0271373
810.831 .0271284
811.531 .0271199
812.231 .0271118
812.931 .0271041
813.630 .0270968
814.330 .0270899
815.029 .0270836
815.727 .0270777
816.426 .0270723
817.124 .0270675
817.821 .0270633
818.519 .0270598
819.216 .0270568
819.913 .0270546
820.609 .0270530
821.306 .0270520
822.002 .0270517
822.697 .0270520
823.393 .0270530
824.088 .0270546
824.783 .0270567
825.477 .0270594
826.171 .0270626
826.865 .0270661
827.559 .0270698
828.252 .0270737
828.945 .0270775
829.638 .0270813
830.330 .0270848
831.023 .0270881
831.714 .0270910
832.406 .0270935
833.097 .0270954
833.788 .0270967
834.479 .0270974
835.169 .0270974
835.859 .0270965
836.548 .0270949
837.238 .0270923
837.927 .0270888
838.615 .0270843
839.304 .0270789
839.992 .0270723
840.680 .0270648
841.367 .0270562
842.054 .0270467
842.741 .0270363
843.428 .0270251
844.114 .0270130
844.800 .0270001
845.485 .0269865
846.170 .0269720
846.855 .0269568
847.540 .0269408
848.224 .0269241
848.908 .0269065
849.592 .0268883
850.275 .0268693
850.958 .0268495
851.641 .0268290
852.323 .0268077
853.005 .0267856
853.687 .0267626
854.368 .0267387
855.049 .0267140
855.730 .0266885
856.410 .0266621
857.090 .0266350
857.769 .0266072
858.449 .0265788
859.128 .0265497
859.806 .0265200
860.485 .0264898
861.163 .0264592
861.840 .0264283
862.518 .0263971
863.195 .0263658
863.871 .0263345
864.548 .0263033
865.224 .0262722
865.899 .0262415
866.574 .0262110
867.249 .0261809
867.924 .0261512
868.598 .0261220
869.272 .0260933
869.946 .0260652
870.619 .0260377
871.292 .0260108
871.964 .0259845
872.636 .0259589
873.308 .0259339
873.979 .0259095
874.651 .0258858
875.321 .0258627
875.992 .0258402
876.662 .0258183
877.331 .0257971
878.001 .0257765
878.670 .0257565
879.338 .0257372
880.007 .0257186
880.675 .0257006
881.342 .0256833
882.009 .0256667
882.676 .0256508
883.343 .0256356
884.009 .0256212
884.675 .0256074
885.340 .0255945
886.005 .0255823
886.670 .0255709
887.334 .0255604
887.998 .0255507
888.662 .0255419
889.325 .0255340
889.988 .0255269
890.650 .0255207
891.312 .0255153
891.974 .0255106
892.636 .0255067
893.297 .0255035
893.957 .0255009
894.618 .0254990
895.278 .0254977
895.937 .0254970
896.596 .0254967
897.255 .0254967
897.914 .0254971
898.572 .0254976
899.230 .0254982
899.887 .0254988
900.544 .0254993
901.201 .0254998
901.857 .0254996
902.513 .0254995
903.168 .0254992
903.823 .0254986
904.478 .0254978
905.132 .0254965
905.786 .0254949
906.440 .0254928
907.093 .0254902
907.746 .0254873
908.399 .0254839
909.051 .0254802
909.703 .0254762
910.354 .0254731
911.005 .0254688
911.656 .0254642
912.306 .0254594
912.956 .0254543
913.605 .0254491
914.254 .0254437
914.903 .0254381
915.551 .0254325
916.199 .0254268
916.847 .0254212
917.494 .0254157
918.141 .0254102
918.788 .0254049
919.434 .0253997
920.079 .0253946
920.725 .0253897
921.370 .0253848
922.014 .0253801
922.658 .0253755
923.302 .0253710
923.946 .0253667
924.589 .0253626
925.231 .0253586
925.873 .0253546
926.515 .0253508
927.157 .0253470
927.798 .0253433
928.439 .0253395
929.079 .0253357
929.719 .0253318
930.359 .0253280
930.998 .0253241
931.637 .0253201
932.275 .0253162
932.913 .0253123
933.551 .0253084
934.188 .0253044
934.825 .0253006
935.462 .0252967
936.098 .0252928
936.733 .0252889
937.369 .0252849
938.004 .0252810
938.638 .0252771
939.273 .0252732
939.907 .0252695
940.540 .0252658
941.173 .0252622
941.806 .0252587
942.438 .0252553
943.070 .0252520
943.702 .0252487
944.333 .0252454
944.964 .0252419
945.594 .0252382
946.224 .0252343
946.854 .0252301
947.483 .0252256
948.112 .0252207
948.741 .0252154
949.369 .0252098
949.996 .0252036
950.624 .0251969
951.251 .0251896
951.878 .0251817
952.504 .0251731
953.130 .0251637
953.755 .0251536
954.380 .0251428
955.005 .0251312
955.629 .0251190
956.253 .0251060
956.877 .0250924
957.500 .0250782
958.123 .0250633
958.746 .0250477
959.368 .0250315
959.990 .0250148
960.611 .0249975
961.232 .0249796
961.853 .0249613
962.473 .0249426
963.093 .0249235
963.712 .0249041
964.331 .0248844
964.950 .0248645
965.569 .0248443
966.187 .0248238
966.804 .0248032
967.422 .0247822
968.039 .0247610
968.655 .0247394
969.272 .0247176
969.887 .0246955
970.503 .0246731
971.118 .0246505
971.733 .0246276
972.347 .0246044
972.961 .0245810
973.575 .0245572
974.188 .0245330
974.801 .0245085
975.414 .0244835
976.026 .0244582
976.638 .0244324
977.250 .0244063
977.861 .0243799
978.472 .0243533
979.083 .0243265
979.693 .0242996
980.303 .0242725
980.912 .0242316
981.521 .0242044
982.130 .0241771
982.738 .0241497
983.346 .0241221
983.954 .0240945
984.562 .0240670
985.169 .0240395
985.775 .0240123
986.382 .0239853
986.988 .0239586
987.594 .0239323
988.199 .0239063
988.804 .0238808
989.409 .0238693
990.013 .0238445
990.617 .0238203
991.221 .0237966
991.824 .0237735
992.427 .0237510
993.030 .0237293
993.632 .0237083
994.234 .0236880
994.836 .0236685
995.438 .0236497
996.039 .0236316
996.640 .0236142
997.240 .0235976
997.840 .0235816
998.440 .0235663
999.040 .0235517
999.639 .0235378
1000.238 .0235247
1000.836 .0235123
1001.435 .0235007
1002.033 .0234899
1002.630 .0234798
1003.228 .0234705
1003.825 .0234620
1004.422 .0234542
1005.018 .0234471
1005.614 .0234407
1006.210 .0234350
1006.806 .0234300
1007.401 .0234257
1007.996 .0234220
1008.591 .0234190
1009.186 .0234167
1009.780 .0234151
1010.374 .0234143
1010.967 .0234142
1011.561 .0234148
1012.154 .0234161
1012.746 .0234183
1013.339 .0234211
1013.931 .0234247
1014.523 .0234290
1015.115 .0234341
1015.706 .0234399
1016.298 .0234465
1016.888 .0234539
1017.479 .0234621
1018.069 .0234710
1018.660 .0234807
1019.250 .0234913
1019.839 .0235025
1020.429 .0235145
1021.018 .0235271
1021.607 .0235404
1022.195 .0235543
1022.784 .0235688
1023.372 .0235838
1023.960 .0235995
1024.547 .0236157
1025.135 .0236323
1025.722 .0236495
1026.309 .0236670
1026.896 .0236848
1027.483 .0237028
1028.069 .0237210
1028.655 .0237392
1029.241 .0237575
1029.827 .0237758
1030.412 .0237942
1030.997 .0238126
1031.582 .0238311
1032.167 .0238497
1032.752 .0238685
1033.336 .0238873
1033.921 .0239062
1034.505 .0239251
1035.089 .0239439
1035.672 .0239626
1036.256 .0239811
1036.839 .0239994
1037.422 .0240175
1038.005 .0240353
1038.588 .0240530
1039.171 .0240705
1039.753 .0240879
1040.335 .0241052
1040.918 .0241222
1041.500 .0241390
1042.081 .0241555
1042.663 .0241716
1043.244 .0241873
1043.826 .0242027
1044.407 .0242178
1044.988 .0242327
1045.569 .0242473
1046.150 .0242619
1046.730 .0242763
1047.311 .0242907
1047.891 .0243050
1048.471 .0243190
1049.052 .0243328
1049.632 .0243461
1050.211 .0243591
1050.791 .0243718
1051.371 .0243844
1051.950 .0243968
1052.530 .0244093
1053.109 .0244218
1053.688 .0244344
1054.268 .0244472
1054.847 .0244601
1055.426 .0244731
1056.005 .0244862
1056.583 .0244994
1057.162 .0245128
1057.741 .0245264
1058.319 .0245403
1058.898 .0245545
1059.476 .0245691
1060.055 .0245841
1060.633 .0245992
1061.211 .0246146
1061.790 .0246300
1062.368 .0246455
1062.946 .0246611
1063.524 .0246766
1064.102 .0246921
1064.680 .0247076
1065.258 .0247230
1065.836 .0247384
1066.414 .0247538
1066.992 .0247692
1067.570 .0247844
1068.148 .0247993
1068.726 .0248140
1069.304 .0248282
1069.882 .0248420
1070.460 .0248552
1071.038 .0248679
1071.616 .0248800
1072.194 .0248914
1072.772 .0249019
1073.350 .0249117
1073.928 .0249207
1074.506 .0249288
1075.084 .0249361
1075.662 .0249425
1076.240 .0249483
1076.819 .0249536
1077.397 .0249584
1077.976 .0249630
1078.554 .0249675
1079.133 .0249718
1079.711 .0249762
1080.290 .0249806
1080.869 .0249850
1081.448 .0249893
1082.027 .0249934
1082.606 .0249972
1083.185 .0250009
1083.764 .0250043
1084.343 .0250079
1084.923 .0250115
1085.502 .0250154
1086.082 .0250196
1086.662 .0250241
1087.242 .0250289
1087.822 .0250340
1088.402 .0250393
1088.983 .0250448
1089.563 .0250506
1090.144 .0250566
1090.725 .0250630
1091.306 .0250701
1091.887 .0250778
1092.469 .0250862
1093.050 .0250952
1093.632 .0251048
1094.214 .0251147
1094.796 .0251247
1095.379 .0251348
1095.961 .0251447
1096.544 .0251543
1097.127 .0251635
1097.710 .0251721
1098.294 .0251803
1098.877 .0251880
1099.461 .0251950
1100.046 .0252015
1100.630 .0252074
1101.215 .0252127
1101.800 .0252176
1102.385 .0252223
1102.970 .0252269
1103.556 .0252318
1104.142 .0252372
1104.728 .0252431
1105.315 .0252496
1105.902 .0252566
1106.489 .0252641
1107.077 .0252721
1107.664 .0252804
1108.253 .0252890
1108.841 .0252981
1109.430 .0253079
1110.019 .0253184
1110.609 .0253299
1111.198 .0253424
1111.789 .0253558
1112.379 .0253702
1112.970 .0253854
1113.561 .0254011
1114.153 .0254175
1114.745 .0254348
1115.338 .0254532
1115.931 .0254731
1116.524 .0254949
1117.117 .0255191
1117.712 .0255460
1118.306 .0255758
1118.901 .0256084
1119.496 .0256436
1120.092 .0256813
1120.689 .0257209
1121.285 .0257621
1121.882 .0258047
1122.480 .0258487
1123.078 .0258943
1123.677 .0259415
1124.276 .0259903
1124.875 .0260408
1125.476 .0260931
1126.076 .0261467
1126.677 .0262014
1127.279 .0262571
1127.881 .0263138
1128.484 .0263715
1129.087 .0263968
1129.691 .0264567
1130.295 .0265186
1130.900 .0265832
1131.505 .0266510
1132.111 .0267223
1132.718 .0267979
1133.325 .0268784
1133.933 .0269640
1134.541 .0270510
1135.150 .0271465
1135.760 .0272463
1136.370 .0273666
1136.981 .0272998
1137.592 .0273770
1138.204 .0274606
1138.817 .0275586
1139.431 .0276690
1140.045 .0277937
1140.660 .0279371
1141.275 .0281133
1141.891 .0283019
1142.508 .0283938
1143.126 .0287009
1143.744 .0288973
1144.363 .0295476
1144.983 .0293655
