Measurement Sequence started on: 15-12-46-377
Integration time: 28
Scans to Average: 2 
>>>>>Begin Spectral Data<<<<<
432.689 .0000100
433.621 .0000100
434.552 .0000100
435.482 .0000100
436.410 .0000100
437.337 .0000100
438.262 .0252095
439.187 .0536213
440.110 .0890244
441.031 .1290636
441.952 .1044373
442.871 .1091416
443.789 .1135231
444.705 .1176499
445.621 .1215694
446.535 .1253169
447.447 .1275909
448.359 .1282424
449.269 .1269193
450.178 .1233903
451.086 .1177206
451.993 .1103462
452.898 .1019962
453.803 .0935022
454.706 .0855757
455.608 .0786651
456.508 .0729260
457.408 .0690136
458.306 .0659998
459.204 .0635448
460.100 .0614769
460.995 .0596983
461.888 .0581442
462.781 .0567706
463.673 .0555448
464.563 .0544442
465.452 .0534507
466.340 .0525501
467.228 .0517312
468.114 .0509854
468.999 .0503050
469.882 .0496840
470.765 .0491170
471.647 .0486005
472.528 .0481309
473.407 .0477053
474.286 .0473214
475.163 .0469765
476.040 .0466677
476.915 .0463917
477.790 .0461449
478.663 .0459246
479.535 .0457281
480.407 .0455539
481.277 .0454010
482.147 .0452689
483.015 .0451573
483.883 .0450658
484.749 .0449935
485.615 .0449394
486.479 .0449020
487.343 .0448797
488.206 .0448719
489.067 .0448773
489.928 .0448964
490.788 .0449300
491.647 .0449792
492.505 .0450455
493.362 .0451303
494.218 .0452346
495.073 .0453590
495.928 .0456142
496.781 .0457865
497.634 .0459774
498.486 .0461869
499.337 .0464157
500.187 .0466653
501.036 .0469386
501.884 .0472385
502.731 .0475691
503.578 .0479343
504.424 .0481891
505.268 .0486219
506.113 .0491015
506.956 .0496324
507.798 .0502201
508.640 .0508718
509.480 .0515964
510.320 .0524031
511.160 .0533028
511.998 .0543089
512.836 .0554358
513.672 .0566983
514.508 .0581143
515.344 .0597038
516.178 .0614857
517.012 .0634817
517.845 .0657109
518.677 .0681916
519.508 .0709379
520.339 .0739548
521.169 .0772432
521.998 .0807820
522.826 .0845359
523.654 .0884563
524.481 .0924819
525.307 .0965473
526.133 .1005734
526.958 .1044794
527.782 .1081862
528.605 .1116192
529.428 .1147102
530.250 .1173984
531.072 .1196418
531.892 .1214081
532.712 .1226707
533.532 .1234164
534.350 .1236378
535.168 .1233376
535.986 .1225192
536.802 .1211878
537.618 .1193539
538.434 .1170308
539.249 .1142515
540.063 .1110650
540.876 .1075305
541.689 .1037200
542.501 .0997072
543.313 .0955746
544.124 .0914037
544.934 .0872721
545.744 .0832485
546.553 .0793931
547.361 .0757568
548.169 .0723700
548.976 .0692518
549.783 .0664122
550.589 .0638486
551.395 .0615482
552.200 .0594894
553.004 .0576494
553.808 .0560058
554.611 .0545381
555.414 .0532277
556.216 .0520562
557.018 .0510040
557.819 .0500544
558.619 .0491899
559.419 .0483958
560.218 .0476607
561.017 .0469732
561.815 .0463253
562.613 .0457113
563.410 .0451250
564.207 .0445614
565.003 .0440171
565.799 .0434882
566.594 .0429708
567.388 .0424617
568.182 .0419586
568.976 .0414597
569.769 .0409647
570.562 .0404742
571.354 .0399898
572.145 .0395138
572.936 .0390480
573.727 .0385941
574.517 .0381538
575.307 .0377285
576.096 .0373188
576.885 .0369256
577.673 .0365498
578.461 .0361917
579.248 .0358518
580.035 .0355309
580.821 .0352295
581.607 .0349477
582.392 .0346850
583.177 .0344412
583.962 .0342156
584.746 .0340073
585.529 .0338154
586.313 .0336387
587.095 .0334762
587.878 .0333267
588.660 .0331890
589.441 .0330623
590.222 .0329458
591.003 .0328387
591.783 .0327400
592.563 .0326490
593.342 .0325646
594.121 .0324858
594.899 .0324118
595.678 .0323417
596.455 .0322748
597.233 .0322103
598.009 .0321478
598.786 .0320869
599.562 .0320273
600.338 .0319688
601.113 .0319113
601.888 .0318265
602.663 .0317709
603.437 .0317160
604.211 .0316617
604.984 .0316082
605.757 .0315554
606.530 .0315036
607.302 .0314528
608.074 .0314030
608.845 .0313546
609.616 .0313077
610.387 .0312888
611.158 .0312447
611.928 .0312023
612.697 .0311618
613.467 .0311232
614.236 .0310866
615.004 .0310520
615.773 .0310193
616.541 .0309887
617.308 .0309598
618.076 .0309328
618.843 .0309076
619.609 .0308841
620.375 .0308624
621.141 .0308422
621.907 .0308235
622.672 .0308061
623.437 .0307897
624.202 .0307742
624.966 .0307594
625.730 .0307450
626.493 .0307308
627.257 .0307168
628.020 .0307028
628.782 .0306887
629.545 .0306745
630.307 .0306601
631.068 .0306456
631.830 .0306308
632.591 .0306157
633.352 .0306003
634.112 .0305846
634.872 .0305685
635.632 .0305520
636.392 .0305351
637.151 .0305178
637.910 .0304999
638.668 .0304816
639.427 .0304629
640.185 .0304438
640.943 .0304244
641.700 .0304049
642.457 .0303853
643.214 .0303655
643.971 .0303457
644.727 .0303258
645.483 .0303057
646.239 .0302853
646.994 .0302647
647.750 .0302437
648.505 .0302224
649.259 .0302009
650.014 .0301790
650.768 .0301569
651.521 .0301345
652.275 .0301119
653.028 .0300889
653.781 .0300655
654.534 .0300417
655.286 .0300173
656.039 .0299924
656.791 .0299669
657.542 .0299408
658.294 .0299142
659.045 .0298869
659.796 .0298592
660.546 .0298309
661.297 .0298023
662.047 .0297733
662.796 .0297442
663.546 .0297149
664.295 .0296855
665.044 .0296562
665.793 .0296268
666.542 .0295975
667.290 .0295683
668.038 .0295392
668.786 .0295102
669.533 .0294814
670.281 .0294528
671.028 .0294245
671.774 .0293965
672.521 .0293691
673.267 .0293421
674.013 .0293156
674.759 .0292897
675.505 .0292643
676.250 .0292394
676.995 .0292150
677.740 .0291912
678.484 .0291680
679.229 .0291454
679.973 .0291234
680.717 .0291023
681.460 .0290819
682.204 .0290625
682.947 .0290438
683.690 .0290261
684.433 .0290092
685.175 .0289932
685.917 .0289780
686.659 .0289636
687.401 .0289499
688.142 .0289370
688.884 .0289248
689.625 .0289133
690.365 .0289023
691.106 .0288919
691.846 .0288822
692.586 .0288729
693.326 .0288642
694.066 .0288559
694.805 .0288480
695.545 .0288405
696.284 .0288332
697.022 .0288262
697.761 .0288192
698.499 .0288123
699.237 .0288054
699.975 .0287983
700.713 .0287911
701.450 .0287836
702.187 .0287759
702.924 .0287680
703.661 .0287596
704.397 .0287510
705.133 .0287419
705.869 .0287324
706.605 .0287224
707.341 .0287120
708.076 .0287010
708.811 .0286894
709.546 .0286774
710.281 .0286648
711.015 .0286517
711.749 .0286381
712.483 .0286242
713.217 .0286098
713.950 .0285951
714.684 .0285801
715.417 .0285647
716.150 .0285491
716.882 .0285331
717.615 .0285168
718.347 .0285002
719.079 .0284832
719.811 .0284658
720.542 .0284479
721.273 .0284296
722.005 .0284109
722.735 .0283917
723.466 .0283722
724.196 .0283523
724.927 .0283321
725.656 .0283118
726.386 .0282912
727.116 .0282704
727.845 .0282493
728.574 .0282280
729.303 .0282064
730.031 .0281843
730.760 .0281619
731.488 .0281391
732.216 .0281159
732.944 .0280924
733.671 .0280687
734.398 .0280447
735.125 .0280206
735.852 .0279965
736.579 .0279723
737.305 .0279482
738.031 .0279242
738.757 .0279003
739.483 .0278764
740.208 .0278527
740.933 .0278291
741.658 .0278057
742.383 .0277825
743.108 .0277596
743.832 .0277370
744.556 .0277149
745.280 .0276932
746.004 .0276720
746.727 .0276513
747.450 .0276311
748.173 .0276114
748.896 .0275921
749.618 .0275733
750.340 .0275548
751.062 .0275367
751.784 .0275190
752.506 .0275017
753.227 .0274848
753.948 .0274683
754.669 .0274523
755.389 .0274368
756.110 .0274217
756.830 .0274071
757.550 .0273929
758.269 .0273791
758.989 .0273657
759.708 .0273527
760.427 .0273402
761.146 .0273280
761.864 .0273163
762.582 .0273049
763.300 .0272940
764.018 .0272836
764.736 .0272737
765.453 .0272644
766.170 .0272558
766.887 .0272478
767.603 .0272405
768.320 .0272339
769.036 .0272281
769.751 .0272230
770.467 .0272188
771.182 .0272153
771.897 .0272126
772.612 .0272107
773.327 .0272097
774.041 .0272094
774.755 .0272099
775.469 .0272112
776.183 .0272133
776.896 .0272160
777.609 .0272194
778.322 .0272235
779.035 .0272283
779.747 .0272336
780.459 .0272394
781.171 .0272458
781.882 .0272525
782.594 .0272596
783.305 .0272668
784.016 .0272740
784.726 .0272811
785.436 .0272879
786.147 .0272964
786.856 .0273019
787.566 .0273068
788.275 .0273111
788.984 .0273149
789.693 .0273179
790.401 .0273201
791.110 .0273216
791.818 .0273222
792.525 .0273218
793.233 .0273204
793.940 .0273181
794.647 .0273142
795.353 .0273106
796.060 .0273061
796.766 .0273007
797.472 .0272946
798.177 .0272876
798.883 .0272798
799.588 .0272712
800.292 .0272618
800.997 .0272516
801.701 .0272407
802.405 .0272291
803.109 .0272169
803.812 .0272040
804.515 .0271904
805.218 .0271761
805.921 .0271610
806.623 .0271450
807.325 .0271283
808.027 .0271106
808.728 .0270922
809.429 .0270729
810.130 .0270529
810.831 .0270321
811.531 .0270107
812.231 .0269885
812.931 .0269656
813.630 .0269420
814.330 .0269176
815.029 .0268925
815.727 .0268668
816.426 .0268406
817.124 .0268140
817.821 .0267871
818.519 .0267600
819.216 .0267327
819.913 .0267054
820.609 .0266781
821.306 .0266508
822.002 .0266237
822.697 .0265968
823.393 .0265703
824.088 .0265443
824.783 .0265187
825.477 .0264938
826.171 .0264694
826.865 .0264457
827.559 .0264224
828.252 .0263997
828.945 .0263775
829.638 .0263557
830.330 .0263344
831.023 .0263136
831.714 .0262933
832.406 .0262734
833.097 .0262541
833.788 .0262352
834.479 .0262167
835.169 .0261986
835.859 .0261809
836.548 .0261635
837.238 .0261465
837.927 .0261299
838.615 .0261138
839.304 .0260980
839.992 .0260826
840.680 .0260676
841.367 .0260531
842.054 .0260388
842.741 .0260250
843.428 .0260115
844.114 .0259985
844.800 .0259858
845.485 .0259736
846.170 .0259619
846.855 .0259506
847.540 .0259397
848.224 .0259291
848.908 .0259188
849.592 .0259087
850.275 .0258989
850.958 .0258892
851.641 .0258798
852.323 .0258706
853.005 .0258617
853.687 .0258532
854.368 .0258450
855.049 .0258372
855.730 .0258298
856.410 .0258227
857.090 .0258159
857.769 .0258094
858.449 .0258032
859.128 .0257974
859.806 .0257920
860.485 .0257872
861.163 .0257828
861.840 .0257791
862.518 .0257759
863.195 .0257734
863.871 .0257715
864.548 .0257703
865.224 .0257697
865.899 .0257699
866.574 .0257708
867.249 .0257725
867.924 .0257750
868.598 .0257782
869.272 .0257821
869.946 .0257867
870.619 .0257917
871.292 .0257972
871.964 .0258032
872.636 .0258096
873.308 .0258164
873.979 .0258237
874.651 .0258315
875.321 .0258397
875.992 .0258483
876.662 .0258572
877.331 .0258663
878.001 .0258757
878.670 .0258851
879.338 .0258946
880.007 .0259043
880.675 .0259140
881.342 .0259238
882.009 .0259337
882.676 .0259437
883.343 .0259537
884.009 .0259637
884.675 .0259737
885.340 .0259838
886.005 .0259937
886.670 .0260037
887.334 .0260136
887.998 .0260234
888.662 .0260332
889.325 .0260430
889.988 .0260526
890.650 .0260622
891.312 .0260716
891.974 .0260809
892.636 .0260900
893.297 .0260987
893.957 .0261071
894.618 .0261150
895.278 .0261224
895.937 .0261293
896.596 .0261354
897.255 .0261408
897.914 .0261454
898.572 .0261489
899.230 .0261514
899.887 .0261527
900.544 .0261527
901.201 .0261514
901.857 .0261433
902.513 .0261384
903.168 .0261321
903.823 .0261244
904.478 .0261153
905.132 .0261048
905.786 .0260930
906.440 .0260798
907.093 .0260652
907.746 .0260494
908.399 .0260323
909.051 .0260141
909.703 .0259949
910.354 .0259830
911.005 .0259628
911.656 .0259417
912.306 .0259199
912.956 .0258973
913.605 .0258742
914.254 .0258504
914.903 .0258262
915.551 .0258015
916.199 .0257764
916.847 .0257509
917.494 .0257250
918.141 .0256988
918.788 .0256720
919.434 .0256449
920.079 .0256172
920.725 .0255890
921.370 .0255602
922.014 .0255309
922.658 .0255010
923.302 .0254706
923.946 .0254397
924.589 .0254082
925.231 .0253761
925.873 .0253435
926.515 .0253103
927.157 .0252765
927.798 .0252423
928.439 .0252075
929.079 .0251723
929.719 .0251369
930.359 .0251011
930.998 .0250652
931.637 .0250291
932.275 .0249929
932.913 .0249568
933.551 .0249207
934.188 .0248848
934.825 .0248492
935.462 .0248140
936.098 .0247793
936.733 .0247453
937.369 .0247119
938.004 .0246793
938.638 .0246474
939.273 .0246165
939.907 .0245864
940.540 .0245572
941.173 .0245289
941.806 .0245016
942.438 .0244752
943.070 .0244497
943.702 .0244250
944.333 .0244011
944.964 .0243778
945.594 .0243553
946.224 .0243333
946.854 .0243118
947.483 .0242908
948.112 .0242702
948.741 .0242500
949.369 .0242302
949.996 .0242107
950.624 .0241917
951.251 .0241729
951.878 .0241546
952.504 .0241367
953.130 .0241192
953.755 .0241021
954.380 .0240855
955.005 .0240692
955.629 .0240533
956.253 .0240377
956.877 .0240224
957.500 .0240073
958.123 .0239925
958.746 .0239781
959.368 .0239639
959.990 .0239502
960.611 .0239369
961.232 .0239242
961.853 .0239119
962.473 .0239002
963.093 .0238890
963.712 .0238784
964.331 .0238683
964.950 .0238589
965.569 .0238501
966.187 .0238421
966.804 .0238349
967.422 .0238284
968.039 .0238227
968.655 .0238177
969.272 .0238134
969.887 .0238096
970.503 .0238065
971.118 .0238039
971.733 .0238018
972.347 .0238002
972.961 .0237993
973.575 .0237988
974.188 .0237989
974.801 .0237994
975.414 .0238004
976.026 .0238017
976.638 .0238035
977.250 .0238056
977.861 .0238081
978.472 .0238111
979.083 .0238145
979.693 .0238184
980.303 .0238229
980.912 .0238310
981.521 .0238365
982.130 .0238423
982.738 .0238484
983.346 .0238548
983.954 .0238615
984.562 .0238685
985.169 .0238760
985.775 .0238839
986.382 .0238923
986.988 .0239014
987.594 .0239110
988.199 .0239213
988.804 .0239321
989.409 .0239394
990.013 .0239512
990.617 .0239636
991.221 .0239766
991.824 .0239903
992.427 .0240046
993.030 .0240195
993.632 .0240350
994.234 .0240510
994.836 .0240674
995.438 .0240841
996.039 .0241012
996.640 .0241185
997.240 .0241360
997.840 .0241539
998.440 .0241720
999.040 .0241904
999.639 .0242092
1000.238 .0242282
1000.836 .0242476
1001.435 .0242671
1002.033 .0242868
1002.630 .0243066
1003.228 .0243263
1003.825 .0243459
1004.422 .0243654
1005.018 .0243847
1005.614 .0244037
1006.210 .0244225
1006.806 .0244411
1007.401 .0244593
1007.996 .0244773
1008.591 .0244950
1009.186 .0245123
1009.780 .0245294
1010.374 .0245462
1010.967 .0245627
1011.561 .0245790
1012.154 .0245952
1012.746 .0246114
1013.339 .0246277
1013.931 .0246441
1014.523 .0246607
1015.115 .0246775
1015.706 .0246945
1016.298 .0247115
1016.888 .0247286
1017.479 .0247457
1018.069 .0247625
1018.660 .0247791
1019.250 .0247954
1019.839 .0248113
1020.429 .0248268
1021.018 .0248418
1021.607 .0248564
1022.195 .0248707
1022.784 .0248846
1023.372 .0248983
1023.960 .0249117
1024.547 .0249248
1025.135 .0249377
1025.722 .0249504
1026.309 .0249629
1026.896 .0249751
1027.483 .0249871
1028.069 .0249988
1028.655 .0250104
1029.241 .0250217
1029.827 .0250328
1030.412 .0250435
1030.997 .0250539
1031.582 .0250638
1032.167 .0250731
1032.752 .0250818
1033.336 .0250897
1033.921 .0250968
1034.505 .0251032
1035.089 .0251088
1035.672 .0251137
1036.256 .0251179
1036.839 .0251217
1037.422 .0251249
1038.005 .0251277
1038.588 .0251301
1039.171 .0251319
1039.753 .0251331
1040.335 .0251337
1040.918 .0251335
1041.500 .0251325
1042.081 .0251307
1042.663 .0251283
1043.244 .0251252
1043.826 .0251216
1044.407 .0251176
1044.988 .0251130
1045.569 .0251080
1046.150 .0251024
1046.730 .0250960
1047.311 .0250889
1047.891 .0250809
1048.471 .0250721
1049.052 .0250625
1049.632 .0250522
1050.211 .0250414
1050.791 .0250302
1051.371 .0250185
1051.950 .0250065
1052.530 .0249940
1053.109 .0249810
1053.688 .0249673
1054.268 .0249530
1054.847 .0249378
1055.426 .0249220
1056.005 .0249057
1056.583 .0248889
1057.162 .0248718
1057.741 .0248546
1058.319 .0248373
1058.898 .0248202
1059.476 .0248031
1060.055 .0247860
1060.633 .0247690
1061.211 .0247519
1061.790 .0247348
1062.368 .0247177
1062.946 .0247005
1063.524 .0246834
1064.102 .0246663
1064.680 .0246493
1065.258 .0246324
1065.836 .0246157
1066.414 .0245990
1066.992 .0245824
1067.570 .0245659
1068.148 .0245494
1068.726 .0245329
1069.304 .0245166
1069.882 .0245005
1070.460 .0244847
1071.038 .0244694
1071.616 .0244546
1072.194 .0244402
1072.772 .0244263
1073.350 .0244129
1073.928 .0243996
1074.506 .0243865
1075.084 .0243734
1075.662 .0243601
1076.240 .0243467
1076.819 .0243330
1077.397 .0243191
1077.976 .0243050
1078.554 .0242907
1079.133 .0242762
1079.711 .0242615
1080.290 .0242465
1080.869 .0242313
1081.448 .0242158
1082.027 .0242001
1082.606 .0241842
1083.185 .0241683
1083.764 .0241523
1084.343 .0241364
1084.923 .0241207
1085.502 .0241053
1086.082 .0240904
1086.662 .0240758
1087.242 .0240617
1087.822 .0240480
1088.402 .0240349
1088.983 .0240224
1089.563 .0240106
1090.144 .0239995
1090.725 .0239894
1091.306 .0239802
1091.887 .0239721
1092.469 .0239653
1093.050 .0239599
1093.632 .0239559
1094.214 .0239533
1094.796 .0239522
1095.379 .0239525
1095.961 .0239540
1096.544 .0239569
1097.127 .0239609
1097.710 .0239659
1098.294 .0239719
1098.877 .0239788
1099.461 .0239865
1100.046 .0239952
1100.630 .0240047
1101.215 .0240150
1101.800 .0240260
1102.385 .0240377
1102.970 .0240498
1103.556 .0240625
1104.142 .0240759
1104.728 .0240901
1105.315 .0241053
1105.902 .0241217
1106.489 .0241394
1107.077 .0241585
1107.664 .0241790
1108.253 .0242009
1108.841 .0242240
1109.430 .0242480
1110.019 .0242730
1110.609 .0242987
1111.198 .0243254
1111.789 .0243530
1112.379 .0243817
1112.970 .0244117
1113.561 .0244430
1114.153 .0244756
1114.745 .0245095
1115.338 .0245445
1115.931 .0245806
1116.524 .0246174
1117.117 .0246547
1117.712 .0246927
1118.306 .0247316
1118.901 .0247716
1119.496 .0248129
1120.092 .0248557
1120.689 .0249001
1121.285 .0249457
1121.882 .0249926
1122.480 .0250404
1123.078 .0250889
1123.677 .0251381
1124.276 .0251878
1124.875 .0252384
1125.476 .0252904
1126.076 .0253441
1126.677 .0254003
1127.279 .0254595
1127.881 .0255218
1128.484 .0255875
1129.087 .0256136
1129.691 .0256831
1130.295 .0257565
1130.900 .0258340
1131.505 .0259163
1132.111 .0260038
1132.718 .0260974
1133.325 .0261980
1133.933 .0263060
1134.541 .0264215
1135.150 .0265458
1135.760 .0266795
1136.370 .0268253
1136.981 .0267081
1137.592 .0268650
1138.204 .0270319
1138.817 .0272090
1139.431 .0273950
1140.045 .0275925
1140.660 .0278040
1141.275 .0280373
1141.891 .0282738
1142.508 .0285124
1143.126 .0287868
1143.744 .0290870
1144.363 .0294670
1144.983 .0293993
