Measurement Sequence started on: 15-12-46-377
Integration time: 28
Scans to Average: 2 
>>>>>Begin Spectral Data<<<<<
432.689 .0000100
433.621 .0000100
434.552 .0000100
435.482 .0000100
436.410 .0000100
437.337 .0000100
438.262 .0274120
439.187 .0581617
440.110 .0963406
441.031 .1394008
441.952 .1117226
442.871 .1166420
443.789 .1212121
444.705 .1255089
445.621 .1295866
446.535 .1334854
447.447 .1357920
448.359 .1363517
449.269 .1347905
450.178 .1308635
451.086 .1246437
451.993 .1166071
452.898 .1075465
453.803 .0983602
454.706 .0898155
455.608 .0823897
456.508 .0762454
457.408 .0720900
458.306 .0689074
459.204 .0663260
460.100 .0641601
460.995 .0623049
461.888 .0606873
462.781 .0592569
463.673 .0579781
464.563 .0568261
465.452 .0557834
466.340 .0548360
467.228 .0539740
468.114 .0531895
468.999 .0524760
469.882 .0518255
470.765 .0512322
471.647 .0506903
472.528 .0501963
473.407 .0497479
474.286 .0493440
475.163 .0489848
476.040 .0486692
476.915 .0483959
477.790 .0481623
478.663 .0479645
479.535 .0477983
480.407 .0476589
481.277 .0475424
482.147 .0474456
483.015 .0473664
483.883 .0473037
484.749 .0472577
485.615 .0472288
486.479 .0472172
487.343 .0472224
488.206 .0472436
489.067 .0472788
489.928 .0473260
490.788 .0473837
491.647 .0474511
492.505 .0475285
493.362 .0476173
494.218 .0477201
495.073 .0478401
495.928 .0480946
496.781 .0482744
497.634 .0484804
498.486 .0487131
499.337 .0489727
500.187 .0492600
501.036 .0495754
501.884 .0499203
502.731 .0502984
503.578 .0507140
504.424 .0510097
505.268 .0514995
506.113 .0520426
506.956 .0526448
507.798 .0533107
508.640 .0540450
509.480 .0548540
510.320 .0557456
511.160 .0567297
511.998 .0578194
512.836 .0590324
513.672 .0603879
514.508 .0619090
515.344 .0636200
516.178 .0655452
517.012 .0677108
517.845 .0701372
518.677 .0728401
519.508 .0758315
520.339 .0791155
521.169 .0826923
521.998 .0865399
522.826 .0906300
523.654 .0949142
524.481 .0993322
525.307 .1038151
526.133 .1082809
526.958 .1126393
527.782 .1167987
528.605 .1206685
529.428 .1241679
530.250 .1272207
531.072 .1297740
531.892 .1317829
532.712 .1332223
533.532 .1340775
534.350 .1343416
535.168 .1340198
535.986 .1331270
536.802 .1316765
537.618 .1296845
538.434 .1271669
539.249 .1241602
540.063 .1207070
540.876 .1168655
541.689 .1127059
542.501 .1083060
543.313 .1037544
544.124 .0991452
544.934 .0945689
545.744 .0901103
546.553 .0858414
547.361 .0818233
548.169 .0780921
548.976 .0746717
549.783 .0715654
550.589 .0687655
551.395 .0662541
552.200 .0640060
553.004 .0619899
553.808 .0601774
554.611 .0585437
555.414 .0570678
556.216 .0557288
557.018 .0545070
557.819 .0533863
558.619 .0523519
559.419 .0513915
560.218 .0504951
561.017 .0496527
561.815 .0488573
562.613 .0481034
563.410 .0473855
564.207 .0466977
565.003 .0460358
565.799 .0453949
566.594 .0447714
567.388 .0441628
568.182 .0435677
568.976 .0429852
569.769 .0424162
570.562 .0418625
571.354 .0413258
572.145 .0408080
572.936 .0403104
573.727 .0398333
574.517 .0393773
575.307 .0389420
576.096 .0385257
576.885 .0381275
577.673 .0377467
578.461 .0373826
579.248 .0370354
580.035 .0367053
580.821 .0363929
581.607 .0360987
582.392 .0358235
583.177 .0355673
583.962 .0353299
584.746 .0351106
585.529 .0349084
586.313 .0347221
587.095 .0345502
587.878 .0343915
588.660 .0342448
589.441 .0341092
590.222 .0339841
591.003 .0338687
591.783 .0337623
592.563 .0336641
593.342 .0335737
594.121 .0334901
594.899 .0334125
595.678 .0333401
596.455 .0332721
597.233 .0332079
598.009 .0331470
598.786 .0330890
599.562 .0330336
600.338 .0329805
601.113 .0329294
601.888 .0328593
602.663 .0328132
603.437 .0327688
604.211 .0327261
604.984 .0326851
605.757 .0326457
606.530 .0326079
607.302 .0325716
608.074 .0325369
608.845 .0325036
609.616 .0324718
610.387 .0324594
611.158 .0324295
611.928 .0324009
612.697 .0323735
613.467 .0323472
614.236 .0323220
615.004 .0322977
615.773 .0322742
616.541 .0322515
617.308 .0322293
618.076 .0322075
618.843 .0321861
619.609 .0321648
620.375 .0321436
621.141 .0321224
621.907 .0321013
622.672 .0320801
623.437 .0320588
624.202 .0320374
624.966 .0320158
625.730 .0319939
626.493 .0319717
627.257 .0319491
628.020 .0319262
628.782 .0319029
629.545 .0318793
630.307 .0318554
631.068 .0318312
631.830 .0318067
632.591 .0317819
633.352 .0317568
634.112 .0317315
634.872 .0317060
635.632 .0316801
636.392 .0316540
637.151 .0316276
637.910 .0316009
638.668 .0315737
639.427 .0315463
640.185 .0315185
640.943 .0314904
641.700 .0314621
642.457 .0314337
643.214 .0314051
643.971 .0313765
644.727 .0313478
645.483 .0313190
646.239 .0312900
646.994 .0312608
647.750 .0312315
648.505 .0312020
649.259 .0311725
650.014 .0311430
650.768 .0311136
651.521 .0310844
652.275 .0310552
653.028 .0310262
653.781 .0309974
654.534 .0309687
655.286 .0309401
656.039 .0309119
656.791 .0308839
657.542 .0308564
658.294 .0308293
659.045 .0308026
659.796 .0307764
660.546 .0307505
661.297 .0307249
662.047 .0306996
662.796 .0306744
663.546 .0306495
664.295 .0306249
665.044 .0306005
665.793 .0305764
666.542 .0305526
667.290 .0305291
668.038 .0305059
668.786 .0304829
669.533 .0304601
670.281 .0304375
671.028 .0304150
671.774 .0303927
672.521 .0303706
673.267 .0303488
674.013 .0303271
674.759 .0303056
675.505 .0302843
676.250 .0302632
676.995 .0302423
677.740 .0302216
678.484 .0302013
679.229 .0301814
679.973 .0301620
680.717 .0301430
681.460 .0301246
682.204 .0301066
682.947 .0300892
683.690 .0300721
684.433 .0300555
685.175 .0300392
685.917 .0300233
686.659 .0300078
687.401 .0299926
688.142 .0299777
688.884 .0299630
689.625 .0299485
690.365 .0299339
691.106 .0299192
691.846 .0299043
692.586 .0298892
693.326 .0298737
694.066 .0298578
694.805 .0298417
695.545 .0298252
696.284 .0298083
697.022 .0297911
697.761 .0297735
698.499 .0297557
699.237 .0297377
699.975 .0297196
700.713 .0297014
701.450 .0296833
702.187 .0296652
702.924 .0296474
703.661 .0296297
704.397 .0296122
705.133 .0295948
705.869 .0295776
706.605 .0295605
707.341 .0295437
708.076 .0295270
708.811 .0295107
709.546 .0294946
710.281 .0294789
711.015 .0294634
711.749 .0294480
712.483 .0294328
713.217 .0294174
713.950 .0294019
714.684 .0293862
715.417 .0293702
716.150 .0293540
716.882 .0293374
717.615 .0293206
718.347 .0293035
719.079 .0292861
719.811 .0292683
720.542 .0292502
721.273 .0292318
722.005 .0292131
722.735 .0291941
723.466 .0291749
724.196 .0291556
724.927 .0291362
725.656 .0291167
726.386 .0290974
727.116 .0290781
727.845 .0290591
728.574 .0290403
729.303 .0290219
730.031 .0290040
730.760 .0289867
731.488 .0289699
732.216 .0289538
732.944 .0289381
733.671 .0289230
734.398 .0289083
735.125 .0288939
735.852 .0288799
736.579 .0288663
737.305 .0288530
738.031 .0288400
738.757 .0288274
739.483 .0288151
740.208 .0288031
740.933 .0287913
741.658 .0287796
742.383 .0287679
743.108 .0287561
743.832 .0287441
744.556 .0287319
745.280 .0287195
746.004 .0287068
746.727 .0286939
747.450 .0286808
748.173 .0286674
748.896 .0286537
749.618 .0286398
750.340 .0286255
751.062 .0286111
751.784 .0285963
752.506 .0285813
753.227 .0285660
753.948 .0285505
754.669 .0285348
755.389 .0285188
756.110 .0285027
756.830 .0284864
757.550 .0284701
758.269 .0284537
758.989 .0284374
759.708 .0284211
760.427 .0284048
761.146 .0283885
761.864 .0283722
762.582 .0283560
763.300 .0283397
764.018 .0283235
764.736 .0283073
765.453 .0282912
766.170 .0282751
766.887 .0282591
767.603 .0282432
768.320 .0282275
769.036 .0282118
769.751 .0281962
770.467 .0281808
771.182 .0281657
771.897 .0281508
772.612 .0281362
773.327 .0281219
774.041 .0281081
774.755 .0280946
775.469 .0280816
776.183 .0280690
776.896 .0280569
777.609 .0280453
778.322 .0280343
779.035 .0280238
779.747 .0280138
780.459 .0280044
781.171 .0279954
781.882 .0279869
782.594 .0279788
783.305 .0279710
784.016 .0279635
784.726 .0279562
785.436 .0279491
786.147 .0279387
786.856 .0279318
787.566 .0279248
788.275 .0279179
788.984 .0279111
789.693 .0279041
790.401 .0278972
791.110 .0278901
791.818 .0278830
792.525 .0278757
793.233 .0278683
793.940 .0278607
794.647 .0278565
795.353 .0278490
796.060 .0278413
796.766 .0278336
797.472 .0278259
798.177 .0278181
798.883 .0278102
799.588 .0278023
800.292 .0277943
800.997 .0277862
801.701 .0277780
802.405 .0277698
803.109 .0277616
803.812 .0277534
804.515 .0277451
805.218 .0277367
805.921 .0277282
806.623 .0277195
807.325 .0277105
808.027 .0277014
808.728 .0276920
809.429 .0276823
810.130 .0276724
810.831 .0276623
811.531 .0276519
812.231 .0276414
812.931 .0276306
813.630 .0276196
814.330 .0276084
815.029 .0275971
815.727 .0275856
816.426 .0275741
817.124 .0275627
817.821 .0275516
818.519 .0275407
819.216 .0275302
819.913 .0275202
820.609 .0275106
821.306 .0275015
822.002 .0274929
822.697 .0274848
823.393 .0274772
824.088 .0274703
824.783 .0274640
825.477 .0274583
826.171 .0274533
826.865 .0274488
827.559 .0274449
828.252 .0274416
828.945 .0274387
829.638 .0274362
830.330 .0274340
831.023 .0274321
831.714 .0274303
832.406 .0274287
833.097 .0274271
833.788 .0274255
834.479 .0274239
835.169 .0274222
835.859 .0274203
836.548 .0274181
837.238 .0274157
837.927 .0274130
838.615 .0274099
839.304 .0274063
839.992 .0274022
840.680 .0273976
841.367 .0273924
842.054 .0273868
842.741 .0273805
843.428 .0273738
844.114 .0273665
844.800 .0273588
845.485 .0273505
846.170 .0273416
846.855 .0273322
847.540 .0273224
848.224 .0273120
848.908 .0273011
849.592 .0272898
850.275 .0272780
850.958 .0272657
851.641 .0272530
852.323 .0272397
853.005 .0272259
853.687 .0272115
854.368 .0271966
855.049 .0271811
855.730 .0271651
856.410 .0271487
857.090 .0271318
857.769 .0271146
858.449 .0270970
859.128 .0270792
859.806 .0270612
860.485 .0270430
861.163 .0270247
861.840 .0270063
862.518 .0269879
863.195 .0269696
863.871 .0269515
864.548 .0269335
865.224 .0269159
865.899 .0268986
866.574 .0268816
867.249 .0268650
867.924 .0268487
868.598 .0268328
869.272 .0268173
869.946 .0268021
870.619 .0267875
871.292 .0267733
871.964 .0267597
872.636 .0267465
873.308 .0267339
873.979 .0267218
874.651 .0267100
875.321 .0266984
875.992 .0266872
876.662 .0266761
877.331 .0266653
878.001 .0266546
878.670 .0266442
879.338 .0266339
880.007 .0266238
880.675 .0266140
881.342 .0266042
882.009 .0265946
882.676 .0265850
883.343 .0265754
884.009 .0265659
884.675 .0265565
885.340 .0265471
886.005 .0265379
886.670 .0265289
887.334 .0265201
887.998 .0265116
888.662 .0265033
889.325 .0264952
889.988 .0264873
890.650 .0264796
891.312 .0264720
891.974 .0264645
892.636 .0264572
893.297 .0264500
893.957 .0264428
894.618 .0264356
895.278 .0264284
895.937 .0264210
896.596 .0264133
897.255 .0264053
897.914 .0263970
898.572 .0263881
899.230 .0263788
899.887 .0263690
900.544 .0263586
901.201 .0263476
901.857 .0263279
902.513 .0263153
903.168 .0263019
903.823 .0262878
904.478 .0262729
905.132 .0262572
905.786 .0262408
906.440 .0262236
907.093 .0262057
907.746 .0261873
908.399 .0261685
909.051 .0261494
909.703 .0261301
910.354 .0261200
911.005 .0261009
911.656 .0260817
912.306 .0260625
912.956 .0260434
913.605 .0260244
914.254 .0260055
914.903 .0259868
915.551 .0259684
916.199 .0259503
916.847 .0259325
917.494 .0259150
918.141 .0258978
918.788 .0258809
919.434 .0258642
920.079 .0258478
920.725 .0258315
921.370 .0258155
922.014 .0257995
922.658 .0257837
923.302 .0257681
923.946 .0257525
924.589 .0257370
925.231 .0257215
925.873 .0257059
926.515 .0256903
927.157 .0256747
927.798 .0256590
928.439 .0256433
929.079 .0256276
929.719 .0256120
930.359 .0255965
930.998 .0255810
931.637 .0255658
932.275 .0255507
932.913 .0255359
933.551 .0255213
934.188 .0255071
934.825 .0254933
935.462 .0254801
936.098 .0254676
936.733 .0254556
937.369 .0254443
938.004 .0254337
938.638 .0254238
939.273 .0254146
939.907 .0254060
940.540 .0253981
941.173 .0253908
941.806 .0253842
942.438 .0253781
943.070 .0253727
943.702 .0253677
944.333 .0253632
944.964 .0253591
945.594 .0253552
946.224 .0253516
946.854 .0253482
947.483 .0253449
948.112 .0253417
948.741 .0253385
949.369 .0253353
949.996 .0253320
950.624 .0253285
951.251 .0253248
951.878 .0253207
952.504 .0253162
953.130 .0253113
953.755 .0253059
954.380 .0253001
955.005 .0252939
955.629 .0252874
956.253 .0252807
956.877 .0252738
957.500 .0252667
958.123 .0252595
958.746 .0252523
959.368 .0252450
959.990 .0252378
960.611 .0252308
961.232 .0252239
961.853 .0252174
962.473 .0252112
963.093 .0252053
963.712 .0251999
964.331 .0251949
964.950 .0251902
965.569 .0251859
966.187 .0251819
966.804 .0251782
967.422 .0251747
968.039 .0251714
968.655 .0251683
969.272 .0251655
969.887 .0251629
970.503 .0251606
971.118 .0251584
971.733 .0251564
972.347 .0251546
972.961 .0251529
973.575 .0251512
974.188 .0251496
974.801 .0251479
975.414 .0251462
976.026 .0251444
976.638 .0251424
977.250 .0251402
977.861 .0251378
978.472 .0251351
979.083 .0251320
979.693 .0251286
980.303 .0251248
980.912 .0251180
981.521 .0251134
982.130 .0251087
982.738 .0251038
983.346 .0250988
983.954 .0250939
984.562 .0250892
985.169 .0250847
985.775 .0250805
986.382 .0250766
986.988 .0250731
987.594 .0250698
988.199 .0250668
988.804 .0250642
989.409 .0250641
990.013 .0250619
990.617 .0250601
991.221 .0250586
991.824 .0250574
992.427 .0250564
993.030 .0250557
993.632 .0250552
994.234 .0250549
994.836 .0250547
995.438 .0250546
996.039 .0250546
996.640 .0250546
997.240 .0250548
997.840 .0250551
998.440 .0250556
999.040 .0250562
999.639 .0250570
1000.238 .0250578
1000.836 .0250587
1001.435 .0250596
1002.033 .0250605
1002.630 .0250614
1003.228 .0250623
1003.825 .0250631
1004.422 .0250639
1005.018 .0250646
1005.614 .0250653
1006.210 .0250658
1006.806 .0250663
1007.401 .0250666
1007.996 .0250668
1008.591 .0250669
1009.186 .0250669
1009.780 .0250670
1010.374 .0250671
1010.967 .0250674
1011.561 .0250678
1012.154 .0250686
1012.746 .0250696
1013.339 .0250708
1013.931 .0250724
1014.523 .0250742
1015.115 .0250762
1015.706 .0250785
1016.298 .0250811
1016.888 .0250839
1017.479 .0250870
1018.069 .0250905
1018.660 .0250944
1019.250 .0250987
1019.839 .0251032
1020.429 .0251081
1021.018 .0251133
1021.607 .0251186
1022.195 .0251242
1022.784 .0251300
1023.372 .0251361
1023.960 .0251424
1024.547 .0251490
1025.135 .0251558
1025.722 .0251629
1026.309 .0251701
1026.896 .0251775
1027.483 .0251849
1028.069 .0251922
1028.655 .0251995
1029.241 .0252066
1029.827 .0252135
1030.412 .0252203
1030.997 .0252269
1031.582 .0252333
1032.167 .0252393
1032.752 .0252451
1033.336 .0252506
1033.921 .0252556
1034.505 .0252602
1035.089 .0252643
1035.672 .0252680
1036.256 .0252713
1036.839 .0252743
1037.422 .0252768
1038.005 .0252788
1038.588 .0252805
1039.171 .0252816
1039.753 .0252821
1040.335 .0252820
1040.918 .0252813
1041.500 .0252800
1042.081 .0252782
1042.663 .0252759
1043.244 .0252733
1043.826 .0252704
1044.407 .0252674
1044.988 .0252642
1045.569 .0252611
1046.150 .0252579
1046.730 .0252548
1047.311 .0252517
1047.891 .0252488
1048.471 .0252460
1049.052 .0252434
1049.632 .0252412
1050.211 .0252393
1050.791 .0252378
1051.371 .0252367
1051.950 .0252360
1052.530 .0252355
1053.109 .0252350
1053.688 .0252345
1054.268 .0252338
1054.847 .0252330
1055.426 .0252321
1056.005 .0252311
1056.583 .0252301
1057.162 .0252293
1057.741 .0252287
1058.319 .0252283
1058.898 .0252281
1059.476 .0252280
1060.055 .0252279
1060.633 .0252278
1061.211 .0252274
1061.790 .0252269
1062.368 .0252261
1062.946 .0252250
1063.524 .0252237
1064.102 .0252221
1064.680 .0252203
1065.258 .0252182
1065.836 .0252158
1066.414 .0252131
1066.992 .0252101
1067.570 .0252067
1068.148 .0252029
1068.726 .0251989
1069.304 .0251946
1069.882 .0251904
1070.460 .0251865
1071.038 .0251830
1071.616 .0251801
1072.194 .0251780
1072.772 .0251767
1073.350 .0251763
1073.928 .0251767
1074.506 .0251777
1075.084 .0251793
1075.662 .0251814
1076.240 .0251838
1076.819 .0251867
1077.397 .0251900
1077.976 .0251939
1078.554 .0251983
1079.133 .0252035
1079.711 .0252093
1080.290 .0252158
1080.869 .0252228
1081.448 .0252303
1082.027 .0252381
1082.606 .0252459
1083.185 .0252538
1083.764 .0252617
1084.343 .0252694
1084.923 .0252772
1085.502 .0252849
1086.082 .0252926
1086.662 .0253004
1087.242 .0253083
1087.822 .0253162
1088.402 .0253241
1088.983 .0253317
1089.563 .0253390
1090.144 .0253459
1090.725 .0253524
1091.306 .0253585
1091.887 .0253643
1092.469 .0253698
1093.050 .0253752
1093.632 .0253807
1094.214 .0253862
1094.796 .0253917
1095.379 .0253971
1095.961 .0254022
1096.544 .0254068
1097.127 .0254108
1097.710 .0254141
1098.294 .0254167
1098.877 .0254188
1099.461 .0254205
1100.046 .0254219
1100.630 .0254234
1101.215 .0254250
1101.800 .0254268
1102.385 .0254286
1102.970 .0254306
1103.556 .0254325
1104.142 .0254345
1104.728 .0254366
1105.315 .0254391
1105.902 .0254421
1106.489 .0254459
1107.077 .0254507
1107.664 .0254568
1108.253 .0254642
1108.841 .0254730
1109.430 .0254833
1110.019 .0254951
1110.609 .0255083
1111.198 .0255230
1111.789 .0255393
1112.379 .0255574
1112.970 .0255774
1113.561 .0255994
1114.153 .0256235
1114.745 .0256498
1115.338 .0256785
1115.931 .0257094
1116.524 .0257428
1117.117 .0257784
1117.712 .0258164
1118.306 .0258566
1118.901 .0258990
1119.496 .0259436
1120.092 .0259903
1120.689 .0260389
1121.285 .0260894
1121.882 .0261417
1122.480 .0261957
1123.078 .0262516
1123.677 .0263096
1124.276 .0263699
1124.875 .0264326
1125.476 .0264979
1126.076 .0265658
1126.677 .0266362
1127.279 .0267090
1127.881 .0267841
1128.484 .0268613
1129.087 .0268942
1129.691 .0269741
1130.295 .0270559
1130.900 .0271403
1131.505 .0272276
1132.111 .0273177
1132.718 .0274107
1133.325 .0275072
1133.933 .0276070
1134.541 .0277139
1135.150 .0278155
1135.760 .0279172
1136.370 .0280377
1136.981 .0281236
1137.592 .0282374
1138.204 .0283522
1138.817 .0284792
1139.431 .0286158
1140.045 .0287518
1140.660 .0288890
1141.275 .0290411
1141.891 .0291945
1142.508 .0294494
1143.126 .0293645
1143.744 .0294292
1144.363 .0300197
1144.983 .0300671
