Measurement Sequence started on: 15-12-46-377
Integration time: 28
Scans to Average: 2 
>>>>>Begin Spectral Data<<<<<
432.689 .0000100
433.621 .0000100
434.552 .0000100
435.482 .0000100
436.410 .0000100
437.337 .0000100
438.262 .0275838
439.187 .0583239
440.110 .0964548
441.031 .1394514
441.952 .1110060
442.871 .1158762
443.789 .1204140
444.705 .1246892
445.621 .1287498
446.535 .1326333
447.447 .1349169
448.359 .1354556
449.269 .1338788
450.178 .1299442
451.086 .1237368
451.993 .1157388
452.898 .1067437
453.803 .0976492
454.706 .0892158
455.608 .0819110
456.508 .0758862
457.408 .0718446
458.306 .0687535
459.204 .0662439
460.100 .0641348
460.995 .0623218
461.888 .0607382
462.781 .0593389
463.673 .0580887
464.563 .0569615
465.452 .0559385
466.340 .0550029
467.228 .0541434
468.114 .0533519
468.999 .0526219
469.882 .0519485
470.765 .0513271
471.647 .0507545
472.528 .0502282
473.407 .0497461
474.286 .0493061
475.163 .0489069
476.040 .0485466
476.915 .0482228
477.790 .0479335
478.663 .0476766
479.535 .0474501
480.407 .0472525
481.277 .0470816
482.147 .0469351
483.015 .0468109
483.883 .0467069
484.749 .0466211
485.615 .0465529
486.479 .0465016
487.343 .0464669
488.206 .0464488
489.067 .0464475
489.928 .0464629
490.788 .0464951
491.647 .0465442
492.505 .0466093
493.362 .0466902
494.218 .0467867
495.073 .0468983
495.928 .0471266
496.781 .0472832
497.634 .0474597
498.486 .0476587
499.337 .0478826
500.187 .0481333
501.036 .0484133
501.884 .0487248
502.731 .0490700
503.578 .0494513
504.424 .0497206
505.268 .0501668
506.113 .0506589
506.956 .0512017
507.798 .0518011
508.640 .0524645
509.480 .0532022
510.320 .0540255
511.160 .0549474
511.998 .0559834
512.836 .0571520
513.672 .0584721
514.508 .0599664
515.344 .0616572
516.178 .0635659
517.012 .0657172
517.845 .0681317
518.677 .0708290
519.508 .0738237
520.339 .0771225
521.169 .0807289
521.998 .0846227
522.826 .0887733
523.654 .0931276
524.481 .0976219
525.307 .1021830
526.133 .1067236
526.958 .1111519
527.782 .1153755
528.605 .1193093
529.428 .1228790
530.250 .1260135
531.072 .1286641
531.892 .1307885
532.712 .1323609
533.532 .1333656
534.350 .1337914
535.168 .1336403
535.986 .1329191
536.802 .1316366
537.618 .1298062
538.434 .1274401
539.249 .1245748
540.063 .1212539
540.876 .1175378
541.689 .1134974
542.501 .1092097
543.313 .1047632
544.124 .1002478
544.934 .0957519
545.744 .0913550
546.553 .0871231
547.361 .0831151
548.169 .0793663
548.976 .0759014
549.783 .0727273
550.589 .0698400
551.395 .0672272
552.200 .0648672
553.004 .0627329
553.808 .0607992
554.611 .0590443
555.414 .0574492
556.216 .0559952
557.018 .0546649
557.819 .0534456
558.619 .0523247
559.419 .0512923
560.218 .0503388
561.017 .0494554
561.815 .0486343
562.613 .0478674
563.410 .0471464
564.207 .0464631
565.003 .0458106
565.799 .0451822
566.594 .0445727
567.388 .0439793
568.182 .0433999
568.976 .0428331
569.769 .0422790
570.562 .0417383
571.354 .0412116
572.145 .0407000
572.936 .0402041
573.727 .0397245
574.517 .0392617
575.307 .0388163
576.096 .0383881
576.885 .0379776
577.673 .0375855
578.461 .0372122
579.248 .0368582
580.035 .0365245
580.821 .0362115
581.607 .0359198
582.392 .0356492
583.177 .0353997
583.962 .0351701
584.746 .0349594
585.529 .0347659
586.313 .0345881
587.095 .0344244
587.878 .0342734
588.660 .0341339
589.441 .0340049
590.222 .0338857
591.003 .0337753
591.783 .0336726
592.563 .0335768
593.342 .0334869
594.121 .0334021
594.899 .0333215
595.678 .0332446
596.455 .0331709
597.233 .0331001
598.009 .0330318
598.786 .0329659
599.562 .0329023
600.338 .0328411
601.113 .0327821
601.888 .0327002
602.663 .0326461
603.437 .0325939
604.211 .0325434
604.984 .0324945
605.757 .0324471
606.530 .0324012
607.302 .0323568
608.074 .0323139
608.845 .0322726
609.616 .0322331
610.387 .0322181
611.158 .0321816
611.928 .0321470
612.697 .0321143
613.467 .0320834
614.236 .0320542
615.004 .0320262
615.773 .0319995
616.541 .0319738
617.308 .0319490
618.076 .0319250
618.843 .0319017
619.609 .0318793
620.375 .0318574
621.141 .0318361
621.907 .0318153
622.672 .0317947
623.437 .0317741
624.202 .0317534
624.966 .0317324
625.730 .0317109
626.493 .0316887
627.257 .0316659
628.020 .0316424
628.782 .0316181
629.545 .0315932
630.307 .0315678
631.068 .0315420
631.830 .0315160
632.591 .0314898
633.352 .0314636
634.112 .0314375
634.872 .0314114
635.632 .0313852
636.392 .0313590
637.151 .0313327
637.910 .0313063
638.668 .0312800
639.427 .0312538
640.185 .0312280
640.943 .0312026
641.700 .0311779
642.457 .0311539
643.214 .0311305
643.971 .0311079
644.727 .0310857
645.483 .0310641
646.239 .0310427
646.994 .0310216
647.750 .0310008
648.505 .0309802
649.259 .0309597
650.014 .0309394
650.768 .0309193
651.521 .0308993
652.275 .0308795
653.028 .0308598
653.781 .0308402
654.534 .0308205
655.286 .0308008
656.039 .0307809
656.791 .0307607
657.542 .0307400
658.294 .0307189
659.045 .0306973
659.796 .0306751
660.546 .0306525
661.297 .0306295
662.047 .0306063
662.796 .0305830
663.546 .0305595
664.295 .0305360
665.044 .0305124
665.793 .0304887
666.542 .0304649
667.290 .0304409
668.038 .0304168
668.786 .0303926
669.533 .0303685
670.281 .0303444
671.028 .0303206
671.774 .0302970
672.521 .0302737
673.267 .0302508
674.013 .0302283
674.759 .0302062
675.505 .0301845
676.250 .0301633
676.995 .0301425
677.740 .0301222
678.484 .0301023
679.229 .0300828
679.973 .0300636
680.717 .0300448
681.460 .0300262
682.204 .0300077
682.947 .0299894
683.690 .0299712
684.433 .0299530
685.175 .0299348
685.917 .0299165
686.659 .0298980
687.401 .0298794
688.142 .0298606
688.884 .0298415
689.625 .0298222
690.365 .0298026
691.106 .0297828
691.846 .0297627
692.586 .0297425
693.326 .0297220
694.066 .0297015
694.805 .0296808
695.545 .0296602
696.284 .0296396
697.022 .0296192
697.761 .0295989
698.499 .0295790
699.237 .0295594
699.975 .0295402
700.713 .0295214
701.450 .0295031
702.187 .0294853
702.924 .0294679
703.661 .0294511
704.397 .0294347
705.133 .0294189
705.869 .0294035
706.605 .0293885
707.341 .0293739
708.076 .0293596
708.811 .0293457
709.546 .0293320
710.281 .0293185
711.015 .0293051
711.749 .0292919
712.483 .0292785
713.217 .0292651
713.950 .0292515
714.684 .0292376
715.417 .0292234
716.150 .0292089
716.882 .0291940
717.615 .0291786
718.347 .0291628
719.079 .0291466
719.811 .0291299
720.542 .0291129
721.273 .0290954
722.005 .0290777
722.735 .0290598
723.466 .0290418
724.196 .0290237
724.927 .0290057
725.656 .0289877
726.386 .0289699
727.116 .0289521
727.845 .0289345
728.574 .0289171
729.303 .0288999
730.031 .0288830
730.760 .0288665
731.488 .0288503
732.216 .0288347
732.944 .0288194
733.671 .0288047
734.398 .0287904
735.125 .0287765
735.852 .0287630
736.579 .0287500
737.305 .0287373
738.031 .0287249
738.757 .0287130
739.483 .0287014
740.208 .0286902
740.933 .0286793
741.658 .0286687
742.383 .0286583
743.108 .0286482
743.832 .0286382
744.556 .0286283
745.280 .0286184
746.004 .0286084
746.727 .0285983
747.450 .0285879
748.173 .0285773
748.896 .0285664
749.618 .0285552
750.340 .0285436
751.062 .0285317
751.784 .0285194
752.506 .0285066
753.227 .0284933
753.948 .0284795
754.669 .0284652
755.389 .0284504
756.110 .0284350
756.830 .0284191
757.550 .0284029
758.269 .0283863
758.989 .0283694
759.708 .0283524
760.427 .0283352
761.146 .0283180
761.864 .0283007
762.582 .0282836
763.300 .0282666
764.018 .0282497
764.736 .0282331
765.453 .0282166
766.170 .0282005
766.887 .0281847
767.603 .0281693
768.320 .0281545
769.036 .0281403
769.751 .0281267
770.467 .0281138
771.182 .0281017
771.897 .0280902
772.612 .0280793
773.327 .0280690
774.041 .0280591
774.755 .0280496
775.469 .0280405
776.183 .0280316
776.896 .0280231
777.609 .0280149
778.322 .0280069
779.035 .0279993
779.747 .0279919
780.459 .0279847
781.171 .0279777
781.882 .0279709
782.594 .0279642
783.305 .0279576
784.016 .0279511
784.726 .0279447
785.436 .0279382
786.147 .0279285
786.856 .0279218
787.566 .0279152
788.275 .0279085
788.984 .0279018
789.693 .0278951
790.401 .0278885
791.110 .0278820
791.818 .0278755
792.525 .0278690
793.233 .0278625
793.940 .0278560
794.647 .0278525
795.353 .0278459
796.060 .0278391
796.766 .0278322
797.472 .0278252
798.177 .0278180
798.883 .0278108
799.588 .0278034
800.292 .0277958
800.997 .0277881
801.701 .0277802
802.405 .0277720
803.109 .0277635
803.812 .0277548
804.515 .0277457
805.218 .0277362
805.921 .0277263
806.623 .0277159
807.325 .0277051
808.027 .0276940
808.728 .0276824
809.429 .0276704
810.130 .0276581
810.831 .0276456
811.531 .0276329
812.231 .0276200
812.931 .0276069
813.630 .0275938
814.330 .0275807
815.029 .0275677
815.727 .0275549
816.426 .0275422
817.124 .0275299
817.821 .0275178
818.519 .0275062
819.216 .0274950
819.913 .0274843
820.609 .0274741
821.306 .0274645
822.002 .0274556
822.697 .0274473
823.393 .0274397
824.088 .0274326
824.783 .0274260
825.477 .0274198
826.171 .0274138
826.865 .0274079
827.559 .0274021
828.252 .0273963
828.945 .0273906
829.638 .0273848
830.330 .0273790
831.023 .0273730
831.714 .0273668
832.406 .0273603
833.097 .0273534
833.788 .0273460
834.479 .0273381
835.169 .0273297
835.859 .0273209
836.548 .0273118
837.238 .0273022
837.927 .0272924
838.615 .0272822
839.304 .0272717
839.992 .0272608
840.680 .0272496
841.367 .0272379
842.054 .0272258
842.741 .0272134
843.428 .0272008
844.114 .0271880
844.800 .0271749
845.485 .0271617
846.170 .0271482
846.855 .0271344
847.540 .0271203
848.224 .0271059
848.908 .0270911
849.592 .0270760
850.275 .0270607
850.958 .0270451
851.641 .0270293
852.323 .0270134
853.005 .0269973
853.687 .0269810
854.368 .0269644
855.049 .0269476
855.730 .0269304
856.410 .0269129
857.090 .0268953
857.769 .0268774
858.449 .0268594
859.128 .0268413
859.806 .0268233
860.485 .0268053
861.163 .0267875
861.840 .0267698
862.518 .0267523
863.195 .0267349
863.871 .0267178
864.548 .0267010
865.224 .0266844
865.899 .0266682
866.574 .0266522
867.249 .0266367
867.924 .0266215
868.598 .0266067
869.272 .0265924
869.946 .0265785
870.619 .0265652
871.292 .0265523
871.964 .0265400
872.636 .0265283
873.308 .0265172
873.979 .0265067
874.651 .0264968
875.321 .0264875
875.992 .0264787
876.662 .0264706
877.331 .0264630
878.001 .0264559
878.670 .0264493
879.338 .0264431
880.007 .0264375
880.675 .0264324
881.342 .0264278
882.009 .0264237
882.676 .0264201
883.343 .0264169
884.009 .0264142
884.675 .0264120
885.340 .0264101
886.005 .0264086
886.670 .0264074
887.334 .0264066
887.998 .0264060
888.662 .0264056
889.325 .0264056
889.988 .0264057
890.650 .0264062
891.312 .0264068
891.974 .0264077
892.636 .0264087
893.297 .0264098
893.957 .0264110
894.618 .0264123
895.278 .0264136
895.937 .0264149
896.596 .0264161
897.255 .0264173
897.914 .0264184
898.572 .0264193
899.230 .0264199
899.887 .0264202
900.544 .0264201
901.201 .0264195
901.857 .0264158
902.513 .0264136
903.168 .0264106
903.823 .0264071
904.478 .0264029
905.132 .0263981
905.786 .0263928
906.440 .0263868
907.093 .0263803
907.746 .0263732
908.399 .0263656
909.051 .0263574
909.703 .0263487
910.354 .0263433
911.005 .0263342
911.656 .0263248
912.306 .0263153
912.956 .0263056
913.605 .0262958
914.254 .0262859
914.903 .0262760
915.551 .0262660
916.199 .0262559
916.847 .0262457
917.494 .0262353
918.141 .0262249
918.788 .0262144
919.434 .0262038
920.079 .0261932
920.725 .0261826
921.370 .0261718
922.014 .0261609
922.658 .0261499
923.302 .0261386
923.946 .0261270
924.589 .0261151
925.231 .0261029
925.873 .0260903
926.515 .0260775
927.157 .0260645
927.798 .0260512
928.439 .0260376
929.079 .0260239
929.719 .0260100
930.359 .0259959
930.998 .0259817
931.637 .0259673
932.275 .0259529
932.913 .0259385
933.551 .0259242
934.188 .0259102
934.825 .0258965
935.462 .0258833
936.098 .0258704
936.733 .0258580
937.369 .0258461
938.004 .0258345
938.638 .0258233
939.273 .0258125
939.907 .0258019
940.540 .0257917
941.173 .0257818
941.806 .0257722
942.438 .0257629
943.070 .0257539
943.702 .0257452
944.333 .0257366
944.964 .0257282
945.594 .0257199
946.224 .0257115
946.854 .0257030
947.483 .0256943
948.112 .0256853
948.741 .0256760
949.369 .0256663
949.996 .0256563
950.624 .0256458
951.251 .0256351
951.878 .0256239
952.504 .0256123
953.130 .0256003
953.755 .0255879
954.380 .0255751
955.005 .0255618
955.629 .0255482
956.253 .0255342
956.877 .0255199
957.500 .0255053
958.123 .0254905
958.746 .0254754
959.368 .0254602
959.990 .0254448
960.611 .0254293
961.232 .0254136
961.853 .0253977
962.473 .0253817
963.093 .0253657
963.712 .0253496
964.331 .0253336
964.950 .0253177
965.569 .0253019
966.187 .0252863
966.804 .0252708
967.422 .0252554
968.039 .0252400
968.655 .0252246
969.272 .0252092
969.887 .0251938
970.503 .0251784
971.118 .0251630
971.733 .0251475
972.347 .0251321
972.961 .0251168
973.575 .0251014
974.188 .0250859
974.801 .0250704
975.414 .0250548
976.026 .0250392
976.638 .0250234
977.250 .0250075
977.861 .0249915
978.472 .0249753
979.083 .0249590
979.693 .0249426
980.303 .0249261
980.912 .0249004
981.521 .0248836
982.130 .0248667
982.738 .0248497
983.346 .0248327
983.954 .0248156
984.562 .0247985
985.169 .0247814
985.775 .0247645
986.382 .0247476
986.988 .0247310
987.594 .0247146
988.199 .0246985
988.804 .0246828
989.409 .0246761
990.013 .0246610
990.617 .0246463
991.221 .0246319
991.824 .0246180
992.427 .0246045
993.030 .0245916
993.632 .0245791
994.234 .0245673
994.836 .0245560
995.438 .0245452
996.039 .0245351
996.640 .0245255
997.240 .0245165
997.840 .0245080
998.440 .0245001
999.040 .0244927
999.639 .0244858
1000.238 .0244794
1000.836 .0244735
1001.435 .0244682
1002.033 .0244634
1002.630 .0244592
1003.228 .0244555
1003.825 .0244522
1004.422 .0244494
1005.018 .0244471
1005.614 .0244450
1006.210 .0244434
1006.806 .0244420
1007.401 .0244409
1007.996 .0244401
1008.591 .0244396
1009.186 .0244394
1009.780 .0244396
1010.374 .0244401
1010.967 .0244411
1011.561 .0244425
1012.154 .0244443
1012.746 .0244465
1013.339 .0244492
1013.931 .0244524
1014.523 .0244560
1015.115 .0244601
1015.706 .0244646
1016.298 .0244697
1016.888 .0244753
1017.479 .0244815
1018.069 .0244883
1018.660 .0244957
1019.250 .0245038
1019.839 .0245125
1020.429 .0245218
1021.018 .0245317
1021.607 .0245421
1022.195 .0245531
1022.784 .0245645
1023.372 .0245764
1023.960 .0245888
1024.547 .0246018
1025.135 .0246153
1025.722 .0246294
1026.309 .0246441
1026.896 .0246593
1027.483 .0246750
1028.069 .0246910
1028.655 .0247073
1029.241 .0247237
1029.827 .0247402
1030.412 .0247567
1030.997 .0247732
1031.582 .0247896
1032.167 .0248059
1032.752 .0248222
1033.336 .0248383
1033.921 .0248541
1034.505 .0248698
1035.089 .0248851
1035.672 .0248999
1036.256 .0249143
1036.839 .0249281
1037.422 .0249413
1038.005 .0249540
1038.588 .0249661
1039.171 .0249778
1039.753 .0249891
1040.335 .0250000
1040.918 .0250106
1041.500 .0250210
1042.081 .0250311
1042.663 .0250410
1043.244 .0250507
1043.826 .0250600
1044.407 .0250691
1044.988 .0250778
1045.569 .0250862
1046.150 .0250944
1046.730 .0251024
1047.311 .0251101
1047.891 .0251175
1048.471 .0251247
1049.052 .0251317
1049.632 .0251385
1050.211 .0251450
1050.791 .0251513
1051.371 .0251574
1051.950 .0251634
1052.530 .0251693
1053.109 .0251752
1053.688 .0251810
1054.268 .0251868
1054.847 .0251925
1055.426 .0251982
1056.005 .0252038
1056.583 .0252095
1057.162 .0252154
1057.741 .0252214
1058.319 .0252278
1058.898 .0252346
1059.476 .0252417
1060.055 .0252493
1060.633 .0252572
1061.211 .0252655
1061.790 .0252741
1062.368 .0252829
1062.946 .0252920
1063.524 .0253014
1064.102 .0253111
1064.680 .0253213
1065.258 .0253318
1065.836 .0253428
1066.414 .0253541
1066.992 .0253657
1067.570 .0253774
1068.148 .0253893
1068.726 .0254013
1069.304 .0254132
1069.882 .0254252
1070.460 .0254371
1071.038 .0254491
1071.616 .0254611
1072.194 .0254733
1072.772 .0254855
1073.350 .0254978
1073.928 .0255101
1074.506 .0255222
1075.084 .0255343
1075.662 .0255463
1076.240 .0255581
1076.819 .0255698
1077.397 .0255815
1077.976 .0255931
1078.554 .0256047
1079.133 .0256164
1079.711 .0256280
1080.290 .0256398
1080.869 .0256515
1081.448 .0256633
1082.027 .0256750
1082.606 .0256866
1083.185 .0256983
1083.764 .0257099
1084.343 .0257215
1084.923 .0257331
1085.502 .0257447
1086.082 .0257564
1086.662 .0257682
1087.242 .0257802
1087.822 .0257926
1088.402 .0258054
1088.983 .0258186
1089.563 .0258323
1090.144 .0258463
1090.725 .0258607
1091.306 .0258752
1091.887 .0258897
1092.469 .0259041
1093.050 .0259183
1093.632 .0259321
1094.214 .0259457
1094.796 .0259590
1095.379 .0259721
1095.961 .0259850
1096.544 .0259977
1097.127 .0260103
1097.710 .0260226
1098.294 .0260348
1098.877 .0260469
1099.461 .0260589
1100.046 .0260710
1100.630 .0260833
1101.215 .0260960
1101.800 .0261093
1102.385 .0261234
1102.970 .0261383
1103.556 .0261540
1104.142 .0261706
1104.728 .0261879
1105.315 .0262059
1105.902 .0262245
1106.489 .0262437
1107.077 .0262636
1107.664 .0262840
1108.253 .0263050
1108.841 .0263266
1109.430 .0263487
1110.019 .0263716
1110.609 .0263952
1111.198 .0264198
1111.789 .0264453
1112.379 .0264719
1112.970 .0264995
1113.561 .0265283
1114.153 .0265581
1114.745 .0265888
1115.338 .0266205
1115.931 .0266530
1116.524 .0266865
1117.117 .0267208
1117.712 .0267563
1118.306 .0267929
1118.901 .0268309
1119.496 .0268703
1120.092 .0269111
1120.689 .0269532
1121.285 .0269966
1121.882 .0270412
1122.480 .0270869
1123.078 .0271336
1123.677 .0271816
1124.276 .0272308
1124.875 .0272816
1125.476 .0273345
1126.076 .0273897
1126.677 .0274474
1127.279 .0275078
1127.881 .0275707
1128.484 .0276359
1129.087 .0276626
1129.691 .0277310
1130.295 .0278018
1130.900 .0278749
1131.505 .0279509
1132.111 .0280301
1132.718 .0281132
1133.325 .0282010
1133.933 .0282952
1134.541 .0283942
1135.150 .0284989
1135.760 .0286030
1136.370 .0287285
1136.981 .0287432
1137.592 .0288494
1138.204 .0289556
1138.817 .0290639
1139.431 .0291816
1140.045 .0293117
1140.660 .0294520
1141.275 .0296204
1141.891 .0298354
1142.508 .0300122
1143.126 .0302175
1143.744 .0302568
1144.363 .0309202
1144.983 .0318167
