Measurement Sequence started on: 15-12-46-377
Integration time: 28
Scans to Average: 2 
>>>>>Begin Spectral Data<<<<<
432.689 .0000100
433.621 .0000100
434.552 .0000100
435.482 .0000100
436.410 .0000100
437.337 .0000100
438.262 .0269357
439.187 .0571672
440.110 .0947182
441.031 .1371171
441.952 .1103627
442.871 .1153002
443.789 .1198987
444.705 .1242280
445.621 .1283405
446.535 .1322726
447.447 .1346347
448.359 .1352715
449.269 .1338145
450.178 .1300197
451.086 .1239601
451.993 .1160993
452.898 .1072155
453.803 .0981912
454.706 .0897808
455.608 .0824534
456.508 .0763712
457.408 .0722309
458.306 .0690370
459.204 .0664258
460.100 .0642176
460.995 .0623091
461.888 .0606327
462.781 .0591381
463.673 .0577921
464.563 .0565704
465.452 .0554580
466.340 .0544416
467.228 .0535127
468.114 .0526644
468.999 .0518901
469.882 .0511817
470.765 .0505322
471.647 .0499352
472.528 .0493864
473.407 .0488808
474.286 .0484169
475.163 .0479933
476.040 .0476095
476.915 .0472654
477.790 .0469605
478.663 .0466942
479.535 .0464651
480.407 .0462705
481.277 .0461070
482.147 .0459706
483.015 .0458579
483.883 .0457662
484.749 .0456933
485.615 .0456390
486.479 .0456031
487.343 .0455862
488.206 .0455888
489.067 .0456110
489.928 .0456533
490.788 .0457149
491.647 .0457949
492.505 .0458923
493.362 .0460053
494.218 .0461330
495.073 .0462752
495.928 .0465467
496.781 .0467290
497.634 .0469282
498.486 .0471451
499.337 .0473806
500.187 .0476352
501.036 .0479090
501.884 .0482026
502.731 .0485181
503.578 .0488564
504.424 .0490703
505.268 .0494512
506.113 .0498641
506.956 .0503114
507.798 .0507984
508.640 .0513310
509.480 .0519173
510.320 .0525681
511.160 .0532980
511.998 .0541233
512.836 .0550645
513.672 .0561439
514.508 .0573843
515.344 .0588088
516.178 .0604420
517.012 .0623057
517.845 .0644210
518.677 .0668087
519.508 .0694845
520.339 .0724579
521.169 .0757375
521.998 .0793050
522.826 .0831301
523.654 .0871666
524.481 .0913573
525.307 .0956303
526.133 .0999048
526.958 .1040952
527.782 .1081158
528.605 .1118877
529.428 .1153377
530.250 .1183955
531.072 .1210127
531.892 .1231473
532.712 .1247683
533.532 .1258528
534.350 .1263918
535.168 .1263848
535.986 .1258349
536.802 .1247486
537.618 .1231330
538.434 .1209973
539.249 .1183758
540.063 .1153119
540.876 .1118603
541.689 .1080876
542.501 .1040709
543.313 .0998949
544.124 .0956463
544.934 .0914086
545.744 .0872532
546.553 .0832449
547.361 .0794390
548.169 .0758672
548.976 .0725530
549.783 .0695089
550.589 .0667362
551.395 .0642251
552.200 .0619570
553.004 .0599098
553.808 .0580611
554.611 .0563922
555.414 .0548833
556.216 .0535154
557.018 .0522707
557.819 .0511359
558.619 .0500979
559.419 .0491465
560.218 .0482717
561.017 .0474649
561.815 .0467182
562.613 .0460246
563.410 .0453757
564.207 .0447647
565.003 .0441854
565.799 .0436321
566.594 .0430998
567.388 .0425850
568.182 .0420844
568.976 .0415959
569.769 .0411180
570.562 .0406505
571.354 .0401934
572.145 .0397472
572.936 .0393125
573.727 .0388899
574.517 .0384801
575.307 .0380838
576.096 .0377002
576.885 .0373296
577.673 .0369717
578.461 .0366262
579.248 .0362933
580.035 .0359733
580.821 .0356667
581.607 .0353740
582.392 .0350959
583.177 .0348328
583.962 .0345848
584.746 .0343520
585.529 .0341346
586.313 .0339318
587.095 .0337434
587.878 .0335686
588.660 .0334070
589.441 .0332580
590.222 .0331208
591.003 .0329947
591.783 .0328789
592.563 .0327728
593.342 .0326756
594.121 .0325866
594.899 .0325053
595.678 .0324309
596.455 .0323628
597.233 .0323007
598.009 .0322439
598.786 .0321918
599.562 .0321440
600.338 .0320998
601.113 .0320587
601.888 .0320058
602.663 .0319701
603.437 .0319362
604.211 .0319040
604.984 .0318732
605.757 .0318438
606.530 .0318157
607.302 .0317888
608.074 .0317629
608.845 .0317379
609.616 .0317134
610.387 .0317016
611.158 .0316775
611.928 .0316537
612.697 .0316301
613.467 .0316066
614.236 .0315832
615.004 .0315600
615.773 .0315370
616.541 .0315143
617.308 .0314920
618.076 .0314700
618.843 .0314485
619.609 .0314273
620.375 .0314063
621.141 .0313857
621.907 .0313651
622.672 .0313448
623.437 .0313245
624.202 .0313044
624.966 .0312843
625.730 .0312643
626.493 .0312443
627.257 .0312243
628.020 .0312042
628.782 .0311840
629.545 .0311635
630.307 .0311426
631.068 .0311213
631.830 .0310993
632.591 .0310767
633.352 .0310534
634.112 .0310293
634.872 .0310045
635.632 .0309791
636.392 .0309530
637.151 .0309264
637.910 .0308995
638.668 .0308721
639.427 .0308444
640.185 .0308165
640.943 .0307885
641.700 .0307603
642.457 .0307321
643.214 .0307039
643.971 .0306759
644.727 .0306481
645.483 .0306206
646.239 .0305936
646.994 .0305671
647.750 .0305410
648.505 .0305155
649.259 .0304905
650.014 .0304661
650.768 .0304421
651.521 .0304187
652.275 .0303958
653.028 .0303734
653.781 .0303515
654.534 .0303299
655.286 .0303088
656.039 .0302880
656.791 .0302675
657.542 .0302472
658.294 .0302272
659.045 .0302074
659.796 .0301878
660.546 .0301685
661.297 .0301494
662.047 .0301306
662.796 .0301120
663.546 .0300937
664.295 .0300757
665.044 .0300580
665.793 .0300406
666.542 .0300236
667.290 .0300069
668.038 .0299907
668.786 .0299749
669.533 .0299594
670.281 .0299443
671.028 .0299294
671.774 .0299148
672.521 .0299003
673.267 .0298860
674.013 .0298719
674.759 .0298579
675.505 .0298440
676.250 .0298303
676.995 .0298167
677.740 .0298032
678.484 .0297899
679.229 .0297767
679.973 .0297636
680.717 .0297506
681.460 .0297377
682.204 .0297248
682.947 .0297121
683.690 .0296993
684.433 .0296866
685.175 .0296738
685.917 .0296610
686.659 .0296481
687.401 .0296351
688.142 .0296221
688.884 .0296090
689.625 .0295959
690.365 .0295827
691.106 .0295696
691.846 .0295564
692.586 .0295431
693.326 .0295297
694.066 .0295159
694.805 .0295018
695.545 .0294873
696.284 .0294724
697.022 .0294570
697.761 .0294412
698.499 .0294250
699.237 .0294085
699.975 .0293916
700.713 .0293744
701.450 .0293567
702.187 .0293385
702.924 .0293197
703.661 .0293003
704.397 .0292801
705.133 .0292592
705.869 .0292374
706.605 .0292149
707.341 .0291918
708.076 .0291679
708.811 .0291434
709.546 .0291184
710.281 .0290928
711.015 .0290669
711.749 .0290406
712.483 .0290140
713.217 .0289873
713.950 .0289603
714.684 .0289333
715.417 .0289062
716.150 .0288791
716.882 .0288520
717.615 .0288250
718.347 .0287981
719.079 .0287714
719.811 .0287450
720.542 .0287192
721.273 .0286940
722.005 .0286695
722.735 .0286457
723.466 .0286228
724.196 .0286006
724.927 .0285792
725.656 .0285586
726.386 .0285388
727.116 .0285198
727.845 .0285015
728.574 .0284841
729.303 .0284674
730.031 .0284516
730.760 .0284366
731.488 .0284223
732.216 .0284088
732.944 .0283960
733.671 .0283838
734.398 .0283722
735.125 .0283611
735.852 .0283505
736.579 .0283404
737.305 .0283306
738.031 .0283212
738.757 .0283120
739.483 .0283030
740.208 .0282944
740.933 .0282860
741.658 .0282779
742.383 .0282701
743.108 .0282626
743.832 .0282554
744.556 .0282486
745.280 .0282422
746.004 .0282360
746.727 .0282302
747.450 .0282247
748.173 .0282196
748.896 .0282147
749.618 .0282101
750.340 .0282059
751.062 .0282020
751.784 .0281984
752.506 .0281951
753.227 .0281920
753.948 .0281892
754.669 .0281866
755.389 .0281841
756.110 .0281818
756.830 .0281795
757.550 .0281771
758.269 .0281747
758.989 .0281721
759.708 .0281692
760.427 .0281660
761.146 .0281624
761.864 .0281583
762.582 .0281538
763.300 .0281488
764.018 .0281433
764.736 .0281374
765.453 .0281309
766.170 .0281240
766.887 .0281165
767.603 .0281086
768.320 .0281003
769.036 .0280914
769.751 .0280821
770.467 .0280723
771.182 .0280620
771.897 .0280512
772.612 .0280400
773.327 .0280283
774.041 .0280161
774.755 .0280035
775.469 .0279903
776.183 .0279766
776.896 .0279624
777.609 .0279477
778.322 .0279324
779.035 .0279166
779.747 .0279002
780.459 .0278834
781.171 .0278659
781.882 .0278480
782.594 .0278296
783.305 .0278107
784.016 .0277912
784.726 .0277712
785.436 .0277508
786.147 .0277188
786.856 .0276973
787.566 .0276755
788.275 .0276533
788.984 .0276307
789.693 .0276078
790.401 .0275846
791.110 .0275611
791.818 .0275372
792.525 .0275131
793.233 .0274887
793.940 .0274641
794.647 .0274509
795.353 .0274261
796.060 .0274012
796.766 .0273763
797.472 .0273512
798.177 .0273261
798.883 .0273009
799.588 .0272757
800.292 .0272504
800.997 .0272251
801.701 .0271999
802.405 .0271749
803.109 .0271500
803.812 .0271254
804.515 .0271010
805.218 .0270769
805.921 .0270531
806.623 .0270297
807.325 .0270067
808.027 .0269842
808.728 .0269623
809.429 .0269410
810.130 .0269204
810.831 .0269005
811.531 .0268814
812.231 .0268629
812.931 .0268450
813.630 .0268278
814.330 .0268112
815.029 .0267953
815.727 .0267800
816.426 .0267655
817.124 .0267517
817.821 .0267386
818.519 .0267263
819.216 .0267146
819.913 .0267036
820.609 .0266933
821.306 .0266836
822.002 .0266745
822.697 .0266661
823.393 .0266582
824.088 .0266510
824.783 .0266443
825.477 .0266382
826.171 .0266326
826.865 .0266273
827.559 .0266225
828.252 .0266180
828.945 .0266139
829.638 .0266102
830.330 .0266069
831.023 .0266041
831.714 .0266016
832.406 .0265997
833.097 .0265981
833.788 .0265969
834.479 .0265960
835.169 .0265956
835.859 .0265956
836.548 .0265960
837.238 .0265968
837.927 .0265982
838.615 .0266001
839.304 .0266024
839.992 .0266052
840.680 .0266084
841.367 .0266120
842.054 .0266158
842.741 .0266200
843.428 .0266244
844.114 .0266291
844.800 .0266341
845.485 .0266393
846.170 .0266448
846.855 .0266503
847.540 .0266559
848.224 .0266614
848.908 .0266669
849.592 .0266721
850.275 .0266772
850.958 .0266819
851.641 .0266864
852.323 .0266907
853.005 .0266947
853.687 .0266984
854.368 .0267018
855.049 .0267049
855.730 .0267076
856.410 .0267099
857.090 .0267117
857.769 .0267131
858.449 .0267142
859.128 .0267148
859.806 .0267150
860.485 .0267149
861.163 .0267145
861.840 .0267137
862.518 .0267126
863.195 .0267110
863.871 .0267090
864.548 .0267064
865.224 .0267033
865.899 .0266997
866.574 .0266954
867.249 .0266905
867.924 .0266849
868.598 .0266787
869.272 .0266717
869.946 .0266641
870.619 .0266557
871.292 .0266465
871.964 .0266366
872.636 .0266260
873.308 .0266145
873.979 .0266023
874.651 .0265894
875.321 .0265758
875.992 .0265614
876.662 .0265464
877.331 .0265306
878.001 .0265142
878.670 .0264971
879.338 .0264794
880.007 .0264610
880.675 .0264421
881.342 .0264227
882.009 .0264028
882.676 .0263825
883.343 .0263617
884.009 .0263406
884.675 .0263191
885.340 .0262973
886.005 .0262751
886.670 .0262525
887.334 .0262295
887.998 .0262062
888.662 .0261825
889.325 .0261585
889.988 .0261341
890.650 .0261093
891.312 .0260843
891.974 .0260589
892.636 .0260332
893.297 .0260072
893.957 .0259809
894.618 .0259545
895.278 .0259278
895.937 .0259010
896.596 .0258739
897.255 .0258467
897.914 .0258194
898.572 .0257919
899.230 .0257642
899.887 .0257365
900.544 .0257088
901.201 .0256810
901.857 .0256392
902.513 .0256114
903.168 .0255836
903.823 .0255557
904.478 .0255277
905.132 .0254997
905.786 .0254716
906.440 .0254436
907.093 .0254156
907.746 .0253877
908.399 .0253601
909.051 .0253328
909.703 .0253058
910.354 .0252930
911.005 .0252668
911.656 .0252411
912.306 .0252158
912.956 .0251910
913.605 .0251668
914.254 .0251431
914.903 .0251201
915.551 .0250977
916.199 .0250760
916.847 .0250550
917.494 .0250346
918.141 .0250148
918.788 .0249955
919.434 .0249766
920.079 .0249581
920.725 .0249400
921.370 .0249223
922.014 .0249050
922.658 .0248881
923.302 .0248717
923.946 .0248557
924.589 .0248400
925.231 .0248248
925.873 .0248098
926.515 .0247950
927.157 .0247805
927.798 .0247661
928.439 .0247520
929.079 .0247380
929.719 .0247244
930.359 .0247110
930.998 .0246979
931.637 .0246851
932.275 .0246726
932.913 .0246602
933.551 .0246482
934.188 .0246363
934.825 .0246247
935.462 .0246135
936.098 .0246028
936.733 .0245925
937.369 .0245829
938.004 .0245739
938.638 .0245656
939.273 .0245581
939.907 .0245512
940.540 .0245450
941.173 .0245394
941.806 .0245346
942.438 .0245305
943.070 .0245272
943.702 .0245246
944.333 .0245228
944.964 .0245217
945.594 .0245212
946.224 .0245213
946.854 .0245219
947.483 .0245229
948.112 .0245243
948.741 .0245262
949.369 .0245285
949.996 .0245314
950.624 .0245349
951.251 .0245391
951.878 .0245439
952.504 .0245494
953.130 .0245555
953.755 .0245621
954.380 .0245693
955.005 .0245771
955.629 .0245852
956.253 .0245939
956.877 .0246030
957.500 .0246125
958.123 .0246224
958.746 .0246327
959.368 .0246434
959.990 .0246542
960.611 .0246653
961.232 .0246765
961.853 .0246879
962.473 .0246993
963.093 .0247110
963.712 .0247227
964.331 .0247346
964.950 .0247466
965.569 .0247587
966.187 .0247709
966.804 .0247830
967.422 .0247949
968.039 .0248067
968.655 .0248181
969.272 .0248292
969.887 .0248398
970.503 .0248501
971.118 .0248599
971.733 .0248692
972.347 .0248780
972.961 .0248863
973.575 .0248940
974.188 .0249011
974.801 .0249075
975.414 .0249134
976.026 .0249186
976.638 .0249233
977.250 .0249276
977.861 .0249314
978.472 .0249347
979.083 .0249377
979.693 .0249403
980.303 .0249425
980.912 .0249438
981.521 .0249449
982.130 .0249456
982.738 .0249459
983.346 .0249458
983.954 .0249454
984.562 .0249448
985.169 .0249439
985.775 .0249428
986.382 .0249415
986.988 .0249402
987.594 .0249387
988.199 .0249372
988.804 .0249358
989.409 .0249355
990.013 .0249343
990.617 .0249332
991.221 .0249323
991.824 .0249314
992.427 .0249305
993.030 .0249296
993.632 .0249285
994.234 .0249272
994.836 .0249257
995.438 .0249238
996.039 .0249216
996.640 .0249191
997.240 .0249164
997.840 .0249134
998.440 .0249102
999.040 .0249067
999.639 .0249029
1000.238 .0248987
1000.836 .0248941
1001.435 .0248892
1002.033 .0248838
1002.630 .0248780
1003.228 .0248718
1003.825 .0248651
1004.422 .0248580
1005.018 .0248504
1005.614 .0248424
1006.210 .0248338
1006.806 .0248247
1007.401 .0248151
1007.996 .0248048
1008.591 .0247941
1009.186 .0247829
1009.780 .0247714
1010.374 .0247595
1010.967 .0247473
1011.561 .0247349
1012.154 .0247223
1012.746 .0247095
1013.339 .0246967
1013.931 .0246837
1014.523 .0246706
1015.115 .0246574
1015.706 .0246440
1016.298 .0246304
1016.888 .0246165
1017.479 .0246022
1018.069 .0245876
1018.660 .0245725
1019.250 .0245571
1019.839 .0245413
1020.429 .0245252
1021.018 .0245090
1021.607 .0244925
1022.195 .0244760
1022.784 .0244593
1023.372 .0244425
1023.960 .0244258
1024.547 .0244090
1025.135 .0243923
1025.722 .0243758
1026.309 .0243594
1026.896 .0243433
1027.483 .0243275
1028.069 .0243120
1028.655 .0242968
1029.241 .0242819
1029.827 .0242672
1030.412 .0242526
1030.997 .0242382
1031.582 .0242238
1032.167 .0242095
1032.752 .0241954
1033.336 .0241813
1033.921 .0241674
1034.505 .0241536
1035.089 .0241398
1035.672 .0241261
1036.256 .0241122
1036.839 .0240983
1037.422 .0240841
1038.005 .0240698
1038.588 .0240553
1039.171 .0240407
1039.753 .0240260
1040.335 .0240113
1040.918 .0239965
1041.500 .0239816
1042.081 .0239665
1042.663 .0239514
1043.244 .0239361
1043.826 .0239207
1044.407 .0239054
1044.988 .0238902
1045.569 .0238752
1046.150 .0238607
1046.730 .0238466
1047.311 .0238330
1047.891 .0238198
1048.471 .0238070
1049.052 .0237946
1049.632 .0237824
1050.211 .0237704
1050.791 .0237586
1051.371 .0237471
1051.950 .0237360
1052.530 .0237252
1053.109 .0237149
1053.688 .0237049
1054.268 .0236953
1054.847 .0236859
1055.426 .0236766
1056.005 .0236673
1056.583 .0236579
1057.162 .0236483
1057.741 .0236387
1058.319 .0236290
1058.898 .0236193
1059.476 .0236098
1060.055 .0236005
1060.633 .0235915
1061.211 .0235827
1061.790 .0235740
1062.368 .0235656
1062.946 .0235573
1063.524 .0235491
1064.102 .0235409
1064.680 .0235329
1065.258 .0235252
1065.836 .0235179
1066.414 .0235111
1066.992 .0235051
1067.570 .0234998
1068.148 .0234954
1068.726 .0234918
1069.304 .0234891
1069.882 .0234873
1070.460 .0234864
1071.038 .0234864
1071.616 .0234874
1072.194 .0234895
1072.772 .0234929
1073.350 .0234975
1073.928 .0235034
1074.506 .0235106
1075.084 .0235189
1075.662 .0235282
1076.240 .0235385
1076.819 .0235494
1077.397 .0235610
1077.976 .0235731
1078.554 .0235858
1079.133 .0235991
1079.711 .0236129
1080.290 .0236272
1080.869 .0236420
1081.448 .0236572
1082.027 .0236726
1082.606 .0236884
1083.185 .0237043
1083.764 .0237205
1084.343 .0237371
1084.923 .0237542
1085.502 .0237719
1086.082 .0237905
1086.662 .0238099
1087.242 .0238301
1087.822 .0238509
1088.402 .0238722
1088.983 .0238938
1089.563 .0239155
1090.144 .0239372
1090.725 .0239589
1091.306 .0239808
1091.887 .0240030
1092.469 .0240255
1093.050 .0240484
1093.632 .0240717
1094.214 .0240952
1094.796 .0241188
1095.379 .0241424
1095.961 .0241656
1096.544 .0241888
1097.127 .0242118
1097.710 .0242348
1098.294 .0242583
1098.877 .0242823
1099.461 .0243072
1100.046 .0243329
1100.630 .0243595
1101.215 .0243867
1101.800 .0244145
1102.385 .0244425
1102.970 .0244707
1103.556 .0244990
1104.142 .0245275
1104.728 .0245563
1105.315 .0245856
1105.902 .0246159
1106.489 .0246472
1107.077 .0246798
1107.664 .0247137
1108.253 .0247490
1108.841 .0247855
1109.430 .0248233
1110.019 .0248621
1110.609 .0249021
1111.198 .0249433
1111.789 .0249858
1112.379 .0250297
1112.970 .0250750
1113.561 .0251219
1114.153 .0251702
1114.745 .0252201
1115.338 .0252713
1115.931 .0253239
1116.524 .0253778
1117.117 .0254331
1117.712 .0254900
1118.306 .0255487
1118.901 .0256093
1119.496 .0256721
1120.092 .0257370
1120.689 .0258040
1121.285 .0258729
1121.882 .0259435
1122.480 .0260155
1123.078 .0260885
1123.677 .0261626
1124.276 .0262374
1124.875 .0263127
1125.476 .0263886
1126.076 .0264650
1126.677 .0265419
1127.279 .0266191
1127.881 .0266968
1128.484 .0267749
1129.087 .0268138
1129.691 .0268933
1130.295 .0269735
1130.900 .0270546
1131.505 .0271368
1132.111 .0272205
1132.718 .0273063
1133.325 .0273945
1133.933 .0274849
1134.541 .0275762
1135.150 .0276737
1135.760 .0277789
1136.370 .0278836
1136.981 .0278958
1137.592 .0279721
1138.204 .0280503
1138.817 .0281357
1139.431 .0282315
1140.045 .0283390
1140.660 .0284667
1141.275 .0286085
1141.891 .0287458
1142.508 .0288565
1143.126 .0291201
1143.744 .0294316
1144.363 .0295201
1144.983 .0291071
