Measurement Sequence started on: 15-12-46-377
Integration time: 28
Scans to Average: 2 
>>>>>Begin Spectral Data<<<<<
432.689 .0000100
433.621 .0000100
434.552 .0000100
435.482 .0000100
436.410 .0000100
437.337 .0000100
438.262 .0280969
439.187 .0594528
440.110 .0984011
441.031 .1422984
441.952 .1132140
442.871 .1181430
443.789 .1227277
444.705 .1270381
445.621 .1311244
446.535 .1350253
447.447 .1372915
448.359 .1377722
449.269 .1360872
450.178 .1319900
451.086 .1255665
451.993 .1173085
452.898 .1080286
453.803 .0986441
454.706 .0899360
455.608 .0823842
456.508 .0761471
457.408 .0719423
458.306 .0687195
459.204 .0661006
460.100 .0638984
460.995 .0620040
461.888 .0603499
462.781 .0588885
463.673 .0575849
464.563 .0564130
465.452 .0553548
466.340 .0543946
467.228 .0535210
468.114 .0527256
468.999 .0520022
469.882 .0513425
470.765 .0507424
471.647 .0501963
472.528 .0497010
473.407 .0492531
474.286 .0488504
475.163 .0484903
476.040 .0481709
476.915 .0478900
477.790 .0476454
478.663 .0474345
479.535 .0472555
480.407 .0471052
481.277 .0469809
482.147 .0468800
483.015 .0467997
483.883 .0467378
484.749 .0466929
485.615 .0466636
486.479 .0466493
487.343 .0466493
488.206 .0466638
489.067 .0466923
489.928 .0467351
490.788 .0467923
491.647 .0468642
492.505 .0469506
493.362 .0470520
494.218 .0471684
495.073 .0473003
495.928 .0475583
496.781 .0477343
497.634 .0479304
498.486 .0481483
499.337 .0483907
500.187 .0486600
501.036 .0489588
501.884 .0492888
502.731 .0496527
503.578 .0500536
504.424 .0503350
505.268 .0508020
506.113 .0513157
506.956 .0518809
507.798 .0525036
508.640 .0531916
509.480 .0539527
510.320 .0547964
511.160 .0557337
511.998 .0567757
512.836 .0579374
513.672 .0592346
514.508 .0606868
515.344 .0623159
516.178 .0641487
517.012 .0662121
517.845 .0685332
518.677 .0711401
519.508 .0740544
520.339 .0772854
521.169 .0808358
521.998 .0846826
522.826 .0887924
523.654 .0931121
524.481 .0975764
525.307 .1021095
526.133 .1066256
526.958 .1110315
527.782 .1152353
528.605 .1191501
529.428 .1226996
530.250 .1258118
531.072 .1284371
531.892 .1305343
532.712 .1320778
533.532 .1330506
534.350 .1334461
535.168 .1332645
535.986 .1325067
536.802 .1311754
537.618 .1292835
538.434 .1268476
539.249 .1239069
540.063 .1205098
540.876 .1167195
541.689 .1126096
542.501 .1082618
543.313 .1037637
544.124 .0992095
544.934 .0946878
545.744 .0902786
546.553 .0860513
547.361 .0820659
548.169 .0783591
548.976 .0749555
549.783 .0718610
550.589 .0690681
551.395 .0665576
552.200 .0643026
553.004 .0622729
553.808 .0604435
554.611 .0587893
555.414 .0572877
556.216 .0559185
557.018 .0546629
557.819 .0535047
558.619 .0524306
559.419 .0514284
560.218 .0504891
561.017 .0496038
561.815 .0487663
562.613 .0479719
563.410 .0472173
564.207 .0464984
565.003 .0458120
565.799 .0451541
566.594 .0445211
567.388 .0439092
568.182 .0433155
568.976 .0427380
569.769 .0421756
570.562 .0416283
571.354 .0410972
572.145 .0405835
572.936 .0400887
573.727 .0396136
574.517 .0391590
575.307 .0387249
576.096 .0383109
576.885 .0379164
577.673 .0375413
578.461 .0371852
579.248 .0368480
580.035 .0365294
580.821 .0362291
581.607 .0359475
582.392 .0356843
583.177 .0354393
583.962 .0352118
584.746 .0350012
585.529 .0348068
586.313 .0346273
587.095 .0344620
587.878 .0343098
588.660 .0341695
589.441 .0340403
590.222 .0339212
591.003 .0338112
591.783 .0337098
592.563 .0336161
593.342 .0335294
594.121 .0334491
594.899 .0333745
595.678 .0333049
596.455 .0332398
597.233 .0331785
598.009 .0331204
598.786 .0330649
599.562 .0330115
600.338 .0329597
601.113 .0329092
601.888 .0328356
602.663 .0327870
603.437 .0327391
604.211 .0326918
604.984 .0326451
605.757 .0325990
606.530 .0325534
607.302 .0325086
608.074 .0324645
608.845 .0324210
609.616 .0323783
610.387 .0323592
611.158 .0323178
611.928 .0322774
612.697 .0322378
613.467 .0321991
614.236 .0321614
615.004 .0321246
615.773 .0320888
616.541 .0320540
617.308 .0320204
618.076 .0319878
618.843 .0319562
619.609 .0319255
620.375 .0318955
621.141 .0318660
621.907 .0318371
622.672 .0318085
623.437 .0317802
624.202 .0317521
624.966 .0317242
625.730 .0316964
626.493 .0316688
627.257 .0316413
628.020 .0316138
628.782 .0315863
629.545 .0315587
630.307 .0315309
631.068 .0315031
631.830 .0314751
632.591 .0314470
633.352 .0314189
634.112 .0313907
634.872 .0313626
635.632 .0313346
636.392 .0313066
637.151 .0312789
637.910 .0312516
638.668 .0312247
639.427 .0311984
640.185 .0311727
640.943 .0311478
641.700 .0311237
642.457 .0311003
643.214 .0310776
643.971 .0310556
644.727 .0310343
645.483 .0310137
646.239 .0309938
646.994 .0309747
647.750 .0309563
648.505 .0309387
649.259 .0309217
650.014 .0309053
650.768 .0308892
651.521 .0308735
652.275 .0308580
653.028 .0308426
653.781 .0308273
654.534 .0308120
655.286 .0307966
656.039 .0307811
656.791 .0307653
657.542 .0307493
658.294 .0307329
659.045 .0307162
659.796 .0306990
660.546 .0306814
661.297 .0306633
662.047 .0306447
662.796 .0306256
663.546 .0306060
664.295 .0305859
665.044 .0305654
665.793 .0305445
666.542 .0305232
667.290 .0305017
668.038 .0304800
668.786 .0304581
669.533 .0304361
670.281 .0304139
671.028 .0303916
671.774 .0303691
672.521 .0303465
673.267 .0303238
674.013 .0303010
674.759 .0302781
675.505 .0302552
676.250 .0302322
676.995 .0302092
677.740 .0301861
678.484 .0301629
679.229 .0301396
679.973 .0301162
680.717 .0300926
681.460 .0300689
682.204 .0300449
682.947 .0300205
683.690 .0299958
684.433 .0299707
685.175 .0299452
685.917 .0299193
686.659 .0298931
687.401 .0298666
688.142 .0298398
688.884 .0298127
689.625 .0297854
690.365 .0297579
691.106 .0297301
691.846 .0297022
692.586 .0296742
693.326 .0296462
694.066 .0296182
694.805 .0295906
695.545 .0295633
696.284 .0295364
697.022 .0295101
697.761 .0294843
698.499 .0294592
699.237 .0294347
699.975 .0294110
700.713 .0293881
701.450 .0293660
702.187 .0293448
702.924 .0293244
703.661 .0293049
704.397 .0292862
705.133 .0292683
705.869 .0292510
706.605 .0292344
707.341 .0292182
708.076 .0292026
708.811 .0291874
709.546 .0291725
710.281 .0291578
711.015 .0291434
711.749 .0291291
712.483 .0291150
713.217 .0291008
713.950 .0290868
714.684 .0290727
715.417 .0290587
716.150 .0290447
716.882 .0290307
717.615 .0290166
718.347 .0290025
719.079 .0289884
719.811 .0289745
720.542 .0289607
721.273 .0289473
722.005 .0289341
722.735 .0289214
723.466 .0289092
724.196 .0288974
724.927 .0288861
725.656 .0288753
726.386 .0288649
727.116 .0288551
727.845 .0288457
728.574 .0288368
729.303 .0288286
730.031 .0288208
730.760 .0288136
731.488 .0288069
732.216 .0288005
732.944 .0287945
733.671 .0287887
734.398 .0287831
735.125 .0287775
735.852 .0287718
736.579 .0287660
737.305 .0287599
738.031 .0287535
738.757 .0287469
739.483 .0287399
740.208 .0287325
740.933 .0287248
741.658 .0287166
742.383 .0287080
743.108 .0286989
743.832 .0286892
744.556 .0286787
745.280 .0286675
746.004 .0286555
746.727 .0286426
747.450 .0286289
748.173 .0286145
748.896 .0285994
749.618 .0285836
750.340 .0285673
751.062 .0285504
751.784 .0285329
752.506 .0285149
753.227 .0284962
753.948 .0284769
754.669 .0284570
755.389 .0284366
756.110 .0284156
756.830 .0283943
757.550 .0283726
758.269 .0283506
758.989 .0283283
759.708 .0283058
760.427 .0282831
761.146 .0282601
761.864 .0282369
762.582 .0282135
763.300 .0281900
764.018 .0281663
764.736 .0281425
765.453 .0281186
766.170 .0280946
766.887 .0280706
767.603 .0280466
768.320 .0280225
769.036 .0279985
769.751 .0279746
770.467 .0279508
771.182 .0279271
771.897 .0279037
772.612 .0278804
773.327 .0278575
774.041 .0278348
774.755 .0278125
775.469 .0277905
776.183 .0277688
776.896 .0277475
777.609 .0277266
778.322 .0277061
779.035 .0276862
779.747 .0276668
780.459 .0276480
781.171 .0276297
781.882 .0276121
782.594 .0275951
783.305 .0275788
784.016 .0275632
784.726 .0275483
785.436 .0275341
786.147 .0275153
786.856 .0275024
787.566 .0274900
788.275 .0274780
788.984 .0274663
789.693 .0274549
790.401 .0274437
791.110 .0274326
791.818 .0274217
792.525 .0274109
793.233 .0274003
793.940 .0273898
794.647 .0273842
795.353 .0273740
796.060 .0273641
796.766 .0273543
797.472 .0273449
798.177 .0273356
798.883 .0273265
799.588 .0273176
800.292 .0273088
800.997 .0273003
801.701 .0272920
802.405 .0272841
803.109 .0272764
803.812 .0272692
804.515 .0272623
805.218 .0272557
805.921 .0272494
806.623 .0272434
807.325 .0272376
808.027 .0272321
808.728 .0272268
809.429 .0272218
810.130 .0272171
810.831 .0272126
811.531 .0272084
812.231 .0272045
812.931 .0272007
813.630 .0271972
814.330 .0271938
815.029 .0271907
815.727 .0271879
816.426 .0271854
817.124 .0271833
817.821 .0271817
818.519 .0271805
819.216 .0271797
819.913 .0271794
820.609 .0271794
821.306 .0271799
822.002 .0271808
822.697 .0271822
823.393 .0271841
824.088 .0271867
824.783 .0271899
825.477 .0271936
826.171 .0271978
826.865 .0272024
827.559 .0272073
828.252 .0272123
828.945 .0272174
829.638 .0272224
830.330 .0272274
831.023 .0272321
831.714 .0272366
832.406 .0272408
833.097 .0272444
833.788 .0272475
834.479 .0272499
835.169 .0272516
835.859 .0272525
836.548 .0272526
837.238 .0272520
837.927 .0272506
838.615 .0272485
839.304 .0272455
839.992 .0272417
840.680 .0272369
841.367 .0272312
842.054 .0272245
842.741 .0272169
843.428 .0272083
844.114 .0271989
844.800 .0271887
845.485 .0271777
846.170 .0271658
846.855 .0271532
847.540 .0271396
848.224 .0271252
848.908 .0271098
849.592 .0270936
850.275 .0270764
850.958 .0270584
851.641 .0270396
852.323 .0270199
853.005 .0269995
853.687 .0269783
854.368 .0269564
855.049 .0269338
855.730 .0269106
856.410 .0268867
857.090 .0268623
857.769 .0268375
858.449 .0268121
859.128 .0267864
859.806 .0267603
860.485 .0267340
861.163 .0267074
861.840 .0266806
862.518 .0266536
863.195 .0266267
863.871 .0265997
864.548 .0265729
865.224 .0265462
865.899 .0265197
866.574 .0264934
867.249 .0264674
867.924 .0264417
868.598 .0264162
869.272 .0263910
869.946 .0263661
870.619 .0263415
871.292 .0263171
871.964 .0262930
872.636 .0262691
873.308 .0262453
873.979 .0262216
874.651 .0261981
875.321 .0261748
875.992 .0261516
876.662 .0261285
877.331 .0261057
878.001 .0260830
878.670 .0260606
879.338 .0260384
880.007 .0260164
880.675 .0259948
881.342 .0259734
882.009 .0259525
882.676 .0259321
883.343 .0259122
884.009 .0258930
884.675 .0258745
885.340 .0258568
886.005 .0258400
886.670 .0258239
887.334 .0258086
887.998 .0257941
888.662 .0257805
889.325 .0257676
889.988 .0257557
890.650 .0257446
891.312 .0257345
891.974 .0257251
892.636 .0257165
893.297 .0257086
893.957 .0257014
894.618 .0256946
895.278 .0256884
895.937 .0256825
896.596 .0256769
897.255 .0256716
897.914 .0256664
898.572 .0256612
899.230 .0256560
899.887 .0256505
900.544 .0256448
901.201 .0256388
901.857 .0256273
902.513 .0256201
903.168 .0256126
903.823 .0256046
904.478 .0255962
905.132 .0255874
905.786 .0255781
906.440 .0255684
907.093 .0255584
907.746 .0255480
908.399 .0255374
909.051 .0255267
909.703 .0255161
910.354 .0255113
911.005 .0255013
911.656 .0254915
912.306 .0254821
912.956 .0254732
913.605 .0254647
914.254 .0254568
914.903 .0254494
915.551 .0254425
916.199 .0254363
916.847 .0254307
917.494 .0254256
918.141 .0254212
918.788 .0254172
919.434 .0254136
920.079 .0254103
920.725 .0254073
921.370 .0254044
922.014 .0254016
922.658 .0253989
923.302 .0253962
923.946 .0253934
924.589 .0253907
925.231 .0253879
925.873 .0253850
926.515 .0253821
927.157 .0253792
927.798 .0253762
928.439 .0253733
929.079 .0253705
929.719 .0253678
930.359 .0253653
930.998 .0253630
931.637 .0253609
932.275 .0253591
932.913 .0253575
933.551 .0253561
934.188 .0253551
934.825 .0253544
935.462 .0253541
936.098 .0253544
936.733 .0253551
937.369 .0253564
938.004 .0253583
938.638 .0253609
939.273 .0253640
939.907 .0253678
940.540 .0253722
941.173 .0253772
941.806 .0253828
942.438 .0253890
943.070 .0253958
943.702 .0254030
944.333 .0254107
944.964 .0254186
945.594 .0254266
946.224 .0254347
946.854 .0254426
947.483 .0254503
948.112 .0254575
948.741 .0254644
949.369 .0254707
949.996 .0254765
950.624 .0254817
951.251 .0254863
951.878 .0254902
952.504 .0254934
953.130 .0254959
953.755 .0254976
954.380 .0254985
955.005 .0254987
955.629 .0254983
956.253 .0254972
956.877 .0254956
957.500 .0254935
958.123 .0254908
958.746 .0254878
959.368 .0254843
959.990 .0254803
960.611 .0254760
961.232 .0254711
961.853 .0254659
962.473 .0254603
963.093 .0254543
963.712 .0254481
964.331 .0254417
964.950 .0254350
965.569 .0254282
966.187 .0254212
966.804 .0254140
967.422 .0254066
968.039 .0253989
968.655 .0253908
969.272 .0253824
969.887 .0253735
970.503 .0253642
971.118 .0253544
971.733 .0253441
972.347 .0253332
972.961 .0253217
973.575 .0253095
974.188 .0252967
974.801 .0252831
975.414 .0252687
976.026 .0252535
976.638 .0252374
977.250 .0252205
977.861 .0252025
978.472 .0251837
979.083 .0251640
979.693 .0251434
980.303 .0251219
980.912 .0250866
981.521 .0250635
982.130 .0250399
982.738 .0250157
983.346 .0249911
983.954 .0249661
984.562 .0249408
985.169 .0249153
985.775 .0248897
986.382 .0248640
986.988 .0248385
987.594 .0248132
988.199 .0247881
988.804 .0247634
989.409 .0247525
990.013 .0247287
990.617 .0247054
991.221 .0246826
991.824 .0246603
992.427 .0246385
993.030 .0246172
993.632 .0245963
994.234 .0245758
994.836 .0245557
995.438 .0245359
996.039 .0245166
996.640 .0244975
997.240 .0244788
997.840 .0244605
998.440 .0244426
999.040 .0244250
999.639 .0244077
1000.238 .0243907
1000.836 .0243741
1001.435 .0243578
1002.033 .0243419
1002.630 .0243262
1003.228 .0243108
1003.825 .0242958
1004.422 .0242809
1005.018 .0242663
1005.614 .0242518
1006.210 .0242376
1006.806 .0242234
1007.401 .0242093
1007.996 .0241951
1008.591 .0241809
1009.186 .0241665
1009.780 .0241520
1010.374 .0241373
1010.967 .0241224
1011.561 .0241075
1012.154 .0240926
1012.746 .0240777
1013.339 .0240630
1013.931 .0240485
1014.523 .0240342
1015.115 .0240202
1015.706 .0240065
1016.298 .0239931
1016.888 .0239800
1017.479 .0239672
1018.069 .0239549
1018.660 .0239430
1019.250 .0239318
1019.839 .0239211
1020.429 .0239112
1021.018 .0239021
1021.607 .0238936
1022.195 .0238860
1022.784 .0238790
1023.372 .0238726
1023.960 .0238670
1024.547 .0238620
1025.135 .0238579
1025.722 .0238546
1026.309 .0238523
1026.896 .0238509
1027.483 .0238506
1028.069 .0238512
1028.655 .0238527
1029.241 .0238549
1029.827 .0238577
1030.412 .0238609
1030.997 .0238645
1031.582 .0238683
1032.167 .0238723
1032.752 .0238765
1033.336 .0238808
1033.921 .0238852
1034.505 .0238897
1035.089 .0238941
1035.672 .0238983
1036.256 .0239023
1036.839 .0239060
1037.422 .0239094
1038.005 .0239124
1038.588 .0239151
1039.171 .0239175
1039.753 .0239196
1040.335 .0239217
1040.918 .0239236
1041.500 .0239253
1042.081 .0239269
1042.663 .0239284
1043.244 .0239297
1043.826 .0239309
1044.407 .0239321
1044.988 .0239333
1045.569 .0239347
1046.150 .0239362
1046.730 .0239380
1047.311 .0239402
1047.891 .0239427
1048.471 .0239455
1049.052 .0239488
1049.632 .0239523
1050.211 .0239562
1050.791 .0239605
1051.371 .0239652
1051.950 .0239703
1052.530 .0239760
1053.109 .0239822
1053.688 .0239890
1054.268 .0239963
1054.847 .0240041
1055.426 .0240124
1056.005 .0240212
1056.583 .0240303
1057.162 .0240397
1057.741 .0240495
1058.319 .0240596
1058.898 .0240701
1059.476 .0240810
1060.055 .0240923
1060.633 .0241040
1061.211 .0241161
1061.790 .0241285
1062.368 .0241412
1062.946 .0241542
1063.524 .0241675
1064.102 .0241809
1064.680 .0241946
1065.258 .0242086
1065.836 .0242228
1066.414 .0242374
1066.992 .0242524
1067.570 .0242676
1068.148 .0242830
1068.726 .0242985
1069.304 .0243142
1069.882 .0243299
1070.460 .0243458
1071.038 .0243618
1071.616 .0243780
1072.194 .0243944
1072.772 .0244111
1073.350 .0244280
1073.928 .0244452
1074.506 .0244628
1075.084 .0244806
1075.662 .0244987
1076.240 .0245172
1076.819 .0245362
1077.397 .0245558
1077.976 .0245761
1078.554 .0245971
1079.133 .0246190
1079.711 .0246417
1080.290 .0246652
1080.869 .0246894
1081.448 .0247143
1082.027 .0247396
1082.606 .0247655
1083.185 .0247918
1083.764 .0248184
1084.343 .0248454
1084.923 .0248726
1085.502 .0249001
1086.082 .0249278
1086.662 .0249556
1087.242 .0249833
1087.822 .0250109
1088.402 .0250385
1088.983 .0250659
1089.563 .0250934
1090.144 .0251210
1090.725 .0251490
1091.306 .0251774
1091.887 .0252062
1092.469 .0252355
1093.050 .0252650
1093.632 .0252948
1094.214 .0253247
1094.796 .0253546
1095.379 .0253844
1095.961 .0254140
1096.544 .0254435
1097.127 .0254728
1097.710 .0255020
1098.294 .0255311
1098.877 .0255603
1099.461 .0255895
1100.046 .0256187
1100.630 .0256481
1101.215 .0256778
1101.800 .0257078
1102.385 .0257383
1102.970 .0257693
1103.556 .0258007
1104.142 .0258328
1104.728 .0258654
1105.315 .0258985
1105.902 .0259323
1106.489 .0259666
1107.077 .0260016
1107.664 .0260371
1108.253 .0260733
1108.841 .0261101
1109.430 .0261475
1110.019 .0261853
1110.609 .0262236
1111.198 .0262620
1111.789 .0263004
1112.379 .0263387
1112.970 .0263769
1113.561 .0264148
1114.153 .0264526
1114.745 .0264905
1115.338 .0265287
1115.931 .0265672
1116.524 .0266062
1117.117 .0266458
1117.712 .0266860
1118.306 .0267267
1118.901 .0267676
1119.496 .0268087
1120.092 .0268499
1120.689 .0268913
1121.285 .0269332
1121.882 .0269758
1122.480 .0270197
1123.078 .0270652
1123.677 .0271130
1124.276 .0271631
1124.875 .0272159
1125.476 .0272715
1126.076 .0273299
1126.677 .0273909
1127.279 .0274547
1127.881 .0275213
1128.484 .0275911
1129.087 .0276162
1129.691 .0276909
1130.295 .0277698
1130.900 .0278532
1131.505 .0279416
1132.111 .0280344
1132.718 .0281316
1133.325 .0282335
1133.933 .0283397
1134.541 .0284521
1135.150 .0285562
1135.760 .0286674
1136.370 .0288054
1136.981 .0288718
1137.592 .0290123
1138.204 .0291612
1138.817 .0293196
1139.431 .0294861
1140.045 .0296478
1140.660 .0298070
1141.275 .0299811
1141.891 .0301459
1142.508 .0303669
1143.126 .0301851
1143.744 .0304271
1144.363 .0312194
1144.983 .0310208
