Measurement Sequence started on: 15-12-46-377
Integration time: 28
Scans to Average: 2 
>>>>>Begin Spectral Data<<<<<
432.689 .0000100
433.621 .0000100
434.552 .0000100
435.482 .0000100
436.410 .0000100
437.337 .0000100
438.262 .0279192
439.187 .0591315
440.110 .0979692
441.031 .1417572
441.952 .1133845
442.871 .1183839
443.789 .1230385
444.705 .1274217
445.621 .1315838
446.535 .1355604
447.447 .1379097
448.359 .1384782
449.269 .1368837
450.178 .1328791
451.086 .1265443
451.993 .1183680
452.898 .1091588
453.803 .0998307
454.706 .0911636
455.608 .0836391
456.508 .0774195
457.408 .0732207
458.306 .0700010
459.204 .0673857
460.100 .0651852
460.995 .0632940
461.888 .0616413
462.781 .0601797
463.673 .0588766
464.563 .0577076
465.452 .0566558
466.340 .0557049
467.228 .0548445
468.114 .0540655
468.999 .0533599
469.882 .0527201
470.765 .0521398
471.647 .0516136
472.528 .0511371
473.407 .0507063
474.286 .0503191
475.163 .0499741
476.040 .0496702
476.915 .0494057
477.790 .0491786
478.663 .0489867
479.535 .0488278
480.407 .0486986
481.277 .0485961
482.147 .0485164
483.015 .0484560
483.883 .0484120
484.749 .0483827
485.615 .0483668
486.479 .0483639
487.343 .0483741
488.206 .0483980
489.067 .0484361
489.928 .0484886
490.788 .0485559
491.647 .0486380
492.505 .0487347
493.362 .0488459
494.218 .0489716
495.073 .0491129
495.928 .0493928
496.781 .0495824
497.634 .0497933
498.486 .0500282
499.337 .0502893
500.187 .0505798
501.036 .0509021
501.884 .0512584
502.731 .0516511
503.578 .0520823
504.424 .0523799
505.268 .0528789
506.113 .0534249
506.956 .0540225
507.798 .0546773
508.640 .0553978
509.480 .0561940
510.320 .0570792
511.160 .0580672
511.998 .0591740
512.836 .0604164
513.672 .0618136
514.508 .0633853
515.344 .0651530
516.178 .0671394
517.012 .0693695
517.845 .0718654
518.677 .0746499
519.508 .0777410
520.339 .0811538
521.169 .0848912
521.998 .0889303
522.826 .0932352
523.654 .0977510
524.481 .1024087
525.307 .1071259
526.133 .1118069
526.958 .1163545
527.782 .1206720
528.605 .1246691
529.428 .1282648
530.250 .1313912
531.072 .1340008
531.892 .1360529
532.712 .1375215
533.532 .1383915
534.350 .1386574
535.168 .1383238
535.986 .1373958
536.802 .1358801
537.618 .1337843
538.434 .1311237
539.249 .1279398
540.063 .1242832
540.876 .1202204
541.689 .1158288
542.501 .1111964
543.313 .1064202
544.124 .1015962
544.934 .0968159
545.744 .0921629
546.553 .0877084
547.361 .0835083
548.169 .0795951
548.976 .0759935
549.783 .0727113
550.589 .0697429
551.395 .0670700
552.200 .0646656
553.004 .0625011
553.808 .0605503
554.611 .0587890
555.414 .0571966
556.216 .0557525
557.018 .0544380
557.819 .0532376
558.619 .0521374
559.419 .0511255
560.218 .0501924
561.017 .0493284
561.815 .0485254
562.613 .0477757
563.410 .0470718
564.207 .0464076
565.003 .0457780
565.799 .0451780
566.594 .0446032
567.388 .0440503
568.182 .0435173
568.976 .0430018
569.769 .0425030
570.562 .0420201
571.354 .0415526
572.145 .0411001
572.936 .0406624
573.727 .0402393
574.517 .0398310
575.307 .0394381
576.096 .0390601
576.885 .0386969
577.673 .0383485
578.461 .0380149
579.248 .0376961
580.035 .0373922
580.821 .0371034
581.607 .0368298
582.392 .0365715
583.177 .0363286
583.962 .0361007
584.746 .0358874
585.529 .0356884
586.313 .0355027
587.095 .0353295
587.878 .0351678
588.660 .0350168
589.441 .0348754
590.222 .0347431
591.003 .0346191
591.783 .0345023
592.563 .0343923
593.342 .0342885
594.121 .0341901
594.899 .0340969
595.678 .0340082
596.455 .0339238
597.233 .0338430
598.009 .0337655
598.786 .0336909
599.562 .0336189
600.338 .0335491
601.113 .0334814
601.888 .0333872
602.663 .0333247
603.437 .0332643
604.211 .0332062
604.984 .0331502
605.757 .0330965
606.530 .0330449
607.302 .0329954
608.074 .0329480
608.845 .0329027
609.616 .0328595
610.387 .0328428
611.158 .0328029
611.928 .0327651
612.697 .0327295
613.467 .0326962
614.236 .0326651
615.004 .0326363
615.773 .0326094
616.541 .0325843
617.308 .0325610
618.076 .0325392
618.843 .0325188
619.609 .0324998
620.375 .0324821
621.141 .0324655
621.907 .0324499
622.672 .0324351
623.437 .0324210
624.202 .0324072
624.966 .0323935
625.730 .0323798
626.493 .0323657
627.257 .0323510
628.020 .0323358
628.782 .0323199
629.545 .0323033
630.307 .0322861
631.068 .0322682
631.830 .0322499
632.591 .0322310
633.352 .0322117
634.112 .0321919
634.872 .0321716
635.632 .0321506
636.392 .0321290
637.151 .0321066
637.910 .0320836
638.668 .0320598
639.427 .0320355
640.185 .0320109
640.943 .0319860
641.700 .0319610
642.457 .0319361
643.214 .0319111
643.971 .0318862
644.727 .0318612
645.483 .0318361
646.239 .0318107
646.994 .0317852
647.750 .0317592
648.505 .0317329
649.259 .0317061
650.014 .0316789
650.768 .0316512
651.521 .0316232
652.275 .0315946
653.028 .0315656
653.781 .0315362
654.534 .0315061
655.286 .0314754
656.039 .0314441
656.791 .0314120
657.542 .0313793
658.294 .0313458
659.045 .0313118
659.796 .0312773
660.546 .0312426
661.297 .0312078
662.047 .0311730
662.796 .0311382
663.546 .0311036
664.295 .0310690
665.044 .0310346
665.793 .0310003
666.542 .0309663
667.290 .0309326
668.038 .0308993
668.786 .0308663
669.533 .0308339
670.281 .0308020
671.028 .0307706
671.774 .0307397
672.521 .0307093
673.267 .0306794
674.013 .0306501
674.759 .0306213
675.505 .0305931
676.250 .0305654
676.995 .0305383
677.740 .0305118
678.484 .0304857
679.229 .0304601
679.973 .0304349
680.717 .0304102
681.460 .0303859
682.204 .0303620
682.947 .0303384
683.690 .0303151
684.433 .0302919
685.175 .0302688
685.917 .0302459
686.659 .0302232
687.401 .0302007
688.142 .0301787
688.884 .0301571
689.625 .0301360
690.365 .0301154
691.106 .0300954
691.846 .0300758
692.586 .0300567
693.326 .0300381
694.066 .0300199
694.805 .0300022
695.545 .0299852
696.284 .0299689
697.022 .0299533
697.761 .0299385
698.499 .0299245
699.237 .0299114
699.975 .0298991
700.713 .0298876
701.450 .0298769
702.187 .0298670
702.924 .0298578
703.661 .0298492
704.397 .0298412
705.133 .0298337
705.869 .0298266
706.605 .0298199
707.341 .0298135
708.076 .0298074
708.811 .0298015
709.546 .0297957
710.281 .0297899
711.015 .0297840
711.749 .0297780
712.483 .0297715
713.217 .0297646
713.950 .0297571
714.684 .0297489
715.417 .0297401
716.150 .0297306
716.882 .0297204
717.615 .0297094
718.347 .0296978
719.079 .0296855
719.811 .0296725
720.542 .0296589
721.273 .0296447
722.005 .0296301
722.735 .0296149
723.466 .0295995
724.196 .0295836
724.927 .0295676
725.656 .0295513
726.386 .0295349
727.116 .0295184
727.845 .0295019
728.574 .0294853
729.303 .0294688
730.031 .0294524
730.760 .0294361
731.488 .0294199
732.216 .0294039
732.944 .0293880
733.671 .0293724
734.398 .0293568
735.125 .0293414
735.852 .0293261
736.579 .0293110
737.305 .0292959
738.031 .0292809
738.757 .0292658
739.483 .0292507
740.208 .0292354
740.933 .0292200
741.658 .0292043
742.383 .0291884
743.108 .0291722
743.832 .0291557
744.556 .0291388
745.280 .0291215
746.004 .0291038
746.727 .0290856
747.450 .0290669
748.173 .0290476
748.896 .0290277
749.618 .0290072
750.340 .0289860
751.062 .0289643
751.784 .0289420
752.506 .0289190
753.227 .0288956
753.948 .0288716
754.669 .0288472
755.389 .0288223
756.110 .0287970
756.830 .0287714
757.550 .0287456
758.269 .0287194
758.989 .0286931
759.708 .0286667
760.427 .0286401
761.146 .0286135
761.864 .0285869
762.582 .0285604
763.300 .0285339
764.018 .0285077
764.736 .0284817
765.453 .0284561
766.170 .0284309
766.887 .0284061
767.603 .0283818
768.320 .0283580
769.036 .0283347
769.751 .0283120
770.467 .0282898
771.182 .0282682
771.897 .0282472
772.612 .0282268
773.327 .0282071
774.041 .0281881
774.755 .0281699
775.469 .0281525
776.183 .0281358
776.896 .0281200
777.609 .0281049
778.322 .0280906
779.035 .0280771
779.747 .0280642
780.459 .0280519
781.171 .0280403
781.882 .0280292
782.594 .0280188
783.305 .0280090
784.016 .0279997
784.726 .0279911
785.436 .0279830
786.147 .0279726
786.856 .0279657
787.566 .0279592
788.275 .0279532
788.984 .0279477
789.693 .0279426
790.401 .0279378
791.110 .0279335
791.818 .0279294
792.525 .0279257
793.233 .0279222
793.940 .0279189
794.647 .0279180
795.353 .0279149
796.060 .0279119
796.766 .0279091
797.472 .0279063
798.177 .0279037
798.883 .0279010
799.588 .0278983
800.292 .0278954
800.997 .0278923
801.701 .0278888
802.405 .0278851
803.109 .0278810
803.812 .0278765
804.515 .0278718
805.218 .0278668
805.921 .0278615
806.623 .0278560
807.325 .0278501
808.027 .0278440
808.728 .0278376
809.429 .0278310
810.130 .0278240
810.831 .0278170
811.531 .0278099
812.231 .0278029
812.931 .0277959
813.630 .0277891
814.330 .0277826
815.029 .0277764
815.727 .0277705
816.426 .0277650
817.124 .0277600
817.821 .0277555
818.519 .0277514
819.216 .0277480
819.913 .0277451
820.609 .0277429
821.306 .0277413
822.002 .0277404
822.697 .0277400
823.393 .0277403
824.088 .0277411
824.783 .0277424
825.477 .0277443
826.171 .0277466
826.865 .0277492
827.559 .0277523
828.252 .0277556
828.945 .0277592
829.638 .0277629
830.330 .0277667
831.023 .0277704
831.714 .0277741
832.406 .0277776
833.097 .0277808
833.788 .0277838
834.479 .0277864
835.169 .0277887
835.859 .0277907
836.548 .0277923
837.238 .0277935
837.927 .0277942
838.615 .0277943
839.304 .0277938
839.992 .0277925
840.680 .0277904
841.367 .0277874
842.054 .0277835
842.741 .0277787
843.428 .0277730
844.114 .0277662
844.800 .0277585
845.485 .0277497
846.170 .0277399
846.855 .0277289
847.540 .0277168
848.224 .0277036
848.908 .0276893
849.592 .0276739
850.275 .0276575
850.958 .0276401
851.641 .0276218
852.323 .0276025
853.005 .0275824
853.687 .0275614
854.368 .0275396
855.049 .0275169
855.730 .0274935
856.410 .0274694
857.090 .0274447
857.769 .0274194
858.449 .0273936
859.128 .0273674
859.806 .0273407
860.485 .0273138
861.163 .0272866
861.840 .0272592
862.518 .0272317
863.195 .0272042
863.871 .0271768
864.548 .0271494
865.224 .0271222
865.899 .0270950
866.574 .0270679
867.249 .0270410
867.924 .0270142
868.598 .0269875
869.272 .0269610
869.946 .0269348
870.619 .0269088
871.292 .0268832
871.964 .0268579
872.636 .0268329
873.308 .0268083
873.979 .0267840
874.651 .0267600
875.321 .0267364
875.992 .0267131
876.662 .0266902
877.331 .0266678
878.001 .0266458
878.670 .0266243
879.338 .0266033
880.007 .0265828
880.675 .0265628
881.342 .0265434
882.009 .0265246
882.676 .0265065
883.343 .0264890
884.009 .0264722
884.675 .0264562
885.340 .0264407
886.005 .0264259
886.670 .0264117
887.334 .0263981
887.998 .0263849
888.662 .0263723
889.325 .0263601
889.988 .0263485
890.650 .0263372
891.312 .0263262
891.974 .0263155
892.636 .0263049
893.297 .0262944
893.957 .0262839
894.618 .0262734
895.278 .0262627
895.937 .0262520
896.596 .0262410
897.255 .0262299
897.914 .0262185
898.572 .0262067
899.230 .0261945
899.887 .0261819
900.544 .0261686
901.201 .0261548
901.857 .0261318
902.513 .0261169
903.168 .0261015
903.823 .0260858
904.478 .0260698
905.132 .0260533
905.786 .0260365
906.440 .0260194
907.093 .0260020
907.746 .0259844
908.399 .0259668
909.051 .0259492
909.703 .0259319
910.354 .0259238
911.005 .0259072
911.656 .0258910
912.306 .0258752
912.956 .0258597
913.605 .0258446
914.254 .0258298
914.903 .0258153
915.551 .0258011
916.199 .0257874
916.847 .0257740
917.494 .0257611
918.141 .0257485
918.788 .0257364
919.434 .0257246
920.079 .0257130
920.725 .0257017
921.370 .0256906
922.014 .0256796
922.658 .0256687
923.302 .0256580
923.946 .0256476
924.589 .0256373
925.231 .0256272
925.873 .0256174
926.515 .0256078
927.157 .0255984
927.798 .0255891
928.439 .0255801
929.079 .0255713
929.719 .0255629
930.359 .0255548
930.998 .0255471
931.637 .0255399
932.275 .0255334
932.913 .0255274
933.551 .0255222
934.188 .0255177
934.825 .0255139
935.462 .0255110
936.098 .0255088
936.733 .0255074
937.369 .0255067
938.004 .0255069
938.638 .0255078
939.273 .0255094
939.907 .0255118
940.540 .0255149
941.173 .0255186
941.806 .0255229
942.438 .0255278
943.070 .0255332
943.702 .0255391
944.333 .0255453
944.964 .0255519
945.594 .0255586
946.224 .0255656
946.854 .0255727
947.483 .0255799
948.112 .0255871
948.741 .0255944
949.369 .0256016
949.996 .0256087
950.624 .0256157
951.251 .0256226
951.878 .0256292
952.504 .0256357
953.130 .0256419
953.755 .0256480
954.380 .0256539
955.005 .0256598
955.629 .0256656
956.253 .0256715
956.877 .0256773
957.500 .0256832
958.123 .0256891
958.746 .0256950
959.368 .0257010
959.990 .0257070
960.611 .0257131
961.232 .0257193
961.853 .0257256
962.473 .0257319
963.093 .0257382
963.712 .0257445
964.331 .0257507
964.950 .0257568
965.569 .0257626
966.187 .0257682
966.804 .0257735
967.422 .0257786
968.039 .0257835
968.655 .0257881
969.272 .0257925
969.887 .0257965
970.503 .0258002
971.118 .0258036
971.733 .0258065
972.347 .0258090
972.961 .0258111
973.575 .0258127
974.188 .0258140
974.801 .0258148
975.414 .0258153
976.026 .0258153
976.638 .0258148
977.250 .0258137
977.861 .0258120
978.472 .0258097
979.083 .0258066
979.693 .0258028
980.303 .0257984
980.912 .0257893
981.521 .0257833
982.130 .0257767
982.738 .0257696
983.346 .0257621
983.954 .0257541
984.562 .0257457
985.169 .0257369
985.775 .0257278
986.382 .0257184
986.988 .0257088
987.594 .0256990
988.199 .0256890
988.804 .0256789
989.409 .0256734
990.013 .0256634
990.617 .0256533
991.221 .0256432
991.824 .0256331
992.427 .0256229
993.030 .0256128
993.632 .0256027
994.234 .0255926
994.836 .0255826
995.438 .0255727
996.039 .0255629
996.640 .0255533
997.240 .0255438
997.840 .0255346
998.440 .0255256
999.040 .0255169
999.639 .0255083
1000.238 .0255000
1000.836 .0254918
1001.435 .0254839
1002.033 .0254761
1002.630 .0254684
1003.228 .0254607
1003.825 .0254531
1004.422 .0254455
1005.018 .0254378
1005.614 .0254300
1006.210 .0254220
1006.806 .0254138
1007.401 .0254054
1007.996 .0253967
1008.591 .0253879
1009.186 .0253787
1009.780 .0253694
1010.374 .0253597
1010.967 .0253496
1011.561 .0253392
1012.154 .0253284
1012.746 .0253171
1013.339 .0253054
1013.931 .0252933
1014.523 .0252809
1015.115 .0252680
1015.706 .0252549
1016.298 .0252416
1016.888 .0252281
1017.479 .0252145
1018.069 .0252009
1018.660 .0251872
1019.250 .0251734
1019.839 .0251596
1020.429 .0251459
1021.018 .0251321
1021.607 .0251184
1022.195 .0251048
1022.784 .0250914
1023.372 .0250782
1023.960 .0250653
1024.547 .0250527
1025.135 .0250404
1025.722 .0250283
1026.309 .0250164
1026.896 .0250048
1027.483 .0249934
1028.069 .0249824
1028.655 .0249717
1029.241 .0249613
1029.827 .0249514
1030.412 .0249420
1030.997 .0249332
1031.582 .0249248
1032.167 .0249168
1032.752 .0249091
1033.336 .0249017
1033.921 .0248944
1034.505 .0248872
1035.089 .0248799
1035.672 .0248725
1036.256 .0248650
1036.839 .0248572
1037.422 .0248493
1038.005 .0248410
1038.588 .0248323
1039.171 .0248233
1039.753 .0248138
1040.335 .0248039
1040.918 .0247936
1041.500 .0247829
1042.081 .0247718
1042.663 .0247603
1043.244 .0247486
1043.826 .0247367
1044.407 .0247246
1044.988 .0247123
1045.569 .0246997
1046.150 .0246869
1046.730 .0246739
1047.311 .0246607
1047.891 .0246472
1048.471 .0246336
1049.052 .0246198
1049.632 .0246060
1050.211 .0245922
1050.791 .0245784
1051.371 .0245647
1051.950 .0245511
1052.530 .0245376
1053.109 .0245243
1053.688 .0245112
1054.268 .0244984
1054.847 .0244860
1055.426 .0244742
1056.005 .0244628
1056.583 .0244519
1057.162 .0244413
1057.741 .0244311
1058.319 .0244211
1058.898 .0244112
1059.476 .0244015
1060.055 .0243920
1060.633 .0243826
1061.211 .0243735
1061.790 .0243648
1062.368 .0243566
1062.946 .0243488
1063.524 .0243414
1064.102 .0243346
1064.680 .0243281
1065.258 .0243220
1065.836 .0243162
1066.414 .0243109
1066.992 .0243061
1067.570 .0243016
1068.148 .0242977
1068.726 .0242941
1069.304 .0242909
1069.882 .0242881
1070.460 .0242855
1071.038 .0242829
1071.616 .0242803
1072.194 .0242777
1072.772 .0242750
1073.350 .0242723
1073.928 .0242696
1074.506 .0242669
1075.084 .0242645
1075.662 .0242622
1076.240 .0242603
1076.819 .0242587
1077.397 .0242577
1077.976 .0242573
1078.554 .0242576
1079.133 .0242588
1079.711 .0242610
1080.290 .0242642
1080.869 .0242686
1081.448 .0242741
1082.027 .0242807
1082.606 .0242884
1083.185 .0242970
1083.764 .0243064
1084.343 .0243166
1084.923 .0243275
1085.502 .0243392
1086.082 .0243516
1086.662 .0243649
1087.242 .0243791
1087.822 .0243942
1088.402 .0244101
1088.983 .0244265
1089.563 .0244434
1090.144 .0244605
1090.725 .0244778
1091.306 .0244951
1091.887 .0245124
1092.469 .0245297
1093.050 .0245472
1093.632 .0245649
1094.214 .0245828
1094.796 .0246009
1095.379 .0246189
1095.961 .0246366
1096.544 .0246539
1097.127 .0246706
1097.710 .0246866
1098.294 .0247021
1098.877 .0247173
1099.461 .0247323
1100.046 .0247477
1100.630 .0247637
1101.215 .0247804
1101.800 .0247983
1102.385 .0248174
1102.970 .0248379
1103.556 .0248599
1104.142 .0248835
1104.728 .0249090
1105.315 .0249364
1105.902 .0249661
1106.489 .0249980
1107.077 .0250323
1107.664 .0250689
1108.253 .0251076
1108.841 .0251483
1109.430 .0251907
1110.019 .0252346
1110.609 .0252799
1111.198 .0253263
1111.789 .0253737
1112.379 .0254222
1112.970 .0254717
1113.561 .0255221
1114.153 .0255735
1114.745 .0256259
1115.338 .0256794
1115.931 .0257340
1116.524 .0257898
1117.117 .0258469
1117.712 .0259055
1118.306 .0259658
1118.901 .0260275
1119.496 .0260906
1120.092 .0261551
1120.689 .0262205
1121.285 .0262867
1121.882 .0263534
1122.480 .0264205
1123.078 .0264881
1123.677 .0265563
1124.276 .0266255
1124.875 .0266960
1125.476 .0267684
1126.076 .0268429
1126.677 .0269200
1127.279 .0269996
1127.881 .0270819
1128.484 .0271669
1129.087 .0272033
1129.691 .0272923
1130.295 .0273844
1130.900 .0274800
1131.505 .0275796
1132.111 .0276834
1132.718 .0277913
1133.325 .0279029
1133.933 .0280189
1134.541 .0281427
1135.150 .0282659
1135.760 .0283819
1136.370 .0284968
1136.981 .0285646
1137.592 .0286886
1138.204 .0288187
1138.817 .0289610
1139.431 .0291142
1140.045 .0292764
1140.660 .0294389
1141.275 .0295979
1141.891 .0297861
1142.508 .0300803
1143.126 .0301551
1143.744 .0300475
1144.363 .0301208
1144.983 .0313075
