Measurement Sequence started on: 15-12-46-377
Integration time: 28
Scans to Average: 2 
>>>>>Begin Spectral Data<<<<<
432.689 .0000100
433.621 .0000100
434.552 .0000100
435.482 .0000100
436.410 .0000100
437.337 .0000100
438.262 .0297778
439.187 .0632831
440.110 .1048642
441.031 .1517199
441.952 .1213159
442.871 .1266473
443.789 .1316025
444.705 .1362580
445.621 .1406670
446.535 .1448708
447.447 .1473328
448.359 .1478806
449.269 .1461094
450.178 .1417577
451.086 .1349125
451.993 .1260955
452.898 .1161702
453.803 .1061172
454.706 .0967701
455.608 .0886467
456.508 .0819197
457.408 .0773524
458.306 .0738413
459.204 .0709792
460.100 .0685635
460.995 .0664835
461.888 .0646655
462.781 .0630587
463.673 .0616246
464.563 .0603363
465.452 .0591725
466.340 .0581161
467.228 .0571541
468.114 .0562752
468.999 .0554707
469.882 .0547335
470.765 .0540569
471.647 .0534364
472.528 .0528686
473.407 .0523494
474.286 .0518773
475.163 .0514510
476.040 .0510687
476.915 .0507288
477.790 .0504295
478.663 .0501686
479.535 .0499441
480.407 .0497536
481.277 .0495942
482.147 .0494628
483.015 .0493568
483.883 .0492735
484.749 .0492108
485.615 .0491675
486.479 .0491422
487.343 .0491336
488.206 .0491420
489.067 .0491661
489.928 .0492058
490.788 .0492610
491.647 .0493317
492.505 .0494185
493.362 .0495225
494.218 .0496443
495.073 .0497849
495.928 .0500720
496.781 .0502682
497.634 .0504877
498.486 .0507325
499.337 .0510045
500.187 .0513058
501.036 .0516392
501.884 .0520074
502.731 .0524135
503.578 .0528601
504.424 .0531703
505.268 .0536854
506.113 .0542458
506.956 .0548523
507.798 .0555071
508.640 .0562150
509.480 .0569816
510.320 .0578152
511.160 .0587290
511.998 .0597383
512.836 .0608613
513.672 .0621183
514.508 .0635331
515.344 .0651299
516.178 .0669321
517.012 .0689654
517.845 .0712520
518.677 .0738149
519.508 .0766775
520.339 .0798546
521.169 .0833609
521.998 .0871851
522.826 .0912987
523.654 .0956549
524.481 .1001927
525.307 .1048327
526.133 .1094803
526.958 .1140348
527.782 .1183967
528.605 .1224671
529.428 .1261622
530.250 .1294066
531.072 .1321503
531.892 .1343549
532.712 .1359940
533.532 .1370527
534.350 .1375296
535.168 .1374301
535.986 .1367627
536.802 .1355299
537.618 .1337385
538.434 .1313904
539.249 .1285120
540.063 .1251455
540.876 .1213486
541.689 .1171929
542.501 .1127658
543.313 .1081640
544.124 .1034898
544.934 .0988400
545.744 .0943057
546.553 .0899614
547.361 .0858705
548.169 .0820666
548.976 .0785684
549.783 .0753807
550.589 .0724967
551.395 .0698927
552.200 .0675416
553.004 .0654108
553.808 .0634726
554.611 .0617033
555.414 .0600839
556.216 .0585973
557.018 .0572285
557.819 .0559658
558.619 .0547973
559.419 .0537128
560.218 .0527048
561.017 .0517642
561.815 .0508838
562.613 .0500569
563.410 .0492755
564.207 .0485321
565.003 .0478214
565.799 .0471385
566.594 .0464800
567.388 .0458444
568.182 .0452301
568.976 .0446357
569.769 .0440607
570.562 .0435048
571.354 .0429672
572.145 .0424477
572.936 .0419461
573.727 .0414612
574.517 .0409924
575.307 .0405394
576.096 .0401016
576.885 .0396794
577.673 .0392738
578.461 .0388858
579.248 .0385163
580.035 .0381665
580.821 .0378371
581.607 .0375282
582.392 .0372398
583.177 .0369713
583.962 .0367216
584.746 .0364895
585.529 .0362738
586.313 .0360736
587.095 .0358883
587.878 .0357173
588.660 .0355598
589.441 .0354153
590.222 .0352832
591.003 .0351624
591.783 .0350520
592.563 .0349511
593.342 .0348584
594.121 .0347729
594.899 .0346936
595.678 .0346194
596.455 .0345498
597.233 .0344840
598.009 .0344216
598.786 .0343620
599.562 .0343049
600.338 .0342497
601.113 .0341960
601.888 .0341194
602.663 .0340688
603.437 .0340194
604.211 .0339710
604.984 .0339238
605.757 .0338777
606.530 .0338326
607.302 .0337885
608.074 .0337455
608.845 .0337033
609.616 .0336621
610.387 .0336441
611.158 .0336043
611.928 .0335656
612.697 .0335280
613.467 .0334916
614.236 .0334564
615.004 .0334224
615.773 .0333898
616.541 .0333582
617.308 .0333277
618.076 .0332981
618.843 .0332692
619.609 .0332409
620.375 .0332130
621.141 .0331854
621.907 .0331580
622.672 .0331306
623.437 .0331032
624.202 .0330755
624.966 .0330477
625.730 .0330195
626.493 .0329909
627.257 .0329618
628.020 .0329319
628.782 .0329012
629.545 .0328696
630.307 .0328371
631.068 .0328036
631.830 .0327693
632.591 .0327342
633.352 .0326986
634.112 .0326625
634.872 .0326263
635.632 .0325901
636.392 .0325540
637.151 .0325181
637.910 .0324826
638.668 .0324475
639.427 .0324130
640.185 .0323790
640.943 .0323458
641.700 .0323133
642.457 .0322817
643.214 .0322510
643.971 .0322215
644.727 .0321930
645.483 .0321657
646.239 .0321396
646.994 .0321147
647.750 .0320908
648.505 .0320678
649.259 .0320455
650.014 .0320239
650.768 .0320026
651.521 .0319816
652.275 .0319606
653.028 .0319396
653.781 .0319185
654.534 .0318973
655.286 .0318758
656.039 .0318541
656.791 .0318322
657.542 .0318100
658.294 .0317875
659.045 .0317647
659.796 .0317417
660.546 .0317184
661.297 .0316950
662.047 .0316715
662.796 .0316480
663.546 .0316246
664.295 .0316013
665.044 .0315782
665.793 .0315555
666.542 .0315331
667.290 .0315112
668.038 .0314897
668.786 .0314686
669.533 .0314479
670.281 .0314276
671.028 .0314076
671.774 .0313879
672.521 .0313686
673.267 .0313496
674.013 .0313308
674.759 .0313123
675.505 .0312940
676.250 .0312758
676.995 .0312578
677.740 .0312398
678.484 .0312218
679.229 .0312038
679.973 .0311857
680.717 .0311676
681.460 .0311492
682.204 .0311305
682.947 .0311115
683.690 .0310920
684.433 .0310720
685.175 .0310516
685.917 .0310308
686.659 .0310095
687.401 .0309877
688.142 .0309654
688.884 .0309427
689.625 .0309196
690.365 .0308960
691.106 .0308719
691.846 .0308474
692.586 .0308225
693.326 .0307973
694.066 .0307717
694.805 .0307459
695.545 .0307200
696.284 .0306938
697.022 .0306676
697.761 .0306413
698.499 .0306150
699.237 .0305887
699.975 .0305626
700.713 .0305365
701.450 .0305106
702.187 .0304847
702.924 .0304590
703.661 .0304334
704.397 .0304081
705.133 .0303830
705.869 .0303582
706.605 .0303338
707.341 .0303098
708.076 .0302862
708.811 .0302632
709.546 .0302406
710.281 .0302185
711.015 .0301968
711.749 .0301755
712.483 .0301545
713.217 .0301338
713.950 .0301134
714.684 .0300934
715.417 .0300737
716.150 .0300543
716.882 .0300352
717.615 .0300165
718.347 .0299981
719.079 .0299802
719.811 .0299627
720.542 .0299456
721.273 .0299290
722.005 .0299129
722.735 .0298972
723.466 .0298819
724.196 .0298670
724.927 .0298525
725.656 .0298383
726.386 .0298244
727.116 .0298109
727.845 .0297978
728.574 .0297851
729.303 .0297730
730.031 .0297613
730.760 .0297502
731.488 .0297395
732.216 .0297293
732.944 .0297194
733.671 .0297099
734.398 .0297007
735.125 .0296918
735.852 .0296831
736.579 .0296748
737.305 .0296667
738.031 .0296589
738.757 .0296513
739.483 .0296438
740.208 .0296364
740.933 .0296290
741.658 .0296214
742.383 .0296138
743.108 .0296059
743.832 .0295977
744.556 .0295892
745.280 .0295804
746.004 .0295711
746.727 .0295615
747.450 .0295514
748.173 .0295409
748.896 .0295299
749.618 .0295186
750.340 .0295069
751.062 .0294950
751.784 .0294827
752.506 .0294702
753.227 .0294573
753.948 .0294442
754.669 .0294307
755.389 .0294167
756.110 .0294024
756.830 .0293876
757.550 .0293724
758.269 .0293567
758.989 .0293407
759.708 .0293242
760.427 .0293074
761.146 .0292902
761.864 .0292726
762.582 .0292547
763.300 .0292363
764.018 .0292175
764.736 .0291984
765.453 .0291790
766.170 .0291592
766.887 .0291392
767.603 .0291189
768.320 .0290984
769.036 .0290778
769.751 .0290571
770.467 .0290363
771.182 .0290155
771.897 .0289947
772.612 .0289740
773.327 .0289535
774.041 .0289332
774.755 .0289131
775.469 .0288933
776.183 .0288738
776.896 .0288547
777.609 .0288360
778.322 .0288178
779.035 .0288000
779.747 .0287829
780.459 .0287662
781.171 .0287502
781.882 .0287347
782.594 .0287197
783.305 .0287053
784.016 .0286913
784.726 .0286778
785.436 .0286646
786.147 .0286465
786.856 .0286342
787.566 .0286222
788.275 .0286103
788.984 .0285986
789.693 .0285870
790.401 .0285754
791.110 .0285638
791.818 .0285523
792.525 .0285406
793.233 .0285289
793.940 .0285171
794.647 .0285104
795.353 .0284983
796.060 .0284860
796.766 .0284734
797.472 .0284606
798.177 .0284476
798.883 .0284344
799.588 .0284209
800.292 .0284071
800.997 .0283932
801.701 .0283791
802.405 .0283648
803.109 .0283502
803.812 .0283353
804.515 .0283202
805.218 .0283049
805.921 .0282893
806.623 .0282736
807.325 .0282578
808.027 .0282421
808.728 .0282265
809.429 .0282111
810.130 .0281959
810.831 .0281812
811.531 .0281668
812.231 .0281529
812.931 .0281395
813.630 .0281268
814.330 .0281146
815.029 .0281032
815.727 .0280925
816.426 .0280825
817.124 .0280732
817.821 .0280645
818.519 .0280566
819.216 .0280493
819.913 .0280427
820.609 .0280369
821.306 .0280319
822.002 .0280277
822.697 .0280243
823.393 .0280218
824.088 .0280200
824.783 .0280189
825.477 .0280183
826.171 .0280183
826.865 .0280186
827.559 .0280192
828.252 .0280201
828.945 .0280213
829.638 .0280229
830.330 .0280246
831.023 .0280266
831.714 .0280287
832.406 .0280308
833.097 .0280330
833.788 .0280351
834.479 .0280371
835.169 .0280390
835.859 .0280408
836.548 .0280425
837.238 .0280441
837.927 .0280455
838.615 .0280467
839.304 .0280477
839.992 .0280483
840.680 .0280486
841.367 .0280484
842.054 .0280478
842.741 .0280468
843.428 .0280455
844.114 .0280437
844.800 .0280415
845.485 .0280387
846.170 .0280352
846.855 .0280310
847.540 .0280258
848.224 .0280197
848.908 .0280125
849.592 .0280044
850.275 .0279952
850.958 .0279851
851.641 .0279742
852.323 .0279624
853.005 .0279499
853.687 .0279364
854.368 .0279221
855.049 .0279069
855.730 .0278908
856.410 .0278738
857.090 .0278559
857.769 .0278374
858.449 .0278183
859.128 .0277987
859.806 .0277787
860.485 .0277583
861.163 .0277377
861.840 .0277170
862.518 .0276960
863.195 .0276751
863.871 .0276541
864.548 .0276331
865.224 .0276123
865.899 .0275916
866.574 .0275711
867.249 .0275509
867.924 .0275310
868.598 .0275113
869.272 .0274918
869.946 .0274726
870.619 .0274537
871.292 .0274351
871.964 .0274169
872.636 .0273990
873.308 .0273814
873.979 .0273642
874.651 .0273473
875.321 .0273307
875.992 .0273143
876.662 .0272982
877.331 .0272822
878.001 .0272665
878.670 .0272509
879.338 .0272356
880.007 .0272205
880.675 .0272056
881.342 .0271909
882.009 .0271764
882.676 .0271621
883.343 .0271481
884.009 .0271343
884.675 .0271207
885.340 .0271074
886.005 .0270943
886.670 .0270814
887.334 .0270686
887.998 .0270561
888.662 .0270437
889.325 .0270315
889.988 .0270194
890.650 .0270073
891.312 .0269954
891.974 .0269836
892.636 .0269718
893.297 .0269601
893.957 .0269483
894.618 .0269364
895.278 .0269244
895.937 .0269121
896.596 .0268996
897.255 .0268867
897.914 .0268734
898.572 .0268597
899.230 .0268455
899.887 .0268307
900.544 .0268154
901.201 .0267995
901.857 .0267726
902.513 .0267551
903.168 .0267370
903.823 .0267182
904.478 .0266990
905.132 .0266792
905.786 .0266589
906.440 .0266384
907.093 .0266176
907.746 .0265966
908.399 .0265756
909.051 .0265546
909.703 .0265338
910.354 .0265240
911.005 .0265038
911.656 .0264840
912.306 .0264645
912.956 .0264455
913.605 .0264271
914.254 .0264093
914.903 .0263923
915.551 .0263760
916.199 .0263606
916.847 .0263458
917.494 .0263318
918.141 .0263185
918.788 .0263058
919.434 .0262937
920.079 .0262821
920.725 .0262710
921.370 .0262604
922.014 .0262502
922.658 .0262403
923.302 .0262307
923.946 .0262213
924.589 .0262121
925.231 .0262029
925.873 .0261937
926.515 .0261844
927.157 .0261750
927.798 .0261656
928.439 .0261561
929.079 .0261466
929.719 .0261371
930.359 .0261275
930.998 .0261181
931.637 .0261086
932.275 .0260993
932.913 .0260901
933.551 .0260810
934.188 .0260722
934.825 .0260637
935.462 .0260556
936.098 .0260480
936.733 .0260410
937.369 .0260346
938.004 .0260290
938.638 .0260241
939.273 .0260200
939.907 .0260167
940.540 .0260142
941.173 .0260125
941.806 .0260117
942.438 .0260116
943.070 .0260124
943.702 .0260139
944.333 .0260163
944.964 .0260193
945.594 .0260229
946.224 .0260271
946.854 .0260316
947.483 .0260365
948.112 .0260415
948.741 .0260468
949.369 .0260522
949.996 .0260577
950.624 .0260634
951.251 .0260692
951.878 .0260750
952.504 .0260808
953.130 .0260866
953.755 .0260923
954.380 .0260978
955.005 .0261030
955.629 .0261080
956.253 .0261126
956.877 .0261169
957.500 .0261208
958.123 .0261244
958.746 .0261276
959.368 .0261305
959.990 .0261329
960.611 .0261349
961.232 .0261364
961.853 .0261375
962.473 .0261382
963.093 .0261384
963.712 .0261382
964.331 .0261377
964.950 .0261368
965.569 .0261355
966.187 .0261339
966.804 .0261318
967.422 .0261294
968.039 .0261264
968.655 .0261230
969.272 .0261191
969.887 .0261147
970.503 .0261098
971.118 .0261044
971.733 .0260985
972.347 .0260921
972.961 .0260851
973.575 .0260775
974.188 .0260693
974.801 .0260604
975.414 .0260509
976.026 .0260407
976.638 .0260300
977.250 .0260187
977.861 .0260070
978.472 .0259948
979.083 .0259822
979.693 .0259691
980.303 .0259557
980.912 .0259337
981.521 .0259195
982.130 .0259051
982.738 .0258904
983.346 .0258755
983.954 .0258606
984.562 .0258456
985.169 .0258306
985.775 .0258156
986.382 .0258006
986.988 .0257857
987.594 .0257709
988.199 .0257562
988.804 .0257417
989.409 .0257358
990.013 .0257218
990.617 .0257081
991.221 .0256948
991.824 .0256819
992.427 .0256694
993.030 .0256574
993.632 .0256458
994.234 .0256345
994.836 .0256236
995.438 .0256130
996.039 .0256028
996.640 .0255928
997.240 .0255831
997.840 .0255736
998.440 .0255644
999.040 .0255552
999.639 .0255460
1000.238 .0255366
1000.836 .0255271
1001.435 .0255172
1002.033 .0255070
1002.630 .0254964
1003.228 .0254855
1003.825 .0254743
1004.422 .0254628
1005.018 .0254512
1005.614 .0254395
1006.210 .0254276
1006.806 .0254158
1007.401 .0254039
1007.996 .0253921
1008.591 .0253803
1009.186 .0253687
1009.780 .0253572
1010.374 .0253459
1010.967 .0253347
1011.561 .0253237
1012.154 .0253129
1012.746 .0253022
1013.339 .0252916
1013.931 .0252812
1014.523 .0252708
1015.115 .0252606
1015.706 .0252504
1016.298 .0252405
1016.888 .0252309
1017.479 .0252215
1018.069 .0252125
1018.660 .0252038
1019.250 .0251955
1019.839 .0251876
1020.429 .0251800
1021.018 .0251728
1021.607 .0251659
1022.195 .0251592
1022.784 .0251528
1023.372 .0251465
1023.960 .0251403
1024.547 .0251341
1025.135 .0251280
1025.722 .0251219
1026.309 .0251157
1026.896 .0251095
1027.483 .0251032
1028.069 .0250970
1028.655 .0250908
1029.241 .0250847
1029.827 .0250787
1030.412 .0250729
1030.997 .0250673
1031.582 .0250619
1032.167 .0250569
1032.752 .0250523
1033.336 .0250481
1033.921 .0250443
1034.505 .0250409
1035.089 .0250379
1035.672 .0250353
1036.256 .0250328
1036.839 .0250303
1037.422 .0250277
1038.005 .0250249
1038.588 .0250217
1039.171 .0250182
1039.753 .0250143
1040.335 .0250100
1040.918 .0250056
1041.500 .0250010
1042.081 .0249963
1042.663 .0249916
1043.244 .0249868
1043.826 .0249821
1044.407 .0249772
1044.988 .0249723
1045.569 .0249672
1046.150 .0249621
1046.730 .0249570
1047.311 .0249519
1047.891 .0249470
1048.471 .0249423
1049.052 .0249380
1049.632 .0249340
1050.211 .0249303
1050.791 .0249268
1051.371 .0249237
1051.950 .0249208
1052.530 .0249182
1053.109 .0249161
1053.688 .0249146
1054.268 .0249138
1054.847 .0249139
1055.426 .0249149
1056.005 .0249168
1056.583 .0249196
1057.162 .0249232
1057.741 .0249273
1058.319 .0249318
1058.898 .0249365
1059.476 .0249414
1060.055 .0249463
1060.633 .0249513
1061.211 .0249563
1061.790 .0249613
1062.368 .0249662
1062.946 .0249711
1063.524 .0249758
1064.102 .0249801
1064.680 .0249841
1065.258 .0249875
1065.836 .0249906
1066.414 .0249933
1066.992 .0249959
1067.570 .0249984
1068.148 .0250011
1068.726 .0250041
1069.304 .0250075
1069.882 .0250112
1070.460 .0250153
1071.038 .0250196
1071.616 .0250241
1072.194 .0250288
1072.772 .0250335
1073.350 .0250383
1073.928 .0250433
1074.506 .0250485
1075.084 .0250539
1075.662 .0250596
1076.240 .0250655
1076.819 .0250718
1077.397 .0250784
1077.976 .0250854
1078.554 .0250930
1079.133 .0251012
1079.711 .0251103
1080.290 .0251203
1080.869 .0251315
1081.448 .0251438
1082.027 .0251572
1082.606 .0251717
1083.185 .0251873
1083.764 .0252036
1084.343 .0252208
1084.923 .0252386
1085.502 .0252570
1086.082 .0252760
1086.662 .0252956
1087.242 .0253158
1087.822 .0253364
1088.402 .0253575
1088.983 .0253790
1089.563 .0254007
1090.144 .0254227
1090.725 .0254449
1091.306 .0254675
1091.887 .0254904
1092.469 .0255138
1093.050 .0255379
1093.632 .0255628
1094.214 .0255888
1094.796 .0256158
1095.379 .0256437
1095.961 .0256725
1096.544 .0257021
1097.127 .0257322
1097.710 .0257627
1098.294 .0257936
1098.877 .0258249
1099.461 .0258565
1100.046 .0258884
1100.630 .0259207
1101.215 .0259534
1101.800 .0259866
1102.385 .0260200
1102.970 .0260536
1103.556 .0260872
1104.142 .0261208
1104.728 .0261545
1105.315 .0261884
1105.902 .0262231
1106.489 .0262587
1107.077 .0262958
1107.664 .0263345
1108.253 .0263750
1108.841 .0264175
1109.430 .0264617
1110.019 .0265075
1110.609 .0265547
1111.198 .0266030
1111.789 .0266524
1112.379 .0267029
1112.970 .0267544
1113.561 .0268071
1114.153 .0268608
1114.745 .0269157
1115.338 .0269715
1115.931 .0270280
1116.524 .0270851
1117.117 .0271426
1117.712 .0272004
1118.306 .0272587
1118.901 .0273176
1119.496 .0273773
1120.092 .0274379
1120.689 .0274998
1121.285 .0275631
1121.882 .0276277
1122.480 .0276938
1123.078 .0277613
1123.677 .0278302
1124.276 .0279006
1124.875 .0279725
1125.476 .0280460
1126.076 .0281213
1126.677 .0281981
1127.279 .0282762
1127.881 .0283553
1128.484 .0284350
1129.087 .0284706
1129.691 .0285508
1130.295 .0286307
1130.900 .0287104
1131.505 .0287896
1132.111 .0288683
1132.718 .0289462
1133.325 .0290233
1133.933 .0290990
1134.541 .0291786
1135.150 .0292517
1135.760 .0293131
1136.370 .0293805
1136.981 .0296780
1137.592 .0297481
1138.204 .0298133
1138.817 .0298763
1139.431 .0299361
1140.045 .0299898
1140.660 .0300319
1141.275 .0300690
1141.891 .0300884
1142.508 .0302507
1143.126 .0301237
1143.744 .0298560
1144.363 .0300910
1144.983 .0299508
