Measurement Sequence started on: 15-12-46-377
Integration time: 28
Scans to Average: 2 
>>>>>Begin Spectral Data<<<<<
432.689 .0000100
433.621 .0000100
434.552 .0000100
435.482 .0000100
436.410 .0000100
437.337 .0000100
438.262 .0250219
439.187 .0531676
440.110 .0883042
441.031 .1280579
441.952 .1041491
442.871 .1089268
443.789 .1133899
444.705 .1176052
445.621 .1216187
446.535 .1254652
447.447 .1278534
448.359 .1286371
449.269 .1274644
450.178 .1241041
451.086 .1186190
451.993 .1114395
452.898 .1032848
453.803 .0949766
454.706 .0872200
455.608 .0804575
456.508 .0748446
457.408 .0710316
458.306 .0680968
459.204 .0657073
460.100 .0636925
460.995 .0619557
461.888 .0604327
462.781 .0590804
463.673 .0578671
464.563 .0567701
465.452 .0557730
466.340 .0548617
467.228 .0540257
468.114 .0532558
468.999 .0525442
469.882 .0518846
470.765 .0512733
471.647 .0507068
472.528 .0501840
473.407 .0497037
474.286 .0492651
475.163 .0488680
476.040 .0485109
476.915 .0481925
477.790 .0479105
478.663 .0476625
479.535 .0474467
480.407 .0472606
481.277 .0471031
482.147 .0469725
483.015 .0468676
483.883 .0467877
484.749 .0467320
485.615 .0466989
486.479 .0466867
487.343 .0466929
488.206 .0467158
489.067 .0467534
489.928 .0468046
490.788 .0468690
491.647 .0469467
492.505 .0470381
493.362 .0471441
494.218 .0472649
495.073 .0474013
495.928 .0476599
496.781 .0478364
497.634 .0480290
498.486 .0482384
499.337 .0484667
500.187 .0487166
501.036 .0489921
501.884 .0492974
502.731 .0496370
503.578 .0500143
504.424 .0502858
505.268 .0507332
506.113 .0512276
506.956 .0517724
507.798 .0523723
508.640 .0530344
509.480 .0537682
510.320 .0545858
511.160 .0555015
511.998 .0565316
512.836 .0576945
513.672 .0590079
514.508 .0604911
515.344 .0621632
516.178 .0640448
517.012 .0661577
517.845 .0685235
518.677 .0711643
519.508 .0740998
520.339 .0773436
521.169 .0809047
521.998 .0847660
522.826 .0888952
523.654 .0932391
524.481 .0977280
525.307 .1022803
526.133 .1068017
526.958 .1111923
527.782 .1153587
528.605 .1192159
529.428 .1226912
530.250 .1257197
531.072 .1282608
531.892 .1302814
532.712 .1317596
533.532 .1326817
534.350 .1330383
535.168 .1328279
535.986 .1320518
536.802 .1307098
537.618 .1288079
538.434 .1263567
539.249 .1233923
540.063 .1199637
540.876 .1161371
541.689 .1119928
542.501 .1076176
543.313 .1031062
544.124 .0985557
544.934 .0940524
545.744 .0896711
546.553 .0854740
547.361 .0815129
548.169 .0778160
548.976 .0744020
549.783 .0712780
550.589 .0684399
551.395 .0658759
552.200 .0635652
553.004 .0614818
553.808 .0596027
554.611 .0579056
555.414 .0563679
556.216 .0549681
557.018 .0536870
557.819 .0525085
558.619 .0514182
559.419 .0504065
560.218 .0494651
561.017 .0485865
561.815 .0477648
562.613 .0469947
563.410 .0462697
564.207 .0455842
565.003 .0449326
565.799 .0443093
566.594 .0437104
567.388 .0431325
568.182 .0425734
568.976 .0420316
569.769 .0415072
570.562 .0409999
571.354 .0405098
572.145 .0400372
572.936 .0395814
573.727 .0391420
574.517 .0387188
575.307 .0383120
576.096 .0379204
576.885 .0375443
577.673 .0371838
578.461 .0368396
579.248 .0365121
580.035 .0362020
580.821 .0359095
581.607 .0356347
582.392 .0353776
583.177 .0351378
583.962 .0349144
584.746 .0347070
585.529 .0345144
586.313 .0343359
587.095 .0341707
587.878 .0340179
588.660 .0338768
589.441 .0337470
590.222 .0336278
591.003 .0335184
591.783 .0334181
592.563 .0333260
593.342 .0332415
594.121 .0331638
594.899 .0330921
595.678 .0330257
596.455 .0329640
597.233 .0329064
598.009 .0328524
598.786 .0328014
599.562 .0327530
600.338 .0327067
601.113 .0326622
601.888 .0325997
602.663 .0325580
603.437 .0325174
604.211 .0324776
604.984 .0324384
605.757 .0324000
606.530 .0323622
607.302 .0323250
608.074 .0322883
608.845 .0322523
609.616 .0322168
610.387 .0322007
611.158 .0321661
611.928 .0321322
612.697 .0320988
613.467 .0320662
614.236 .0320342
615.004 .0320028
615.773 .0319719
616.541 .0319417
617.308 .0319120
618.076 .0318829
618.843 .0318542
619.609 .0318259
620.375 .0317981
621.141 .0317705
621.907 .0317432
622.672 .0317159
623.437 .0316887
624.202 .0316613
624.966 .0316337
625.730 .0316058
626.493 .0315775
627.257 .0315489
628.020 .0315198
628.782 .0314903
629.545 .0314604
630.307 .0314300
631.068 .0313991
631.830 .0313676
632.591 .0313356
633.352 .0313030
634.112 .0312699
634.872 .0312364
635.632 .0312026
636.392 .0311687
637.151 .0311349
637.910 .0311013
638.668 .0310680
639.427 .0310351
640.185 .0310028
640.943 .0309713
641.700 .0309405
642.457 .0309107
643.214 .0308820
643.971 .0308545
644.727 .0308282
645.483 .0308032
646.239 .0307795
646.994 .0307570
647.750 .0307357
648.505 .0307154
649.259 .0306960
650.014 .0306774
650.768 .0306595
651.521 .0306422
652.275 .0306254
653.028 .0306090
653.781 .0305929
654.534 .0305770
655.286 .0305613
656.039 .0305457
656.791 .0305302
657.542 .0305146
658.294 .0304989
659.045 .0304830
659.796 .0304668
660.546 .0304502
661.297 .0304332
662.047 .0304157
662.796 .0303978
663.546 .0303795
664.295 .0303609
665.044 .0303421
665.793 .0303233
666.542 .0303045
667.290 .0302857
668.038 .0302670
668.786 .0302482
669.533 .0302294
670.281 .0302105
671.028 .0301915
671.774 .0301724
672.521 .0301531
673.267 .0301338
674.013 .0301144
674.759 .0300949
675.505 .0300755
676.250 .0300560
676.995 .0300365
677.740 .0300169
678.484 .0299972
679.229 .0299772
679.973 .0299569
680.717 .0299363
681.460 .0299154
682.204 .0298942
682.947 .0298726
683.690 .0298507
684.433 .0298286
685.175 .0298062
685.917 .0297837
686.659 .0297610
687.401 .0297382
688.142 .0297153
688.884 .0296922
689.625 .0296689
690.365 .0296453
691.106 .0296215
691.846 .0295975
692.586 .0295732
693.326 .0295487
694.066 .0295241
694.805 .0294993
695.545 .0294746
696.284 .0294499
697.022 .0294253
697.761 .0294007
698.499 .0293761
699.237 .0293515
699.975 .0293270
700.713 .0293024
701.450 .0292779
702.187 .0292534
702.924 .0292290
703.661 .0292047
704.397 .0291806
705.133 .0291568
705.869 .0291333
706.605 .0291100
707.341 .0290871
708.076 .0290644
708.811 .0290420
709.546 .0290199
710.281 .0289981
711.015 .0289766
711.749 .0289555
712.483 .0289349
713.217 .0289149
713.950 .0288953
714.684 .0288763
715.417 .0288580
716.150 .0288402
716.882 .0288229
717.615 .0288060
718.347 .0287897
719.079 .0287737
719.811 .0287582
720.542 .0287430
721.273 .0287283
722.005 .0287141
722.735 .0287003
723.466 .0286870
724.196 .0286743
724.927 .0286621
725.656 .0286504
726.386 .0286393
727.116 .0286287
727.845 .0286186
728.574 .0286089
729.303 .0285997
730.031 .0285910
730.760 .0285827
731.488 .0285749
732.216 .0285676
732.944 .0285608
733.671 .0285546
734.398 .0285489
735.125 .0285437
735.852 .0285389
736.579 .0285344
737.305 .0285303
738.031 .0285263
738.757 .0285224
739.483 .0285186
740.208 .0285148
740.933 .0285110
741.658 .0285072
742.383 .0285032
743.108 .0284990
743.832 .0284946
744.556 .0284898
745.280 .0284847
746.004 .0284790
746.727 .0284728
747.450 .0284660
748.173 .0284586
748.896 .0284505
749.618 .0284418
750.340 .0284325
751.062 .0284225
751.784 .0284119
752.506 .0284007
753.227 .0283888
753.948 .0283763
754.669 .0283631
755.389 .0283492
756.110 .0283346
756.830 .0283192
757.550 .0283032
758.269 .0282865
758.989 .0282692
759.708 .0282514
760.427 .0282329
761.146 .0282140
761.864 .0281946
762.582 .0281748
763.300 .0281545
764.018 .0281339
764.736 .0281129
765.453 .0280915
766.170 .0280698
766.887 .0280479
767.603 .0280257
768.320 .0280035
769.036 .0279811
769.751 .0279588
770.467 .0279365
771.182 .0279142
771.897 .0278920
772.612 .0278699
773.327 .0278478
774.041 .0278257
774.755 .0278036
775.469 .0277815
776.183 .0277595
776.896 .0277376
777.609 .0277160
778.322 .0276948
779.035 .0276739
779.747 .0276534
780.459 .0276334
781.171 .0276139
781.882 .0275949
782.594 .0275764
783.305 .0275584
784.016 .0275408
784.726 .0275236
785.436 .0275069
786.147 .0274842
786.856 .0274685
787.566 .0274532
788.275 .0274382
788.984 .0274236
789.693 .0274093
790.401 .0273954
791.110 .0273818
791.818 .0273683
792.525 .0273551
793.233 .0273418
793.940 .0273286
794.647 .0273213
795.353 .0273079
796.060 .0272947
796.766 .0272814
797.472 .0272682
798.177 .0272551
798.883 .0272422
799.588 .0272293
800.292 .0272165
800.997 .0272039
801.701 .0271914
802.405 .0271790
803.109 .0271667
803.812 .0271546
804.515 .0271426
805.218 .0271308
805.921 .0271193
806.623 .0271080
807.325 .0270971
808.027 .0270865
808.728 .0270763
809.429 .0270665
810.130 .0270571
810.831 .0270483
811.531 .0270399
812.231 .0270321
812.931 .0270247
813.630 .0270178
814.330 .0270114
815.029 .0270055
815.727 .0270002
816.426 .0269953
817.124 .0269911
817.821 .0269875
818.519 .0269845
819.216 .0269823
819.913 .0269808
820.609 .0269802
821.306 .0269803
822.002 .0269813
822.697 .0269830
823.393 .0269855
824.088 .0269888
824.783 .0269927
825.477 .0269972
826.171 .0270023
826.865 .0270078
827.559 .0270136
828.252 .0270199
828.945 .0270264
829.638 .0270332
830.330 .0270402
831.023 .0270474
831.714 .0270546
832.406 .0270618
833.097 .0270689
833.788 .0270758
834.479 .0270823
835.169 .0270884
835.859 .0270941
836.548 .0270993
837.238 .0271041
837.927 .0271085
838.615 .0271125
839.304 .0271159
839.992 .0271188
840.680 .0271211
841.367 .0271227
842.054 .0271236
842.741 .0271237
843.428 .0271231
844.114 .0271217
844.800 .0271195
845.485 .0271167
846.170 .0271131
846.855 .0271088
847.540 .0271036
848.224 .0270975
848.908 .0270903
849.592 .0270822
850.275 .0270730
850.958 .0270627
851.641 .0270516
852.323 .0270396
853.005 .0270268
853.687 .0270132
854.368 .0269988
855.049 .0269836
855.730 .0269675
856.410 .0269505
857.090 .0269326
857.769 .0269139
858.449 .0268945
859.128 .0268745
859.806 .0268540
860.485 .0268332
861.163 .0268121
861.840 .0267908
862.518 .0267691
863.195 .0267472
863.871 .0267250
864.548 .0267026
865.224 .0266800
865.899 .0266572
866.574 .0266344
867.249 .0266115
867.924 .0265885
868.598 .0265654
869.272 .0265422
869.946 .0265188
870.619 .0264952
871.292 .0264713
871.964 .0264472
872.636 .0264230
873.308 .0263988
873.979 .0263746
874.651 .0263505
875.321 .0263265
875.992 .0263026
876.662 .0262787
877.331 .0262548
878.001 .0262310
878.670 .0262071
879.338 .0261834
880.007 .0261598
880.675 .0261364
881.342 .0261133
882.009 .0260907
882.676 .0260685
883.343 .0260467
884.009 .0260254
884.675 .0260046
885.340 .0259842
886.005 .0259644
886.670 .0259451
887.334 .0259264
887.998 .0259083
888.662 .0258909
889.325 .0258742
889.988 .0258581
890.650 .0258428
891.312 .0258282
891.974 .0258142
892.636 .0258008
893.297 .0257879
893.957 .0257756
894.618 .0257637
895.278 .0257521
895.937 .0257407
896.596 .0257295
897.255 .0257184
897.914 .0257071
898.572 .0256957
899.230 .0256841
899.887 .0256721
900.544 .0256598
901.201 .0256471
901.857 .0256256
902.513 .0256117
903.168 .0255974
903.823 .0255827
904.478 .0255677
905.132 .0255522
905.786 .0255363
906.440 .0255201
907.093 .0255035
907.746 .0254866
908.399 .0254696
909.051 .0254525
909.703 .0254355
910.354 .0254277
911.005 .0254114
911.656 .0253953
912.306 .0253797
912.956 .0253643
913.605 .0253494
914.254 .0253350
914.903 .0253210
915.551 .0253075
916.199 .0252947
916.847 .0252825
917.494 .0252710
918.141 .0252603
918.788 .0252504
919.434 .0252412
920.079 .0252327
920.725 .0252249
921.370 .0252177
922.014 .0252110
922.658 .0252048
923.302 .0251992
923.946 .0251939
924.589 .0251891
925.231 .0251846
925.873 .0251805
926.515 .0251766
927.157 .0251730
927.798 .0251696
928.439 .0251664
929.079 .0251634
929.719 .0251607
930.359 .0251583
930.998 .0251563
931.637 .0251546
932.275 .0251534
932.913 .0251527
933.551 .0251524
934.188 .0251527
934.825 .0251537
935.462 .0251553
936.098 .0251576
936.733 .0251606
937.369 .0251644
938.004 .0251688
938.638 .0251740
939.273 .0251799
939.907 .0251864
940.540 .0251936
941.173 .0252014
941.806 .0252099
942.438 .0252190
943.070 .0252285
943.702 .0252385
944.333 .0252489
944.964 .0252594
945.594 .0252701
946.224 .0252808
946.854 .0252915
947.483 .0253022
948.112 .0253129
948.741 .0253236
949.369 .0253342
949.996 .0253448
950.624 .0253551
951.251 .0253651
951.878 .0253747
952.504 .0253837
953.130 .0253922
953.755 .0254001
954.380 .0254075
955.005 .0254145
955.629 .0254210
956.253 .0254272
956.877 .0254329
957.500 .0254383
958.123 .0254431
958.746 .0254475
959.368 .0254514
959.990 .0254547
960.611 .0254577
961.232 .0254603
961.853 .0254626
962.473 .0254647
963.093 .0254666
963.712 .0254683
964.331 .0254697
964.950 .0254707
965.569 .0254712
966.187 .0254713
966.804 .0254710
967.422 .0254702
968.039 .0254690
968.655 .0254675
969.272 .0254655
969.887 .0254631
970.503 .0254602
971.118 .0254567
971.733 .0254525
972.347 .0254474
972.961 .0254415
973.575 .0254347
974.188 .0254271
974.801 .0254186
975.414 .0254092
976.026 .0253991
976.638 .0253883
977.250 .0253766
977.861 .0253641
978.472 .0253509
979.083 .0253369
979.693 .0253222
980.303 .0253068
980.912 .0252814
981.521 .0252648
982.130 .0252479
982.738 .0252305
983.346 .0252128
983.954 .0251947
984.562 .0251763
985.169 .0251577
985.775 .0251389
986.382 .0251201
986.988 .0251012
987.594 .0250823
988.199 .0250635
988.804 .0250447
989.409 .0250361
990.013 .0250175
990.617 .0249991
991.221 .0249808
991.824 .0249626
992.427 .0249446
993.030 .0249268
993.632 .0249092
994.234 .0248918
994.836 .0248746
995.438 .0248576
996.039 .0248408
996.640 .0248240
997.240 .0248074
997.840 .0247907
998.440 .0247741
999.040 .0247575
999.639 .0247409
1000.238 .0247242
1000.836 .0247075
1001.435 .0246908
1002.033 .0246739
1002.630 .0246571
1003.228 .0246401
1003.825 .0246230
1004.422 .0246059
1005.018 .0245885
1005.614 .0245711
1006.210 .0245535
1006.806 .0245357
1007.401 .0245178
1007.996 .0244998
1008.591 .0244817
1009.186 .0244635
1009.780 .0244452
1010.374 .0244269
1010.967 .0244086
1011.561 .0243904
1012.154 .0243722
1012.746 .0243540
1013.339 .0243361
1013.931 .0243184
1014.523 .0243010
1015.115 .0242839
1015.706 .0242673
1016.298 .0242512
1016.888 .0242356
1017.479 .0242206
1018.069 .0242062
1018.660 .0241925
1019.250 .0241792
1019.839 .0241666
1020.429 .0241544
1021.018 .0241428
1021.607 .0241317
1022.195 .0241212
1022.784 .0241114
1023.372 .0241021
1023.960 .0240935
1024.547 .0240856
1025.135 .0240783
1025.722 .0240715
1026.309 .0240652
1026.896 .0240593
1027.483 .0240537
1028.069 .0240485
1028.655 .0240437
1029.241 .0240391
1029.827 .0240348
1030.412 .0240307
1030.997 .0240269
1031.582 .0240232
1032.167 .0240198
1032.752 .0240165
1033.336 .0240132
1033.921 .0240100
1034.505 .0240066
1035.089 .0240032
1035.672 .0239997
1036.256 .0239961
1036.839 .0239924
1037.422 .0239887
1038.005 .0239850
1038.588 .0239813
1039.171 .0239776
1039.753 .0239740
1040.335 .0239704
1040.918 .0239669
1041.500 .0239635
1042.081 .0239601
1042.663 .0239568
1043.244 .0239538
1043.826 .0239509
1044.407 .0239482
1044.988 .0239459
1045.569 .0239439
1046.150 .0239421
1046.730 .0239407
1047.311 .0239396
1047.891 .0239388
1048.471 .0239383
1049.052 .0239382
1049.632 .0239383
1050.211 .0239388
1050.791 .0239397
1051.371 .0239408
1051.950 .0239423
1052.530 .0239440
1053.109 .0239461
1053.688 .0239485
1054.268 .0239513
1054.847 .0239546
1055.426 .0239583
1056.005 .0239626
1056.583 .0239674
1057.162 .0239728
1057.741 .0239786
1058.319 .0239849
1058.898 .0239916
1059.476 .0239986
1060.055 .0240058
1060.633 .0240133
1061.211 .0240210
1061.790 .0240288
1062.368 .0240369
1062.946 .0240450
1063.524 .0240532
1064.102 .0240614
1064.680 .0240695
1065.258 .0240774
1065.836 .0240852
1066.414 .0240929
1066.992 .0241006
1067.570 .0241084
1068.148 .0241165
1068.726 .0241250
1069.304 .0241341
1069.882 .0241437
1070.460 .0241539
1071.038 .0241645
1071.616 .0241756
1072.194 .0241869
1072.772 .0241984
1073.350 .0242102
1073.928 .0242222
1074.506 .0242344
1075.084 .0242469
1075.662 .0242598
1076.240 .0242731
1076.819 .0242870
1077.397 .0243015
1077.976 .0243165
1078.554 .0243321
1079.133 .0243483
1079.711 .0243651
1080.290 .0243826
1080.869 .0244008
1081.448 .0244198
1082.027 .0244397
1082.606 .0244604
1083.185 .0244820
1083.764 .0245045
1084.343 .0245279
1084.923 .0245519
1085.502 .0245766
1086.082 .0246018
1086.662 .0246273
1087.242 .0246530
1087.822 .0246789
1088.402 .0247049
1088.983 .0247310
1089.563 .0247575
1090.144 .0247842
1090.725 .0248114
1091.306 .0248392
1091.887 .0248675
1092.469 .0248965
1093.050 .0249261
1093.632 .0249563
1094.214 .0249871
1094.796 .0250186
1095.379 .0250506
1095.961 .0250833
1096.544 .0251167
1097.127 .0251507
1097.710 .0251855
1098.294 .0252209
1098.877 .0252569
1099.461 .0252933
1100.046 .0253300
1100.630 .0253669
1101.215 .0254038
1101.800 .0254406
1102.385 .0254773
1102.970 .0255141
1103.556 .0255509
1104.142 .0255880
1104.728 .0256254
1105.315 .0256633
1105.902 .0257016
1106.489 .0257402
1107.077 .0257791
1107.664 .0258182
1108.253 .0258573
1108.841 .0258966
1109.430 .0259361
1110.019 .0259759
1110.609 .0260163
1111.198 .0260574
1111.789 .0260993
1112.379 .0261422
1112.970 .0261859
1113.561 .0262302
1114.153 .0262750
1114.745 .0263202
1115.338 .0263657
1115.931 .0264114
1116.524 .0264575
1117.117 .0265043
1117.712 .0265520
1118.306 .0266012
1118.901 .0266519
1119.496 .0267044
1120.092 .0267584
1120.689 .0268137
1121.285 .0268702
1121.882 .0269274
1122.480 .0269852
1123.078 .0270436
1123.677 .0271030
1124.276 .0271636
1124.875 .0272261
1125.476 .0272907
1126.076 .0273578
1126.677 .0274275
1127.279 .0274993
1127.881 .0275728
1128.484 .0276476
1129.087 .0276810
1129.691 .0277570
1130.295 .0278338
1130.900 .0279120
1131.505 .0279919
1132.111 .0280739
1132.718 .0281583
1133.325 .0282459
1133.933 .0283360
1134.541 .0284344
1135.150 .0285273
1135.760 .0286207
1136.370 .0287273
1136.981 .0288184
1137.592 .0289102
1138.204 .0289998
1138.817 .0290982
1139.431 .0292073
1140.045 .0293222
1140.660 .0294434
1141.275 .0295806
1141.891 .0297037
1142.508 .0299944
1143.126 .0299062
1143.744 .0299932
1144.363 .0304437
1144.983 .0299718
