Measurement Sequence started on: 15-12-46-377
Integration time: 28
Scans to Average: 2 
>>>>>Begin Spectral Data<<<<<
432.689 .0000100
433.621 .0000100
434.552 .0000100
435.482 .0000100
436.410 .0000100
437.337 .0000100
438.262 .0280630
439.187 .0593287
440.110 .0981831
441.031 .1420887
441.952 .1144091
442.871 .1195517
443.789 .1243386
444.705 .1288439
445.621 .1331183
446.535 .1372017
447.447 .1396473
448.359 .1403099
449.269 .1388107
450.178 .1348996
451.086 .1286529
451.993 .1205566
452.898 .1114130
453.803 .1021316
454.706 .0934874
455.608 .0859616
456.508 .0797181
457.408 .0754824
458.306 .0722129
459.204 .0695429
460.100 .0672932
460.995 .0653608
461.888 .0636735
462.781 .0621827
463.673 .0608507
464.563 .0596500
465.452 .0585594
466.340 .0575608
467.228 .0566416
468.114 .0557935
468.999 .0550094
469.882 .0542846
470.765 .0536158
471.647 .0530000
472.528 .0524349
473.407 .0519175
474.286 .0514452
475.163 .0510154
476.040 .0506259
476.915 .0502750
477.790 .0499606
478.663 .0496815
479.535 .0494363
480.407 .0492233
481.277 .0490406
482.147 .0488859
483.015 .0487566
483.883 .0486508
484.749 .0485661
485.615 .0485011
486.479 .0484545
487.343 .0484262
488.206 .0484160
489.067 .0484240
489.928 .0484509
490.788 .0484971
491.647 .0485633
492.505 .0486504
493.362 .0487586
494.218 .0488890
495.073 .0490421
495.928 .0493608
496.781 .0495756
497.634 .0498156
498.486 .0500818
499.337 .0503767
500.187 .0507025
501.036 .0510610
501.884 .0514555
502.731 .0518894
503.578 .0523654
504.424 .0526918
505.268 .0532446
506.113 .0538498
506.956 .0545118
507.798 .0552370
508.640 .0560322
509.480 .0569080
510.320 .0578774
511.160 .0589543
511.998 .0601539
512.836 .0614952
513.672 .0629954
514.508 .0646749
515.344 .0665555
516.178 .0686560
517.012 .0709960
517.845 .0735942
518.677 .0764650
519.508 .0796220
520.339 .0830704
521.169 .0868092
521.998 .0908117
522.826 .0950448
523.654 .0994538
524.481 .1039667
525.307 .1085073
526.133 .1129868
526.958 .1173104
527.782 .1213871
528.605 .1251300
529.428 .1284668
530.250 .1313339
531.072 .1336901
531.892 .1354987
532.712 .1367376
533.532 .1373966
534.350 .1374697
535.168 .1369602
535.986 .1358799
536.802 .1342372
537.618 .1320474
538.434 .1293298
539.249 .1261276
540.063 .1224913
540.876 .1184881
541.689 .1141994
542.501 .1097084
543.313 .1051043
544.124 .1004778
544.934 .0959114
545.744 .0914828
546.553 .0872535
547.361 .0832731
548.169 .0795700
548.976 .0761658
549.783 .0730648
550.589 .0702612
551.395 .0677420
552.200 .0654848
553.004 .0634618
553.808 .0616459
554.611 .0600125
555.414 .0585378
556.216 .0571995
557.018 .0559759
557.819 .0548499
558.619 .0538066
559.419 .0528329
560.218 .0519210
561.017 .0510641
561.815 .0502572
562.613 .0494954
563.410 .0487724
564.207 .0480829
565.003 .0474212
565.799 .0467816
566.594 .0461590
567.388 .0455500
568.182 .0449524
568.976 .0443651
569.769 .0437885
570.562 .0432246
571.354 .0426755
572.145 .0421437
572.936 .0416309
573.727 .0411377
574.517 .0406643
575.307 .0402105
576.096 .0397753
576.885 .0393582
577.673 .0389584
578.461 .0385753
579.248 .0382087
580.035 .0378593
580.821 .0375275
581.607 .0372137
582.392 .0369187
583.177 .0366427
583.962 .0363852
584.746 .0361454
585.529 .0359225
586.313 .0357155
587.095 .0355230
587.878 .0353437
588.660 .0351764
589.441 .0350202
590.222 .0348747
591.003 .0347393
591.783 .0346136
592.563 .0344972
593.342 .0343899
594.121 .0342911
594.899 .0342003
595.678 .0341169
596.455 .0340401
597.233 .0339691
598.009 .0339033
598.786 .0338420
599.562 .0337847
600.338 .0337310
601.113 .0336804
601.888 .0336151
602.663 .0335711
603.437 .0335296
604.211 .0334905
604.984 .0334537
605.757 .0334189
606.530 .0333861
607.302 .0333550
608.074 .0333253
608.845 .0332968
609.616 .0332694
610.387 .0332578
611.158 .0332317
611.928 .0332065
612.697 .0331822
613.467 .0331587
614.236 .0331361
615.004 .0331143
615.773 .0330932
616.541 .0330727
617.308 .0330527
618.076 .0330331
618.843 .0330137
619.609 .0329944
620.375 .0329752
621.141 .0329558
621.907 .0329363
622.672 .0329163
623.437 .0328958
624.202 .0328746
624.966 .0328526
625.730 .0328296
626.493 .0328055
627.257 .0327802
628.020 .0327538
628.782 .0327261
629.545 .0326971
630.307 .0326668
631.068 .0326351
631.830 .0326020
632.591 .0325676
633.352 .0325319
634.112 .0324950
634.872 .0324571
635.632 .0324184
636.392 .0323791
637.151 .0323393
637.910 .0322993
638.668 .0322593
639.427 .0322193
640.185 .0321796
640.943 .0321402
641.700 .0321014
642.457 .0320632
643.214 .0320258
643.971 .0319891
644.727 .0319533
645.483 .0319183
646.239 .0318840
646.994 .0318503
647.750 .0318170
648.505 .0317842
649.259 .0317516
650.014 .0317193
650.768 .0316872
651.521 .0316553
652.275 .0316235
653.028 .0315919
653.781 .0315604
654.534 .0315289
655.286 .0314975
656.039 .0314659
656.791 .0314342
657.542 .0314024
658.294 .0313704
659.045 .0313384
659.796 .0313063
660.546 .0312744
661.297 .0312427
662.047 .0312114
662.796 .0311807
663.546 .0311507
664.295 .0311215
665.044 .0310933
665.793 .0310660
666.542 .0310399
667.290 .0310149
668.038 .0309911
668.786 .0309684
669.533 .0309468
670.281 .0309262
671.028 .0309065
671.774 .0308879
672.521 .0308702
673.267 .0308534
674.013 .0308375
674.759 .0308224
675.505 .0308080
676.250 .0307943
676.995 .0307811
677.740 .0307684
678.484 .0307561
679.229 .0307440
679.973 .0307322
680.717 .0307206
681.460 .0307092
682.204 .0306980
682.947 .0306870
683.690 .0306762
684.433 .0306654
685.175 .0306547
685.917 .0306440
686.659 .0306332
687.401 .0306224
688.142 .0306115
688.884 .0306005
689.625 .0305893
690.365 .0305779
691.106 .0305664
691.846 .0305546
692.586 .0305426
693.326 .0305303
694.066 .0305178
694.805 .0305049
695.545 .0304919
696.284 .0304786
697.022 .0304651
697.761 .0304514
698.499 .0304374
699.237 .0304233
699.975 .0304091
700.713 .0303947
701.450 .0303800
702.187 .0303652
702.924 .0303501
703.661 .0303348
704.397 .0303192
705.133 .0303032
705.869 .0302869
706.605 .0302703
707.341 .0302534
708.076 .0302361
708.811 .0302186
709.546 .0302008
710.281 .0301826
711.015 .0301640
711.749 .0301450
712.483 .0301255
713.217 .0301055
713.950 .0300849
714.684 .0300638
715.417 .0300420
716.150 .0300196
716.882 .0299966
717.615 .0299729
718.347 .0299486
719.079 .0299237
719.811 .0298983
720.542 .0298725
721.273 .0298463
722.005 .0298197
722.735 .0297927
723.466 .0297655
724.196 .0297380
724.927 .0297102
725.656 .0296823
726.386 .0296543
727.116 .0296263
727.845 .0295985
728.574 .0295708
729.303 .0295435
730.031 .0295166
730.760 .0294900
731.488 .0294637
732.216 .0294378
732.944 .0294123
733.671 .0293871
734.398 .0293622
735.125 .0293377
735.852 .0293136
736.579 .0292899
737.305 .0292667
738.031 .0292439
738.757 .0292215
739.483 .0291996
740.208 .0291782
740.933 .0291571
741.658 .0291364
742.383 .0291159
743.108 .0290956
743.832 .0290753
744.556 .0290552
745.280 .0290351
746.004 .0290150
746.727 .0289949
747.450 .0289749
748.173 .0289549
748.896 .0289351
749.618 .0289155
750.340 .0288959
751.062 .0288765
751.784 .0288572
752.506 .0288379
753.227 .0288186
753.948 .0287993
754.669 .0287802
755.389 .0287611
756.110 .0287423
756.830 .0287238
757.550 .0287056
758.269 .0286877
758.989 .0286703
759.708 .0286533
760.427 .0286368
761.146 .0286206
761.864 .0286049
762.582 .0285896
763.300 .0285748
764.018 .0285606
764.736 .0285468
765.453 .0285337
766.170 .0285212
766.887 .0285094
767.603 .0284984
768.320 .0284882
769.036 .0284789
769.751 .0284705
770.467 .0284630
771.182 .0284564
771.897 .0284508
772.612 .0284462
773.327 .0284425
774.041 .0284397
774.755 .0284377
775.469 .0284366
776.183 .0284362
776.896 .0284365
777.609 .0284376
778.322 .0284393
779.035 .0284417
779.747 .0284445
780.459 .0284479
781.171 .0284516
781.882 .0284557
782.594 .0284600
783.305 .0284645
784.016 .0284691
784.726 .0284738
785.436 .0284784
786.147 .0284845
786.856 .0284886
787.566 .0284924
788.275 .0284959
788.984 .0284990
789.693 .0285017
790.401 .0285040
791.110 .0285057
791.818 .0285069
792.525 .0285076
793.233 .0285077
793.940 .0285073
794.647 .0285055
795.353 .0285043
796.060 .0285024
796.766 .0285001
797.472 .0284972
798.177 .0284938
798.883 .0284898
799.588 .0284853
800.292 .0284803
800.997 .0284748
801.701 .0284688
802.405 .0284624
803.109 .0284556
803.812 .0284485
804.515 .0284408
805.218 .0284327
805.921 .0284241
806.623 .0284150
807.325 .0284054
808.027 .0283952
808.728 .0283846
809.429 .0283736
810.130 .0283620
810.831 .0283501
811.531 .0283379
812.231 .0283252
812.931 .0283121
813.630 .0282986
814.330 .0282846
815.029 .0282704
815.727 .0282558
816.426 .0282409
817.124 .0282257
817.821 .0282104
818.519 .0281949
819.216 .0281792
819.913 .0281634
820.609 .0281476
821.306 .0281317
822.002 .0281159
822.697 .0281003
823.393 .0280849
824.088 .0280697
824.783 .0280549
825.477 .0280404
826.171 .0280261
826.865 .0280121
827.559 .0279983
828.252 .0279848
828.945 .0279714
829.638 .0279583
830.330 .0279454
831.023 .0279327
831.714 .0279200
832.406 .0279073
833.097 .0278945
833.788 .0278815
834.479 .0278682
835.169 .0278547
835.859 .0278408
836.548 .0278266
837.238 .0278121
837.927 .0277971
838.615 .0277817
839.304 .0277657
839.992 .0277490
840.680 .0277316
841.367 .0277135
842.054 .0276947
842.741 .0276751
843.428 .0276550
844.114 .0276342
844.800 .0276129
845.485 .0275911
846.170 .0275688
846.855 .0275460
847.540 .0275226
848.224 .0274988
848.908 .0274745
849.592 .0274498
850.275 .0274247
850.958 .0273993
851.641 .0273735
852.323 .0273475
853.005 .0273212
853.687 .0272946
854.368 .0272678
855.049 .0272408
855.730 .0272137
856.410 .0271864
857.090 .0271591
857.769 .0271319
858.449 .0271046
859.128 .0270775
859.806 .0270504
860.485 .0270234
861.163 .0269965
861.840 .0269698
862.518 .0269434
863.195 .0269173
863.871 .0268915
864.548 .0268663
865.224 .0268416
865.899 .0268175
866.574 .0267940
867.249 .0267712
867.924 .0267491
868.598 .0267277
869.272 .0267072
869.946 .0266876
870.619 .0266687
871.292 .0266508
871.964 .0266337
872.636 .0266175
873.308 .0266021
873.979 .0265877
874.651 .0265742
875.321 .0265616
875.992 .0265499
876.662 .0265392
877.331 .0265293
878.001 .0265204
878.670 .0265122
879.338 .0265048
880.007 .0264981
880.675 .0264921
881.342 .0264867
882.009 .0264820
882.676 .0264779
883.343 .0264744
884.009 .0264715
884.675 .0264693
885.340 .0264677
886.005 .0264666
886.670 .0264661
887.334 .0264661
887.998 .0264667
888.662 .0264679
889.325 .0264695
889.988 .0264717
890.650 .0264744
891.312 .0264774
891.974 .0264809
892.636 .0264848
893.297 .0264889
893.957 .0264934
894.618 .0264981
895.278 .0265030
895.937 .0265080
896.596 .0265131
897.255 .0265182
897.914 .0265230
898.572 .0265277
899.230 .0265320
899.887 .0265359
900.544 .0265392
901.201 .0265420
901.857 .0265432
902.513 .0265442
903.168 .0265445
903.823 .0265442
904.478 .0265433
905.132 .0265418
905.786 .0265397
906.440 .0265372
907.093 .0265342
907.746 .0265308
908.399 .0265271
909.051 .0265231
909.703 .0265188
910.354 .0265163
911.005 .0265120
911.656 .0265077
912.306 .0265034
912.956 .0264991
913.605 .0264948
914.254 .0264907
914.903 .0264866
915.551 .0264827
916.199 .0264789
916.847 .0264752
917.494 .0264715
918.141 .0264680
918.788 .0264646
919.434 .0264612
920.079 .0264578
920.725 .0264544
921.370 .0264509
922.014 .0264472
922.658 .0264432
923.302 .0264389
923.946 .0264342
924.589 .0264291
925.231 .0264238
925.873 .0264181
926.515 .0264122
927.157 .0264060
927.798 .0263996
928.439 .0263929
929.079 .0263861
929.719 .0263791
930.359 .0263720
930.998 .0263648
931.637 .0263577
932.275 .0263508
932.913 .0263443
933.551 .0263382
934.188 .0263327
934.825 .0263279
935.462 .0263237
936.098 .0263201
936.733 .0263171
937.369 .0263147
938.004 .0263128
938.638 .0263115
939.273 .0263108
939.907 .0263107
940.540 .0263112
941.173 .0263123
941.806 .0263139
942.438 .0263159
943.070 .0263182
943.702 .0263207
944.333 .0263232
944.964 .0263256
945.594 .0263279
946.224 .0263300
946.854 .0263319
947.483 .0263335
948.112 .0263350
948.741 .0263361
949.369 .0263369
949.996 .0263372
950.624 .0263370
951.251 .0263360
951.878 .0263344
952.504 .0263321
953.130 .0263290
953.755 .0263253
954.380 .0263210
955.005 .0263162
955.629 .0263108
956.253 .0263049
956.877 .0262985
957.500 .0262915
958.123 .0262838
958.746 .0262756
959.368 .0262668
959.990 .0262576
960.611 .0262479
961.232 .0262380
961.853 .0262278
962.473 .0262174
963.093 .0262066
963.712 .0261956
964.331 .0261841
964.950 .0261721
965.569 .0261596
966.187 .0261464
966.804 .0261327
967.422 .0261184
968.039 .0261035
968.655 .0260881
969.272 .0260721
969.887 .0260555
970.503 .0260384
971.118 .0260206
971.733 .0260024
972.347 .0259836
972.961 .0259643
973.575 .0259445
974.188 .0259242
974.801 .0259035
975.414 .0258825
976.026 .0258611
976.638 .0258393
977.250 .0258171
977.861 .0257945
978.472 .0257715
979.083 .0257481
979.693 .0257242
980.303 .0256998
980.912 .0256617
981.521 .0256362
982.130 .0256103
982.738 .0255840
983.346 .0255576
983.954 .0255310
984.562 .0255044
985.169 .0254778
985.775 .0254513
986.382 .0254249
986.988 .0253986
987.594 .0253725
988.199 .0253467
988.804 .0253211
989.409 .0253090
990.013 .0252840
990.617 .0252594
991.221 .0252350
991.824 .0252110
992.427 .0251873
993.030 .0251638
993.632 .0251403
994.234 .0251170
994.836 .0250938
995.438 .0250708
996.039 .0250479
996.640 .0250254
997.240 .0250032
997.840 .0249816
998.440 .0249604
999.040 .0249399
999.639 .0249198
1000.238 .0249003
1000.836 .0248813
1001.435 .0248628
1002.033 .0248446
1002.630 .0248270
1003.228 .0248099
1003.825 .0247933
1004.422 .0247772
1005.018 .0247617
1005.614 .0247466
1006.210 .0247319
1006.806 .0247174
1007.401 .0247032
1007.996 .0246891
1008.591 .0246752
1009.186 .0246615
1009.780 .0246479
1010.374 .0246346
1010.967 .0246216
1011.561 .0246090
1012.154 .0245968
1012.746 .0245850
1013.339 .0245736
1013.931 .0245626
1014.523 .0245520
1015.115 .0245419
1015.706 .0245322
1016.298 .0245230
1016.888 .0245142
1017.479 .0245058
1018.069 .0244979
1018.660 .0244905
1019.250 .0244835
1019.839 .0244769
1020.429 .0244707
1021.018 .0244648
1021.607 .0244592
1022.195 .0244539
1022.784 .0244490
1023.372 .0244444
1023.960 .0244402
1024.547 .0244363
1025.135 .0244328
1025.722 .0244298
1026.309 .0244273
1026.896 .0244254
1027.483 .0244240
1028.069 .0244231
1028.655 .0244228
1029.241 .0244230
1029.827 .0244238
1030.412 .0244250
1030.997 .0244268
1031.582 .0244291
1032.167 .0244318
1032.752 .0244350
1033.336 .0244386
1033.921 .0244426
1034.505 .0244469
1035.089 .0244514
1035.672 .0244561
1036.256 .0244609
1036.839 .0244657
1037.422 .0244703
1038.005 .0244748
1038.588 .0244792
1039.171 .0244833
1039.753 .0244874
1040.335 .0244914
1040.918 .0244953
1041.500 .0244992
1042.081 .0245031
1042.663 .0245070
1043.244 .0245109
1043.826 .0245147
1044.407 .0245184
1044.988 .0245222
1045.569 .0245261
1046.150 .0245299
1046.730 .0245337
1047.311 .0245376
1047.891 .0245414
1048.471 .0245452
1049.052 .0245488
1049.632 .0245523
1050.211 .0245556
1050.791 .0245588
1051.371 .0245619
1051.950 .0245649
1052.530 .0245680
1053.109 .0245712
1053.688 .0245745
1054.268 .0245780
1054.847 .0245818
1055.426 .0245859
1056.005 .0245904
1056.583 .0245952
1057.162 .0246005
1057.741 .0246062
1058.319 .0246124
1058.898 .0246190
1059.476 .0246261
1060.055 .0246335
1060.633 .0246412
1061.211 .0246491
1061.790 .0246573
1062.368 .0246657
1062.946 .0246744
1063.524 .0246834
1064.102 .0246927
1064.680 .0247024
1065.258 .0247123
1065.836 .0247225
1066.414 .0247331
1066.992 .0247440
1067.570 .0247553
1068.148 .0247668
1068.726 .0247787
1069.304 .0247909
1069.882 .0248034
1070.460 .0248163
1071.038 .0248296
1071.616 .0248431
1072.194 .0248568
1072.772 .0248705
1073.350 .0248841
1073.928 .0248975
1074.506 .0249107
1075.084 .0249236
1075.662 .0249362
1076.240 .0249488
1076.819 .0249616
1077.397 .0249746
1077.976 .0249880
1078.554 .0250019
1079.133 .0250162
1079.711 .0250309
1080.290 .0250459
1080.869 .0250612
1081.448 .0250766
1082.027 .0250923
1082.606 .0251082
1083.185 .0251246
1083.764 .0251413
1084.343 .0251586
1084.923 .0251767
1085.502 .0251954
1086.082 .0252148
1086.662 .0252350
1087.242 .0252559
1087.822 .0252775
1088.402 .0252999
1088.983 .0253230
1089.563 .0253471
1090.144 .0253722
1090.725 .0253987
1091.306 .0254265
1091.887 .0254558
1092.469 .0254865
1093.050 .0255187
1093.632 .0255523
1094.214 .0255871
1094.796 .0256229
1095.379 .0256596
1095.961 .0256971
1096.544 .0257352
1097.127 .0257739
1097.710 .0258131
1098.294 .0258529
1098.877 .0258932
1099.461 .0259340
1100.046 .0259751
1100.630 .0260167
1101.215 .0260586
1101.800 .0261004
1102.385 .0261421
1102.970 .0261834
1103.556 .0262241
1104.142 .0262641
1104.728 .0263033
1105.315 .0263418
1105.902 .0263799
1106.489 .0264179
1107.077 .0264559
1107.664 .0264943
1108.253 .0265333
1108.841 .0265728
1109.430 .0266129
1110.019 .0266533
1110.609 .0266939
1111.198 .0267347
1111.789 .0267756
1112.379 .0268168
1112.970 .0268584
1113.561 .0269007
1114.153 .0269440
1114.745 .0269884
1115.338 .0270338
1115.931 .0270800
1116.524 .0271268
1117.117 .0271739
1117.712 .0272213
1118.306 .0272687
1118.901 .0273166
1119.496 .0273654
1120.092 .0274157
1120.689 .0274679
1121.285 .0275223
1121.882 .0275792
1122.480 .0276385
1123.078 .0276998
1123.677 .0277629
1124.276 .0278271
1124.875 .0278922
1125.476 .0279581
1126.076 .0280248
1126.677 .0280925
1127.279 .0281616
1127.881 .0282325
1128.484 .0283052
1129.087 .0283379
1129.691 .0284132
1130.295 .0284902
1130.900 .0285691
1131.505 .0286499
1132.111 .0287331
1132.718 .0288192
1133.325 .0289092
1133.933 .0290041
1134.541 .0291069
1135.150 .0292110
1135.760 .0293258
1136.370 .0294488
1136.981 .0294437
1137.592 .0295570
1138.204 .0296684
1138.817 .0297809
1139.431 .0299065
1140.045 .0300411
1140.660 .0301921
1141.275 .0303621
1141.891 .0305547
1142.508 .0308223
1143.126 .0309056
1143.744 .0312481
1144.363 .0315255
1144.983 .0317759
