Measurement Sequence started on: 15-12-46-377
Integration time: 28
Scans to Average: 2 
>>>>>Begin Spectral Data<<<<<
432.689 .0000100
433.621 .0000100
434.552 .0000100
435.482 .0000100
436.410 .0000100
437.337 .0000100
438.262 .0291948
439.187 .0617806
440.110 .1023080
441.031 .1479679
441.952 .1182796
442.871 .1234984
443.789 .1283529
444.705 .1329185
445.621 .1372471
446.535 .1413778
447.447 .1438054
448.359 .1443751
449.269 .1426890
450.178 .1384919
451.086 .1318689
451.993 .1233296
452.898 .1137163
453.803 .1039806
454.706 .0949316
455.608 .0870707
456.508 .0805640
457.408 .0761604
458.306 .0727721
459.204 .0700114
460.100 .0676837
460.995 .0656816
461.888 .0639328
462.781 .0623878
463.673 .0610093
464.563 .0597692
465.452 .0586455
466.340 .0576206
467.228 .0566821
468.114 .0558206
468.999 .0550296
469.882 .0543026
470.765 .0536343
471.647 .0530207
472.528 .0524581
473.407 .0519429
474.286 .0514717
475.163 .0510424
476.040 .0506525
476.915 .0503001
477.790 .0499830
478.663 .0496999
479.535 .0494496
480.407 .0492314
481.277 .0490432
482.147 .0488827
483.015 .0487472
483.883 .0486340
484.749 .0485401
485.615 .0484639
486.479 .0484039
487.343 .0483594
488.206 .0483305
489.067 .0483174
489.928 .0483203
490.788 .0483400
491.647 .0483759
492.505 .0484280
493.362 .0484960
494.218 .0485795
495.073 .0486782
495.928 .0488879
496.781 .0490347
497.634 .0492037
498.486 .0493974
499.337 .0496187
500.187 .0498708
501.036 .0501560
501.884 .0504769
502.731 .0508372
503.578 .0512402
504.424 .0515357
505.268 .0520173
506.113 .0525537
506.956 .0531503
507.798 .0538137
508.640 .0545522
509.480 .0553748
510.320 .0562920
511.160 .0573147
511.998 .0584554
512.836 .0597293
513.672 .0611513
514.508 .0627407
515.344 .0645183
516.178 .0665059
517.012 .0687257
517.845 .0712018
518.677 .0739556
519.508 .0770042
520.339 .0803531
521.169 .0840029
521.998 .0879268
522.826 .0920876
523.654 .0964285
524.481 .1008798
525.307 .1053655
526.133 .1097981
526.958 .1140873
527.782 .1181486
528.605 .1219018
529.428 .1252799
530.250 .1282201
531.072 .1306832
531.892 .1326309
532.712 .1340388
533.532 .1348943
534.350 .1351905
535.168 .1349279
535.986 .1341097
536.802 .1327404
537.618 .1308332
538.434 .1284022
539.249 .1254871
540.063 .1221357
540.876 .1184123
541.689 .1143921
542.501 .1101537
543.313 .1057838
544.124 .1013712
544.934 .0969963
545.744 .0927334
546.553 .0886421
547.361 .0847733
548.169 .0811539
548.976 .0778061
549.783 .0747352
550.589 .0719338
551.395 .0693868
552.200 .0670705
553.004 .0649605
553.808 .0630343
554.611 .0612708
555.414 .0596522
556.216 .0581624
557.018 .0567865
557.819 .0555110
558.619 .0543248
559.419 .0532187
560.218 .0521857
561.017 .0512181
561.815 .0503105
562.613 .0494577
563.410 .0486546
564.207 .0478968
565.003 .0471799
565.799 .0464987
566.594 .0458490
567.388 .0452275
568.182 .0446314
568.976 .0440576
569.769 .0435045
570.562 .0429706
571.354 .0424552
572.145 .0419582
572.936 .0414793
573.727 .0410178
574.517 .0405739
575.307 .0401477
576.096 .0397384
576.885 .0393458
577.673 .0389702
578.461 .0386108
579.248 .0382675
580.035 .0379402
580.821 .0376286
581.607 .0373324
582.392 .0370521
583.177 .0367873
583.962 .0365380
584.746 .0363044
585.529 .0360862
586.313 .0358828
587.095 .0356938
587.878 .0355184
588.660 .0353555
589.441 .0352046
590.222 .0350647
591.003 .0349351
591.783 .0348149
592.563 .0347037
593.342 .0346005
594.121 .0345049
594.899 .0344160
595.678 .0343330
596.455 .0342552
597.233 .0341818
598.009 .0341122
598.786 .0340459
599.562 .0339825
600.338 .0339217
601.113 .0338631
601.888 .0337818
602.663 .0337278
603.437 .0336755
604.211 .0336247
604.984 .0335753
605.757 .0335272
606.530 .0334801
607.302 .0334340
608.074 .0333886
608.845 .0333442
609.616 .0333005
610.387 .0332808
611.158 .0332385
611.928 .0331972
612.697 .0331567
613.467 .0331173
614.236 .0330786
615.004 .0330406
615.773 .0330033
616.541 .0329666
617.308 .0329303
618.076 .0328944
618.843 .0328592
619.609 .0328245
620.375 .0327904
621.141 .0327569
621.907 .0327241
622.672 .0326918
623.437 .0326600
624.202 .0326285
624.966 .0325973
625.730 .0325663
626.493 .0325355
627.257 .0325048
628.020 .0324743
628.782 .0324441
629.545 .0324141
630.307 .0323845
631.068 .0323552
631.830 .0323263
632.591 .0322978
633.352 .0322698
634.112 .0322422
634.872 .0322150
635.632 .0321882
636.392 .0321618
637.151 .0321357
637.910 .0321100
638.668 .0320846
639.427 .0320597
640.185 .0320352
640.943 .0320113
641.700 .0319879
642.457 .0319652
643.214 .0319430
643.971 .0319214
644.727 .0319004
645.483 .0318799
646.239 .0318599
646.994 .0318402
647.750 .0318209
648.505 .0318019
649.259 .0317833
650.014 .0317649
650.768 .0317467
651.521 .0317288
652.275 .0317109
653.028 .0316930
653.781 .0316751
654.534 .0316569
655.286 .0316382
656.039 .0316189
656.791 .0315989
657.542 .0315781
658.294 .0315566
659.045 .0315343
659.796 .0315114
660.546 .0314878
661.297 .0314636
662.047 .0314389
662.796 .0314137
663.546 .0313879
664.295 .0313616
665.044 .0313348
665.793 .0313074
666.542 .0312797
667.290 .0312515
668.038 .0312231
668.786 .0311944
669.533 .0311656
670.281 .0311367
671.028 .0311078
671.774 .0310790
672.521 .0310503
673.267 .0310219
674.013 .0309937
674.759 .0309659
675.505 .0309384
676.250 .0309112
676.995 .0308843
677.740 .0308577
678.484 .0308315
679.229 .0308055
679.973 .0307799
680.717 .0307546
681.460 .0307297
682.204 .0307051
682.947 .0306810
683.690 .0306571
684.433 .0306335
685.175 .0306100
685.917 .0305866
686.659 .0305631
687.401 .0305396
688.142 .0305159
688.884 .0304921
689.625 .0304683
690.365 .0304445
691.106 .0304207
691.846 .0303969
692.586 .0303733
693.326 .0303498
694.066 .0303265
694.805 .0303035
695.545 .0302806
696.284 .0302581
697.022 .0302360
697.761 .0302142
698.499 .0301928
699.237 .0301719
699.975 .0301515
700.713 .0301317
701.450 .0301127
702.187 .0300945
702.924 .0300772
703.661 .0300609
704.397 .0300456
705.133 .0300314
705.869 .0300182
706.605 .0300059
707.341 .0299945
708.076 .0299839
708.811 .0299739
709.546 .0299644
710.281 .0299555
711.015 .0299470
711.749 .0299387
712.483 .0299307
713.217 .0299227
713.950 .0299146
714.684 .0299063
715.417 .0298977
716.150 .0298886
716.882 .0298790
717.615 .0298688
718.347 .0298580
719.079 .0298466
719.811 .0298344
720.542 .0298216
721.273 .0298080
722.005 .0297938
722.735 .0297790
723.466 .0297636
724.196 .0297478
724.927 .0297317
725.656 .0297155
726.386 .0296993
727.116 .0296831
727.845 .0296671
728.574 .0296513
729.303 .0296357
730.031 .0296202
730.760 .0296049
731.488 .0295898
732.216 .0295748
732.944 .0295599
733.671 .0295452
734.398 .0295308
735.125 .0295166
735.852 .0295026
736.579 .0294888
737.305 .0294752
738.031 .0294619
738.757 .0294486
739.483 .0294354
740.208 .0294221
740.933 .0294087
741.658 .0293951
742.383 .0293813
743.108 .0293672
743.832 .0293527
744.556 .0293380
745.280 .0293230
746.004 .0293076
746.727 .0292919
747.450 .0292760
748.173 .0292598
748.896 .0292432
749.618 .0292264
750.340 .0292091
751.062 .0291914
751.784 .0291732
752.506 .0291545
753.227 .0291353
753.948 .0291158
754.669 .0290957
755.389 .0290754
756.110 .0290547
756.830 .0290338
757.550 .0290127
758.269 .0289915
758.989 .0289701
759.708 .0289485
760.427 .0289268
761.146 .0289048
761.864 .0288826
762.582 .0288601
763.300 .0288375
764.018 .0288147
764.736 .0287917
765.453 .0287687
766.170 .0287458
766.887 .0287230
767.603 .0287004
768.320 .0286781
769.036 .0286561
769.751 .0286345
770.467 .0286133
771.182 .0285926
771.897 .0285726
772.612 .0285531
773.327 .0285343
774.041 .0285163
774.755 .0284991
775.469 .0284827
776.183 .0284671
776.896 .0284525
777.609 .0284389
778.322 .0284263
779.035 .0284146
779.747 .0284040
780.459 .0283944
781.171 .0283858
781.882 .0283781
782.594 .0283711
783.305 .0283649
784.016 .0283593
784.726 .0283541
785.436 .0283494
786.147 .0283434
786.856 .0283392
787.566 .0283353
788.275 .0283315
788.984 .0283279
789.693 .0283242
790.401 .0283205
791.110 .0283167
791.818 .0283127
792.525 .0283086
793.233 .0283042
793.940 .0282996
794.647 .0282967
795.353 .0282919
796.060 .0282870
796.766 .0282819
797.472 .0282765
798.177 .0282710
798.883 .0282654
799.588 .0282598
800.292 .0282541
800.997 .0282485
801.701 .0282429
802.405 .0282373
803.109 .0282318
803.812 .0282262
804.515 .0282207
805.218 .0282150
805.921 .0282094
806.623 .0282037
807.325 .0281981
808.027 .0281924
808.728 .0281869
809.429 .0281813
810.130 .0281757
810.831 .0281701
811.531 .0281644
812.231 .0281586
812.931 .0281528
813.630 .0281469
814.330 .0281410
815.029 .0281352
815.727 .0281295
816.426 .0281240
817.124 .0281186
817.821 .0281134
818.519 .0281084
819.216 .0281037
819.913 .0280992
820.609 .0280949
821.306 .0280910
822.002 .0280874
822.697 .0280841
823.393 .0280811
824.088 .0280784
824.783 .0280760
825.477 .0280738
826.171 .0280718
826.865 .0280700
827.559 .0280684
828.252 .0280669
828.945 .0280655
829.638 .0280641
830.330 .0280628
831.023 .0280613
831.714 .0280596
832.406 .0280577
833.097 .0280555
833.788 .0280528
834.479 .0280496
835.169 .0280458
835.859 .0280415
836.548 .0280365
837.238 .0280308
837.927 .0280244
838.615 .0280172
839.304 .0280091
839.992 .0280001
840.680 .0279902
841.367 .0279795
842.054 .0279678
842.741 .0279554
843.428 .0279421
844.114 .0279280
844.800 .0279130
845.485 .0278973
846.170 .0278808
846.855 .0278634
847.540 .0278452
848.224 .0278262
848.908 .0278062
849.592 .0277855
850.275 .0277639
850.958 .0277414
851.641 .0277182
852.323 .0276941
853.005 .0276692
853.687 .0276436
854.368 .0276173
855.049 .0275903
855.730 .0275627
856.410 .0275347
857.090 .0275062
857.769 .0274773
858.449 .0274481
859.128 .0274186
859.806 .0273890
860.485 .0273591
861.163 .0273292
861.840 .0272992
862.518 .0272693
863.195 .0272395
863.871 .0272099
864.548 .0271805
865.224 .0271515
865.899 .0271228
866.574 .0270946
867.249 .0270669
867.924 .0270399
868.598 .0270135
869.272 .0269880
869.946 .0269632
870.619 .0269392
871.292 .0269160
871.964 .0268936
872.636 .0268720
873.308 .0268513
873.979 .0268314
874.651 .0268124
875.321 .0267942
875.992 .0267769
876.662 .0267604
877.331 .0267447
878.001 .0267297
878.670 .0267153
879.338 .0267015
880.007 .0266883
880.675 .0266758
881.342 .0266639
882.009 .0266526
882.676 .0266421
883.343 .0266323
884.009 .0266232
884.675 .0266147
885.340 .0266070
886.005 .0265998
886.670 .0265933
887.334 .0265875
887.998 .0265824
888.662 .0265780
889.325 .0265743
889.988 .0265713
890.650 .0265689
891.312 .0265672
891.974 .0265659
892.636 .0265652
893.297 .0265648
893.957 .0265648
894.618 .0265651
895.278 .0265656
895.937 .0265664
896.596 .0265674
897.255 .0265685
897.914 .0265696
898.572 .0265707
899.230 .0265716
899.887 .0265721
900.544 .0265723
901.201 .0265720
901.857 .0265689
902.513 .0265670
903.168 .0265646
903.823 .0265618
904.478 .0265584
905.132 .0265546
905.786 .0265503
906.440 .0265455
907.093 .0265404
907.746 .0265348
908.399 .0265290
909.051 .0265229
909.703 .0265166
910.354 .0265133
911.005 .0265073
911.656 .0265014
912.306 .0264956
912.956 .0264899
913.605 .0264844
914.254 .0264790
914.903 .0264738
915.551 .0264687
916.199 .0264637
916.847 .0264589
917.494 .0264543
918.141 .0264500
918.788 .0264459
919.434 .0264420
920.079 .0264382
920.725 .0264346
921.370 .0264309
922.014 .0264272
922.658 .0264235
923.302 .0264196
923.946 .0264156
924.589 .0264115
925.231 .0264072
925.873 .0264029
926.515 .0263985
927.157 .0263939
927.798 .0263891
928.439 .0263842
929.079 .0263791
929.719 .0263739
930.359 .0263686
930.998 .0263633
931.637 .0263580
932.275 .0263530
932.913 .0263481
933.551 .0263436
934.188 .0263395
934.825 .0263359
935.462 .0263327
936.098 .0263301
936.733 .0263280
937.369 .0263265
938.004 .0263257
938.638 .0263255
939.273 .0263259
939.907 .0263269
940.540 .0263284
941.173 .0263303
941.806 .0263326
942.438 .0263352
943.070 .0263380
943.702 .0263409
944.333 .0263438
944.964 .0263468
945.594 .0263497
946.224 .0263525
946.854 .0263551
947.483 .0263573
948.112 .0263592
948.741 .0263605
949.369 .0263614
949.996 .0263616
950.624 .0263612
951.251 .0263602
951.878 .0263585
952.504 .0263560
953.130 .0263529
953.755 .0263490
954.380 .0263442
955.005 .0263385
955.629 .0263320
956.253 .0263245
956.877 .0263162
957.500 .0263070
958.123 .0262970
958.746 .0262862
959.368 .0262749
959.990 .0262629
960.611 .0262503
961.232 .0262371
961.853 .0262234
962.473 .0262091
963.093 .0261943
963.712 .0261790
964.331 .0261633
964.950 .0261473
965.569 .0261310
966.187 .0261144
966.804 .0260976
967.422 .0260805
968.039 .0260632
968.655 .0260455
969.272 .0260276
969.887 .0260093
970.503 .0259908
971.118 .0259721
971.733 .0259533
972.347 .0259342
972.961 .0259150
973.575 .0258956
974.188 .0258761
974.801 .0258564
975.414 .0258364
976.026 .0258163
976.638 .0257958
977.250 .0257751
977.861 .0257541
978.472 .0257328
979.083 .0257111
979.693 .0256891
980.303 .0256667
980.912 .0256313
981.521 .0256081
982.130 .0255847
982.738 .0255611
983.346 .0255374
983.954 .0255134
984.562 .0254894
985.169 .0254652
985.775 .0254408
986.382 .0254164
986.988 .0253919
987.594 .0253675
988.199 .0253432
988.804 .0253191
989.409 .0253079
990.013 .0252844
990.617 .0252611
991.221 .0252381
991.824 .0252154
992.427 .0251928
993.030 .0251704
993.632 .0251482
994.234 .0251263
994.836 .0251047
995.438 .0250834
996.039 .0250625
996.640 .0250421
997.240 .0250222
997.840 .0250029
998.440 .0249841
999.040 .0249659
999.639 .0249481
1000.238 .0249308
1000.836 .0249139
1001.435 .0248976
1002.033 .0248817
1002.630 .0248663
1003.228 .0248514
1003.825 .0248370
1004.422 .0248230
1005.018 .0248094
1005.614 .0247961
1006.210 .0247830
1006.806 .0247702
1007.401 .0247575
1007.996 .0247450
1008.591 .0247328
1009.186 .0247208
1009.780 .0247092
1010.374 .0246979
1010.967 .0246871
1011.561 .0246766
1012.154 .0246667
1012.746 .0246572
1013.339 .0246482
1013.931 .0246398
1014.523 .0246320
1015.115 .0246247
1015.706 .0246180
1016.298 .0246120
1016.888 .0246066
1017.479 .0246019
1018.069 .0245977
1018.660 .0245942
1019.250 .0245912
1019.839 .0245888
1020.429 .0245869
1021.018 .0245854
1021.607 .0245845
1022.195 .0245840
1022.784 .0245840
1023.372 .0245846
1023.960 .0245857
1024.547 .0245875
1025.135 .0245900
1025.722 .0245931
1026.309 .0245969
1026.896 .0246012
1027.483 .0246062
1028.069 .0246117
1028.655 .0246177
1029.241 .0246242
1029.827 .0246312
1030.412 .0246385
1030.997 .0246462
1031.582 .0246543
1032.167 .0246626
1032.752 .0246711
1033.336 .0246797
1033.921 .0246882
1034.505 .0246968
1035.089 .0247053
1035.672 .0247137
1036.256 .0247222
1036.839 .0247308
1037.422 .0247394
1038.005 .0247482
1038.588 .0247572
1039.171 .0247663
1039.753 .0247755
1040.335 .0247847
1040.918 .0247940
1041.500 .0248033
1042.081 .0248127
1042.663 .0248222
1043.244 .0248318
1043.826 .0248417
1044.407 .0248517
1044.988 .0248619
1045.569 .0248722
1046.150 .0248824
1046.730 .0248925
1047.311 .0249023
1047.891 .0249118
1048.471 .0249210
1049.052 .0249300
1049.632 .0249389
1050.211 .0249477
1050.791 .0249566
1051.371 .0249655
1051.950 .0249746
1052.530 .0249837
1053.109 .0249929
1053.688 .0250020
1054.268 .0250112
1054.847 .0250206
1055.426 .0250303
1056.005 .0250404
1056.583 .0250512
1057.162 .0250628
1057.741 .0250752
1058.319 .0250883
1058.898 .0251020
1059.476 .0251161
1060.055 .0251305
1060.633 .0251449
1061.211 .0251595
1061.790 .0251740
1062.368 .0251888
1062.946 .0252038
1063.524 .0252192
1064.102 .0252351
1064.680 .0252515
1065.258 .0252681
1065.836 .0252850
1066.414 .0253020
1066.992 .0253189
1067.570 .0253357
1068.148 .0253525
1068.726 .0253694
1069.304 .0253864
1069.882 .0254038
1070.460 .0254216
1071.038 .0254399
1071.616 .0254585
1072.194 .0254772
1072.772 .0254959
1073.350 .0255142
1073.928 .0255321
1074.506 .0255494
1075.084 .0255662
1075.662 .0255826
1076.240 .0255987
1076.819 .0256148
1077.397 .0256310
1077.976 .0256475
1078.554 .0256645
1079.133 .0256818
1079.711 .0256996
1080.290 .0257178
1080.869 .0257362
1081.448 .0257549
1082.027 .0257739
1082.606 .0257933
1083.185 .0258133
1083.764 .0258338
1084.343 .0258551
1084.923 .0258771
1085.502 .0259001
1086.082 .0259239
1086.662 .0259484
1087.242 .0259735
1087.822 .0259992
1088.402 .0260252
1088.983 .0260516
1089.563 .0260783
1090.144 .0261056
1090.725 .0261333
1091.306 .0261616
1091.887 .0261904
1092.469 .0262198
1093.050 .0262496
1093.632 .0262797
1094.214 .0263102
1094.796 .0263408
1095.379 .0263714
1095.961 .0264021
1096.544 .0264328
1097.127 .0264633
1097.710 .0264937
1098.294 .0265240
1098.877 .0265540
1099.461 .0265838
1100.046 .0266134
1100.630 .0266431
1101.215 .0266728
1101.800 .0267024
1102.385 .0267320
1102.970 .0267616
1103.556 .0267910
1104.142 .0268201
1104.728 .0268487
1105.315 .0268768
1105.902 .0269043
1106.489 .0269314
1107.077 .0269581
1107.664 .0269847
1108.253 .0270114
1108.841 .0270384
1109.430 .0270658
1110.019 .0270938
1110.609 .0271221
1111.198 .0271509
1111.789 .0271801
1112.379 .0272096
1112.970 .0272393
1113.561 .0272695
1114.153 .0273002
1114.745 .0273319
1115.338 .0273648
1115.931 .0273993
1116.524 .0274356
1117.117 .0274737
1117.712 .0275135
1118.306 .0275548
1118.901 .0275975
1119.496 .0276414
1120.092 .0276863
1120.689 .0277323
1121.285 .0277795
1121.882 .0278283
1122.480 .0278792
1123.078 .0279324
1123.677 .0279884
1124.276 .0280473
1124.875 .0281091
1125.476 .0281737
1126.076 .0282409
1126.677 .0283101
1127.279 .0283812
1127.881 .0284540
1128.484 .0285282
1129.087 .0285602
1129.691 .0286372
1130.295 .0287157
1130.900 .0287961
1131.505 .0288784
1132.111 .0289624
1132.718 .0290476
1133.325 .0291337
1133.933 .0292202
1134.541 .0293123
1135.150 .0293988
1135.760 .0294757
1136.370 .0295611
1136.981 .0297441
1137.592 .0298223
1138.204 .0299056
1138.817 .0299924
1139.431 .0300887
1140.045 .0301843
1140.660 .0302722
1141.275 .0303602
1141.891 .0304379
1142.508 .0306699
1143.126 .0305842
1143.744 .0303918
1144.363 .0307031
1144.983 .0306771
