Measurement Sequence started on: 15-12-46-377
Integration time: 28
Scans to Average: 2 
>>>>>Begin Spectral Data<<<<<
432.689 .0000100
433.621 .0000100
434.552 .0000100
435.482 .0000100
436.410 .0000100
437.337 .0000100
438.262 .0268470
439.187 .0569190
440.110 .0943365
441.031 .1365161
441.952 .1094600
442.871 .1143224
443.789 .1188539
444.705 .1231241
445.621 .1271814
446.535 .1310613
447.447 .1333767
448.359 .1339771
449.269 .1324932
450.178 .1286882
451.086 .1226380
451.993 .1148112
452.898 .1059841
453.803 .0970373
454.706 .0887210
455.608 .0814993
456.508 .0755279
457.408 .0714960
458.306 .0684038
459.204 .0658902
460.100 .0637712
460.995 .0619457
461.888 .0603470
462.781 .0589299
463.673 .0576622
464.563 .0565209
465.452 .0554895
466.340 .0545534
467.228 .0537012
468.114 .0529236
468.999 .0522121
469.882 .0515589
470.765 .0509579
471.647 .0504037
472.528 .0498935
473.407 .0494244
474.286 .0489952
475.163 .0486054
476.040 .0482542
476.915 .0479402
477.790 .0476619
478.663 .0474174
479.535 .0472045
480.407 .0470203
481.277 .0468629
482.147 .0467294
483.015 .0466182
483.883 .0465272
484.749 .0464556
485.615 .0464027
486.479 .0463685
487.343 .0463529
488.206 .0463560
489.067 .0463780
489.928 .0464183
490.788 .0464769
491.647 .0465538
492.505 .0466484
493.362 .0467609
494.218 .0468909
495.073 .0470384
495.928 .0473226
496.781 .0475123
497.634 .0477185
498.486 .0479416
499.337 .0481827
500.187 .0484433
501.036 .0487260
501.884 .0490343
502.731 .0493721
503.578 .0497436
504.424 .0499981
505.268 .0504374
506.113 .0509230
506.956 .0514597
507.798 .0520539
508.640 .0527133
509.480 .0534482
510.320 .0542708
511.160 .0551945
511.998 .0562353
512.836 .0574123
513.672 .0587441
514.508 .0602502
515.344 .0619507
516.178 .0638620
517.012 .0660034
517.845 .0683927
518.677 .0710449
519.508 .0739707
520.339 .0771766
521.169 .0806639
521.998 .0844100
522.826 .0883778
523.654 .0925136
524.481 .0967525
525.307 .1010191
526.133 .1052249
526.958 .1092812
527.782 .1131041
528.605 .1166195
529.428 .1197590
530.250 .1224635
531.072 .1246925
531.892 .1264123
532.712 .1275992
533.532 .1282407
534.350 .1283321
535.168 .1278772
535.986 .1268843
536.802 .1253661
537.618 .1233360
538.434 .1208127
539.249 .1178353
540.063 .1144564
540.876 .1107399
541.689 .1067569
542.501 .1025854
543.313 .0983118
544.124 .0940207
544.934 .0897895
545.744 .0856821
546.553 .0817563
547.361 .0780579
548.169 .0746138
548.976 .0714427
549.783 .0685525
550.589 .0659415
551.395 .0635957
552.200 .0614932
553.004 .0596088
553.808 .0579155
554.611 .0563896
555.414 .0550069
556.216 .0537470
557.018 .0525899
557.819 .0515213
558.619 .0505297
559.419 .0496071
560.218 .0487474
561.017 .0479441
561.815 .0471909
562.613 .0464839
563.410 .0458170
564.207 .0451843
565.003 .0445803
565.799 .0440000
566.594 .0434388
567.388 .0428948
568.182 .0423661
568.976 .0418515
569.769 .0413508
570.562 .0408646
571.354 .0403927
572.145 .0399359
572.936 .0394942
573.727 .0390671
574.517 .0386546
575.307 .0382570
576.096 .0378733
576.885 .0375037
577.673 .0371485
578.461 .0368083
579.248 .0364835
580.035 .0361747
580.821 .0358823
581.607 .0356069
582.392 .0353488
583.177 .0351081
583.962 .0348843
584.746 .0346771
585.529 .0344859
586.313 .0343098
587.095 .0341478
587.878 .0339989
588.660 .0338620
589.441 .0337362
590.222 .0336202
591.003 .0335133
591.783 .0334144
592.563 .0333227
593.342 .0332370
594.121 .0331565
594.899 .0330804
595.678 .0330081
596.455 .0329389
597.233 .0328726
598.009 .0328087
598.786 .0327470
599.562 .0326873
600.338 .0326295
601.113 .0325734
601.888 .0324948
602.663 .0324430
603.437 .0323929
604.211 .0323442
604.984 .0322971
605.757 .0322516
606.530 .0322077
607.302 .0321656
608.074 .0321253
608.845 .0320869
609.616 .0320506
610.387 .0320374
611.158 .0320042
611.928 .0319729
612.697 .0319435
613.467 .0319158
614.236 .0318897
615.004 .0318649
615.773 .0318413
616.541 .0318186
617.308 .0317968
618.076 .0317755
618.843 .0317548
619.609 .0317344
620.375 .0317143
621.141 .0316943
621.907 .0316743
622.672 .0316541
623.437 .0316335
624.202 .0316124
624.966 .0315906
625.730 .0315679
626.493 .0315444
627.257 .0315199
628.020 .0314944
628.782 .0314680
629.545 .0314406
630.307 .0314123
631.068 .0313833
631.830 .0313535
632.591 .0313232
633.352 .0312924
634.112 .0312613
634.872 .0312299
635.632 .0311984
636.392 .0311668
637.151 .0311350
637.910 .0311032
638.668 .0310713
639.427 .0310395
640.185 .0310077
640.943 .0309761
641.700 .0309448
642.457 .0309139
643.214 .0308836
643.971 .0308540
644.727 .0308251
645.483 .0307969
646.239 .0307694
646.994 .0307424
647.750 .0307160
648.505 .0306901
649.259 .0306646
650.014 .0306394
650.768 .0306146
651.521 .0305900
652.275 .0305657
653.028 .0305417
653.781 .0305181
654.534 .0304948
655.286 .0304720
656.039 .0304496
656.791 .0304277
657.542 .0304062
658.294 .0303852
659.045 .0303646
659.796 .0303443
660.546 .0303243
661.297 .0303046
662.047 .0302850
662.796 .0302658
663.546 .0302468
664.295 .0302282
665.044 .0302101
665.793 .0301924
666.542 .0301752
667.290 .0301587
668.038 .0301427
668.786 .0301273
669.533 .0301123
670.281 .0300978
671.028 .0300836
671.774 .0300696
672.521 .0300558
673.267 .0300421
674.013 .0300285
674.759 .0300150
675.505 .0300016
676.250 .0299883
676.995 .0299751
677.740 .0299620
678.484 .0299490
679.229 .0299359
679.973 .0299227
680.717 .0299093
681.460 .0298956
682.204 .0298815
682.947 .0298671
683.690 .0298522
684.433 .0298369
685.175 .0298211
685.917 .0298049
686.659 .0297882
687.401 .0297711
688.142 .0297535
688.884 .0297354
689.625 .0297169
690.365 .0296979
691.106 .0296785
691.846 .0296587
692.586 .0296385
693.326 .0296179
694.066 .0295969
694.805 .0295755
695.545 .0295537
696.284 .0295315
697.022 .0295090
697.761 .0294861
698.499 .0294630
699.237 .0294395
699.975 .0294159
700.713 .0293922
701.450 .0293683
702.187 .0293442
702.924 .0293200
703.661 .0292957
704.397 .0292712
705.133 .0292466
705.869 .0292219
706.605 .0291972
707.341 .0291723
708.076 .0291474
708.811 .0291225
709.546 .0290975
710.281 .0290726
711.015 .0290476
711.749 .0290226
712.483 .0289977
713.217 .0289730
713.950 .0289485
714.684 .0289242
715.417 .0289004
716.150 .0288769
716.882 .0288538
717.615 .0288311
718.347 .0288087
719.079 .0287868
719.811 .0287653
720.542 .0287442
721.273 .0287237
722.005 .0287038
722.735 .0286846
723.466 .0286661
724.196 .0286484
724.927 .0286315
725.656 .0286153
726.386 .0285998
727.116 .0285850
727.845 .0285709
728.574 .0285575
729.303 .0285449
730.031 .0285329
730.760 .0285217
731.488 .0285112
732.216 .0285013
732.944 .0284920
733.671 .0284833
734.398 .0284751
735.125 .0284674
735.852 .0284602
736.579 .0284535
737.305 .0284471
738.031 .0284410
738.757 .0284353
739.483 .0284297
740.208 .0284242
740.933 .0284189
741.658 .0284137
742.383 .0284087
743.108 .0284038
743.832 .0283993
744.556 .0283949
745.280 .0283907
746.004 .0283866
746.727 .0283825
747.450 .0283784
748.173 .0283741
748.896 .0283695
749.618 .0283648
750.340 .0283598
751.062 .0283546
751.784 .0283492
752.506 .0283438
753.227 .0283381
753.948 .0283322
754.669 .0283261
755.389 .0283197
756.110 .0283130
756.830 .0283059
757.550 .0282985
758.269 .0282907
758.989 .0282826
759.708 .0282741
760.427 .0282651
761.146 .0282558
761.864 .0282460
762.582 .0282358
763.300 .0282250
764.018 .0282137
764.736 .0282019
765.453 .0281896
766.170 .0281769
766.887 .0281636
767.603 .0281499
768.320 .0281356
769.036 .0281209
769.751 .0281058
770.467 .0280903
771.182 .0280745
771.897 .0280585
772.612 .0280422
773.327 .0280258
774.041 .0280093
774.755 .0279927
775.469 .0279760
776.183 .0279593
776.896 .0279425
777.609 .0279257
778.322 .0279088
779.035 .0278919
779.747 .0278750
780.459 .0278582
781.171 .0278414
781.882 .0278247
782.594 .0278081
783.305 .0277916
784.016 .0277752
784.726 .0277589
785.436 .0277425
786.147 .0277176
786.856 .0277007
787.566 .0276835
788.275 .0276660
788.984 .0276481
789.693 .0276300
790.401 .0276114
791.110 .0275925
791.818 .0275733
792.525 .0275538
793.233 .0275338
793.940 .0275136
794.647 .0275024
795.353 .0274819
796.060 .0274611
796.766 .0274402
797.472 .0274192
798.177 .0273982
798.883 .0273773
799.588 .0273564
800.292 .0273357
800.997 .0273152
801.701 .0272949
802.405 .0272750
803.109 .0272554
803.812 .0272362
804.515 .0272173
805.218 .0271989
805.921 .0271809
806.623 .0271632
807.325 .0271460
808.027 .0271290
808.728 .0271125
809.429 .0270963
810.130 .0270806
810.831 .0270653
811.531 .0270505
812.231 .0270363
812.931 .0270228
813.630 .0270099
814.330 .0269976
815.029 .0269859
815.727 .0269749
816.426 .0269644
817.124 .0269546
817.821 .0269453
818.519 .0269366
819.216 .0269286
819.913 .0269212
820.609 .0269146
821.306 .0269088
822.002 .0269039
822.697 .0268999
823.393 .0268968
824.088 .0268947
824.783 .0268934
825.477 .0268931
826.171 .0268936
826.865 .0268950
827.559 .0268971
828.252 .0269000
828.945 .0269037
829.638 .0269080
830.330 .0269131
831.023 .0269188
831.714 .0269251
832.406 .0269318
833.097 .0269390
833.788 .0269465
834.479 .0269543
835.169 .0269623
835.859 .0269705
836.548 .0269787
837.238 .0269869
837.927 .0269951
838.615 .0270032
839.304 .0270110
839.992 .0270186
840.680 .0270259
841.367 .0270328
842.054 .0270393
842.741 .0270453
843.428 .0270508
844.114 .0270558
844.800 .0270602
845.485 .0270640
846.170 .0270670
846.855 .0270693
847.540 .0270707
848.224 .0270713
848.908 .0270709
849.592 .0270697
850.275 .0270676
850.958 .0270647
851.641 .0270609
852.323 .0270564
853.005 .0270512
853.687 .0270452
854.368 .0270386
855.049 .0270313
855.730 .0270233
856.410 .0270148
857.090 .0270058
857.769 .0269963
858.449 .0269863
859.128 .0269759
859.806 .0269650
860.485 .0269537
861.163 .0269420
861.840 .0269299
862.518 .0269173
863.195 .0269043
863.871 .0268908
864.548 .0268769
865.224 .0268626
865.899 .0268478
866.574 .0268325
867.249 .0268169
867.924 .0268009
868.598 .0267846
869.272 .0267679
869.946 .0267509
870.619 .0267335
871.292 .0267158
871.964 .0266977
872.636 .0266793
873.308 .0266606
873.979 .0266416
874.651 .0266224
875.321 .0266031
875.992 .0265836
876.662 .0265641
877.331 .0265446
878.001 .0265250
878.670 .0265055
879.338 .0264860
880.007 .0264666
880.675 .0264472
881.342 .0264279
882.009 .0264087
882.676 .0263897
883.343 .0263710
884.009 .0263525
884.675 .0263343
885.340 .0263164
886.005 .0262988
886.670 .0262815
887.334 .0262645
887.998 .0262479
888.662 .0262314
889.325 .0262152
889.988 .0261991
890.650 .0261832
891.312 .0261674
891.974 .0261516
892.636 .0261358
893.297 .0261201
893.957 .0261044
894.618 .0260886
895.278 .0260728
895.937 .0260570
896.596 .0260409
897.255 .0260247
897.914 .0260081
898.572 .0259911
899.230 .0259737
899.887 .0259558
900.544 .0259373
901.201 .0259183
901.857 .0258870
902.513 .0258664
903.168 .0258453
903.823 .0258236
904.478 .0258013
905.132 .0257783
905.786 .0257548
906.440 .0257306
907.093 .0257059
907.746 .0256808
908.399 .0256553
909.051 .0256295
909.703 .0256036
910.354 .0255904
911.005 .0255648
911.656 .0255393
912.306 .0255139
912.956 .0254888
913.605 .0254641
914.254 .0254397
914.903 .0254159
915.551 .0253928
916.199 .0253703
916.847 .0253486
917.494 .0253276
918.141 .0253074
918.788 .0252880
919.434 .0252691
920.079 .0252508
920.725 .0252330
921.370 .0252158
922.014 .0251990
922.658 .0251827
923.302 .0251670
923.946 .0251519
924.589 .0251373
925.231 .0251233
925.873 .0251099
926.515 .0250969
927.157 .0250844
927.798 .0250723
928.439 .0250607
929.079 .0250494
929.719 .0250387
930.359 .0250286
930.998 .0250191
931.637 .0250103
932.275 .0250022
932.913 .0249949
933.551 .0249883
934.188 .0249824
934.825 .0249772
935.462 .0249728
936.098 .0249691
936.733 .0249661
937.369 .0249639
938.004 .0249626
938.638 .0249621
939.273 .0249625
939.907 .0249640
940.540 .0249664
941.173 .0249697
941.806 .0249740
942.438 .0249792
943.070 .0249853
943.702 .0249922
944.333 .0250000
944.964 .0250085
945.594 .0250178
946.224 .0250277
946.854 .0250381
947.483 .0250490
948.112 .0250603
948.741 .0250718
949.369 .0250835
949.996 .0250951
950.624 .0251068
951.251 .0251184
951.878 .0251299
952.504 .0251414
953.130 .0251527
953.755 .0251639
954.380 .0251751
955.005 .0251862
955.629 .0251973
956.253 .0252082
956.877 .0252191
957.500 .0252298
958.123 .0252405
958.746 .0252509
959.368 .0252613
959.990 .0252716
960.611 .0252818
961.232 .0252918
961.853 .0253017
962.473 .0253113
963.093 .0253208
963.712 .0253299
964.331 .0253387
964.950 .0253472
965.569 .0253554
966.187 .0253633
966.804 .0253709
967.422 .0253783
968.039 .0253854
968.655 .0253921
969.272 .0253985
969.887 .0254045
970.503 .0254100
971.118 .0254151
971.733 .0254197
972.347 .0254238
972.961 .0254273
973.575 .0254304
974.188 .0254329
974.801 .0254349
975.414 .0254363
976.026 .0254369
976.638 .0254369
977.250 .0254360
977.861 .0254343
978.472 .0254318
979.083 .0254286
979.693 .0254246
980.303 .0254199
980.912 .0254100
981.521 .0254037
982.130 .0253968
982.738 .0253892
983.346 .0253809
983.954 .0253721
984.562 .0253627
985.169 .0253528
985.775 .0253427
986.382 .0253322
986.988 .0253216
987.594 .0253109
988.199 .0253001
988.804 .0252892
989.409 .0252837
990.013 .0252729
990.617 .0252620
991.221 .0252512
991.824 .0252404
992.427 .0252295
993.030 .0252187
993.632 .0252078
994.234 .0251969
994.836 .0251858
995.438 .0251746
996.039 .0251631
996.640 .0251516
997.240 .0251397
997.840 .0251277
998.440 .0251154
999.040 .0251029
999.639 .0250901
1000.238 .0250770
1000.836 .0250637
1001.435 .0250501
1002.033 .0250364
1002.630 .0250224
1003.228 .0250082
1003.825 .0249939
1004.422 .0249795
1005.018 .0249651
1005.614 .0249507
1006.210 .0249362
1006.806 .0249216
1007.401 .0249069
1007.996 .0248921
1008.591 .0248773
1009.186 .0248625
1009.780 .0248477
1010.374 .0248329
1010.967 .0248184
1011.561 .0248040
1012.154 .0247899
1012.746 .0247760
1013.339 .0247623
1013.931 .0247489
1014.523 .0247356
1015.115 .0247225
1015.706 .0247096
1016.298 .0246969
1016.888 .0246846
1017.479 .0246726
1018.069 .0246610
1018.660 .0246497
1019.250 .0246386
1019.839 .0246278
1020.429 .0246172
1021.018 .0246067
1021.607 .0245962
1022.195 .0245859
1022.784 .0245756
1023.372 .0245654
1023.960 .0245554
1024.547 .0245456
1025.135 .0245359
1025.722 .0245264
1026.309 .0245169
1026.896 .0245074
1027.483 .0244979
1028.069 .0244883
1028.655 .0244785
1029.241 .0244687
1029.827 .0244589
1030.412 .0244490
1030.997 .0244393
1031.582 .0244297
1032.167 .0244202
1032.752 .0244109
1033.336 .0244017
1033.921 .0243927
1034.505 .0243836
1035.089 .0243746
1035.672 .0243655
1036.256 .0243564
1036.839 .0243472
1037.422 .0243380
1038.005 .0243287
1038.588 .0243193
1039.171 .0243098
1039.753 .0243001
1040.335 .0242902
1040.918 .0242800
1041.500 .0242696
1042.081 .0242590
1042.663 .0242482
1043.244 .0242374
1043.826 .0242265
1044.407 .0242157
1044.988 .0242051
1045.569 .0241947
1046.150 .0241845
1046.730 .0241747
1047.311 .0241652
1047.891 .0241560
1048.471 .0241473
1049.052 .0241389
1049.632 .0241311
1050.211 .0241236
1050.791 .0241166
1051.371 .0241100
1051.950 .0241039
1052.530 .0240983
1053.109 .0240932
1053.688 .0240884
1054.268 .0240841
1054.847 .0240804
1055.426 .0240771
1056.005 .0240743
1056.583 .0240719
1057.162 .0240699
1057.741 .0240682
1058.319 .0240668
1058.898 .0240655
1059.476 .0240645
1060.055 .0240637
1060.633 .0240629
1061.211 .0240622
1061.790 .0240616
1062.368 .0240611
1062.946 .0240606
1063.524 .0240602
1064.102 .0240598
1064.680 .0240594
1065.258 .0240591
1065.836 .0240590
1066.414 .0240591
1066.992 .0240596
1067.570 .0240606
1068.148 .0240622
1068.726 .0240645
1069.304 .0240674
1069.882 .0240710
1070.460 .0240753
1071.038 .0240800
1071.616 .0240849
1072.194 .0240899
1072.772 .0240949
1073.350 .0240999
1073.928 .0241049
1074.506 .0241100
1075.084 .0241153
1075.662 .0241210
1076.240 .0241271
1076.819 .0241337
1077.397 .0241408
1077.976 .0241486
1078.554 .0241570
1079.133 .0241660
1079.711 .0241758
1080.290 .0241865
1080.869 .0241981
1081.448 .0242108
1082.027 .0242246
1082.606 .0242396
1083.185 .0242556
1083.764 .0242727
1084.343 .0242907
1084.923 .0243096
1085.502 .0243291
1086.082 .0243493
1086.662 .0243701
1087.242 .0243913
1087.822 .0244132
1088.402 .0244357
1088.983 .0244587
1089.563 .0244824
1090.144 .0245069
1090.725 .0245321
1091.306 .0245581
1091.887 .0245850
1092.469 .0246125
1093.050 .0246408
1093.632 .0246696
1094.214 .0246988
1094.796 .0247284
1095.379 .0247581
1095.961 .0247880
1096.544 .0248179
1097.127 .0248480
1097.710 .0248782
1098.294 .0249085
1098.877 .0249392
1099.461 .0249702
1100.046 .0250016
1100.630 .0250334
1101.215 .0250657
1101.800 .0250983
1102.385 .0251312
1102.970 .0251645
1103.556 .0251982
1104.142 .0252325
1104.728 .0252674
1105.315 .0253030
1105.902 .0253395
1106.489 .0253769
1107.077 .0254153
1107.664 .0254546
1108.253 .0254949
1108.841 .0255358
1109.430 .0255774
1110.019 .0256195
1110.609 .0256622
1111.198 .0257055
1111.789 .0257495
1112.379 .0257944
1112.970 .0258401
1113.561 .0258868
1114.153 .0259345
1114.745 .0259830
1115.338 .0260323
1115.931 .0260820
1116.524 .0261320
1117.117 .0261820
1117.712 .0262320
1118.306 .0262824
1118.901 .0263335
1119.496 .0263856
1120.092 .0264395
1120.689 .0264954
1121.285 .0265538
1121.882 .0266149
1122.480 .0266790
1123.078 .0267462
1123.677 .0268165
1124.276 .0268894
1124.875 .0269649
1125.476 .0270430
1126.076 .0271239
1126.677 .0272077
1127.279 .0272949
1127.881 .0273854
1128.484 .0274794
1129.087 .0275178
1129.691 .0276170
1130.295 .0277192
1130.900 .0278242
1131.505 .0279316
1132.111 .0280411
1132.718 .0281526
1133.325 .0282663
1133.933 .0283820
1134.541 .0285002
1135.150 .0286219
1135.760 .0287495
1136.370 .0288760
1136.981 .0290835
1137.592 .0292252
1138.204 .0293589
1138.817 .0294854
1139.431 .0296079
1140.045 .0297238
1140.660 .0298399
1141.275 .0299568
1141.891 .0300733
1142.508 .0301964
1143.126 .0303531
1143.744 .0305849
1144.363 .0306244
1144.983 .0305689
