Measurement Sequence started on: 15-12-46-377
Integration time: 28
Scans to Average: 2 
>>>>>Begin Spectral Data<<<<<
432.689 .0000100
433.621 .0000100
434.552 .0000100
435.482 .0000100
436.410 .0000100
437.337 .0000100
438.262 .0287582
439.187 .0610113
440.110 .1010642
441.031 .1462804
441.952 .1173288
442.871 .1225366
443.789 .1273801
444.705 .1319327
445.621 .1362452
446.535 .1403557
447.447 .1427802
448.359 .1433589
449.269 .1417003
450.178 .1375492
451.086 .1309886
451.993 .1225204
452.898 .1129773
453.803 .1033028
454.706 .0942996
455.608 .0864680
456.508 .0799764
457.408 .0755648
458.306 .0721674
459.204 .0693973
460.100 .0670636
460.995 .0650588
461.888 .0633121
462.781 .0617753
463.673 .0604134
464.563 .0592005
465.452 .0581157
466.340 .0571426
467.228 .0562673
468.114 .0554784
468.999 .0547662
469.882 .0541213
470.765 .0535347
471.647 .0529994
472.528 .0525094
473.407 .0520597
474.286 .0516478
475.163 .0512727
476.040 .0509328
476.915 .0506284
477.790 .0503583
478.663 .0501209
479.535 .0499141
480.407 .0497352
481.277 .0495805
482.147 .0494468
483.015 .0493316
483.883 .0492333
484.749 .0491512
485.615 .0490863
486.479 .0490398
487.343 .0490128
488.206 .0490067
489.067 .0490213
489.928 .0490568
490.788 .0491123
491.647 .0491863
492.505 .0492775
493.362 .0493851
494.218 .0495089
495.073 .0496485
495.928 .0499204
496.781 .0501020
497.634 .0503013
498.486 .0505185
499.337 .0507549
500.187 .0510123
501.036 .0512921
501.884 .0515960
502.731 .0519268
503.578 .0522875
504.424 .0525299
505.268 .0529513
506.113 .0534165
506.956 .0539312
507.798 .0545036
508.640 .0551453
509.480 .0558691
510.320 .0566887
511.160 .0576193
511.998 .0586773
512.836 .0598810
513.672 .0612497
514.508 .0628044
515.344 .0645683
516.178 .0665669
517.012 .0688270
517.845 .0713727
518.677 .0742268
519.508 .0774064
520.339 .0809204
521.169 .0847695
521.998 .0889234
522.826 .0933414
523.654 .0979621
524.481 .1027123
525.307 .1075088
526.133 .1122576
526.958 .1168625
527.782 .1212309
528.605 .1252770
529.428 .1289236
530.250 .1321020
531.072 .1347658
531.892 .1368735
532.712 .1383978
533.532 .1393200
534.350 .1396294
535.168 .1393273
535.986 .1384197
536.802 .1369149
537.618 .1348259
538.434 .1321714
539.249 .1289987
540.063 .1253646
540.876 .1213401
541.689 .1170075
542.501 .1124537
543.313 .1077719
544.124 .1030536
544.934 .0983840
545.744 .0938393
546.553 .0894859
547.361 .0853783
548.169 .0815479
548.976 .0780199
549.783 .0748022
550.589 .0718910
551.395 .0692715
552.200 .0669187
553.004 .0648027
553.808 .0628963
554.611 .0611743
555.414 .0596132
556.216 .0581915
557.018 .0568880
557.819 .0556862
558.619 .0545715
559.419 .0535324
560.218 .0525590
561.017 .0516433
561.815 .0507791
562.613 .0499608
563.410 .0491828
564.207 .0484407
565.003 .0477299
565.799 .0470463
566.594 .0463860
567.388 .0457462
568.182 .0451251
568.976 .0445216
569.769 .0439352
570.562 .0433660
571.354 .0428145
572.145 .0422818
572.936 .0417684
573.727 .0412748
574.517 .0408015
575.307 .0403485
576.096 .0399148
576.885 .0395005
577.673 .0391051
578.461 .0387286
579.248 .0383710
580.035 .0380325
580.821 .0377130
581.607 .0374126
582.392 .0371311
583.177 .0368682
583.962 .0366233
584.746 .0363958
585.529 .0361844
586.313 .0359881
587.095 .0358058
587.878 .0356363
588.660 .0354786
589.441 .0353318
590.222 .0351953
591.003 .0350684
591.783 .0349504
592.563 .0348406
593.342 .0347384
594.121 .0346431
594.899 .0345539
595.678 .0344701
596.455 .0343908
597.233 .0343156
598.009 .0342438
598.786 .0341751
599.562 .0341090
600.338 .0340456
601.113 .0339845
601.888 .0339016
602.663 .0338468
603.437 .0337943
604.211 .0337443
604.984 .0336966
605.757 .0336510
606.530 .0336074
607.302 .0335658
608.074 .0335259
608.845 .0334878
609.616 .0334514
610.387 .0334376
611.158 .0334038
611.928 .0333717
612.697 .0333412
613.467 .0333125
614.236 .0332853
615.004 .0332594
615.773 .0332348
616.541 .0332112
617.308 .0331883
618.076 .0331661
618.843 .0331443
619.609 .0331228
620.375 .0331014
621.141 .0330800
621.907 .0330585
622.672 .0330368
623.437 .0330147
624.202 .0329921
624.966 .0329688
625.730 .0329448
626.493 .0329198
627.257 .0328939
628.020 .0328669
628.782 .0328389
629.545 .0328099
630.307 .0327798
631.068 .0327487
631.830 .0327167
632.591 .0326839
633.352 .0326505
634.112 .0326164
634.872 .0325819
635.632 .0325469
636.392 .0325114
637.151 .0324756
637.910 .0324396
638.668 .0324033
639.427 .0323669
640.185 .0323305
640.943 .0322943
641.700 .0322584
642.457 .0322230
643.214 .0321881
643.971 .0321540
644.727 .0321206
645.483 .0320879
646.239 .0320559
646.994 .0320245
647.750 .0319938
648.505 .0319636
649.259 .0319341
650.014 .0319051
650.768 .0318766
651.521 .0318488
652.275 .0318215
653.028 .0317947
653.781 .0317684
654.534 .0317424
655.286 .0317168
656.039 .0316914
656.791 .0316661
657.542 .0316411
658.294 .0316162
659.045 .0315914
659.796 .0315669
660.546 .0315426
661.297 .0315185
662.047 .0314946
662.796 .0314708
663.546 .0314472
664.295 .0314237
665.044 .0314004
665.793 .0313773
666.542 .0313545
667.290 .0313320
668.038 .0313098
668.786 .0312879
669.533 .0312663
670.281 .0312449
671.028 .0312237
671.774 .0312028
672.521 .0311821
673.267 .0311618
674.013 .0311418
674.759 .0311223
675.505 .0311034
676.250 .0310851
676.995 .0310674
677.740 .0310502
678.484 .0310336
679.229 .0310175
679.973 .0310019
680.717 .0309867
681.460 .0309719
682.204 .0309574
682.947 .0309431
683.690 .0309289
684.433 .0309147
685.175 .0309005
685.917 .0308860
686.659 .0308713
687.401 .0308563
688.142 .0308410
688.884 .0308253
689.625 .0308093
690.365 .0307927
691.106 .0307755
691.846 .0307576
692.586 .0307389
693.326 .0307192
694.066 .0306986
694.805 .0306772
695.545 .0306549
696.284 .0306320
697.022 .0306086
697.761 .0305846
698.499 .0305604
699.237 .0305358
699.975 .0305110
700.713 .0304859
701.450 .0304605
702.187 .0304348
702.924 .0304089
703.661 .0303827
704.397 .0303564
705.133 .0303300
705.869 .0303035
706.605 .0302770
707.341 .0302506
708.076 .0302244
708.811 .0301982
709.546 .0301722
710.281 .0301462
711.015 .0301202
711.749 .0300942
712.483 .0300680
713.217 .0300418
713.950 .0300154
714.684 .0299889
715.417 .0299623
716.150 .0299357
716.882 .0299090
717.615 .0298825
718.347 .0298561
719.079 .0298299
719.811 .0298038
720.542 .0297780
721.273 .0297523
722.005 .0297270
722.735 .0297021
723.466 .0296776
724.196 .0296535
724.927 .0296301
725.656 .0296073
726.386 .0295852
727.116 .0295639
727.845 .0295434
728.574 .0295238
729.303 .0295051
730.031 .0294873
730.760 .0294706
731.488 .0294548
732.216 .0294400
732.944 .0294261
733.671 .0294131
734.398 .0294010
735.125 .0293897
735.852 .0293793
736.579 .0293696
737.305 .0293607
738.031 .0293526
738.757 .0293452
739.483 .0293385
740.208 .0293323
740.933 .0293268
741.658 .0293217
742.383 .0293171
743.108 .0293128
743.832 .0293088
744.556 .0293050
745.280 .0293013
746.004 .0292975
746.727 .0292937
747.450 .0292896
748.173 .0292852
748.896 .0292804
749.618 .0292752
750.340 .0292696
751.062 .0292635
751.784 .0292569
752.506 .0292498
753.227 .0292422
753.948 .0292341
754.669 .0292254
755.389 .0292162
756.110 .0292064
756.830 .0291960
757.550 .0291851
758.269 .0291737
758.989 .0291619
759.708 .0291498
760.427 .0291373
761.146 .0291246
761.864 .0291117
762.582 .0290986
763.300 .0290853
764.018 .0290719
764.736 .0290584
765.453 .0290448
766.170 .0290311
766.887 .0290173
767.603 .0290035
768.320 .0289897
769.036 .0289760
769.751 .0289625
770.467 .0289491
771.182 .0289360
771.897 .0289230
772.612 .0289104
773.327 .0288979
774.041 .0288856
774.755 .0288736
775.469 .0288616
776.183 .0288498
776.896 .0288382
777.609 .0288266
778.322 .0288152
779.035 .0288039
779.747 .0287927
780.459 .0287815
781.171 .0287705
781.882 .0287594
782.594 .0287483
783.305 .0287371
784.016 .0287258
784.726 .0287143
785.436 .0287027
786.147 .0286840
786.856 .0286715
787.566 .0286585
788.275 .0286451
788.984 .0286312
789.693 .0286168
790.401 .0286017
791.110 .0285861
791.818 .0285698
792.525 .0285529
793.233 .0285354
793.940 .0285171
794.647 .0285061
795.353 .0284869
796.060 .0284670
796.766 .0284465
797.472 .0284254
798.177 .0284035
798.883 .0283811
799.588 .0283581
800.292 .0283346
800.997 .0283107
801.701 .0282865
802.405 .0282619
803.109 .0282372
803.812 .0282123
804.515 .0281873
805.218 .0281623
805.921 .0281372
806.623 .0281122
807.325 .0280872
808.027 .0280623
808.728 .0280376
809.429 .0280132
810.130 .0279891
810.831 .0279654
811.531 .0279422
812.231 .0279195
812.931 .0278973
813.630 .0278757
814.330 .0278547
815.029 .0278345
815.727 .0278150
816.426 .0277964
817.124 .0277787
817.821 .0277620
818.519 .0277463
819.216 .0277316
819.913 .0277180
820.609 .0277054
821.306 .0276939
822.002 .0276834
822.697 .0276740
823.393 .0276656
824.088 .0276584
824.783 .0276522
825.477 .0276471
826.171 .0276430
826.865 .0276397
827.559 .0276372
828.252 .0276355
828.945 .0276345
829.638 .0276341
830.330 .0276344
831.023 .0276351
831.714 .0276364
832.406 .0276380
833.097 .0276400
833.788 .0276424
834.479 .0276450
835.169 .0276479
835.859 .0276510
836.548 .0276542
837.238 .0276576
837.927 .0276610
838.615 .0276644
839.304 .0276676
839.992 .0276708
840.680 .0276737
841.367 .0276764
842.054 .0276789
842.741 .0276813
843.428 .0276836
844.114 .0276857
844.800 .0276877
845.485 .0276895
846.170 .0276911
846.855 .0276923
847.540 .0276931
848.224 .0276936
848.908 .0276936
849.592 .0276931
850.275 .0276922
850.958 .0276907
851.641 .0276888
852.323 .0276863
853.005 .0276832
853.687 .0276795
854.368 .0276752
855.049 .0276702
855.730 .0276645
856.410 .0276583
857.090 .0276515
857.769 .0276442
858.449 .0276364
859.128 .0276281
859.806 .0276194
860.485 .0276102
861.163 .0276006
861.840 .0275906
862.518 .0275804
863.195 .0275699
863.871 .0275591
864.548 .0275482
865.224 .0275372
865.899 .0275261
866.574 .0275149
867.249 .0275037
867.924 .0274924
868.598 .0274811
869.272 .0274697
869.946 .0274582
870.619 .0274466
871.292 .0274349
871.964 .0274232
872.636 .0274116
873.308 .0273999
873.979 .0273883
874.651 .0273769
875.321 .0273655
875.992 .0273542
876.662 .0273429
877.331 .0273316
878.001 .0273202
878.670 .0273087
879.338 .0272971
880.007 .0272854
880.675 .0272738
881.342 .0272622
882.009 .0272506
882.676 .0272390
883.343 .0272275
884.009 .0272160
884.675 .0272045
885.340 .0271930
886.005 .0271816
886.670 .0271702
887.334 .0271589
887.998 .0271477
888.662 .0271365
889.325 .0271253
889.988 .0271140
890.650 .0271026
891.312 .0270909
891.974 .0270789
892.636 .0270665
893.297 .0270536
893.957 .0270402
894.618 .0270263
895.278 .0270119
895.937 .0269968
896.596 .0269810
897.255 .0269645
897.914 .0269472
898.572 .0269290
899.230 .0269099
899.887 .0268899
900.544 .0268688
901.201 .0268469
901.857 .0268100
902.513 .0267862
903.168 .0267617
903.823 .0267366
904.478 .0267108
905.132 .0266845
905.786 .0266576
906.440 .0266303
907.093 .0266025
907.746 .0265745
908.399 .0265464
909.051 .0265182
909.703 .0264900
910.354 .0264768
911.005 .0264491
911.656 .0264216
912.306 .0263943
912.956 .0263673
913.605 .0263405
914.254 .0263139
914.903 .0262878
915.551 .0262620
916.199 .0262366
916.847 .0262117
917.494 .0261872
918.141 .0261630
918.788 .0261391
919.434 .0261154
920.079 .0260917
920.725 .0260680
921.370 .0260443
922.014 .0260206
922.658 .0259969
923.302 .0259733
923.946 .0259497
924.589 .0259261
925.231 .0259026
925.873 .0258792
926.515 .0258557
927.157 .0258324
927.798 .0258092
928.439 .0257861
929.079 .0257633
929.719 .0257410
930.359 .0257192
930.998 .0256979
931.637 .0256774
932.275 .0256576
932.913 .0256387
933.551 .0256206
934.188 .0256034
934.825 .0255873
935.462 .0255722
936.098 .0255583
936.733 .0255456
937.369 .0255341
938.004 .0255238
938.638 .0255147
939.273 .0255067
939.907 .0254999
940.540 .0254942
941.173 .0254896
941.806 .0254860
942.438 .0254835
943.070 .0254820
943.702 .0254814
944.333 .0254817
944.964 .0254827
945.594 .0254844
946.224 .0254867
946.854 .0254895
947.483 .0254927
948.112 .0254964
948.741 .0255005
949.369 .0255051
949.996 .0255100
950.624 .0255153
951.251 .0255209
951.878 .0255266
952.504 .0255325
953.130 .0255384
953.755 .0255444
954.380 .0255505
955.005 .0255568
955.629 .0255632
956.253 .0255698
956.877 .0255767
957.500 .0255838
958.123 .0255912
958.746 .0255986
959.368 .0256062
959.990 .0256138
960.611 .0256216
961.232 .0256294
961.853 .0256373
962.473 .0256453
963.093 .0256535
963.712 .0256619
964.331 .0256704
964.950 .0256789
965.569 .0256873
966.187 .0256957
966.804 .0257038
967.422 .0257116
968.039 .0257191
968.655 .0257263
969.272 .0257333
969.887 .0257399
970.503 .0257463
971.118 .0257524
971.733 .0257581
972.347 .0257635
972.961 .0257685
973.575 .0257729
974.188 .0257769
974.801 .0257803
975.414 .0257832
976.026 .0257855
976.638 .0257872
977.250 .0257885
977.861 .0257892
978.472 .0257895
979.083 .0257892
979.693 .0257885
980.303 .0257872
980.912 .0257830
981.521 .0257804
982.130 .0257773
982.738 .0257736
983.346 .0257695
983.954 .0257650
984.562 .0257603
985.169 .0257554
985.775 .0257504
986.382 .0257452
986.988 .0257401
987.594 .0257348
988.199 .0257295
988.804 .0257241
989.409 .0257216
990.013 .0257163
990.617 .0257111
991.221 .0257059
991.824 .0257010
992.427 .0256962
993.030 .0256916
993.632 .0256871
994.234 .0256828
994.836 .0256786
995.438 .0256744
996.039 .0256702
996.640 .0256661
997.240 .0256621
997.840 .0256582
998.440 .0256545
999.040 .0256508
999.639 .0256472
1000.238 .0256436
1000.836 .0256400
1001.435 .0256364
1002.033 .0256328
1002.630 .0256291
1003.228 .0256254
1003.825 .0256216
1004.422 .0256179
1005.018 .0256142
1005.614 .0256105
1006.210 .0256069
1006.806 .0256031
1007.401 .0255992
1007.996 .0255952
1008.591 .0255910
1009.186 .0255866
1009.780 .0255822
1010.374 .0255775
1010.967 .0255728
1011.561 .0255679
1012.154 .0255628
1012.746 .0255574
1013.339 .0255518
1013.931 .0255458
1014.523 .0255395
1015.115 .0255330
1015.706 .0255263
1016.298 .0255194
1016.888 .0255126
1017.479 .0255058
1018.069 .0254992
1018.660 .0254926
1019.250 .0254862
1019.839 .0254798
1020.429 .0254735
1021.018 .0254672
1021.607 .0254610
1022.195 .0254548
1022.784 .0254487
1023.372 .0254427
1023.960 .0254368
1024.547 .0254309
1025.135 .0254250
1025.722 .0254191
1026.309 .0254131
1026.896 .0254068
1027.483 .0254004
1028.069 .0253938
1028.655 .0253870
1029.241 .0253800
1029.827 .0253731
1030.412 .0253660
1030.997 .0253590
1031.582 .0253520
1032.167 .0253449
1032.752 .0253377
1033.336 .0253302
1033.921 .0253225
1034.505 .0253145
1035.089 .0253060
1035.672 .0252971
1036.256 .0252879
1036.839 .0252781
1037.422 .0252679
1038.005 .0252573
1038.588 .0252461
1039.171 .0252344
1039.753 .0252222
1040.335 .0252094
1040.918 .0251962
1041.500 .0251824
1042.081 .0251682
1042.663 .0251537
1043.244 .0251390
1043.826 .0251242
1044.407 .0251093
1044.988 .0250945
1045.569 .0250798
1046.150 .0250652
1046.730 .0250508
1047.311 .0250365
1047.891 .0250223
1048.471 .0250082
1049.052 .0249942
1049.632 .0249803
1050.211 .0249663
1050.791 .0249524
1051.371 .0249385
1051.950 .0249248
1052.530 .0249111
1053.109 .0248976
1053.688 .0248843
1054.268 .0248712
1054.847 .0248584
1055.426 .0248459
1056.005 .0248336
1056.583 .0248217
1057.162 .0248100
1057.741 .0247987
1058.319 .0247875
1058.898 .0247765
1059.476 .0247658
1060.055 .0247553
1060.633 .0247451
1061.211 .0247350
1061.790 .0247252
1062.368 .0247154
1062.946 .0247058
1063.524 .0246962
1064.102 .0246865
1064.680 .0246768
1065.258 .0246669
1065.836 .0246569
1066.414 .0246469
1066.992 .0246371
1067.570 .0246276
1068.148 .0246187
1068.726 .0246103
1069.304 .0246026
1069.882 .0245958
1070.460 .0245898
1071.038 .0245847
1071.616 .0245804
1072.194 .0245769
1072.772 .0245743
1073.350 .0245725
1073.928 .0245718
1074.506 .0245721
1075.084 .0245736
1075.662 .0245762
1076.240 .0245800
1076.819 .0245848
1077.397 .0245908
1077.976 .0245977
1078.554 .0246056
1079.133 .0246145
1079.711 .0246243
1080.290 .0246352
1080.869 .0246470
1081.448 .0246598
1082.027 .0246736
1082.606 .0246883
1083.185 .0247038
1083.764 .0247201
1084.343 .0247368
1084.923 .0247539
1085.502 .0247713
1086.082 .0247887
1086.662 .0248060
1087.242 .0248231
1087.822 .0248401
1088.402 .0248570
1088.983 .0248736
1089.563 .0248900
1090.144 .0249063
1090.725 .0249224
1091.306 .0249383
1091.887 .0249540
1092.469 .0249697
1093.050 .0249852
1093.632 .0250007
1094.214 .0250162
1094.796 .0250318
1095.379 .0250475
1095.961 .0250633
1096.544 .0250791
1097.127 .0250951
1097.710 .0251111
1098.294 .0251272
1098.877 .0251435
1099.461 .0251601
1100.046 .0251771
1100.630 .0251947
1101.215 .0252131
1101.800 .0252326
1102.385 .0252531
1102.970 .0252748
1103.556 .0252980
1104.142 .0253226
1104.728 .0253487
1105.315 .0253765
1105.902 .0254061
1106.489 .0254377
1107.077 .0254714
1107.664 .0255072
1108.253 .0255455
1108.841 .0255863
1109.430 .0256294
1110.019 .0256750
1110.609 .0257231
1111.198 .0257735
1111.789 .0258262
1112.379 .0258812
1112.970 .0259385
1113.561 .0259979
1114.153 .0260594
1114.745 .0261229
1115.338 .0261882
1115.931 .0262551
1116.524 .0263233
1117.117 .0263927
1117.712 .0264629
1118.306 .0265337
1118.901 .0266048
1119.496 .0266760
1120.092 .0267472
1120.689 .0268181
1121.285 .0268887
1121.882 .0269592
1122.480 .0270294
1123.078 .0270995
1123.677 .0271697
1124.276 .0272405
1124.875 .0273119
1125.476 .0273843
1126.076 .0274579
1126.677 .0275329
1127.279 .0276096
1127.881 .0276880
1128.484 .0277685
1129.087 .0278036
1129.691 .0278857
1130.295 .0279705
1130.900 .0280580
1131.505 .0281486
1132.111 .0282425
1132.718 .0283401
1133.325 .0284421
1133.933 .0285480
1134.541 .0286564
1135.150 .0287698
1135.760 .0288881
1136.370 .0290231
1136.981 .0290258
1137.592 .0291785
1138.204 .0293411
1138.817 .0295054
1139.431 .0296700
1140.045 .0298425
1140.660 .0300179
1141.275 .0302059
1141.891 .0303762
1142.508 .0305014
1143.126 .0306970
1143.744 .0308845
1144.363 .0314027
1144.983 .0309069
