Measurement Sequence started on: 15-12-46-377
Integration time: 28
Scans to Average: 2 
>>>>>Begin Spectral Data<<<<<
432.689 .0000100
433.621 .0000100
434.552 .0000100
435.482 .0000100
436.410 .0000100
437.337 .0000100
438.262 .0265071
439.187 .0562459
440.110 .0933446
441.031 .1352154
441.952 .1085931
442.871 .1133862
443.789 .1178465
444.705 .1220477
445.621 .1260410
446.535 .1298644
447.447 .1321490
448.359 .1327443
449.269 .1312786
450.178 .1275123
451.086 .1215156
451.993 .1137488
452.898 .1049791
453.803 .0960806
454.706 .0877997
455.608 .0806035
456.508 .0746523
457.408 .0706310
458.306 .0675540
459.204 .0650641
460.100 .0629739
460.995 .0611770
461.888 .0596020
462.781 .0582008
463.673 .0569388
464.563 .0557938
465.452 .0547495
466.340 .0537937
467.228 .0529181
468.114 .0521172
468.999 .0513852
469.882 .0507163
470.765 .0501054
471.647 .0495477
472.528 .0490398
473.407 .0485784
474.286 .0481614
475.163 .0477886
476.040 .0474590
476.915 .0471718
477.790 .0469255
478.663 .0467184
479.535 .0465475
480.407 .0464096
481.277 .0463007
482.147 .0462164
483.015 .0461528
483.883 .0461065
484.749 .0460749
485.615 .0460566
486.479 .0460502
487.343 .0460555
488.206 .0460726
489.067 .0461017
489.928 .0461430
490.788 .0461970
491.647 .0462638
492.505 .0463434
493.362 .0464358
494.218 .0465416
495.073 .0466615
495.928 .0469069
496.781 .0470741
497.634 .0472625
498.486 .0474740
499.337 .0477106
500.187 .0479741
501.036 .0482663
501.884 .0485895
502.731 .0489464
503.578 .0493394
504.424 .0496120
505.268 .0500701
506.113 .0505744
506.956 .0511294
507.798 .0517411
508.640 .0524168
509.480 .0531653
510.320 .0539971
511.160 .0549224
511.998 .0559533
512.836 .0571049
513.672 .0583918
514.508 .0598325
515.344 .0614459
516.178 .0632533
517.012 .0652765
517.845 .0675381
518.677 .0700577
519.508 .0728510
520.339 .0759276
521.169 .0792911
521.998 .0829201
522.826 .0867836
523.654 .0908307
524.481 .0949993
525.307 .0992183
526.133 .1034066
526.958 .1074765
527.782 .1113470
528.605 .1149417
529.428 .1181919
530.250 .1210334
531.072 .1234247
531.892 .1253289
532.712 .1267214
533.532 .1275872
534.350 .1279186
535.168 .1277160
535.986 .1269865
536.802 .1257347
537.618 .1239690
538.434 .1217004
539.249 .1189629
540.063 .1157988
540.876 .1122664
541.689 .1084366
542.501 .1043856
543.313 .1001980
544.124 .0959624
544.934 .0917568
545.744 .0876526
546.553 .0837121
547.361 .0799885
548.169 .0765113
548.976 .0733016
549.783 .0703674
550.589 .0677045
551.395 .0653002
552.200 .0631324
553.004 .0611742
553.808 .0594034
554.611 .0577993
555.414 .0563435
556.216 .0550189
557.018 .0538097
557.819 .0527022
558.619 .0516819
559.419 .0507369
560.218 .0498558
561.017 .0490281
561.815 .0482461
562.613 .0475039
563.410 .0467956
564.207 .0461158
565.003 .0454610
565.799 .0448279
566.594 .0442135
567.388 .0436158
568.182 .0430328
568.976 .0424632
569.769 .0419065
570.562 .0413625
571.354 .0408318
572.145 .0403154
572.936 .0398147
573.727 .0393306
574.517 .0388642
575.307 .0384165
576.096 .0379875
576.885 .0375779
577.673 .0371883
578.461 .0368187
579.248 .0364692
580.035 .0361398
580.821 .0358302
581.607 .0355400
582.392 .0352689
583.177 .0350164
583.962 .0347818
584.746 .0345641
585.529 .0343628
586.313 .0341767
587.095 .0340051
587.878 .0338474
588.660 .0337026
589.441 .0335698
590.222 .0334480
591.003 .0333365
591.783 .0332343
592.563 .0331406
593.342 .0330546
594.121 .0329757
594.899 .0329033
595.678 .0328365
596.455 .0327746
597.233 .0327171
598.009 .0326634
598.786 .0326127
599.562 .0325645
600.338 .0325184
601.113 .0324740
601.888 .0324116
602.663 .0323705
603.437 .0323308
604.211 .0322923
604.984 .0322549
605.757 .0322185
606.530 .0321829
607.302 .0321481
608.074 .0321139
608.845 .0320803
609.616 .0320475
610.387 .0320330
611.158 .0320014
611.928 .0319706
612.697 .0319406
613.467 .0319113
614.236 .0318827
615.004 .0318549
615.773 .0318277
616.541 .0318011
617.308 .0317748
618.076 .0317488
618.843 .0317230
619.609 .0316973
620.375 .0316715
621.141 .0316456
621.907 .0316195
622.672 .0315931
623.437 .0315663
624.202 .0315391
624.966 .0315115
625.730 .0314834
626.493 .0314546
627.257 .0314252
628.020 .0313950
628.782 .0313640
629.545 .0313322
630.307 .0312998
631.068 .0312669
631.830 .0312336
632.591 .0312002
633.352 .0311667
634.112 .0311334
634.872 .0311003
635.632 .0310675
636.392 .0310351
637.151 .0310032
637.910 .0309717
638.668 .0309409
639.427 .0309107
640.185 .0308814
640.943 .0308529
641.700 .0308254
642.457 .0307989
643.214 .0307736
643.971 .0307492
644.727 .0307259
645.483 .0307034
646.239 .0306818
646.994 .0306608
647.750 .0306403
648.505 .0306202
649.259 .0306004
650.014 .0305807
650.768 .0305611
651.521 .0305415
652.275 .0305217
653.028 .0305018
653.781 .0304816
654.534 .0304611
655.286 .0304403
656.039 .0304192
656.791 .0303977
657.542 .0303760
658.294 .0303538
659.045 .0303313
659.796 .0303084
660.546 .0302852
661.297 .0302616
662.047 .0302378
662.796 .0302138
663.546 .0301898
664.295 .0301659
665.044 .0301423
665.793 .0301189
666.542 .0300960
667.290 .0300735
668.038 .0300514
668.786 .0300298
669.533 .0300085
670.281 .0299877
671.028 .0299674
671.774 .0299476
672.521 .0299282
673.267 .0299093
674.013 .0298908
674.759 .0298728
675.505 .0298551
676.250 .0298378
676.995 .0298209
677.740 .0298043
678.484 .0297879
679.229 .0297719
679.973 .0297560
680.717 .0297403
681.460 .0297248
682.204 .0297093
682.947 .0296939
683.690 .0296785
684.433 .0296631
685.175 .0296479
685.917 .0296327
686.659 .0296177
687.401 .0296028
688.142 .0295880
688.884 .0295733
689.625 .0295586
690.365 .0295439
691.106 .0295291
691.846 .0295144
692.586 .0294995
693.326 .0294846
694.066 .0294695
694.805 .0294545
695.545 .0294394
696.284 .0294242
697.022 .0294090
697.761 .0293938
698.499 .0293785
699.237 .0293633
699.975 .0293482
700.713 .0293331
701.450 .0293181
702.187 .0293031
702.924 .0292882
703.661 .0292733
704.397 .0292583
705.133 .0292433
705.869 .0292283
706.605 .0292132
707.341 .0291980
708.076 .0291827
708.811 .0291673
709.546 .0291518
710.281 .0291362
711.015 .0291204
711.749 .0291045
712.483 .0290885
713.217 .0290724
713.950 .0290562
714.684 .0290399
715.417 .0290234
716.150 .0290068
716.882 .0289901
717.615 .0289731
718.347 .0289559
719.079 .0289384
719.811 .0289207
720.542 .0289028
721.273 .0288847
722.005 .0288663
722.735 .0288478
723.466 .0288291
724.196 .0288102
724.927 .0287912
725.656 .0287721
726.386 .0287529
727.116 .0287336
727.845 .0287143
728.574 .0286951
729.303 .0286760
730.031 .0286570
730.760 .0286381
731.488 .0286194
732.216 .0286009
732.944 .0285825
733.671 .0285643
734.398 .0285463
735.125 .0285285
735.852 .0285110
736.579 .0284938
737.305 .0284768
738.031 .0284600
738.757 .0284434
739.483 .0284269
740.208 .0284106
740.933 .0283942
741.658 .0283779
742.383 .0283615
743.108 .0283451
743.832 .0283285
744.556 .0283118
745.280 .0282950
746.004 .0282779
746.727 .0282606
747.450 .0282429
748.173 .0282249
748.896 .0282066
749.618 .0281879
750.340 .0281688
751.062 .0281493
751.784 .0281295
752.506 .0281095
753.227 .0280891
753.948 .0280686
754.669 .0280478
755.389 .0280268
756.110 .0280057
756.830 .0279844
757.550 .0279632
758.269 .0279419
758.989 .0279206
759.708 .0278995
760.427 .0278786
761.146 .0278578
761.864 .0278373
762.582 .0278171
763.300 .0277972
764.018 .0277776
764.736 .0277583
765.453 .0277393
766.170 .0277208
766.887 .0277027
767.603 .0276850
768.320 .0276678
769.036 .0276512
769.751 .0276350
770.467 .0276194
771.182 .0276044
771.897 .0275900
772.612 .0275762
773.327 .0275630
774.041 .0275503
774.755 .0275382
775.469 .0275267
776.183 .0275157
776.896 .0275052
777.609 .0274952
778.322 .0274858
779.035 .0274768
779.747 .0274683
780.459 .0274604
781.171 .0274531
781.882 .0274462
782.594 .0274399
783.305 .0274339
784.016 .0274283
784.726 .0274228
785.436 .0274175
786.147 .0274099
786.856 .0274046
787.566 .0273994
788.275 .0273941
788.984 .0273888
789.693 .0273835
790.401 .0273781
791.110 .0273727
791.818 .0273671
792.525 .0273614
793.233 .0273555
793.940 .0273495
794.647 .0273458
795.353 .0273396
796.060 .0273333
796.766 .0273269
797.472 .0273204
798.177 .0273138
798.883 .0273070
799.588 .0273001
800.292 .0272930
800.997 .0272859
801.701 .0272786
802.405 .0272712
803.109 .0272638
803.812 .0272563
804.515 .0272487
805.218 .0272412
805.921 .0272336
806.623 .0272260
807.325 .0272184
808.027 .0272108
808.728 .0272033
809.429 .0271957
810.130 .0271882
810.831 .0271807
811.531 .0271732
812.231 .0271656
812.931 .0271580
813.630 .0271503
814.330 .0271426
815.029 .0271350
815.727 .0271275
816.426 .0271200
817.124 .0271128
817.821 .0271058
818.519 .0270991
819.216 .0270927
819.913 .0270867
820.609 .0270811
821.306 .0270760
822.002 .0270713
822.697 .0270672
823.393 .0270636
824.088 .0270606
824.783 .0270581
825.477 .0270562
826.171 .0270547
826.865 .0270537
827.559 .0270532
828.252 .0270530
828.945 .0270532
829.638 .0270538
830.330 .0270546
831.023 .0270556
831.714 .0270568
832.406 .0270582
833.097 .0270596
833.788 .0270610
834.479 .0270623
835.169 .0270635
835.859 .0270645
836.548 .0270653
837.238 .0270658
837.927 .0270660
838.615 .0270658
839.304 .0270653
839.992 .0270642
840.680 .0270626
841.367 .0270604
842.054 .0270575
842.741 .0270539
843.428 .0270495
844.114 .0270443
844.800 .0270383
845.485 .0270315
846.170 .0270239
846.855 .0270155
847.540 .0270063
848.224 .0269962
848.908 .0269852
849.592 .0269733
850.275 .0269605
850.958 .0269467
851.641 .0269318
852.323 .0269160
853.005 .0268991
853.687 .0268813
854.368 .0268624
855.049 .0268427
855.730 .0268221
856.410 .0268008
857.090 .0267787
857.769 .0267559
858.449 .0267326
859.128 .0267088
859.806 .0266847
860.485 .0266603
861.163 .0266358
861.840 .0266112
862.518 .0265866
863.195 .0265623
863.871 .0265381
864.548 .0265142
865.224 .0264906
865.899 .0264673
866.574 .0264443
867.249 .0264217
867.924 .0263995
868.598 .0263778
869.272 .0263564
869.946 .0263355
870.619 .0263151
871.292 .0262950
871.964 .0262754
872.636 .0262562
873.308 .0262372
873.979 .0262186
874.651 .0262003
875.321 .0261823
875.992 .0261645
876.662 .0261471
877.331 .0261299
878.001 .0261130
878.670 .0260964
879.338 .0260802
880.007 .0260641
880.675 .0260483
881.342 .0260326
882.009 .0260172
882.676 .0260021
883.343 .0259871
884.009 .0259724
884.675 .0259579
885.340 .0259437
886.005 .0259297
886.670 .0259160
887.334 .0259025
887.998 .0258891
888.662 .0258760
889.325 .0258629
889.988 .0258499
890.650 .0258370
891.312 .0258241
891.974 .0258112
892.636 .0257983
893.297 .0257853
893.957 .0257724
894.618 .0257594
895.278 .0257463
895.937 .0257330
896.596 .0257195
897.255 .0257058
897.914 .0256916
898.572 .0256771
899.230 .0256622
899.887 .0256468
900.544 .0256310
901.201 .0256148
901.857 .0255889
902.513 .0255717
903.168 .0255540
903.823 .0255359
904.478 .0255174
905.132 .0254984
905.786 .0254791
906.440 .0254594
907.093 .0254395
907.746 .0254194
908.399 .0253992
909.051 .0253789
909.703 .0253587
910.354 .0253483
911.005 .0253284
911.656 .0253085
912.306 .0252888
912.956 .0252693
913.605 .0252501
914.254 .0252311
914.903 .0252123
915.551 .0251939
916.199 .0251758
916.847 .0251580
917.494 .0251404
918.141 .0251230
918.788 .0251057
919.434 .0250886
920.079 .0250716
920.725 .0250548
921.370 .0250381
922.014 .0250216
922.658 .0250052
923.302 .0249890
923.946 .0249729
924.589 .0249569
925.231 .0249411
925.873 .0249253
926.515 .0249096
927.157 .0248940
927.798 .0248785
928.439 .0248631
929.079 .0248480
929.719 .0248330
930.359 .0248184
930.998 .0248041
931.637 .0247902
932.275 .0247767
932.913 .0247637
933.551 .0247511
934.188 .0247391
934.825 .0247277
935.462 .0247170
936.098 .0247070
936.733 .0246977
937.369 .0246893
938.004 .0246817
938.638 .0246750
939.273 .0246691
939.907 .0246641
940.540 .0246600
941.173 .0246568
941.806 .0246544
942.438 .0246529
943.070 .0246521
943.702 .0246521
944.333 .0246527
944.964 .0246539
945.594 .0246557
946.224 .0246578
946.854 .0246602
947.483 .0246629
948.112 .0246657
948.741 .0246686
949.369 .0246716
949.996 .0246748
950.624 .0246779
951.251 .0246812
951.878 .0246844
952.504 .0246876
953.130 .0246908
953.755 .0246939
954.380 .0246968
955.005 .0246997
955.629 .0247024
956.253 .0247051
956.877 .0247078
957.500 .0247106
958.123 .0247134
958.746 .0247162
959.368 .0247192
959.990 .0247222
960.611 .0247253
961.232 .0247284
961.853 .0247316
962.473 .0247348
963.093 .0247382
963.712 .0247416
964.331 .0247452
964.950 .0247490
965.569 .0247529
966.187 .0247570
966.804 .0247611
967.422 .0247654
968.039 .0247698
968.655 .0247742
969.272 .0247788
969.887 .0247834
970.503 .0247881
971.118 .0247930
971.733 .0247980
972.347 .0248031
972.961 .0248082
973.575 .0248132
974.188 .0248181
974.801 .0248229
975.414 .0248274
976.026 .0248316
976.638 .0248356
977.250 .0248393
977.861 .0248428
978.472 .0248460
979.083 .0248490
979.693 .0248517
980.303 .0248542
980.912 .0248567
981.521 .0248584
982.130 .0248599
982.738 .0248611
983.346 .0248621
983.954 .0248629
984.562 .0248637
985.169 .0248644
985.775 .0248652
986.382 .0248661
986.988 .0248671
987.594 .0248683
988.199 .0248697
988.804 .0248713
989.409 .0248729
990.013 .0248749
990.617 .0248772
991.221 .0248797
991.824 .0248824
992.427 .0248854
993.030 .0248886
993.632 .0248921
994.234 .0248958
994.836 .0248996
995.438 .0249037
996.039 .0249080
996.640 .0249125
997.240 .0249172
997.840 .0249221
998.440 .0249272
999.040 .0249324
999.639 .0249378
1000.238 .0249432
1000.836 .0249487
1001.435 .0249542
1002.033 .0249596
1002.630 .0249650
1003.228 .0249703
1003.825 .0249755
1004.422 .0249805
1005.018 .0249854
1005.614 .0249902
1006.210 .0249947
1006.806 .0249990
1007.401 .0250029
1007.996 .0250065
1008.591 .0250098
1009.186 .0250129
1009.780 .0250156
1010.374 .0250183
1010.967 .0250208
1011.561 .0250232
1012.154 .0250257
1012.746 .0250282
1013.339 .0250306
1013.931 .0250331
1014.523 .0250354
1015.115 .0250377
1015.706 .0250399
1016.298 .0250421
1016.888 .0250442
1017.479 .0250463
1018.069 .0250484
1018.660 .0250507
1019.250 .0250532
1019.839 .0250558
1020.429 .0250585
1021.018 .0250613
1021.607 .0250643
1022.195 .0250673
1022.784 .0250703
1023.372 .0250734
1023.960 .0250766
1024.547 .0250798
1025.135 .0250830
1025.722 .0250864
1026.309 .0250898
1026.896 .0250931
1027.483 .0250963
1028.069 .0250993
1028.655 .0251020
1029.241 .0251043
1029.827 .0251061
1030.412 .0251074
1030.997 .0251081
1031.582 .0251084
1032.167 .0251082
1032.752 .0251075
1033.336 .0251064
1033.921 .0251049
1034.505 .0251031
1035.089 .0251008
1035.672 .0250981
1036.256 .0250948
1036.839 .0250911
1037.422 .0250869
1038.005 .0250821
1038.588 .0250767
1039.171 .0250709
1039.753 .0250647
1040.335 .0250580
1040.918 .0250509
1041.500 .0250434
1042.081 .0250356
1042.663 .0250274
1043.244 .0250188
1043.826 .0250099
1044.407 .0250007
1044.988 .0249912
1045.569 .0249816
1046.150 .0249720
1046.730 .0249622
1047.311 .0249524
1047.891 .0249426
1048.471 .0249327
1049.052 .0249228
1049.632 .0249128
1050.211 .0249025
1050.791 .0248921
1051.371 .0248815
1051.950 .0248707
1052.530 .0248598
1053.109 .0248486
1053.688 .0248374
1054.268 .0248260
1054.847 .0248146
1055.426 .0248032
1056.005 .0247918
1056.583 .0247805
1057.162 .0247692
1057.741 .0247582
1058.319 .0247474
1058.898 .0247369
1059.476 .0247267
1060.055 .0247167
1060.633 .0247067
1061.211 .0246968
1061.790 .0246868
1062.368 .0246767
1062.946 .0246665
1063.524 .0246561
1064.102 .0246455
1064.680 .0246348
1065.258 .0246238
1065.836 .0246127
1066.414 .0246013
1066.992 .0245898
1067.570 .0245779
1068.148 .0245658
1068.726 .0245533
1069.304 .0245407
1069.882 .0245279
1070.460 .0245150
1071.038 .0245021
1071.616 .0244890
1072.194 .0244759
1072.772 .0244626
1073.350 .0244490
1073.928 .0244351
1074.506 .0244208
1075.084 .0244062
1075.662 .0243914
1076.240 .0243765
1076.819 .0243618
1077.397 .0243474
1077.976 .0243335
1078.554 .0243202
1079.133 .0243076
1079.711 .0242957
1080.290 .0242844
1080.869 .0242740
1081.448 .0242645
1082.027 .0242559
1082.606 .0242485
1083.185 .0242423
1083.764 .0242373
1084.343 .0242335
1084.923 .0242310
1085.502 .0242294
1086.082 .0242286
1086.662 .0242283
1087.242 .0242286
1087.822 .0242293
1088.402 .0242306
1088.983 .0242325
1089.563 .0242353
1090.144 .0242391
1090.725 .0242438
1091.306 .0242496
1091.887 .0242563
1092.469 .0242637
1093.050 .0242717
1093.632 .0242802
1094.214 .0242891
1094.796 .0242987
1095.379 .0243088
1095.961 .0243198
1096.544 .0243317
1097.127 .0243444
1097.710 .0243578
1098.294 .0243717
1098.877 .0243859
1099.461 .0244000
1100.046 .0244140
1100.630 .0244276
1101.215 .0244411
1101.800 .0244543
1102.385 .0244675
1102.970 .0244806
1103.556 .0244937
1104.142 .0245068
1104.728 .0245196
1105.315 .0245319
1105.902 .0245438
1106.489 .0245550
1107.077 .0245655
1107.664 .0245753
1108.253 .0245848
1108.841 .0245941
1109.430 .0246033
1110.019 .0246129
1110.609 .0246230
1111.198 .0246336
1111.789 .0246448
1112.379 .0246568
1112.970 .0246697
1113.561 .0246834
1114.153 .0246982
1114.745 .0247141
1115.338 .0247315
1115.931 .0247504
1116.524 .0247711
1117.117 .0247935
1117.712 .0248179
1118.306 .0248442
1118.901 .0248725
1119.496 .0249027
1120.092 .0249351
1120.689 .0249698
1121.285 .0250067
1121.882 .0250462
1122.480 .0250882
1123.078 .0251328
1123.677 .0251801
1124.276 .0252300
1124.875 .0252826
1125.476 .0253377
1126.076 .0253954
1126.677 .0254554
1127.279 .0255178
1127.881 .0255827
1128.484 .0256501
1129.087 .0256813
1129.691 .0257520
1130.295 .0258250
1130.900 .0259002
1131.505 .0259777
1132.111 .0260578
1132.718 .0261406
1133.325 .0262269
1133.933 .0263169
1134.541 .0264073
1135.150 .0265056
1135.760 .0266110
1136.370 .0267284
1136.981 .0266900
1137.592 .0268020
1138.204 .0269189
1138.817 .0270407
1139.431 .0271646
1140.045 .0272989
1140.660 .0274427
1141.275 .0276038
1141.891 .0277692
1142.508 .0278438
1143.126 .0281276
1143.744 .0283859
1144.363 .0287825
1144.983 .0285739
