Measurement Sequence started on: 15-12-46-377
Integration time: 28
Scans to Average: 2 
>>>>>Begin Spectral Data<<<<<
432.689 .0000100
433.621 .0000100
434.552 .0000100
435.482 .0000100
436.410 .0000100
437.337 .0000100
438.262 .0283806
439.187 .0601128
440.110 .0996833
441.031 .1442717
441.952 .1158748
442.871 .1210227
443.789 .1258117
444.705 .1303171
445.621 .1345913
446.535 .1386734
447.447 .1410988
448.359 .1417126
449.269 .1401209
450.178 .1360736
451.086 .1296479
451.993 .1213367
452.898 .1119584
453.803 .1024425
454.706 .0935819
455.608 .0858706
456.508 .0794765
457.408 .0751316
458.306 .0717823
459.204 .0690542
460.100 .0667527
460.995 .0647725
461.888 .0630412
462.781 .0615091
463.673 .0601406
464.563 .0589093
465.452 .0577958
466.340 .0567841
467.228 .0558627
468.114 .0550225
468.999 .0542564
469.882 .0535590
470.765 .0529247
471.647 .0523489
472.528 .0518268
473.407 .0513541
474.286 .0509273
475.163 .0505440
476.040 .0502013
476.915 .0498971
477.790 .0496293
478.663 .0493961
479.535 .0491960
480.407 .0490268
481.277 .0488865
482.147 .0487722
483.015 .0486812
483.883 .0486102
484.749 .0485562
485.615 .0485166
486.479 .0484896
487.343 .0484746
488.206 .0484717
489.067 .0484812
489.928 .0485045
490.788 .0485427
491.647 .0485967
492.505 .0486668
493.362 .0487530
494.218 .0488553
495.073 .0489736
495.928 .0492141
496.781 .0493784
497.634 .0495630
498.486 .0497703
499.337 .0500035
500.187 .0502659
501.036 .0505604
501.884 .0508904
502.731 .0512593
503.578 .0516692
504.424 .0519619
505.268 .0524457
506.113 .0529816
506.956 .0535732
507.798 .0542266
508.640 .0549487
509.480 .0557483
510.320 .0566373
511.160 .0576275
511.998 .0587320
512.836 .0599666
513.672 .0613471
514.508 .0628906
515.344 .0646164
516.178 .0665461
517.012 .0687021
517.845 .0711060
518.677 .0737804
519.508 .0767442
520.339 .0800064
521.169 .0835741
521.998 .0874247
522.826 .0915235
523.654 .0958163
524.481 .1002323
525.307 .1046899
526.133 .1091022
526.958 .1133760
527.782 .1174219
528.605 .1211583
529.428 .1245170
530.250 .1274326
531.072 .1298641
531.892 .1317739
532.712 .1331359
533.532 .1339334
534.350 .1341591
535.168 .1338111
535.986 .1328968
536.802 .1314227
537.618 .1294034
538.434 .1268533
539.249 .1238133
540.063 .1203318
540.876 .1164721
541.689 .1123122
542.501 .1079372
543.313 .1034334
544.124 .0988931
544.934 .0944006
545.744 .0900316
546.553 .0858477
547.361 .0819042
548.169 .0782305
548.976 .0748515
549.783 .0717764
550.589 .0690014
551.395 .0665120
552.200 .0642869
553.004 .0622954
553.808 .0605091
554.611 .0589012
555.414 .0574473
556.216 .0561256
557.018 .0549184
557.819 .0538114
558.619 .0527925
559.419 .0518520
560.218 .0509831
561.017 .0501766
561.815 .0494253
562.613 .0487220
563.410 .0480585
564.207 .0474277
565.003 .0468232
565.799 .0462389
566.594 .0456706
567.388 .0451160
568.182 .0445733
568.976 .0440419
569.769 .0435221
570.562 .0430145
571.354 .0425197
572.145 .0420380
572.936 .0415694
573.727 .0411134
574.517 .0406698
575.307 .0402386
576.096 .0398190
576.885 .0394112
577.673 .0390162
578.461 .0386349
579.248 .0382686
580.035 .0379189
580.821 .0375866
581.607 .0372729
582.392 .0369779
583.177 .0367016
583.962 .0364432
584.746 .0362020
585.529 .0359770
586.313 .0357672
587.095 .0355717
587.878 .0353897
588.660 .0352205
589.441 .0350639
590.222 .0349191
591.003 .0347855
591.783 .0346624
592.563 .0345490
593.342 .0344443
594.121 .0343474
594.899 .0342574
595.678 .0341733
596.455 .0340944
597.233 .0340202
598.009 .0339499
598.786 .0338833
599.562 .0338199
600.338 .0337596
601.113 .0337021
601.888 .0336245
602.663 .0335731
603.437 .0335240
604.211 .0334771
604.984 .0334323
605.757 .0333894
606.530 .0333482
607.302 .0333088
608.074 .0332711
608.845 .0332351
609.616 .0332009
610.387 .0331880
611.158 .0331565
611.928 .0331269
612.697 .0330990
613.467 .0330728
614.236 .0330479
615.004 .0330243
615.773 .0330017
616.541 .0329799
617.308 .0329587
618.076 .0329380
618.843 .0329177
619.609 .0328976
620.375 .0328775
621.141 .0328573
621.907 .0328368
622.672 .0328160
623.437 .0327946
624.202 .0327727
624.966 .0327502
625.730 .0327270
626.493 .0327031
627.257 .0326785
628.020 .0326531
628.782 .0326269
629.545 .0325998
630.307 .0325719
631.068 .0325431
631.830 .0325136
632.591 .0324834
633.352 .0324527
634.112 .0324214
634.872 .0323898
635.632 .0323578
636.392 .0323254
637.151 .0322927
637.910 .0322598
638.668 .0322267
639.427 .0321934
640.185 .0321601
640.943 .0321268
641.700 .0320937
642.457 .0320607
643.214 .0320278
643.971 .0319950
644.727 .0319622
645.483 .0319294
646.239 .0318966
646.994 .0318639
647.750 .0318310
648.505 .0317982
649.259 .0317653
650.014 .0317325
650.768 .0316997
651.521 .0316669
652.275 .0316341
653.028 .0316016
653.781 .0315693
654.534 .0315373
655.286 .0315057
656.039 .0314746
656.791 .0314439
657.542 .0314137
658.294 .0313840
659.045 .0313549
659.796 .0313264
660.546 .0312985
661.297 .0312713
662.047 .0312448
662.796 .0312191
663.546 .0311941
664.295 .0311700
665.044 .0311467
665.793 .0311242
666.542 .0311026
667.290 .0310819
668.038 .0310620
668.786 .0310430
669.533 .0310249
670.281 .0310075
671.028 .0309909
671.774 .0309750
672.521 .0309599
673.267 .0309455
674.013 .0309317
674.759 .0309186
675.505 .0309061
676.250 .0308940
676.995 .0308824
677.740 .0308710
678.484 .0308597
679.229 .0308485
679.973 .0308374
680.717 .0308263
681.460 .0308152
682.204 .0308041
682.947 .0307931
683.690 .0307820
684.433 .0307709
685.175 .0307596
685.917 .0307480
686.659 .0307361
687.401 .0307237
688.142 .0307108
688.884 .0306974
689.625 .0306834
690.365 .0306689
691.106 .0306537
691.846 .0306378
692.586 .0306213
693.326 .0306041
694.066 .0305862
694.805 .0305677
695.545 .0305485
696.284 .0305289
697.022 .0305087
697.761 .0304881
698.499 .0304670
699.237 .0304455
699.975 .0304236
700.713 .0304014
701.450 .0303789
702.187 .0303562
702.924 .0303334
703.661 .0303107
704.397 .0302879
705.133 .0302653
705.869 .0302427
706.605 .0302201
707.341 .0301974
708.076 .0301745
708.811 .0301514
709.546 .0301279
710.281 .0301040
711.015 .0300797
711.749 .0300550
712.483 .0300299
713.217 .0300044
713.950 .0299785
714.684 .0299521
715.417 .0299253
716.150 .0298980
716.882 .0298701
717.615 .0298417
718.347 .0298129
719.079 .0297836
719.811 .0297540
720.542 .0297241
721.273 .0296942
722.005 .0296644
722.735 .0296349
723.466 .0296057
724.196 .0295771
724.927 .0295491
725.656 .0295220
726.386 .0294957
727.116 .0294704
727.845 .0294461
728.574 .0294230
729.303 .0294011
730.031 .0293802
730.760 .0293606
731.488 .0293421
732.216 .0293248
732.944 .0293086
733.671 .0292935
734.398 .0292796
735.125 .0292667
735.852 .0292549
736.579 .0292440
737.305 .0292339
738.031 .0292244
738.757 .0292155
739.483 .0292070
740.208 .0291990
740.933 .0291913
741.658 .0291840
742.383 .0291769
743.108 .0291702
743.832 .0291639
744.556 .0291578
745.280 .0291520
746.004 .0291464
746.727 .0291409
747.450 .0291356
748.173 .0291304
748.896 .0291253
749.618 .0291203
750.340 .0291154
751.062 .0291105
751.784 .0291056
752.506 .0291008
753.227 .0290960
753.948 .0290913
754.669 .0290866
755.389 .0290820
756.110 .0290774
756.830 .0290730
757.550 .0290686
758.269 .0290644
758.989 .0290602
759.708 .0290561
760.427 .0290520
761.146 .0290480
761.864 .0290441
762.582 .0290403
763.300 .0290365
764.018 .0290328
764.736 .0290290
765.453 .0290251
766.170 .0290212
766.887 .0290171
767.603 .0290128
768.320 .0290084
769.036 .0290038
769.751 .0289990
770.467 .0289940
771.182 .0289887
771.897 .0289830
772.612 .0289769
773.327 .0289703
774.041 .0289632
774.755 .0289556
775.469 .0289473
776.183 .0289385
776.896 .0289291
777.609 .0289192
778.322 .0289086
779.035 .0288975
779.747 .0288858
780.459 .0288736
781.171 .0288608
781.882 .0288475
782.594 .0288338
783.305 .0288197
784.016 .0288051
784.726 .0287902
785.436 .0287749
786.147 .0287507
786.856 .0287343
787.566 .0287175
788.275 .0287002
788.984 .0286825
789.693 .0286643
790.401 .0286457
791.110 .0286267
791.818 .0286071
792.525 .0285871
793.233 .0285664
793.940 .0285452
794.647 .0285328
795.353 .0285108
796.060 .0284883
796.766 .0284653
797.472 .0284419
798.177 .0284182
798.883 .0283941
799.588 .0283697
800.292 .0283450
800.997 .0283200
801.701 .0282949
802.405 .0282697
803.109 .0282445
803.812 .0282192
804.515 .0281940
805.218 .0281689
805.921 .0281438
806.623 .0281188
807.325 .0280939
808.027 .0280690
808.728 .0280443
809.429 .0280198
810.130 .0279956
810.831 .0279717
811.531 .0279481
812.231 .0279250
812.931 .0279022
813.630 .0278798
814.330 .0278578
815.029 .0278363
815.727 .0278153
816.426 .0277949
817.124 .0277752
817.821 .0277563
818.519 .0277382
819.216 .0277209
819.913 .0277046
820.609 .0276892
821.306 .0276747
822.002 .0276611
822.697 .0276485
823.393 .0276369
824.088 .0276264
824.783 .0276168
825.477 .0276083
826.171 .0276007
826.865 .0275940
827.559 .0275883
828.252 .0275835
828.945 .0275794
829.638 .0275762
830.330 .0275738
831.023 .0275721
831.714 .0275711
832.406 .0275708
833.097 .0275710
833.788 .0275716
834.479 .0275725
835.169 .0275738
835.859 .0275753
836.548 .0275770
837.238 .0275790
837.927 .0275812
838.615 .0275837
839.304 .0275864
839.992 .0275894
840.680 .0275926
841.367 .0275959
842.054 .0275995
842.741 .0276032
843.428 .0276070
844.114 .0276111
844.800 .0276153
845.485 .0276197
846.170 .0276243
846.855 .0276291
847.540 .0276340
848.224 .0276389
848.908 .0276440
849.592 .0276490
850.275 .0276541
850.958 .0276591
851.641 .0276641
852.323 .0276691
853.005 .0276739
853.687 .0276786
854.368 .0276831
855.049 .0276874
855.730 .0276914
856.410 .0276952
857.090 .0276986
857.769 .0277018
858.449 .0277047
859.128 .0277074
859.806 .0277097
860.485 .0277118
861.163 .0277135
861.840 .0277150
862.518 .0277160
863.195 .0277165
863.871 .0277166
864.548 .0277161
865.224 .0277150
865.899 .0277133
866.574 .0277110
867.249 .0277080
867.924 .0277045
868.598 .0277004
869.272 .0276957
869.946 .0276905
870.619 .0276846
871.292 .0276780
871.964 .0276709
872.636 .0276631
873.308 .0276548
873.979 .0276459
874.651 .0276365
875.321 .0276266
875.992 .0276162
876.662 .0276054
877.331 .0275941
878.001 .0275824
878.670 .0275701
879.338 .0275574
880.007 .0275443
880.675 .0275308
881.342 .0275169
882.009 .0275027
882.676 .0274883
883.343 .0274736
884.009 .0274587
884.675 .0274436
885.340 .0274283
886.005 .0274127
886.670 .0273969
887.334 .0273807
887.998 .0273642
888.662 .0273474
889.325 .0273303
889.988 .0273127
890.650 .0272948
891.312 .0272766
891.974 .0272581
892.636 .0272392
893.297 .0272200
893.957 .0272005
894.618 .0271806
895.278 .0271604
895.937 .0271398
896.596 .0271188
897.255 .0270974
897.914 .0270755
898.572 .0270533
899.230 .0270306
899.887 .0270075
900.544 .0269839
901.201 .0269598
901.857 .0269217
902.513 .0268962
903.168 .0268702
903.823 .0268435
904.478 .0268163
905.132 .0267884
905.786 .0267601
906.440 .0267312
907.093 .0267019
907.746 .0266720
908.399 .0266417
909.051 .0266109
909.703 .0265797
910.354 .0265632
911.005 .0265318
911.656 .0265002
912.306 .0264686
912.956 .0264371
913.605 .0264058
914.254 .0263746
914.903 .0263437
915.551 .0263130
916.199 .0262824
916.847 .0262521
917.494 .0262219
918.141 .0261920
918.788 .0261624
919.434 .0261331
920.079 .0261043
920.725 .0260759
921.370 .0260479
922.014 .0260204
922.658 .0259933
923.302 .0259665
923.946 .0259402
924.589 .0259142
925.231 .0258886
925.873 .0258635
926.515 .0258388
927.157 .0258146
927.798 .0257910
928.439 .0257679
929.079 .0257453
929.719 .0257232
930.359 .0257016
930.998 .0256806
931.637 .0256602
932.275 .0256405
932.913 .0256215
933.551 .0256034
934.188 .0255863
934.825 .0255701
935.462 .0255550
936.098 .0255409
936.733 .0255279
937.369 .0255160
938.004 .0255052
938.638 .0254955
939.273 .0254869
939.907 .0254795
940.540 .0254732
941.173 .0254681
941.806 .0254641
942.438 .0254612
943.070 .0254593
943.702 .0254584
944.333 .0254584
944.964 .0254592
945.594 .0254607
946.224 .0254629
946.854 .0254657
947.483 .0254690
948.112 .0254728
948.741 .0254771
949.369 .0254817
949.996 .0254867
950.624 .0254920
951.251 .0254975
951.878 .0255033
952.504 .0255092
953.130 .0255152
953.755 .0255214
954.380 .0255276
955.005 .0255338
955.629 .0255402
956.253 .0255465
956.877 .0255529
957.500 .0255594
958.123 .0255660
958.746 .0255727
959.368 .0255796
959.990 .0255866
960.611 .0255938
961.232 .0256013
961.853 .0256090
962.473 .0256170
963.093 .0256253
963.712 .0256339
964.331 .0256429
964.950 .0256521
965.569 .0256616
966.187 .0256715
966.804 .0256816
967.422 .0256918
968.039 .0257023
968.655 .0257129
969.272 .0257237
969.887 .0257345
970.503 .0257453
971.118 .0257562
971.733 .0257671
972.347 .0257780
972.961 .0257888
973.575 .0257996
974.188 .0258102
974.801 .0258206
975.414 .0258308
976.026 .0258407
976.638 .0258503
977.250 .0258595
977.861 .0258683
978.472 .0258767
979.083 .0258846
979.693 .0258920
980.303 .0258990
980.912 .0259071
981.521 .0259129
982.130 .0259182
982.738 .0259231
983.346 .0259275
983.954 .0259314
984.562 .0259349
985.169 .0259381
985.775 .0259409
986.382 .0259434
986.988 .0259457
987.594 .0259479
988.199 .0259499
988.804 .0259519
989.409 .0259529
990.013 .0259549
990.617 .0259569
991.221 .0259588
991.824 .0259609
992.427 .0259629
993.030 .0259649
993.632 .0259670
994.234 .0259691
994.836 .0259713
995.438 .0259734
996.039 .0259756
996.640 .0259777
997.240 .0259799
997.840 .0259820
998.440 .0259840
999.040 .0259860
999.639 .0259879
1000.238 .0259896
1000.836 .0259913
1001.435 .0259927
1002.033 .0259938
1002.630 .0259946
1003.228 .0259950
1003.825 .0259949
1004.422 .0259942
1005.018 .0259929
1005.614 .0259909
1006.210 .0259882
1006.806 .0259849
1007.401 .0259810
1007.996 .0259765
1008.591 .0259715
1009.186 .0259659
1009.780 .0259599
1010.374 .0259533
1010.967 .0259462
1011.561 .0259385
1012.154 .0259303
1012.746 .0259216
1013.339 .0259125
1013.931 .0259031
1014.523 .0258934
1015.115 .0258836
1015.706 .0258737
1016.298 .0258637
1016.888 .0258536
1017.479 .0258434
1018.069 .0258331
1018.660 .0258227
1019.250 .0258123
1019.839 .0258018
1020.429 .0257914
1021.018 .0257812
1021.607 .0257712
1022.195 .0257615
1022.784 .0257521
1023.372 .0257429
1023.960 .0257338
1024.547 .0257249
1025.135 .0257160
1025.722 .0257070
1026.309 .0256979
1026.896 .0256887
1027.483 .0256795
1028.069 .0256703
1028.655 .0256610
1029.241 .0256516
1029.827 .0256422
1030.412 .0256326
1030.997 .0256227
1031.582 .0256126
1032.167 .0256021
1032.752 .0255913
1033.336 .0255800
1033.921 .0255684
1034.505 .0255563
1035.089 .0255439
1035.672 .0255310
1036.256 .0255177
1036.839 .0255038
1037.422 .0254892
1038.005 .0254741
1038.588 .0254582
1039.171 .0254416
1039.753 .0254242
1040.335 .0254061
1040.918 .0253874
1041.500 .0253679
1042.081 .0253479
1042.663 .0253275
1043.244 .0253067
1043.826 .0252856
1044.407 .0252645
1044.988 .0252433
1045.569 .0252222
1046.150 .0252013
1046.730 .0251806
1047.311 .0251600
1047.891 .0251396
1048.471 .0251193
1049.052 .0250991
1049.632 .0250789
1050.211 .0250587
1050.791 .0250388
1051.371 .0250189
1051.950 .0249994
1052.530 .0249800
1053.109 .0249610
1053.688 .0249423
1054.268 .0249239
1054.847 .0249059
1055.426 .0248883
1056.005 .0248711
1056.583 .0248544
1057.162 .0248382
1057.741 .0248226
1058.319 .0248077
1058.898 .0247934
1059.476 .0247799
1060.055 .0247669
1060.633 .0247544
1061.211 .0247423
1061.790 .0247304
1062.368 .0247188
1062.946 .0247074
1063.524 .0246962
1064.102 .0246851
1064.680 .0246745
1065.258 .0246642
1065.836 .0246544
1066.414 .0246452
1066.992 .0246365
1067.570 .0246282
1068.148 .0246202
1068.726 .0246126
1069.304 .0246054
1069.882 .0245985
1070.460 .0245922
1071.038 .0245865
1071.616 .0245816
1072.194 .0245775
1072.772 .0245743
1073.350 .0245719
1073.928 .0245702
1074.506 .0245691
1075.084 .0245683
1075.662 .0245678
1076.240 .0245675
1076.819 .0245675
1077.397 .0245679
1077.976 .0245689
1078.554 .0245706
1079.133 .0245732
1079.711 .0245766
1080.290 .0245809
1080.869 .0245860
1081.448 .0245916
1082.027 .0245976
1082.606 .0246040
1083.185 .0246106
1083.764 .0246178
1084.343 .0246257
1084.923 .0246345
1085.502 .0246446
1086.082 .0246559
1086.662 .0246685
1087.242 .0246823
1087.822 .0246973
1088.402 .0247133
1088.983 .0247300
1089.563 .0247475
1090.144 .0247658
1090.725 .0247851
1091.306 .0248056
1091.887 .0248276
1092.469 .0248511
1093.050 .0248761
1093.632 .0249025
1094.214 .0249298
1094.796 .0249579
1095.379 .0249863
1095.961 .0250149
1096.544 .0250435
1097.127 .0250721
1097.710 .0251011
1098.294 .0251305
1098.877 .0251607
1099.461 .0251916
1100.046 .0252232
1100.630 .0252553
1101.215 .0252877
1101.800 .0253202
1102.385 .0253527
1102.970 .0253851
1103.556 .0254175
1104.142 .0254501
1104.728 .0254829
1105.315 .0255164
1105.902 .0255504
1106.489 .0255851
1107.077 .0256204
1107.664 .0256561
1108.253 .0256922
1108.841 .0257287
1109.430 .0257657
1110.019 .0258032
1110.609 .0258416
1111.198 .0258811
1111.789 .0259218
1112.379 .0259639
1112.970 .0260075
1113.561 .0260524
1114.153 .0260986
1114.745 .0261461
1115.338 .0261946
1115.931 .0262445
1116.524 .0262959
1117.117 .0263490
1117.712 .0264040
1118.306 .0264611
1118.901 .0265201
1119.496 .0265810
1120.092 .0266437
1120.689 .0267079
1121.285 .0267736
1121.882 .0268405
1122.480 .0269089
1123.078 .0269786
1123.677 .0270500
1124.276 .0271234
1124.875 .0271986
1125.476 .0272759
1126.076 .0273550
1126.677 .0274355
1127.279 .0275173
1127.881 .0276001
1128.484 .0276842
1129.087 .0277228
1129.691 .0278090
1130.295 .0278970
1130.900 .0279873
1131.505 .0280804
1132.111 .0281765
1132.718 .0282762
1133.325 .0283802
1133.933 .0284904
1134.541 .0285957
1135.150 .0287081
1135.760 .0288291
1136.370 .0289708
1136.981 .0289742
1137.592 .0290828
1138.204 .0291988
1138.817 .0293257
1139.431 .0294620
1140.045 .0296104
1140.660 .0297717
1141.275 .0299577
1141.891 .0302108
1142.508 .0301535
1143.126 .0304381
1143.744 .0307659
1144.363 .0314336
1144.983 .0329441
