Measurement Sequence started on: 15-12-46-377
Integration time: 28
Scans to Average: 2 
>>>>>Begin Spectral Data<<<<<
432.689 .0000100
433.621 .0000100
434.552 .0000100
435.482 .0000100
436.410 .0000100
437.337 .0000100
438.262 .0273276
439.187 .0579250
440.110 .0959238
441.031 .1387246
441.952 .1106216
442.871 .1154310
443.789 .1198942
444.705 .1240857
445.621 .1280566
446.535 .1318450
447.447 .1340418
448.359 .1344965
449.269 .1328368
450.178 .1288236
451.086 .1225346
451.993 .1144495
452.898 .1053600
453.803 .0961626
454.706 .0876206
455.608 .0802079
456.508 .0740830
457.408 .0699472
458.306 .0667830
459.204 .0642216
460.100 .0620767
460.995 .0602450
461.888 .0586545
462.781 .0572568
463.673 .0560167
464.563 .0549085
465.452 .0539124
466.340 .0530135
467.228 .0522006
468.114 .0514647
468.999 .0507980
469.882 .0501932
470.765 .0496441
471.647 .0491454
472.528 .0486924
473.407 .0482807
474.286 .0479073
475.163 .0475702
476.040 .0472664
476.915 .0469936
477.790 .0467494
478.663 .0465320
479.535 .0463395
480.407 .0461703
481.277 .0460230
482.147 .0458963
483.015 .0457890
483.883 .0457000
484.749 .0456280
485.615 .0455725
486.479 .0455325
487.343 .0455072
488.206 .0454969
489.067 .0455017
489.928 .0455225
490.788 .0455606
491.647 .0456177
492.505 .0456955
493.362 .0457949
494.218 .0459168
495.073 .0460609
495.928 .0463552
496.781 .0465538
497.634 .0467743
498.486 .0470177
499.337 .0472859
500.187 .0475808
501.036 .0479059
501.884 .0482647
502.731 .0486612
503.578 .0490994
504.424 .0494061
505.268 .0499219
506.113 .0504911
506.956 .0511190
507.798 .0518125
508.640 .0525801
509.480 .0534307
510.320 .0543753
511.160 .0554256
511.998 .0565951
512.836 .0579001
513.672 .0593565
514.508 .0609848
515.344 .0628059
516.178 .0648419
517.012 .0671162
517.845 .0696508
518.677 .0724673
519.508 .0755823
520.339 .0790067
521.169 .0827442
521.998 .0867730
522.826 .0910599
523.654 .0955498
524.481 .1001725
525.307 .1048474
526.133 .1094798
526.958 .1139719
527.782 .1182292
528.605 .1221669
529.428 .1257112
530.250 .1287966
531.072 .1313806
531.892 .1334264
532.712 .1349085
533.532 .1358096
534.350 .1361190
535.168 .1358367
535.986 .1349653
536.802 .1335092
537.618 .1314786
538.434 .1288901
539.249 .1257838
540.063 .1222096
540.876 .1182346
541.689 .1139393
542.501 .1094089
543.313 .1047371
544.124 .1000206
544.934 .0953495
545.744 .0908031
546.553 .0864488
547.361 .0823422
548.169 .0785156
548.976 .0749904
549.783 .0717744
550.589 .0688642
551.395 .0662466
552.200 .0638982
553.004 .0617912
553.808 .0599004
554.611 .0582012
555.414 .0566688
556.216 .0552806
557.018 .0540155
557.819 .0528562
558.619 .0517861
559.419 .0507932
560.218 .0498687
561.017 .0490041
561.815 .0481920
562.613 .0474264
563.410 .0467005
564.207 .0460076
565.003 .0453421
565.799 .0446996
566.594 .0440763
567.388 .0434696
568.182 .0428782
568.976 .0423019
569.769 .0417413
570.562 .0411975
571.354 .0406713
572.145 .0401639
572.936 .0396763
573.727 .0392086
574.517 .0387611
575.307 .0383344
576.096 .0379283
576.885 .0375426
577.673 .0371773
578.461 .0368319
579.248 .0365062
580.035 .0361996
580.821 .0359122
581.607 .0356432
582.392 .0353921
583.177 .0351582
583.962 .0349410
584.746 .0347398
585.529 .0345536
586.313 .0343815
587.095 .0342225
587.878 .0340753
588.660 .0339387
589.441 .0338116
590.222 .0336932
591.003 .0335825
591.783 .0334788
592.563 .0333816
593.342 .0332902
594.121 .0332043
594.899 .0331237
595.678 .0330479
596.455 .0329767
597.233 .0329096
598.009 .0328461
598.786 .0327859
599.562 .0327286
600.338 .0326737
601.113 .0326210
601.888 .0325492
602.663 .0325012
603.437 .0324550
604.211 .0324108
604.984 .0323685
605.757 .0323281
606.530 .0322894
607.302 .0322523
608.074 .0322166
608.845 .0321822
609.616 .0321487
610.387 .0321344
611.158 .0321023
611.928 .0320711
612.697 .0320408
613.467 .0320113
614.236 .0319826
615.004 .0319546
615.773 .0319271
616.541 .0319000
617.308 .0318733
618.076 .0318468
618.843 .0318206
619.609 .0317947
620.375 .0317690
621.141 .0317436
621.907 .0317183
622.672 .0316932
623.437 .0316682
624.202 .0316432
624.966 .0316181
625.730 .0315929
626.493 .0315675
627.257 .0315421
628.020 .0315164
628.782 .0314907
629.545 .0314648
630.307 .0314389
631.068 .0314131
631.830 .0313873
632.591 .0313616
633.352 .0313361
634.112 .0313109
634.872 .0312860
635.632 .0312614
636.392 .0312370
637.151 .0312129
637.910 .0311892
638.668 .0311658
639.427 .0311430
640.185 .0311207
640.943 .0310992
641.700 .0310785
642.457 .0310586
643.214 .0310397
643.971 .0310214
644.727 .0310039
645.483 .0309870
646.239 .0309706
646.994 .0309547
647.750 .0309391
648.505 .0309238
649.259 .0309090
650.014 .0308945
650.768 .0308802
651.521 .0308662
652.275 .0308523
653.028 .0308383
653.781 .0308241
654.534 .0308096
655.286 .0307945
656.039 .0307789
656.791 .0307625
657.542 .0307453
658.294 .0307272
659.045 .0307081
659.796 .0306882
660.546 .0306674
661.297 .0306458
662.047 .0306233
662.796 .0306002
663.546 .0305763
664.295 .0305518
665.044 .0305267
665.793 .0305011
666.542 .0304751
667.290 .0304489
668.038 .0304226
668.786 .0303961
669.533 .0303698
670.281 .0303436
671.028 .0303176
671.774 .0302921
672.521 .0302669
673.267 .0302421
674.013 .0302179
674.759 .0301941
675.505 .0301707
676.250 .0301477
676.995 .0301252
677.740 .0301030
678.484 .0300813
679.229 .0300601
679.973 .0300393
680.717 .0300191
681.460 .0299993
682.204 .0299801
682.947 .0299613
683.690 .0299428
684.433 .0299245
685.175 .0299064
685.917 .0298885
686.659 .0298707
687.401 .0298530
688.142 .0298356
688.884 .0298182
689.625 .0298010
690.365 .0297838
691.106 .0297667
691.846 .0297495
692.586 .0297323
693.326 .0297149
694.066 .0296975
694.805 .0296800
695.545 .0296626
696.284 .0296452
697.022 .0296280
697.761 .0296110
698.499 .0295943
699.237 .0295778
699.975 .0295615
700.713 .0295455
701.450 .0295298
702.187 .0295145
702.924 .0294995
703.661 .0294848
704.397 .0294705
705.133 .0294565
705.869 .0294430
706.605 .0294297
707.341 .0294168
708.076 .0294041
708.811 .0293917
709.546 .0293796
710.281 .0293676
711.015 .0293557
711.749 .0293440
712.483 .0293322
713.217 .0293203
713.950 .0293083
714.684 .0292961
715.417 .0292836
716.150 .0292707
716.882 .0292576
717.615 .0292441
718.347 .0292303
719.079 .0292161
719.811 .0292017
720.542 .0291870
721.273 .0291721
722.005 .0291569
722.735 .0291416
723.466 .0291263
724.196 .0291109
724.927 .0290956
725.656 .0290805
726.386 .0290657
727.116 .0290513
727.845 .0290375
728.574 .0290241
729.303 .0290114
730.031 .0289993
730.760 .0289877
731.488 .0289768
732.216 .0289663
732.944 .0289563
733.671 .0289467
734.398 .0289375
735.125 .0289287
735.852 .0289201
736.579 .0289118
737.305 .0289038
738.031 .0288959
738.757 .0288882
739.483 .0288804
740.208 .0288725
740.933 .0288644
741.658 .0288561
742.383 .0288473
743.108 .0288382
743.832 .0288286
744.556 .0288185
745.280 .0288080
746.004 .0287969
746.727 .0287854
747.450 .0287734
748.173 .0287610
748.896 .0287481
749.618 .0287349
750.340 .0287213
751.062 .0287073
751.784 .0286930
752.506 .0286783
753.227 .0286633
753.948 .0286480
754.669 .0286324
755.389 .0286165
756.110 .0286004
756.830 .0285842
757.550 .0285679
758.269 .0285515
758.989 .0285350
759.708 .0285184
760.427 .0285016
761.146 .0284847
761.864 .0284676
762.582 .0284502
763.300 .0284327
764.018 .0284150
764.736 .0283971
765.453 .0283792
766.170 .0283612
766.887 .0283431
767.603 .0283251
768.320 .0283070
769.036 .0282891
769.751 .0282713
770.467 .0282537
771.182 .0282364
771.897 .0282194
772.612 .0282027
773.327 .0281865
774.041 .0281708
774.755 .0281556
775.469 .0281412
776.183 .0281274
776.896 .0281144
777.609 .0281022
778.322 .0280909
779.035 .0280803
779.747 .0280706
780.459 .0280617
781.171 .0280535
781.882 .0280460
782.594 .0280392
783.305 .0280329
784.016 .0280271
784.726 .0280217
785.436 .0280165
786.147 .0280091
786.856 .0280041
787.566 .0279992
788.275 .0279944
788.984 .0279897
789.693 .0279849
790.401 .0279802
791.110 .0279754
791.818 .0279704
792.525 .0279652
793.233 .0279598
793.940 .0279542
794.647 .0279507
795.353 .0279448
796.060 .0279387
796.766 .0279324
797.472 .0279260
798.177 .0279192
798.883 .0279122
799.588 .0279049
800.292 .0278973
800.997 .0278893
801.701 .0278811
802.405 .0278726
803.109 .0278639
803.812 .0278550
804.515 .0278459
805.218 .0278365
805.921 .0278269
806.623 .0278170
807.325 .0278068
808.027 .0277965
808.728 .0277860
809.429 .0277753
810.130 .0277647
810.831 .0277541
811.531 .0277436
812.231 .0277331
812.931 .0277227
813.630 .0277124
814.330 .0277021
815.029 .0276920
815.727 .0276821
816.426 .0276725
817.124 .0276634
817.821 .0276548
818.519 .0276468
819.216 .0276393
819.913 .0276323
820.609 .0276258
821.306 .0276198
822.002 .0276143
822.697 .0276093
823.393 .0276048
824.088 .0276008
824.783 .0275973
825.477 .0275942
826.171 .0275916
826.865 .0275893
827.559 .0275872
828.252 .0275853
828.945 .0275836
829.638 .0275819
830.330 .0275802
831.023 .0275785
831.714 .0275769
832.406 .0275752
833.097 .0275734
833.788 .0275714
834.479 .0275692
835.169 .0275666
835.859 .0275638
836.548 .0275605
837.238 .0275569
837.927 .0275529
838.615 .0275485
839.304 .0275436
839.992 .0275383
840.680 .0275325
841.367 .0275261
842.054 .0275192
842.741 .0275117
843.428 .0275035
844.114 .0274948
844.800 .0274854
845.485 .0274755
846.170 .0274648
846.855 .0274535
847.540 .0274416
848.224 .0274289
848.908 .0274154
849.592 .0274013
850.275 .0273864
850.958 .0273709
851.641 .0273548
852.323 .0273382
853.005 .0273211
853.687 .0273037
854.368 .0272858
855.049 .0272676
855.730 .0272490
856.410 .0272302
857.090 .0272112
857.769 .0271920
858.449 .0271727
859.128 .0271533
859.806 .0271339
860.485 .0271145
861.163 .0270951
861.840 .0270758
862.518 .0270565
863.195 .0270374
863.871 .0270184
864.548 .0269997
865.224 .0269811
865.899 .0269628
866.574 .0269447
867.249 .0269269
867.924 .0269094
868.598 .0268920
869.272 .0268750
869.946 .0268581
870.619 .0268414
871.292 .0268250
871.964 .0268088
872.636 .0267929
873.308 .0267773
873.979 .0267620
874.651 .0267471
875.321 .0267325
875.992 .0267183
876.662 .0267046
877.331 .0266913
878.001 .0266785
878.670 .0266662
879.338 .0266545
880.007 .0266433
880.675 .0266329
881.342 .0266231
882.009 .0266140
882.676 .0266056
883.343 .0265978
884.009 .0265908
884.675 .0265846
885.340 .0265790
886.005 .0265741
886.670 .0265699
887.334 .0265664
887.998 .0265634
888.662 .0265610
889.325 .0265590
889.988 .0265574
890.650 .0265561
891.312 .0265550
891.974 .0265541
892.636 .0265533
893.297 .0265525
893.957 .0265518
894.618 .0265510
895.278 .0265500
895.937 .0265487
896.596 .0265470
897.255 .0265450
897.914 .0265424
898.572 .0265393
899.230 .0265357
899.887 .0265315
900.544 .0265267
901.201 .0265213
901.857 .0265106
902.513 .0265037
903.168 .0264962
903.823 .0264881
904.478 .0264795
905.132 .0264704
905.786 .0264609
906.440 .0264511
907.093 .0264410
907.746 .0264307
908.399 .0264201
909.051 .0264094
909.703 .0263983
910.354 .0263926
911.005 .0263814
911.656 .0263699
912.306 .0263584
912.956 .0263469
913.605 .0263354
914.254 .0263241
914.903 .0263130
915.551 .0263021
916.199 .0262913
916.847 .0262806
917.494 .0262699
918.141 .0262592
918.788 .0262482
919.434 .0262372
920.079 .0262259
920.725 .0262146
921.370 .0262031
922.014 .0261915
922.658 .0261799
923.302 .0261681
923.946 .0261562
924.589 .0261441
925.231 .0261318
925.873 .0261194
926.515 .0261068
927.157 .0260941
927.798 .0260814
928.439 .0260688
929.079 .0260563
929.719 .0260440
930.359 .0260319
930.998 .0260200
931.637 .0260082
932.275 .0259967
932.913 .0259853
933.551 .0259742
934.188 .0259634
934.825 .0259530
935.462 .0259432
936.098 .0259338
936.733 .0259251
937.369 .0259169
938.004 .0259094
938.638 .0259024
939.273 .0258959
939.907 .0258898
940.540 .0258842
941.173 .0258790
941.806 .0258742
942.438 .0258696
943.070 .0258654
943.702 .0258613
944.333 .0258575
944.964 .0258538
945.594 .0258501
946.224 .0258464
946.854 .0258426
947.483 .0258386
948.112 .0258343
948.741 .0258299
949.369 .0258251
949.996 .0258201
950.624 .0258147
951.251 .0258090
951.878 .0258031
952.504 .0257968
953.130 .0257903
953.755 .0257835
954.380 .0257764
955.005 .0257691
955.629 .0257614
956.253 .0257535
956.877 .0257452
957.500 .0257367
958.123 .0257279
958.746 .0257189
959.368 .0257098
959.990 .0257007
960.611 .0256917
961.232 .0256827
961.853 .0256739
962.473 .0256653
963.093 .0256568
963.712 .0256485
964.331 .0256405
964.950 .0256328
965.569 .0256254
966.187 .0256184
966.804 .0256118
967.422 .0256056
968.039 .0255998
968.655 .0255942
969.272 .0255889
969.887 .0255837
970.503 .0255787
971.118 .0255736
971.733 .0255686
972.347 .0255636
972.961 .0255585
973.575 .0255532
974.188 .0255477
974.801 .0255419
975.414 .0255357
976.026 .0255288
976.638 .0255214
977.250 .0255131
977.861 .0255041
978.472 .0254943
979.083 .0254837
979.693 .0254723
980.303 .0254602
980.912 .0254376
981.521 .0254236
982.130 .0254088
982.738 .0253934
983.346 .0253774
983.954 .0253610
984.562 .0253444
985.169 .0253275
985.775 .0253107
986.382 .0252939
986.988 .0252773
987.594 .0252609
988.199 .0252448
988.804 .0252289
989.409 .0252233
990.013 .0252084
990.617 .0251941
991.221 .0251804
991.824 .0251674
992.427 .0251552
993.030 .0251439
993.632 .0251334
994.234 .0251237
994.836 .0251149
995.438 .0251069
996.039 .0250997
996.640 .0250933
997.240 .0250877
997.840 .0250828
998.440 .0250787
999.040 .0250752
999.639 .0250722
1000.238 .0250697
1000.836 .0250674
1001.435 .0250652
1002.033 .0250631
1002.630 .0250609
1003.228 .0250587
1003.825 .0250562
1004.422 .0250537
1005.018 .0250510
1005.614 .0250482
1006.210 .0250452
1006.806 .0250421
1007.401 .0250388
1007.996 .0250353
1008.591 .0250317
1009.186 .0250280
1009.780 .0250243
1010.374 .0250206
1010.967 .0250171
1011.561 .0250138
1012.154 .0250107
1012.746 .0250080
1013.339 .0250056
1013.931 .0250035
1014.523 .0250018
1015.115 .0250004
1015.706 .0249994
1016.298 .0249989
1016.888 .0249989
1017.479 .0249995
1018.069 .0250007
1018.660 .0250025
1019.250 .0250050
1019.839 .0250081
1020.429 .0250118
1021.018 .0250161
1021.607 .0250210
1022.195 .0250263
1022.784 .0250321
1023.372 .0250384
1023.960 .0250450
1024.547 .0250521
1025.135 .0250595
1025.722 .0250672
1026.309 .0250750
1026.896 .0250831
1027.483 .0250913
1028.069 .0250995
1028.655 .0251077
1029.241 .0251159
1029.827 .0251240
1030.412 .0251320
1030.997 .0251398
1031.582 .0251473
1032.167 .0251547
1032.752 .0251618
1033.336 .0251686
1033.921 .0251752
1034.505 .0251814
1035.089 .0251874
1035.672 .0251930
1036.256 .0251981
1036.839 .0252029
1037.422 .0252071
1038.005 .0252108
1038.588 .0252140
1039.171 .0252168
1039.753 .0252192
1040.335 .0252211
1040.918 .0252227
1041.500 .0252241
1042.081 .0252253
1042.663 .0252264
1043.244 .0252275
1043.826 .0252286
1044.407 .0252297
1044.988 .0252309
1045.569 .0252321
1046.150 .0252333
1046.730 .0252345
1047.311 .0252356
1047.891 .0252366
1048.471 .0252376
1049.052 .0252384
1049.632 .0252393
1050.211 .0252403
1050.791 .0252413
1051.371 .0252424
1051.950 .0252436
1052.530 .0252449
1053.109 .0252463
1053.688 .0252477
1054.268 .0252492
1054.847 .0252509
1055.426 .0252528
1056.005 .0252551
1056.583 .0252579
1057.162 .0252612
1057.741 .0252651
1058.319 .0252694
1058.898 .0252741
1059.476 .0252791
1060.055 .0252842
1060.633 .0252895
1061.211 .0252948
1061.790 .0253000
1062.368 .0253054
1062.946 .0253107
1063.524 .0253161
1064.102 .0253216
1064.680 .0253271
1065.258 .0253327
1065.836 .0253383
1066.414 .0253440
1066.992 .0253497
1067.570 .0253555
1068.148 .0253616
1068.726 .0253679
1069.304 .0253747
1069.882 .0253821
1070.460 .0253900
1071.038 .0253986
1071.616 .0254077
1072.194 .0254173
1072.772 .0254272
1073.350 .0254373
1073.928 .0254475
1074.506 .0254575
1075.084 .0254672
1075.662 .0254767
1076.240 .0254858
1076.819 .0254947
1077.397 .0255033
1077.976 .0255118
1078.554 .0255201
1079.133 .0255284
1079.711 .0255366
1080.290 .0255449
1080.869 .0255533
1081.448 .0255618
1082.027 .0255704
1082.606 .0255793
1083.185 .0255883
1083.764 .0255976
1084.343 .0256072
1084.923 .0256168
1085.502 .0256265
1086.082 .0256363
1086.662 .0256460
1087.242 .0256556
1087.822 .0256650
1088.402 .0256743
1088.983 .0256832
1089.563 .0256920
1090.144 .0257006
1090.725 .0257092
1091.306 .0257180
1091.887 .0257271
1092.469 .0257368
1093.050 .0257471
1093.632 .0257581
1094.214 .0257699
1094.796 .0257824
1095.379 .0257955
1095.961 .0258093
1096.544 .0258235
1097.127 .0258381
1097.710 .0258533
1098.294 .0258690
1098.877 .0258853
1099.461 .0259021
1100.046 .0259195
1100.630 .0259374
1101.215 .0259557
1101.800 .0259745
1102.385 .0259936
1102.970 .0260130
1103.556 .0260326
1104.142 .0260524
1104.728 .0260724
1105.315 .0260926
1105.902 .0261132
1106.489 .0261343
1107.077 .0261558
1107.664 .0261780
1108.253 .0262007
1108.841 .0262239
1109.430 .0262476
1110.019 .0262719
1110.609 .0262965
1111.198 .0263214
1111.789 .0263467
1112.379 .0263725
1112.970 .0263988
1113.561 .0264258
1114.153 .0264537
1114.745 .0264827
1115.338 .0265128
1115.931 .0265440
1116.524 .0265763
1117.117 .0266095
1117.712 .0266435
1118.306 .0266783
1118.901 .0267140
1119.496 .0267504
1120.092 .0267878
1120.689 .0268264
1121.285 .0268662
1121.882 .0269076
1122.480 .0269506
1123.078 .0269953
1123.677 .0270418
1124.276 .0270900
1124.875 .0271401
1125.476 .0271920
1126.076 .0272460
1126.677 .0273023
1127.279 .0273610
1127.881 .0274223
1128.484 .0274866
1129.087 .0275135
1129.691 .0275821
1130.295 .0276541
1130.900 .0277295
1131.505 .0278086
1132.111 .0278910
1132.718 .0279772
1133.325 .0280679
1133.933 .0281639
1134.541 .0282651
1135.150 .0283607
1135.760 .0284755
1136.370 .0286073
1136.981 .0285614
1137.592 .0286872
1138.204 .0288189
1138.817 .0289540
1139.431 .0291026
1140.045 .0292473
1140.660 .0294055
1141.275 .0295871
1141.891 .0297891
1142.508 .0299901
1143.126 .0298838
1143.744 .0304738
1144.363 .0310012
1144.983 .0312474
