Measurement Sequence started on: 15-12-46-377
Integration time: 28
Scans to Average: 2 
>>>>>Begin Spectral Data<<<<<
432.689 .0000100
433.621 .0000100
434.552 .0000100
435.482 .0000100
436.410 .0000100
437.337 .0000100
438.262 .0271805
439.187 .0576132
440.110 .0953688
441.031 .1379916
441.952 .1108724
442.871 .1158311
443.789 .1204451
444.705 .1247836
445.621 .1288930
446.535 .1328103
447.447 .1351326
448.359 .1357097
449.269 .1341747
450.178 .1302870
451.086 .1241236
451.993 .1161590
452.898 .1071761
453.803 .0980633
454.706 .0895759
455.608 .0821833
456.508 .0760436
457.408 .0718577
458.306 .0686187
459.204 .0659637
460.100 .0637167
460.995 .0617793
461.888 .0600841
462.781 .0585864
463.673 .0572513
464.563 .0560535
465.452 .0549736
466.340 .0539949
467.228 .0531042
468.114 .0522909
468.999 .0515460
469.882 .0508610
470.765 .0502290
471.647 .0496452
472.528 .0491050
473.407 .0486053
474.286 .0481435
475.163 .0477185
476.040 .0473289
476.915 .0469743
477.790 .0466541
478.663 .0463676
479.535 .0461144
480.407 .0458930
481.277 .0457023
482.147 .0455406
483.015 .0454062
483.883 .0452980
484.749 .0452147
485.615 .0451556
486.479 .0451201
487.343 .0451073
488.206 .0451168
489.067 .0451477
489.928 .0451993
490.788 .0452710
491.647 .0453620
492.505 .0454719
493.362 .0456005
494.218 .0457475
495.073 .0459136
495.928 .0462336
496.781 .0464530
497.634 .0466942
498.486 .0469584
499.337 .0472479
500.187 .0475647
501.036 .0479111
501.884 .0482901
502.731 .0487053
503.578 .0491597
504.424 .0494733
505.268 .0499970
506.113 .0505664
506.956 .0511840
507.798 .0518534
508.640 .0525796
509.480 .0533698
510.320 .0542339
511.160 .0551833
511.998 .0562322
512.836 .0573991
513.672 .0587012
514.508 .0601588
515.344 .0617938
516.178 .0636280
517.012 .0656821
517.845 .0679757
518.677 .0705277
519.508 .0733544
520.339 .0764667
521.169 .0798692
521.998 .0835456
522.826 .0874674
523.654 .0915870
524.481 .0958436
525.307 .1001645
526.133 .1044667
526.958 .1086611
527.782 .1126591
528.605 .1163766
529.428 .1197396
530.250 .1226811
531.072 .1251541
531.892 .1271192
532.712 .1285494
533.532 .1294272
534.350 .1297475
535.168 .1295149
535.986 .1287386
536.802 .1274283
537.618 .1255954
538.434 .1232539
539.249 .1204389
540.063 .1171943
540.876 .1135788
541.689 .1096612
542.501 .1055201
543.313 .1012387
544.124 .0969044
544.934 .0926004
545.744 .0884040
546.553 .0843796
547.361 .0805805
548.169 .0770394
548.976 .0737786
549.783 .0708065
550.589 .0681196
551.395 .0657019
552.200 .0635291
553.004 .0615709
553.808 .0597985
554.611 .0581860
555.414 .0567121
556.216 .0553558
557.018 .0540996
557.819 .0529300
558.619 .0518368
559.419 .0508112
560.218 .0498479
561.017 .0489414
561.815 .0480873
562.613 .0472807
563.410 .0465156
564.207 .0457865
565.003 .0450896
565.799 .0444205
566.594 .0437760
567.388 .0431542
568.182 .0425536
568.976 .0419730
569.769 .0414123
570.562 .0408718
571.354 .0403519
572.145 .0398523
572.936 .0393732
573.727 .0389140
574.517 .0384745
575.307 .0380542
576.096 .0376524
576.885 .0372688
577.673 .0369028
578.461 .0365540
579.248 .0362220
580.035 .0359071
580.821 .0356093
581.607 .0353286
582.392 .0350649
583.177 .0348180
583.962 .0345877
584.746 .0343734
585.529 .0341746
586.313 .0339906
587.095 .0338206
587.878 .0336639
588.660 .0335196
589.441 .0333870
590.222 .0332655
591.003 .0331545
591.783 .0330533
592.563 .0329610
593.342 .0328766
594.121 .0327994
594.899 .0327281
595.678 .0326619
596.455 .0326000
597.233 .0325415
598.009 .0324858
598.786 .0324324
599.562 .0323811
600.338 .0323314
601.113 .0322832
601.888 .0322139
602.663 .0321687
603.437 .0321245
604.211 .0320812
604.984 .0320387
605.757 .0319969
606.530 .0319559
607.302 .0319157
608.074 .0318763
608.845 .0318378
609.616 .0318004
610.387 .0317853
611.158 .0317499
611.928 .0317158
612.697 .0316831
613.467 .0316519
614.236 .0316223
615.004 .0315941
615.773 .0315674
616.541 .0315419
617.308 .0315176
618.076 .0314941
618.843 .0314714
619.609 .0314493
620.375 .0314278
621.141 .0314069
621.907 .0313864
622.672 .0313662
623.437 .0313463
624.202 .0313264
624.966 .0313064
625.730 .0312861
626.493 .0312654
627.257 .0312441
628.020 .0312221
628.782 .0311995
629.545 .0311762
630.307 .0311523
631.068 .0311277
631.830 .0311025
632.591 .0310768
633.352 .0310506
634.112 .0310242
634.872 .0309976
635.632 .0309709
636.392 .0309442
637.151 .0309176
637.910 .0308911
638.668 .0308647
639.427 .0308384
640.185 .0308122
640.943 .0307862
641.700 .0307606
642.457 .0307356
643.214 .0307111
643.971 .0306875
644.727 .0306645
645.483 .0306422
646.239 .0306205
646.994 .0305993
647.750 .0305785
648.505 .0305579
649.259 .0305375
650.014 .0305173
650.768 .0304973
651.521 .0304774
652.275 .0304576
653.028 .0304378
653.781 .0304179
654.534 .0303978
655.286 .0303773
656.039 .0303564
656.791 .0303351
657.542 .0303133
658.294 .0302910
659.045 .0302682
659.796 .0302450
660.546 .0302214
661.297 .0301974
662.047 .0301730
662.796 .0301484
663.546 .0301236
664.295 .0300988
665.044 .0300742
665.793 .0300498
666.542 .0300259
667.290 .0300023
668.038 .0299792
668.786 .0299566
669.533 .0299344
670.281 .0299126
671.028 .0298913
671.774 .0298705
672.521 .0298503
673.267 .0298306
674.013 .0298115
674.759 .0297930
675.505 .0297749
676.250 .0297573
676.995 .0297401
677.740 .0297231
678.484 .0297062
679.229 .0296896
679.973 .0296731
680.717 .0296567
681.460 .0296404
682.204 .0296242
682.947 .0296079
683.690 .0295916
684.433 .0295750
685.175 .0295581
685.917 .0295409
686.659 .0295232
687.401 .0295051
688.142 .0294866
688.884 .0294678
689.625 .0294487
690.365 .0294292
691.106 .0294096
691.846 .0293897
692.586 .0293697
693.326 .0293495
694.066 .0293293
694.805 .0293090
695.545 .0292887
696.284 .0292685
697.022 .0292483
697.761 .0292283
698.499 .0292085
699.237 .0291889
699.975 .0291695
700.713 .0291504
701.450 .0291317
702.187 .0291132
702.924 .0290951
703.661 .0290772
704.397 .0290594
705.133 .0290418
705.869 .0290243
706.605 .0290068
707.341 .0289894
708.076 .0289720
708.811 .0289547
709.546 .0289374
710.281 .0289201
711.015 .0289029
711.749 .0288857
712.483 .0288685
713.217 .0288512
713.950 .0288338
714.684 .0288163
715.417 .0287987
716.150 .0287809
716.882 .0287629
717.615 .0287447
718.347 .0287264
719.079 .0287079
719.811 .0286893
720.542 .0286705
721.273 .0286517
722.005 .0286329
722.735 .0286141
723.466 .0285955
724.196 .0285770
724.927 .0285587
725.656 .0285407
726.386 .0285229
727.116 .0285055
727.845 .0284884
728.574 .0284716
729.303 .0284553
730.031 .0284395
730.760 .0284240
731.488 .0284090
732.216 .0283944
732.944 .0283800
733.671 .0283660
734.398 .0283523
735.125 .0283390
735.852 .0283259
736.579 .0283132
737.305 .0283008
738.031 .0282888
738.757 .0282770
739.483 .0282656
740.208 .0282545
740.933 .0282436
741.658 .0282328
742.383 .0282220
743.108 .0282113
743.832 .0282005
744.556 .0281896
745.280 .0281785
746.004 .0281673
746.727 .0281560
747.450 .0281446
748.173 .0281330
748.896 .0281214
749.618 .0281096
750.340 .0280977
751.062 .0280856
751.784 .0280734
752.506 .0280610
753.227 .0280484
753.948 .0280355
754.669 .0280226
755.389 .0280096
756.110 .0279966
756.830 .0279836
757.550 .0279708
758.269 .0279581
758.989 .0279457
759.708 .0279335
760.427 .0279215
761.146 .0279097
761.864 .0278980
762.582 .0278864
763.300 .0278749
764.018 .0278635
764.736 .0278521
765.453 .0278408
766.170 .0278295
766.887 .0278183
767.603 .0278072
768.320 .0277961
769.036 .0277852
769.751 .0277744
770.467 .0277637
771.182 .0277531
771.897 .0277425
772.612 .0277320
773.327 .0277214
774.041 .0277108
774.755 .0277001
775.469 .0276895
776.183 .0276789
776.896 .0276683
777.609 .0276579
778.322 .0276477
779.035 .0276377
779.747 .0276280
780.459 .0276184
781.171 .0276090
781.882 .0275998
782.594 .0275906
783.305 .0275815
784.016 .0275724
784.726 .0275633
785.436 .0275542
786.147 .0275405
786.856 .0275313
787.566 .0275220
788.275 .0275126
788.984 .0275031
789.693 .0274933
790.401 .0274833
791.110 .0274730
791.818 .0274623
792.525 .0274513
793.233 .0274398
793.940 .0274278
794.647 .0274206
795.353 .0274081
796.060 .0273951
796.766 .0273818
797.472 .0273681
798.177 .0273539
798.883 .0273395
799.588 .0273247
800.292 .0273097
800.997 .0272944
801.701 .0272789
802.405 .0272632
803.109 .0272473
803.812 .0272312
804.515 .0272151
805.218 .0271990
805.921 .0271830
806.623 .0271671
807.325 .0271513
808.027 .0271356
808.728 .0271201
809.429 .0271046
810.130 .0270892
810.831 .0270738
811.531 .0270585
812.231 .0270432
812.931 .0270279
813.630 .0270128
814.330 .0269978
815.029 .0269831
815.727 .0269686
816.426 .0269543
817.124 .0269404
817.821 .0269268
818.519 .0269136
819.216 .0269007
819.913 .0268883
820.609 .0268763
821.306 .0268646
822.002 .0268534
822.697 .0268425
823.393 .0268321
824.088 .0268220
824.783 .0268123
825.477 .0268031
826.171 .0267942
826.865 .0267858
827.559 .0267777
828.252 .0267700
828.945 .0267626
829.638 .0267555
830.330 .0267486
831.023 .0267420
831.714 .0267354
832.406 .0267291
833.097 .0267230
833.788 .0267171
834.479 .0267114
835.169 .0267059
835.859 .0267007
836.548 .0266957
837.238 .0266908
837.927 .0266862
838.615 .0266816
839.304 .0266771
839.992 .0266726
840.680 .0266681
841.367 .0266636
842.054 .0266591
842.741 .0266546
843.428 .0266501
844.114 .0266457
844.800 .0266414
845.485 .0266371
846.170 .0266329
846.855 .0266286
847.540 .0266242
848.224 .0266198
848.908 .0266152
849.592 .0266103
850.275 .0266052
850.958 .0265998
851.641 .0265940
852.323 .0265878
853.005 .0265812
853.687 .0265741
854.368 .0265665
855.049 .0265583
855.730 .0265496
856.410 .0265403
857.090 .0265305
857.769 .0265201
858.449 .0265093
859.128 .0264980
859.806 .0264863
860.485 .0264743
861.163 .0264620
861.840 .0264495
862.518 .0264369
863.195 .0264244
863.871 .0264119
864.548 .0263996
865.224 .0263875
865.899 .0263757
866.574 .0263642
867.249 .0263531
867.924 .0263424
868.598 .0263321
869.272 .0263222
869.946 .0263128
870.619 .0263038
871.292 .0262955
871.964 .0262877
872.636 .0262805
873.308 .0262739
873.979 .0262679
874.651 .0262624
875.321 .0262575
875.992 .0262530
876.662 .0262489
877.331 .0262450
878.001 .0262413
878.670 .0262376
879.338 .0262339
880.007 .0262302
880.675 .0262263
881.342 .0262224
882.009 .0262184
882.676 .0262142
883.343 .0262099
884.009 .0262054
884.675 .0262006
885.340 .0261955
886.005 .0261902
886.670 .0261846
887.334 .0261788
887.998 .0261728
888.662 .0261667
889.325 .0261605
889.988 .0261543
890.650 .0261481
891.312 .0261417
891.974 .0261353
892.636 .0261286
893.297 .0261218
893.957 .0261148
894.618 .0261076
895.278 .0261000
895.937 .0260922
896.596 .0260841
897.255 .0260755
897.914 .0260664
898.572 .0260568
899.230 .0260465
899.887 .0260356
900.544 .0260238
901.201 .0260112
901.857 .0259881
902.513 .0259733
903.168 .0259575
903.823 .0259409
904.478 .0259233
905.132 .0259047
905.786 .0258852
906.440 .0258647
907.093 .0258433
907.746 .0258211
908.399 .0257981
909.051 .0257746
909.703 .0257507
910.354 .0257379
911.005 .0257138
911.656 .0256895
912.306 .0256651
912.956 .0256406
913.605 .0256161
914.254 .0255917
914.903 .0255675
915.551 .0255435
916.199 .0255197
916.847 .0254963
917.494 .0254732
918.141 .0254505
918.788 .0254281
919.434 .0254061
920.079 .0253844
920.725 .0253630
921.370 .0253420
922.014 .0253212
922.658 .0253006
923.302 .0252803
923.946 .0252600
924.589 .0252399
925.231 .0252199
925.873 .0251999
926.515 .0251799
927.157 .0251600
927.798 .0251402
928.439 .0251204
929.079 .0251007
929.719 .0250811
930.359 .0250616
930.998 .0250423
931.637 .0250231
932.275 .0250041
932.913 .0249855
933.551 .0249672
934.188 .0249495
934.825 .0249322
935.462 .0249157
936.098 .0248997
936.733 .0248846
937.369 .0248701
938.004 .0248565
938.638 .0248436
939.273 .0248315
939.907 .0248203
940.540 .0248099
941.173 .0248003
941.806 .0247916
942.438 .0247836
943.070 .0247763
943.702 .0247697
944.333 .0247636
944.964 .0247580
945.594 .0247530
946.224 .0247483
946.854 .0247441
947.483 .0247402
948.112 .0247366
948.741 .0247333
949.369 .0247302
949.996 .0247272
950.624 .0247243
951.251 .0247214
951.878 .0247185
952.504 .0247156
953.130 .0247126
953.755 .0247097
954.380 .0247068
955.005 .0247039
955.629 .0247010
956.253 .0246981
956.877 .0246952
957.500 .0246922
958.123 .0246893
958.746 .0246863
959.368 .0246835
959.990 .0246807
960.611 .0246782
961.232 .0246758
961.853 .0246736
962.473 .0246717
963.093 .0246700
963.712 .0246685
964.331 .0246673
964.950 .0246665
965.569 .0246660
966.187 .0246658
966.804 .0246661
967.422 .0246667
968.039 .0246677
968.655 .0246689
969.272 .0246703
969.887 .0246717
970.503 .0246733
971.118 .0246748
971.733 .0246763
972.347 .0246777
972.961 .0246791
973.575 .0246803
974.188 .0246815
974.801 .0246824
975.414 .0246832
976.026 .0246837
976.638 .0246838
977.250 .0246837
977.861 .0246833
978.472 .0246826
979.083 .0246817
979.693 .0246806
980.303 .0246794
980.912 .0246766
981.521 .0246752
982.130 .0246738
982.738 .0246723
983.346 .0246708
983.954 .0246692
984.562 .0246676
985.169 .0246661
985.775 .0246648
986.382 .0246638
986.988 .0246629
987.594 .0246624
988.199 .0246621
988.804 .0246621
989.409 .0246634
990.013 .0246636
990.617 .0246640
991.221 .0246645
991.824 .0246651
992.427 .0246659
993.030 .0246668
993.632 .0246678
994.234 .0246688
994.836 .0246699
995.438 .0246710
996.039 .0246721
996.640 .0246730
997.240 .0246739
997.840 .0246747
998.440 .0246754
999.040 .0246760
999.639 .0246765
1000.238 .0246769
1000.836 .0246772
1001.435 .0246774
1002.033 .0246775
1002.630 .0246776
1003.228 .0246775
1003.825 .0246774
1004.422 .0246771
1005.018 .0246767
1005.614 .0246762
1006.210 .0246755
1006.806 .0246746
1007.401 .0246736
1007.996 .0246725
1008.591 .0246712
1009.186 .0246701
1009.780 .0246690
1010.374 .0246682
1010.967 .0246677
1011.561 .0246675
1012.154 .0246677
1012.746 .0246682
1013.339 .0246689
1013.931 .0246700
1014.523 .0246711
1015.115 .0246724
1015.706 .0246738
1016.298 .0246753
1016.888 .0246768
1017.479 .0246784
1018.069 .0246801
1018.660 .0246817
1019.250 .0246834
1019.839 .0246849
1020.429 .0246863
1021.018 .0246874
1021.607 .0246883
1022.195 .0246888
1022.784 .0246891
1023.372 .0246891
1023.960 .0246890
1024.547 .0246888
1025.135 .0246885
1025.722 .0246881
1026.309 .0246876
1026.896 .0246868
1027.483 .0246857
1028.069 .0246843
1028.655 .0246824
1029.241 .0246800
1029.827 .0246773
1030.412 .0246742
1030.997 .0246709
1031.582 .0246674
1032.167 .0246637
1032.752 .0246600
1033.336 .0246562
1033.921 .0246524
1034.505 .0246484
1035.089 .0246442
1035.672 .0246399
1036.256 .0246353
1036.839 .0246306
1037.422 .0246257
1038.005 .0246206
1038.588 .0246154
1039.171 .0246100
1039.753 .0246047
1040.335 .0245992
1040.918 .0245937
1041.500 .0245879
1042.081 .0245821
1042.663 .0245761
1043.244 .0245699
1043.826 .0245637
1044.407 .0245575
1044.988 .0245514
1045.569 .0245454
1046.150 .0245397
1046.730 .0245341
1047.311 .0245286
1047.891 .0245232
1048.471 .0245177
1049.052 .0245120
1049.632 .0245060
1050.211 .0244996
1050.791 .0244928
1051.371 .0244857
1051.950 .0244780
1052.530 .0244699
1053.109 .0244614
1053.688 .0244525
1054.268 .0244432
1054.847 .0244336
1055.426 .0244237
1056.005 .0244138
1056.583 .0244037
1057.162 .0243937
1057.741 .0243838
1058.319 .0243740
1058.898 .0243644
1059.476 .0243550
1060.055 .0243457
1060.633 .0243366
1061.211 .0243276
1061.790 .0243188
1062.368 .0243102
1062.946 .0243020
1063.524 .0242941
1064.102 .0242867
1064.680 .0242798
1065.258 .0242732
1065.836 .0242671
1066.414 .0242614
1066.992 .0242560
1067.570 .0242511
1068.148 .0242466
1068.726 .0242425
1069.304 .0242390
1069.882 .0242360
1070.460 .0242337
1071.038 .0242318
1071.616 .0242304
1072.194 .0242293
1072.772 .0242283
1073.350 .0242274
1073.928 .0242264
1074.506 .0242252
1075.084 .0242241
1075.662 .0242229
1076.240 .0242219
1076.819 .0242211
1077.397 .0242208
1077.976 .0242209
1078.554 .0242215
1079.133 .0242226
1079.711 .0242241
1080.290 .0242260
1080.869 .0242281
1081.448 .0242305
1082.027 .0242332
1082.606 .0242361
1083.185 .0242392
1083.764 .0242425
1084.343 .0242461
1084.923 .0242501
1085.502 .0242545
1086.082 .0242594
1086.662 .0242648
1087.242 .0242708
1087.822 .0242774
1088.402 .0242847
1088.983 .0242927
1089.563 .0243015
1090.144 .0243110
1090.725 .0243214
1091.306 .0243325
1091.887 .0243444
1092.469 .0243569
1093.050 .0243702
1093.632 .0243841
1094.214 .0243985
1094.796 .0244134
1095.379 .0244286
1095.961 .0244442
1096.544 .0244601
1097.127 .0244764
1097.710 .0244930
1098.294 .0245102
1098.877 .0245279
1099.461 .0245463
1100.046 .0245656
1100.630 .0245859
1101.215 .0246073
1101.800 .0246299
1102.385 .0246538
1102.970 .0246789
1103.556 .0247053
1104.142 .0247329
1104.728 .0247616
1105.315 .0247911
1105.902 .0248214
1106.489 .0248522
1107.077 .0248834
1107.664 .0249151
1108.253 .0249472
1108.841 .0249798
1109.430 .0250130
1110.019 .0250470
1110.609 .0250817
1111.198 .0251173
1111.789 .0251537
1112.379 .0251909
1112.970 .0252289
1113.561 .0252674
1114.153 .0253066
1114.745 .0253466
1115.338 .0253874
1115.931 .0254292
1116.524 .0254723
1117.117 .0255168
1117.712 .0255628
1118.306 .0256103
1118.901 .0256592
1119.496 .0257096
1120.092 .0257613
1120.689 .0258141
1121.285 .0258681
1121.882 .0259232
1122.480 .0259797
1123.078 .0260377
1123.677 .0260975
1124.276 .0261592
1124.875 .0262227
1125.476 .0262882
1126.076 .0263554
1126.677 .0264242
1127.279 .0264945
1127.881 .0265660
1128.484 .0266384
1129.087 .0266723
1129.691 .0267463
1130.295 .0268209
1130.900 .0268959
1131.505 .0269712
1132.111 .0270468
1132.718 .0271226
1133.325 .0271985
1133.933 .0272735
1134.541 .0273496
1135.150 .0274288
1135.760 .0275084
1136.370 .0275786
1136.981 .0277413
1137.592 .0278111
1138.204 .0278766
1138.817 .0279354
1139.431 .0279923
1140.045 .0280520
1140.660 .0281129
1141.275 .0281748
1141.891 .0282177
1142.508 .0283187
1143.126 .0284828
1143.744 .0285780
1144.363 .0284019
1144.983 .0279439
