Measurement Sequence started on: 15-12-46-377
Integration time: 28
Scans to Average: 2 
>>>>>Begin Spectral Data<<<<<
432.689 .0000100
433.621 .0000100
434.552 .0000100
435.482 .0000100
436.410 .0000100
437.337 .0000100
438.262 .0262860
439.187 .0558470
440.110 .0925995
441.031 .1340767
441.952 .1080266
442.871 .1128908
443.789 .1174339
444.705 .1217273
445.621 .1258194
446.535 .1297453
447.447 .1321461
448.359 .1328677
449.269 .1315459
450.178 .1279435
451.086 .1221268
451.993 .1145516
452.898 .1059759
453.803 .0972623
454.706 .0891468
455.608 .0820882
456.508 .0762417
457.408 .0722849
458.306 .0692433
459.204 .0667598
460.100 .0646538
460.995 .0628257
461.888 .0612067
462.781 .0597510
463.673 .0584267
464.563 .0572132
465.452 .0560952
466.340 .0550623
467.228 .0541068
468.114 .0532241
468.999 .0524098
469.882 .0516599
470.765 .0509708
471.647 .0503389
472.528 .0497612
473.407 .0492346
474.286 .0487566
475.163 .0483260
476.040 .0479416
476.915 .0476016
477.790 .0473051
478.663 .0470504
479.535 .0468360
480.407 .0466599
481.277 .0465193
482.147 .0464106
483.015 .0463304
483.883 .0462751
484.749 .0462415
485.615 .0462270
486.479 .0462297
487.343 .0462480
488.206 .0462814
489.067 .0463293
489.928 .0463913
490.788 .0464673
491.647 .0465572
492.505 .0466604
493.362 .0467769
494.218 .0469067
495.073 .0470500
495.928 .0473163
496.781 .0475005
497.634 .0477029
498.486 .0479257
499.337 .0481715
500.187 .0484428
501.036 .0487428
501.884 .0490755
502.731 .0494460
503.578 .0498597
504.424 .0501628
505.268 .0506613
506.113 .0512178
506.956 .0518365
507.798 .0525221
508.640 .0532800
509.480 .0541184
510.320 .0550461
511.160 .0560741
511.998 .0572139
512.836 .0584805
513.672 .0598890
514.508 .0614570
515.344 .0632032
516.178 .0651457
517.012 .0673029
517.845 .0696915
518.677 .0723270
519.508 .0752210
520.339 .0783780
521.169 .0818002
521.998 .0854652
522.826 .0893398
523.654 .0933740
524.481 .0975077
525.307 .1016698
526.133 .1057825
526.958 .1097598
527.782 .1135205
528.605 .1169884
529.428 .1200990
530.250 .1227934
531.072 .1250346
531.892 .1267903
532.712 .1280395
533.532 .1287697
534.350 .1289781
535.168 .1286661
535.986 .1278412
536.802 .1265099
537.618 .1246829
538.434 .1223683
539.249 .1195990
540.063 .1164163
540.876 .1128761
541.689 .1090445
542.501 .1049976
543.313 .1008155
544.124 .0965848
544.934 .0923856
545.744 .0882895
546.553 .0843574
547.361 .0806399
548.169 .0771634
548.976 .0739474
549.783 .0709978
550.589 .0683107
551.395 .0658713
552.200 .0636614
553.004 .0616562
553.808 .0598350
554.611 .0581786
555.414 .0566713
556.216 .0552979
557.018 .0540443
557.819 .0528979
558.619 .0518472
559.419 .0508813
560.218 .0499913
561.017 .0491671
561.815 .0484003
562.613 .0476830
563.410 .0470066
564.207 .0463630
565.003 .0457461
565.799 .0451499
566.594 .0445697
567.388 .0440019
568.182 .0434445
568.976 .0428962
569.769 .0423573
570.562 .0418277
571.354 .0413080
572.145 .0407993
572.936 .0403022
573.727 .0398170
574.517 .0393450
575.307 .0388878
576.096 .0384461
576.885 .0380215
577.673 .0376153
578.461 .0372287
579.248 .0368627
580.035 .0365181
580.821 .0361951
581.607 .0358940
582.392 .0356145
583.177 .0353562
583.962 .0351181
584.746 .0348996
585.529 .0346991
586.313 .0345152
587.095 .0343462
587.878 .0341909
588.660 .0340478
589.441 .0339159
590.222 .0337946
591.003 .0336829
591.783 .0335803
592.563 .0334860
593.342 .0333991
594.121 .0333188
594.899 .0332442
595.678 .0331742
596.455 .0331082
597.233 .0330453
598.009 .0329850
598.786 .0329270
599.562 .0328713
600.338 .0328179
601.113 .0327667
601.888 .0326972
602.663 .0326511
603.437 .0326071
604.211 .0325649
604.984 .0325244
605.757 .0324854
606.530 .0324478
607.302 .0324113
608.074 .0323760
608.845 .0323417
609.616 .0323084
610.387 .0322943
611.158 .0322622
611.928 .0322311
612.697 .0322009
613.467 .0321718
614.236 .0321436
615.004 .0321162
615.773 .0320896
616.541 .0320636
617.308 .0320378
618.076 .0320122
618.843 .0319864
619.609 .0319603
620.375 .0319339
621.141 .0319071
621.907 .0318798
622.672 .0318522
623.437 .0318241
624.202 .0317957
624.966 .0317669
625.730 .0317376
626.493 .0317079
627.257 .0316777
628.020 .0316470
628.782 .0316157
629.545 .0315840
630.307 .0315519
631.068 .0315194
631.830 .0314867
632.591 .0314538
633.352 .0314209
634.112 .0313882
634.872 .0313558
635.632 .0313240
636.392 .0312928
637.151 .0312623
637.910 .0312324
638.668 .0312033
639.427 .0311748
640.185 .0311469
640.943 .0311197
641.700 .0310930
642.457 .0310669
643.214 .0310415
643.971 .0310169
644.727 .0309931
645.483 .0309701
646.239 .0309478
646.994 .0309261
647.750 .0309049
648.505 .0308840
649.259 .0308632
650.014 .0308426
650.768 .0308219
651.521 .0308013
652.275 .0307806
653.028 .0307600
653.781 .0307394
654.534 .0307189
655.286 .0306984
656.039 .0306779
656.791 .0306575
657.542 .0306371
658.294 .0306166
659.045 .0305961
659.796 .0305756
660.546 .0305551
661.297 .0305345
662.047 .0305140
662.796 .0304937
663.546 .0304735
664.295 .0304536
665.044 .0304340
665.793 .0304148
666.542 .0303961
667.290 .0303777
668.038 .0303597
668.786 .0303419
669.533 .0303244
670.281 .0303071
671.028 .0302899
671.774 .0302730
672.521 .0302562
673.267 .0302396
674.013 .0302234
674.759 .0302073
675.505 .0301914
676.250 .0301755
676.995 .0301595
677.740 .0301433
678.484 .0301268
679.229 .0301100
679.973 .0300929
680.717 .0300756
681.460 .0300580
682.204 .0300402
682.947 .0300222
683.690 .0300040
684.433 .0299854
685.175 .0299666
685.917 .0299475
686.659 .0299282
687.401 .0299086
688.142 .0298888
688.884 .0298688
689.625 .0298486
690.365 .0298282
691.106 .0298076
691.846 .0297868
692.586 .0297659
693.326 .0297450
694.066 .0297241
694.805 .0297033
695.545 .0296826
696.284 .0296621
697.022 .0296418
697.761 .0296217
698.499 .0296018
699.237 .0295820
699.975 .0295623
700.713 .0295428
701.450 .0295234
702.187 .0295043
702.924 .0294854
703.661 .0294667
704.397 .0294482
705.133 .0294299
705.869 .0294118
706.605 .0293938
707.341 .0293759
708.076 .0293581
708.811 .0293405
709.546 .0293231
710.281 .0293059
711.015 .0292888
711.749 .0292718
712.483 .0292550
713.217 .0292381
713.950 .0292213
714.684 .0292045
715.417 .0291876
716.150 .0291706
716.882 .0291536
717.615 .0291364
718.347 .0291192
719.079 .0291020
719.811 .0290846
720.542 .0290671
721.273 .0290496
722.005 .0290320
722.735 .0290144
723.466 .0289968
724.196 .0289792
724.927 .0289616
725.656 .0289441
726.386 .0289267
727.116 .0289096
727.845 .0288926
728.574 .0288760
729.303 .0288596
730.031 .0288436
730.760 .0288279
731.488 .0288126
732.216 .0287976
732.944 .0287830
733.671 .0287687
734.398 .0287548
735.125 .0287411
735.852 .0287278
736.579 .0287148
737.305 .0287020
738.031 .0286896
738.757 .0286775
739.483 .0286657
740.208 .0286541
740.933 .0286429
741.658 .0286318
742.383 .0286209
743.108 .0286101
743.832 .0285994
744.556 .0285886
745.280 .0285778
746.004 .0285670
746.727 .0285562
747.450 .0285454
748.173 .0285345
748.896 .0285236
749.618 .0285126
750.340 .0285016
751.062 .0284905
751.784 .0284793
752.506 .0284680
753.227 .0284565
753.948 .0284449
754.669 .0284330
755.389 .0284209
756.110 .0284086
756.830 .0283962
757.550 .0283837
758.269 .0283712
758.989 .0283586
759.708 .0283461
760.427 .0283336
761.146 .0283212
761.864 .0283087
762.582 .0282961
763.300 .0282834
764.018 .0282705
764.736 .0282576
765.453 .0282445
766.170 .0282314
766.887 .0282183
767.603 .0282053
768.320 .0281923
769.036 .0281795
769.751 .0281667
770.467 .0281541
771.182 .0281415
771.897 .0281290
772.612 .0281165
773.327 .0281041
774.041 .0280918
774.755 .0280795
775.469 .0280673
776.183 .0280553
776.896 .0280433
777.609 .0280315
778.322 .0280199
779.035 .0280084
779.747 .0279972
780.459 .0279861
781.171 .0279753
781.882 .0279646
782.594 .0279541
783.305 .0279437
784.016 .0279333
784.726 .0279230
785.436 .0279129
786.147 .0278984
786.856 .0278887
787.566 .0278793
788.275 .0278701
788.984 .0278612
789.693 .0278525
790.401 .0278441
791.110 .0278357
791.818 .0278275
792.525 .0278193
793.233 .0278110
793.940 .0278028
794.647 .0277988
795.353 .0277906
796.060 .0277824
796.766 .0277741
797.472 .0277658
798.177 .0277574
798.883 .0277488
799.588 .0277401
800.292 .0277313
800.997 .0277224
801.701 .0277134
802.405 .0277042
803.109 .0276950
803.812 .0276857
804.515 .0276762
805.218 .0276665
805.921 .0276566
806.623 .0276464
807.325 .0276360
808.027 .0276253
808.728 .0276144
809.429 .0276033
810.130 .0275921
810.831 .0275808
811.531 .0275695
812.231 .0275581
812.931 .0275467
813.630 .0275353
814.330 .0275240
815.029 .0275127
815.727 .0275016
816.426 .0274907
817.124 .0274801
817.821 .0274698
818.519 .0274598
819.216 .0274502
819.913 .0274410
820.609 .0274322
821.306 .0274239
822.002 .0274160
822.697 .0274087
823.393 .0274019
824.088 .0273956
824.783 .0273900
825.477 .0273848
826.171 .0273802
826.865 .0273760
827.559 .0273723
828.252 .0273689
828.945 .0273659
829.638 .0273630
830.330 .0273604
831.023 .0273580
831.714 .0273556
832.406 .0273534
833.097 .0273511
833.788 .0273488
834.479 .0273464
835.169 .0273437
835.859 .0273408
836.548 .0273374
837.238 .0273337
837.927 .0273294
838.615 .0273247
839.304 .0273194
839.992 .0273135
840.680 .0273072
841.367 .0273004
842.054 .0272931
842.741 .0272854
843.428 .0272773
844.114 .0272687
844.800 .0272597
845.485 .0272502
846.170 .0272401
846.855 .0272296
847.540 .0272185
848.224 .0272068
848.908 .0271946
849.592 .0271818
850.275 .0271686
850.958 .0271548
851.641 .0271407
852.323 .0271261
853.005 .0271112
853.687 .0270960
854.368 .0270803
855.049 .0270644
855.730 .0270480
856.410 .0270314
857.090 .0270144
857.769 .0269972
858.449 .0269797
859.128 .0269620
859.806 .0269441
860.485 .0269260
861.163 .0269079
861.840 .0268897
862.518 .0268714
863.195 .0268531
863.871 .0268349
864.548 .0268169
865.224 .0267990
865.899 .0267813
866.574 .0267639
867.249 .0267467
867.924 .0267298
868.598 .0267131
869.272 .0266966
869.946 .0266805
870.619 .0266646
871.292 .0266489
871.964 .0266335
872.636 .0266184
873.308 .0266037
873.979 .0265892
874.651 .0265750
875.321 .0265610
875.992 .0265472
876.662 .0265336
877.331 .0265201
878.001 .0265068
878.670 .0264938
879.338 .0264809
880.007 .0264685
880.675 .0264564
881.342 .0264448
882.009 .0264337
882.676 .0264231
883.343 .0264131
884.009 .0264037
884.675 .0263948
885.340 .0263865
886.005 .0263789
886.670 .0263719
887.334 .0263656
887.998 .0263600
888.662 .0263551
889.325 .0263508
889.988 .0263471
890.650 .0263439
891.312 .0263412
891.974 .0263389
892.636 .0263371
893.297 .0263356
893.957 .0263345
894.618 .0263337
895.278 .0263331
895.937 .0263326
896.596 .0263320
897.255 .0263312
897.914 .0263300
898.572 .0263284
899.230 .0263263
899.887 .0263235
900.544 .0263202
901.201 .0263162
901.857 .0263071
902.513 .0263013
903.168 .0262948
903.823 .0262875
904.478 .0262794
905.132 .0262705
905.786 .0262607
906.440 .0262503
907.093 .0262392
907.746 .0262276
908.399 .0262156
909.051 .0262033
909.703 .0261908
910.354 .0261839
911.005 .0261714
911.656 .0261589
912.306 .0261462
912.956 .0261335
913.605 .0261209
914.254 .0261083
914.903 .0260960
915.551 .0260839
916.199 .0260721
916.847 .0260606
917.494 .0260492
918.141 .0260380
918.788 .0260268
919.434 .0260156
920.079 .0260044
920.725 .0259932
921.370 .0259820
922.014 .0259709
922.658 .0259598
923.302 .0259488
923.946 .0259378
924.589 .0259269
925.231 .0259160
925.873 .0259051
926.515 .0258940
927.157 .0258828
927.798 .0258716
928.439 .0258604
929.079 .0258492
929.719 .0258381
930.359 .0258273
930.998 .0258166
931.637 .0258063
932.275 .0257962
932.913 .0257864
933.551 .0257769
934.188 .0257678
934.825 .0257591
935.462 .0257510
936.098 .0257434
936.733 .0257365
937.369 .0257302
938.004 .0257246
938.638 .0257198
939.273 .0257156
939.907 .0257120
940.540 .0257089
941.173 .0257064
941.806 .0257043
942.438 .0257026
943.070 .0257012
943.702 .0257001
944.333 .0256993
944.964 .0256986
945.594 .0256980
946.224 .0256973
946.854 .0256965
947.483 .0256956
948.112 .0256943
948.741 .0256927
949.369 .0256908
949.996 .0256885
950.624 .0256858
951.251 .0256827
951.878 .0256793
952.504 .0256755
953.130 .0256714
953.755 .0256669
954.380 .0256620
955.005 .0256567
955.629 .0256511
956.253 .0256449
956.877 .0256384
957.500 .0256313
958.123 .0256238
958.746 .0256159
959.368 .0256078
959.990 .0255993
960.611 .0255907
961.232 .0255820
961.853 .0255731
962.473 .0255641
963.093 .0255550
963.712 .0255457
964.331 .0255362
964.950 .0255265
965.569 .0255166
966.187 .0255065
966.804 .0254963
967.422 .0254859
968.039 .0254755
968.655 .0254650
969.272 .0254543
969.887 .0254435
970.503 .0254324
971.118 .0254211
971.733 .0254094
972.347 .0253975
972.961 .0253853
973.575 .0253730
974.188 .0253606
974.801 .0253481
975.414 .0253355
976.026 .0253228
976.638 .0253098
977.250 .0252965
977.861 .0252827
978.472 .0252685
979.083 .0252538
979.693 .0252386
980.303 .0252229
980.912 .0251977
981.521 .0251812
982.130 .0251644
982.738 .0251475
983.346 .0251303
983.954 .0251129
984.562 .0250953
985.169 .0250775
985.775 .0250597
986.382 .0250419
986.988 .0250244
987.594 .0250071
988.199 .0249903
988.804 .0249739
989.409 .0249671
990.013 .0249517
990.617 .0249368
991.221 .0249224
991.824 .0249084
992.427 .0248947
993.030 .0248814
993.632 .0248685
994.234 .0248560
994.836 .0248440
995.438 .0248324
996.039 .0248213
996.640 .0248108
997.240 .0248008
997.840 .0247913
998.440 .0247823
999.040 .0247737
999.639 .0247654
1000.238 .0247575
1000.836 .0247500
1001.435 .0247428
1002.033 .0247359
1002.630 .0247293
1003.228 .0247228
1003.825 .0247164
1004.422 .0247100
1005.018 .0247034
1005.614 .0246966
1006.210 .0246896
1006.806 .0246823
1007.401 .0246747
1007.996 .0246669
1008.591 .0246591
1009.186 .0246512
1009.780 .0246435
1010.374 .0246359
1010.967 .0246285
1011.561 .0246214
1012.154 .0246147
1012.746 .0246083
1013.339 .0246023
1013.931 .0245967
1014.523 .0245916
1015.115 .0245870
1015.706 .0245830
1016.298 .0245794
1016.888 .0245763
1017.479 .0245738
1018.069 .0245718
1018.660 .0245702
1019.250 .0245692
1019.839 .0245686
1020.429 .0245686
1021.018 .0245693
1021.607 .0245705
1022.195 .0245723
1022.784 .0245748
1023.372 .0245779
1023.960 .0245816
1024.547 .0245858
1025.135 .0245906
1025.722 .0245958
1026.309 .0246015
1026.896 .0246075
1027.483 .0246138
1028.069 .0246205
1028.655 .0246273
1029.241 .0246343
1029.827 .0246413
1030.412 .0246483
1030.997 .0246551
1031.582 .0246618
1032.167 .0246684
1032.752 .0246747
1033.336 .0246809
1033.921 .0246868
1034.505 .0246926
1035.089 .0246982
1035.672 .0247035
1036.256 .0247086
1036.839 .0247134
1037.422 .0247179
1038.005 .0247220
1038.588 .0247258
1039.171 .0247292
1039.753 .0247324
1040.335 .0247354
1040.918 .0247382
1041.500 .0247408
1042.081 .0247435
1042.663 .0247461
1043.244 .0247489
1043.826 .0247517
1044.407 .0247548
1044.988 .0247581
1045.569 .0247616
1046.150 .0247654
1046.730 .0247694
1047.311 .0247736
1047.891 .0247780
1048.471 .0247826
1049.052 .0247873
1049.632 .0247922
1050.211 .0247973
1050.791 .0248027
1051.371 .0248083
1051.950 .0248141
1052.530 .0248201
1053.109 .0248263
1053.688 .0248326
1054.268 .0248390
1054.847 .0248456
1055.426 .0248524
1056.005 .0248596
1056.583 .0248672
1057.162 .0248753
1057.741 .0248839
1058.319 .0248931
1058.898 .0249027
1059.476 .0249125
1060.055 .0249223
1060.633 .0249321
1061.211 .0249416
1061.790 .0249509
1062.368 .0249599
1062.946 .0249688
1063.524 .0249776
1064.102 .0249865
1064.680 .0249955
1065.258 .0250045
1065.836 .0250135
1066.414 .0250225
1066.992 .0250313
1067.570 .0250398
1068.148 .0250481
1068.726 .0250563
1069.304 .0250645
1069.882 .0250728
1070.460 .0250813
1071.038 .0250900
1071.616 .0250988
1072.194 .0251076
1072.772 .0251164
1073.350 .0251249
1073.928 .0251332
1074.506 .0251412
1075.084 .0251490
1075.662 .0251571
1076.240 .0251654
1076.819 .0251743
1077.397 .0251839
1077.976 .0251940
1078.554 .0252048
1079.133 .0252161
1079.711 .0252279
1080.290 .0252400
1080.869 .0252524
1081.448 .0252651
1082.027 .0252782
1082.606 .0252919
1083.185 .0253063
1083.764 .0253215
1084.343 .0253374
1084.923 .0253538
1085.502 .0253707
1086.082 .0253878
1086.662 .0254051
1087.242 .0254224
1087.822 .0254399
1088.402 .0254576
1088.983 .0254757
1089.563 .0254943
1090.144 .0255136
1090.725 .0255337
1091.306 .0255546
1091.887 .0255763
1092.469 .0255984
1093.050 .0256211
1093.632 .0256442
1094.214 .0256677
1094.796 .0256916
1095.379 .0257160
1095.961 .0257410
1096.544 .0257664
1097.127 .0257925
1097.710 .0258191
1098.294 .0258463
1098.877 .0258741
1099.461 .0259022
1100.046 .0259306
1100.630 .0259591
1101.215 .0259877
1101.800 .0260163
1102.385 .0260449
1102.970 .0260735
1103.556 .0261020
1104.142 .0261305
1104.728 .0261589
1105.315 .0261874
1105.902 .0262162
1106.489 .0262455
1107.077 .0262752
1107.664 .0263055
1108.253 .0263365
1108.841 .0263682
1109.430 .0264006
1110.019 .0264337
1110.609 .0264674
1111.198 .0265019
1111.789 .0265370
1112.379 .0265728
1112.970 .0266096
1113.561 .0266473
1114.153 .0266859
1114.745 .0267255
1115.338 .0267658
1115.931 .0268070
1116.524 .0268488
1117.117 .0268912
1117.712 .0269340
1118.306 .0269773
1118.901 .0270210
1119.496 .0270654
1120.092 .0271106
1120.689 .0271570
1121.285 .0272048
1121.882 .0272542
1122.480 .0273051
1123.078 .0273574
1123.677 .0274111
1124.276 .0274659
1124.875 .0275214
1125.476 .0275774
1126.076 .0276337
1126.677 .0276906
1127.279 .0277481
1127.881 .0278068
1128.484 .0278672
1129.087 .0278950
1129.691 .0279574
1130.295 .0280223
1130.900 .0280897
1131.505 .0281601
1132.111 .0282338
1132.718 .0283115
1133.325 .0283942
1133.933 .0284830
1134.541 .0285709
1135.150 .0286710
1135.760 .0287865
1136.370 .0289118
1136.981 .0287786
1137.592 .0288962
1138.204 .0290289
1138.817 .0291652
1139.431 .0293113
1140.045 .0294682
1140.660 .0296422
1141.275 .0298368
1141.891 .0300622
1142.508 .0300855
1143.126 .0304665
1143.744 .0309352
1144.363 .0312433
1144.983 .0317328
