Measurement Sequence started on: 15-12-46-377
Integration time: 28
Scans to Average: 2 
>>>>>Begin Spectral Data<<<<<
432.689 .0000100
433.621 .0000100
434.552 .0000100
435.482 .0000100
436.410 .0000100
437.337 .0000100
438.262 .0278455
439.187 .0590312
440.110 .0977231
441.031 .1413797
441.952 .1133053
442.871 .1183344
443.789 .1230208
444.705 .1274402
445.621 .1316437
446.535 .1356701
447.447 .1380808
448.359 .1387200
449.269 .1372092
450.178 .1333000
451.086 .1270683
451.993 .1189986
452.898 .1098939
453.803 .1006649
454.706 .0920863
455.608 .0846387
456.508 .0784834
457.408 .0743355
458.306 .0711599
459.204 .0685799
460.100 .0664100
460.995 .0645451
461.888 .0629122
462.781 .0614628
463.673 .0601613
464.563 .0589834
465.452 .0579114
466.340 .0569313
467.228 .0560329
468.114 .0552091
468.999 .0544540
469.882 .0537617
470.765 .0531277
471.647 .0525472
472.528 .0520159
473.407 .0515296
474.286 .0510860
475.163 .0506825
476.040 .0503168
476.915 .0499874
477.790 .0496921
478.663 .0494293
479.535 .0491977
480.407 .0489950
481.277 .0488195
482.147 .0486687
483.015 .0485401
483.883 .0484313
484.749 .0483409
485.615 .0482680
486.479 .0482121
487.343 .0481736
488.206 .0481540
489.067 .0481537
489.928 .0481738
490.788 .0482147
491.647 .0482771
492.505 .0483613
493.362 .0484673
494.218 .0485953
495.073 .0487461
495.928 .0490607
496.781 .0492747
497.634 .0495146
498.486 .0497802
499.337 .0500721
500.187 .0503911
501.036 .0507373
501.884 .0511123
502.731 .0515181
503.578 .0519562
504.424 .0522422
505.268 .0527396
506.113 .0532782
506.956 .0538623
507.798 .0544980
508.640 .0551923
509.480 .0559536
510.320 .0567935
511.160 .0577254
511.998 .0587640
512.836 .0599285
513.672 .0612388
514.508 .0627184
515.344 .0643922
516.178 .0662837
517.012 .0684194
517.845 .0708262
518.677 .0735265
519.508 .0765375
520.339 .0798690
521.169 .0835239
521.998 .0874779
522.826 .0916951
523.654 .0961204
524.481 .1006842
525.307 .1053062
526.133 .1098966
526.958 .1143586
527.782 .1186006
528.605 .1225354
529.428 .1260872
530.250 .1291873
531.072 .1317874
531.892 .1338459
532.712 .1353358
533.532 .1362433
534.350 .1365617
535.168 .1362889
535.986 .1354333
536.802 .1340018
537.618 .1320062
538.434 .1294610
539.249 .1264064
540.063 .1228931
540.876 .1189879
541.689 .1147690
542.501 .1103225
543.313 .1057400
544.124 .1011182
544.934 .0965436
545.744 .0920958
546.553 .0878397
547.361 .0838291
548.169 .0800951
548.976 .0766602
549.783 .0735292
550.589 .0706963
551.395 .0681438
552.200 .0658493
553.004 .0637822
553.808 .0619166
554.611 .0602278
555.414 .0586954
556.216 .0572988
557.018 .0560192
557.819 .0548413
558.619 .0537517
559.419 .0527387
560.218 .0517940
561.017 .0509089
561.815 .0500766
562.613 .0492905
563.410 .0485451
564.207 .0478345
565.003 .0471540
565.799 .0464981
566.594 .0458632
567.388 .0452460
568.182 .0446442
568.976 .0440556
569.769 .0434802
570.562 .0429181
571.354 .0423705
572.145 .0418382
572.936 .0413226
573.727 .0408241
574.517 .0403434
575.307 .0398805
576.096 .0394355
576.885 .0390080
577.673 .0385983
578.461 .0382065
579.248 .0378332
580.035 .0374788
580.821 .0371438
581.607 .0368288
582.392 .0365341
583.177 .0362595
583.962 .0360047
584.746 .0357693
585.529 .0355524
586.313 .0353527
587.095 .0351693
587.878 .0350009
588.660 .0348463
589.441 .0347046
590.222 .0345746
591.003 .0344554
591.783 .0343462
592.563 .0342458
593.342 .0341533
594.121 .0340676
594.899 .0339877
595.678 .0339128
596.455 .0338423
597.233 .0337755
598.009 .0337118
598.786 .0336507
599.562 .0335922
600.338 .0335358
601.113 .0334816
601.888 .0334068
602.663 .0333573
603.437 .0333096
604.211 .0332634
604.984 .0332187
605.757 .0331752
606.530 .0331326
607.302 .0330908
608.074 .0330497
608.845 .0330093
609.616 .0329696
610.387 .0329516
611.158 .0329133
611.928 .0328760
612.697 .0328398
613.467 .0328047
614.236 .0327706
615.004 .0327376
615.773 .0327055
616.541 .0326743
617.308 .0326439
618.076 .0326141
618.843 .0325849
619.609 .0325563
620.375 .0325283
621.141 .0325007
621.907 .0324736
622.672 .0324469
623.437 .0324206
624.202 .0323947
624.966 .0323692
625.730 .0323439
626.493 .0323187
627.257 .0322936
628.020 .0322684
628.782 .0322428
629.545 .0322170
630.307 .0321907
631.068 .0321640
631.830 .0321368
632.591 .0321093
633.352 .0320816
634.112 .0320536
634.872 .0320255
635.632 .0319974
636.392 .0319692
637.151 .0319409
637.910 .0319126
638.668 .0318841
639.427 .0318556
640.185 .0318271
640.943 .0317987
641.700 .0317703
642.457 .0317422
643.214 .0317144
643.971 .0316869
644.727 .0316598
645.483 .0316332
646.239 .0316070
646.994 .0315813
647.750 .0315560
648.505 .0315312
649.259 .0315067
650.014 .0314825
650.768 .0314586
651.521 .0314349
652.275 .0314113
653.028 .0313877
653.781 .0313642
654.534 .0313407
655.286 .0313171
656.039 .0312934
656.791 .0312696
657.542 .0312456
658.294 .0312214
659.045 .0311970
659.796 .0311723
660.546 .0311474
661.297 .0311221
662.047 .0310966
662.796 .0310709
663.546 .0310450
664.295 .0310189
665.044 .0309927
665.793 .0309666
666.542 .0309406
667.290 .0309148
668.038 .0308894
668.786 .0308644
669.533 .0308398
670.281 .0308158
671.028 .0307924
671.774 .0307695
672.521 .0307472
673.267 .0307255
674.013 .0307044
674.759 .0306840
675.505 .0306643
676.250 .0306452
676.995 .0306267
677.740 .0306088
678.484 .0305913
679.229 .0305743
679.973 .0305575
680.717 .0305410
681.460 .0305246
682.204 .0305083
682.947 .0304918
683.690 .0304753
684.433 .0304585
685.175 .0304413
685.917 .0304237
686.659 .0304057
687.401 .0303872
688.142 .0303682
688.884 .0303487
689.625 .0303286
690.365 .0303080
691.106 .0302869
691.846 .0302654
692.586 .0302435
693.326 .0302213
694.066 .0301988
694.805 .0301761
695.545 .0301532
696.284 .0301302
697.022 .0301071
697.761 .0300840
698.499 .0300609
699.237 .0300380
699.975 .0300152
700.713 .0299927
701.450 .0299705
702.187 .0299488
702.924 .0299275
703.661 .0299066
704.397 .0298861
705.133 .0298658
705.869 .0298459
706.605 .0298261
707.341 .0298065
708.076 .0297871
708.811 .0297678
709.546 .0297485
710.281 .0297294
711.015 .0297104
711.749 .0296914
712.483 .0296725
713.217 .0296536
713.950 .0296347
714.684 .0296159
715.417 .0295970
716.150 .0295781
716.882 .0295591
717.615 .0295400
718.347 .0295208
719.079 .0295016
719.811 .0294822
720.542 .0294629
721.273 .0294436
722.005 .0294246
722.735 .0294058
723.466 .0293873
724.196 .0293692
724.927 .0293515
725.656 .0293341
726.386 .0293170
727.116 .0293001
727.845 .0292835
728.574 .0292672
729.303 .0292512
730.031 .0292356
730.760 .0292205
731.488 .0292059
732.216 .0291918
732.944 .0291782
733.671 .0291652
734.398 .0291525
735.125 .0291402
735.852 .0291282
736.579 .0291165
737.305 .0291049
738.031 .0290936
738.757 .0290824
739.483 .0290714
740.208 .0290605
740.933 .0290498
741.658 .0290392
742.383 .0290286
743.108 .0290181
743.832 .0290077
744.556 .0289973
745.280 .0289869
746.004 .0289764
746.727 .0289659
747.450 .0289551
748.173 .0289442
748.896 .0289330
749.618 .0289216
750.340 .0289099
751.062 .0288980
751.784 .0288858
752.506 .0288734
753.227 .0288608
753.948 .0288480
754.669 .0288348
755.389 .0288213
756.110 .0288075
756.830 .0287932
757.550 .0287787
758.269 .0287638
758.989 .0287487
759.708 .0287334
760.427 .0287181
761.146 .0287028
761.864 .0286874
762.582 .0286721
763.300 .0286568
764.018 .0286415
764.736 .0286261
765.453 .0286107
766.170 .0285954
766.887 .0285800
767.603 .0285647
768.320 .0285496
769.036 .0285347
769.751 .0285201
770.467 .0285057
771.182 .0284918
771.897 .0284781
772.612 .0284649
773.327 .0284520
774.041 .0284394
774.755 .0284272
775.469 .0284152
776.183 .0284036
776.896 .0283923
777.609 .0283813
778.322 .0283706
779.035 .0283603
779.747 .0283504
780.459 .0283408
781.171 .0283317
781.882 .0283229
782.594 .0283145
783.305 .0283063
784.016 .0282984
784.726 .0282906
785.436 .0282829
786.147 .0282715
786.856 .0282636
787.566 .0282556
788.275 .0282475
788.984 .0282392
789.693 .0282308
790.401 .0282221
791.110 .0282131
791.818 .0282038
792.525 .0281942
793.233 .0281842
793.940 .0281738
794.647 .0281671
795.353 .0281559
796.060 .0281443
796.766 .0281323
797.472 .0281198
798.177 .0281069
798.883 .0280937
799.588 .0280801
800.292 .0280662
800.997 .0280520
801.701 .0280375
802.405 .0280226
803.109 .0280075
803.812 .0279921
804.515 .0279764
805.218 .0279605
805.921 .0279443
806.623 .0279279
807.325 .0279112
808.027 .0278944
808.728 .0278775
809.429 .0278604
810.130 .0278432
810.831 .0278260
811.531 .0278087
812.231 .0277915
812.931 .0277743
813.630 .0277573
814.330 .0277403
815.029 .0277235
815.727 .0277068
816.426 .0276904
817.124 .0276742
817.821 .0276584
818.519 .0276430
819.216 .0276281
819.913 .0276137
820.609 .0276000
821.306 .0275870
822.002 .0275746
822.697 .0275630
823.393 .0275521
824.088 .0275419
824.783 .0275325
825.477 .0275238
826.171 .0275158
826.865 .0275087
827.559 .0275022
828.252 .0274965
828.945 .0274915
829.638 .0274871
830.330 .0274833
831.023 .0274800
831.714 .0274771
832.406 .0274747
833.097 .0274728
833.788 .0274711
834.479 .0274698
835.169 .0274687
835.859 .0274678
836.548 .0274670
837.238 .0274663
837.927 .0274655
838.615 .0274648
839.304 .0274640
839.992 .0274631
840.680 .0274620
841.367 .0274608
842.054 .0274592
842.741 .0274573
843.428 .0274550
844.114 .0274522
844.800 .0274488
845.485 .0274448
846.170 .0274403
846.855 .0274352
847.540 .0274294
848.224 .0274230
848.908 .0274159
849.592 .0274080
850.275 .0273994
850.958 .0273900
851.641 .0273798
852.323 .0273687
853.005 .0273570
853.687 .0273445
854.368 .0273314
855.049 .0273176
855.730 .0273033
856.410 .0272885
857.090 .0272731
857.769 .0272574
858.449 .0272413
859.128 .0272250
859.806 .0272085
860.485 .0271920
861.163 .0271755
861.840 .0271593
862.518 .0271433
863.195 .0271277
863.871 .0271125
864.548 .0270977
865.224 .0270834
865.899 .0270695
866.574 .0270563
867.249 .0270436
867.924 .0270316
868.598 .0270203
869.272 .0270097
869.946 .0269998
870.619 .0269906
871.292 .0269820
871.964 .0269740
872.636 .0269666
873.308 .0269598
873.979 .0269533
874.651 .0269473
875.321 .0269416
875.992 .0269364
876.662 .0269314
877.331 .0269266
878.001 .0269220
878.670 .0269175
879.338 .0269131
880.007 .0269086
880.675 .0269042
881.342 .0268998
882.009 .0268955
882.676 .0268913
883.343 .0268873
884.009 .0268834
884.675 .0268797
885.340 .0268761
886.005 .0268727
886.670 .0268693
887.334 .0268660
887.998 .0268628
888.662 .0268596
889.325 .0268566
889.988 .0268536
890.650 .0268508
891.312 .0268481
891.974 .0268455
892.636 .0268430
893.297 .0268405
893.957 .0268379
894.618 .0268352
895.278 .0268323
895.937 .0268291
896.596 .0268256
897.255 .0268217
897.914 .0268173
898.572 .0268123
899.230 .0268067
899.887 .0268004
900.544 .0267934
901.201 .0267857
901.857 .0267702
902.513 .0267604
903.168 .0267498
903.823 .0267384
904.478 .0267261
905.132 .0267130
905.786 .0266989
906.440 .0266840
907.093 .0266683
907.746 .0266518
908.399 .0266346
909.051 .0266168
909.703 .0265985
910.354 .0265885
911.005 .0265698
911.656 .0265508
912.306 .0265316
912.956 .0265122
913.605 .0264927
914.254 .0264731
914.903 .0264535
915.551 .0264339
916.199 .0264144
916.847 .0263949
917.494 .0263755
918.141 .0263562
918.788 .0263368
919.434 .0263174
920.079 .0262980
920.725 .0262785
921.370 .0262589
922.014 .0262392
922.658 .0262195
923.302 .0261996
923.946 .0261795
924.589 .0261593
925.231 .0261388
925.873 .0261181
926.515 .0260970
927.157 .0260757
927.798 .0260541
928.439 .0260322
929.079 .0260103
929.719 .0259882
930.359 .0259660
930.998 .0259438
931.637 .0259216
932.275 .0258995
932.913 .0258774
933.551 .0258556
934.188 .0258340
934.825 .0258128
935.462 .0257921
936.098 .0257720
936.733 .0257526
937.369 .0257338
938.004 .0257159
938.638 .0256986
939.273 .0256822
939.907 .0256665
940.540 .0256517
941.173 .0256376
941.806 .0256245
942.438 .0256122
943.070 .0256007
943.702 .0255902
944.333 .0255804
944.964 .0255713
945.594 .0255629
946.224 .0255550
946.854 .0255474
947.483 .0255401
948.112 .0255331
948.741 .0255261
949.369 .0255194
949.996 .0255126
950.624 .0255059
951.251 .0254992
951.878 .0254925
952.504 .0254856
953.130 .0254785
953.755 .0254713
954.380 .0254638
955.005 .0254560
955.629 .0254480
956.253 .0254397
956.877 .0254312
957.500 .0254226
958.123 .0254138
958.746 .0254049
959.368 .0253959
959.990 .0253870
960.611 .0253781
961.232 .0253693
961.853 .0253606
962.473 .0253520
963.093 .0253435
963.712 .0253351
964.331 .0253268
964.950 .0253185
965.569 .0253104
966.187 .0253023
966.804 .0252943
967.422 .0252863
968.039 .0252783
968.655 .0252703
969.272 .0252623
969.887 .0252542
970.503 .0252459
971.118 .0252375
971.733 .0252290
972.347 .0252203
972.961 .0252115
973.575 .0252026
974.188 .0251936
974.801 .0251846
975.414 .0251754
976.026 .0251661
976.638 .0251565
977.250 .0251466
977.861 .0251364
978.472 .0251259
979.083 .0251151
979.693 .0251041
980.303 .0250929
980.912 .0250762
981.521 .0250651
982.130 .0250541
982.738 .0250432
983.346 .0250323
983.954 .0250215
984.562 .0250108
985.169 .0250003
985.775 .0249901
986.382 .0249802
986.988 .0249707
987.594 .0249617
988.199 .0249532
988.804 .0249453
989.409 .0249428
990.013 .0249359
990.617 .0249294
991.221 .0249236
991.824 .0249182
992.427 .0249134
993.030 .0249092
993.632 .0249056
994.234 .0249026
994.836 .0249003
995.438 .0248987
996.039 .0248978
996.640 .0248976
997.240 .0248981
997.840 .0248993
998.440 .0249011
999.040 .0249034
999.639 .0249063
1000.238 .0249096
1000.836 .0249134
1001.435 .0249175
1002.033 .0249221
1002.630 .0249269
1003.228 .0249321
1003.825 .0249373
1004.422 .0249426
1005.018 .0249479
1005.614 .0249531
1006.210 .0249581
1006.806 .0249630
1007.401 .0249678
1007.996 .0249725
1008.591 .0249773
1009.186 .0249822
1009.780 .0249872
1010.374 .0249924
1010.967 .0249977
1011.561 .0250032
1012.154 .0250087
1012.746 .0250142
1013.339 .0250197
1013.931 .0250252
1014.523 .0250308
1015.115 .0250363
1015.706 .0250420
1016.298 .0250478
1016.888 .0250537
1017.479 .0250599
1018.069 .0250663
1018.660 .0250728
1019.250 .0250795
1019.839 .0250864
1020.429 .0250936
1021.018 .0251011
1021.607 .0251090
1022.195 .0251173
1022.784 .0251262
1023.372 .0251355
1023.960 .0251453
1024.547 .0251556
1025.135 .0251663
1025.722 .0251774
1026.309 .0251886
1026.896 .0252001
1027.483 .0252117
1028.069 .0252234
1028.655 .0252351
1029.241 .0252469
1029.827 .0252587
1030.412 .0252704
1030.997 .0252820
1031.582 .0252936
1032.167 .0253050
1032.752 .0253164
1033.336 .0253277
1033.921 .0253390
1034.505 .0253503
1035.089 .0253616
1035.672 .0253727
1036.256 .0253837
1036.839 .0253944
1037.422 .0254046
1038.005 .0254142
1038.588 .0254231
1039.171 .0254313
1039.753 .0254387
1040.335 .0254454
1040.918 .0254513
1041.500 .0254566
1042.081 .0254614
1042.663 .0254656
1043.244 .0254695
1043.826 .0254729
1044.407 .0254760
1044.988 .0254788
1045.569 .0254815
1046.150 .0254840
1046.730 .0254865
1047.311 .0254892
1047.891 .0254920
1048.471 .0254949
1049.052 .0254981
1049.632 .0255015
1050.211 .0255050
1050.791 .0255087
1051.371 .0255124
1051.950 .0255162
1052.530 .0255198
1053.109 .0255233
1053.688 .0255268
1054.268 .0255302
1054.847 .0255337
1055.426 .0255373
1056.005 .0255413
1056.583 .0255456
1057.162 .0255504
1057.741 .0255556
1058.319 .0255612
1058.898 .0255668
1059.476 .0255725
1060.055 .0255779
1060.633 .0255830
1061.211 .0255877
1061.790 .0255921
1062.368 .0255962
1062.946 .0256000
1063.524 .0256034
1064.102 .0256063
1064.680 .0256086
1065.258 .0256103
1065.836 .0256112
1066.414 .0256114
1066.992 .0256107
1067.570 .0256093
1068.148 .0256073
1068.726 .0256050
1069.304 .0256025
1069.882 .0256000
1070.460 .0255976
1071.038 .0255952
1071.616 .0255927
1072.194 .0255902
1072.772 .0255875
1073.350 .0255845
1073.928 .0255813
1074.506 .0255779
1075.084 .0255745
1075.662 .0255713
1076.240 .0255683
1076.819 .0255657
1077.397 .0255635
1077.976 .0255616
1078.554 .0255599
1079.133 .0255584
1079.711 .0255570
1080.290 .0255558
1080.869 .0255552
1081.448 .0255552
1082.027 .0255562
1082.606 .0255583
1083.185 .0255616
1083.764 .0255660
1084.343 .0255715
1084.923 .0255777
1085.502 .0255846
1086.082 .0255919
1086.662 .0255997
1087.242 .0256080
1087.822 .0256169
1088.402 .0256266
1088.983 .0256371
1089.563 .0256483
1090.144 .0256601
1090.725 .0256722
1091.306 .0256843
1091.887 .0256962
1092.469 .0257077
1093.050 .0257190
1093.632 .0257303
1094.214 .0257418
1094.796 .0257538
1095.379 .0257663
1095.961 .0257795
1096.544 .0257931
1097.127 .0258070
1097.710 .0258207
1098.294 .0258340
1098.877 .0258468
1099.461 .0258590
1100.046 .0258708
1100.630 .0258826
1101.215 .0258945
1101.800 .0259069
1102.385 .0259197
1102.970 .0259329
1103.556 .0259464
1104.142 .0259601
1104.728 .0259737
1105.315 .0259872
1105.902 .0260006
1106.489 .0260142
1107.077 .0260283
1107.664 .0260434
1108.253 .0260600
1108.841 .0260782
1109.430 .0260982
1110.019 .0261196
1110.609 .0261424
1111.198 .0261661
1111.789 .0261905
1112.379 .0262156
1112.970 .0262410
1113.561 .0262671
1114.153 .0262937
1114.745 .0263211
1115.338 .0263495
1115.931 .0263791
1116.524 .0264098
1117.117 .0264415
1117.712 .0264741
1118.306 .0265076
1118.901 .0265419
1119.496 .0265771
1120.092 .0266133
1120.689 .0266509
1121.285 .0266900
1121.882 .0267309
1122.480 .0267739
1123.078 .0268193
1123.677 .0268669
1124.276 .0269165
1124.875 .0269678
1125.476 .0270207
1126.076 .0270748
1126.677 .0271302
1127.279 .0271873
1127.881 .0272462
1128.484 .0273078
1129.087 .0273324
1129.691 .0273981
1130.295 .0274677
1130.900 .0275414
1131.505 .0276191
1132.111 .0277015
1132.718 .0277886
1133.325 .0278808
1133.933 .0279787
1134.541 .0280695
1135.150 .0281856
1135.760 .0283056
1136.370 .0284312
1136.981 .0283690
1137.592 .0284963
1138.204 .0286383
1138.817 .0287823
1139.431 .0289247
1140.045 .0290837
1140.660 .0292494
1141.275 .0294277
1141.891 .0296315
1142.508 .0294713
1143.126 .0302314
1143.744 .0303911
1144.363 .0306018
1144.983 .0310280
