Measurement Sequence started on: 15-12-46-377
Integration time: 28
Scans to Average: 2 
>>>>>Begin Spectral Data<<<<<
432.689 .0000100
433.621 .0000100
434.552 .0000100
435.482 .0000100
436.410 .0000100
437.337 .0000100
438.262 .0273648
439.187 .0580077
440.110 .0959949
441.031 .1388100
441.952 .1104569
442.871 .1152771
443.789 .1197684
444.705 .1240028
445.621 .1280289
446.535 .1318818
447.447 .1341462
448.359 .1346704
449.269 .1330857
450.178 .1291517
451.086 .1229497
451.993 .1149622
452.898 .1059837
453.803 .0969110
454.706 .0885043
455.608 .0812321
456.508 .0752466
457.408 .0712428
458.306 .0681965
459.204 .0657311
460.100 .0636611
460.995 .0618826
461.888 .0603263
462.781 .0589470
463.673 .0577121
464.563 .0565992
465.452 .0555890
466.340 .0546657
467.228 .0538175
468.114 .0530345
468.999 .0523087
469.882 .0516339
470.765 .0510058
471.647 .0504212
472.528 .0498785
473.407 .0493769
474.286 .0489158
475.163 .0484949
476.040 .0481125
476.915 .0477677
477.790 .0474582
478.663 .0471820
479.535 .0469372
480.407 .0467216
481.277 .0465335
482.147 .0463706
483.015 .0462311
483.883 .0461133
484.749 .0460155
485.615 .0459365
486.479 .0458750
487.343 .0458302
488.206 .0458012
489.067 .0457870
489.928 .0457873
490.788 .0458019
491.647 .0458307
492.505 .0458740
493.362 .0459324
494.218 .0460060
495.073 .0460964
495.928 .0462994
496.781 .0464436
497.634 .0466116
498.486 .0468062
499.337 .0470304
500.187 .0472870
501.036 .0475791
501.884 .0479099
502.731 .0482836
503.578 .0487025
504.424 .0490161
505.268 .0495148
506.113 .0500664
506.956 .0506737
507.798 .0513410
508.640 .0520743
509.480 .0528829
510.320 .0537766
511.160 .0547673
511.998 .0558701
512.836 .0571029
513.672 .0584827
514.508 .0600309
515.344 .0617686
516.178 .0637169
517.012 .0658997
517.845 .0683390
518.677 .0710561
519.508 .0740724
520.339 .0774007
521.169 .0810476
521.998 .0849961
522.826 .0892169
523.654 .0936580
524.481 .0982549
525.307 .1029306
526.133 .1075923
526.958 .1121410
527.782 .1164801
528.605 .1205179
529.428 .1241750
530.250 .1273800
531.072 .1300838
531.892 .1322455
532.712 .1338391
533.532 .1348495
534.350 .1352687
535.168 .1351013
535.986 .1343552
536.802 .1330334
537.618 .1311442
538.434 .1286988
539.249 .1257311
540.063 .1222851
540.876 .1184239
541.689 .1142218
542.501 .1097612
543.313 .1051370
544.124 .1004475
544.934 .0957873
545.744 .0912431
546.553 .0868852
547.361 .0827729
548.169 .0789413
548.976 .0754129
549.783 .0721940
550.589 .0692792
551.395 .0666526
552.200 .0642879
553.004 .0621538
553.808 .0602233
554.611 .0584731
555.414 .0568831
556.216 .0554341
557.018 .0541097
557.819 .0528963
558.619 .0517803
559.419 .0507516
560.218 .0498008
561.017 .0489180
561.815 .0480936
562.613 .0473193
563.410 .0465868
564.207 .0458894
565.003 .0452220
565.799 .0445804
566.594 .0439619
567.388 .0433654
568.182 .0427885
568.976 .0422296
569.769 .0416884
570.562 .0411648
571.354 .0406579
572.145 .0401676
572.936 .0396932
573.727 .0392339
574.517 .0387897
575.307 .0383611
576.096 .0379483
576.885 .0375524
577.673 .0371742
578.461 .0368145
579.248 .0364740
580.035 .0361532
580.821 .0358519
581.607 .0355698
582.392 .0353070
583.177 .0350625
583.962 .0348351
584.746 .0346242
585.529 .0344288
586.313 .0342481
587.095 .0340812
587.878 .0339273
588.660 .0337857
589.441 .0336554
590.222 .0335356
591.003 .0334254
591.783 .0333238
592.563 .0332301
593.342 .0331433
594.121 .0330625
594.899 .0329871
595.678 .0329161
596.455 .0328490
597.233 .0327853
598.009 .0327244
598.786 .0326658
599.562 .0326093
600.338 .0325544
601.113 .0325011
601.888 .0324255
602.663 .0323758
603.437 .0323275
604.211 .0322807
604.984 .0322353
605.757 .0321914
606.530 .0321490
607.302 .0321081
608.074 .0320687
608.845 .0320308
609.616 .0319947
610.387 .0319816
611.158 .0319481
611.928 .0319162
612.697 .0318862
613.467 .0318578
614.236 .0318311
615.004 .0318059
615.773 .0317819
616.541 .0317591
617.308 .0317372
618.076 .0317162
618.843 .0316961
619.609 .0316767
620.375 .0316580
621.141 .0316398
621.907 .0316218
622.672 .0316039
623.437 .0315860
624.202 .0315677
624.966 .0315491
625.730 .0315301
626.493 .0315107
627.257 .0314910
628.020 .0314708
628.782 .0314504
629.545 .0314296
630.307 .0314084
631.068 .0313868
631.830 .0313647
632.591 .0313422
633.352 .0313193
634.112 .0312960
634.872 .0312723
635.632 .0312482
636.392 .0312239
637.151 .0311992
637.910 .0311743
638.668 .0311492
639.427 .0311238
640.185 .0310982
640.943 .0310726
641.700 .0310468
642.457 .0310209
643.214 .0309949
643.971 .0309688
644.727 .0309425
645.483 .0309161
646.239 .0308896
646.994 .0308629
647.750 .0308363
648.505 .0308096
649.259 .0307829
650.014 .0307564
650.768 .0307300
651.521 .0307037
652.275 .0306774
653.028 .0306511
653.781 .0306247
654.534 .0305982
655.286 .0305716
656.039 .0305449
656.791 .0305181
657.542 .0304912
658.294 .0304641
659.045 .0304371
659.796 .0304100
660.546 .0303830
661.297 .0303561
662.047 .0303291
662.796 .0303021
663.546 .0302751
664.295 .0302481
665.044 .0302212
665.793 .0301942
666.542 .0301674
667.290 .0301407
668.038 .0301142
668.786 .0300880
669.533 .0300620
670.281 .0300363
671.028 .0300110
671.774 .0299860
672.521 .0299614
673.267 .0299371
674.013 .0299132
674.759 .0298898
675.505 .0298668
676.250 .0298443
676.995 .0298221
677.740 .0298004
678.484 .0297792
679.229 .0297583
679.973 .0297379
680.717 .0297180
681.460 .0296986
682.204 .0296796
682.947 .0296608
683.690 .0296424
684.433 .0296242
685.175 .0296061
685.917 .0295881
686.659 .0295702
687.401 .0295525
688.142 .0295349
688.884 .0295175
689.625 .0295003
690.365 .0294832
691.106 .0294663
691.846 .0294495
692.586 .0294328
693.326 .0294161
694.066 .0293995
694.805 .0293830
695.545 .0293668
696.284 .0293507
697.022 .0293348
697.761 .0293192
698.499 .0293038
699.237 .0292886
699.975 .0292737
700.713 .0292591
701.450 .0292448
702.187 .0292308
702.924 .0292172
703.661 .0292039
704.397 .0291909
705.133 .0291782
705.869 .0291656
706.605 .0291532
707.341 .0291407
708.076 .0291283
708.811 .0291158
709.546 .0291033
710.281 .0290907
711.015 .0290781
711.749 .0290654
712.483 .0290525
713.217 .0290395
713.950 .0290262
714.684 .0290125
715.417 .0289985
716.150 .0289841
716.882 .0289692
717.615 .0289538
718.347 .0289379
719.079 .0289216
719.811 .0289049
720.542 .0288878
721.273 .0288702
722.005 .0288523
722.735 .0288340
723.466 .0288155
724.196 .0287968
724.927 .0287780
725.656 .0287592
726.386 .0287403
727.116 .0287216
727.845 .0287029
728.574 .0286844
729.303 .0286661
730.031 .0286479
730.760 .0286299
731.488 .0286121
732.216 .0285947
732.944 .0285776
733.671 .0285609
734.398 .0285445
735.125 .0285284
735.852 .0285126
736.579 .0284969
737.305 .0284814
738.031 .0284659
738.757 .0284505
739.483 .0284350
740.208 .0284196
740.933 .0284041
741.658 .0283886
742.383 .0283730
743.108 .0283574
743.832 .0283415
744.556 .0283255
745.280 .0283091
746.004 .0282924
746.727 .0282753
747.450 .0282579
748.173 .0282401
748.896 .0282221
749.618 .0282038
750.340 .0281854
751.062 .0281667
751.784 .0281479
752.506 .0281290
753.227 .0281099
753.948 .0280907
754.669 .0280714
755.389 .0280521
756.110 .0280328
756.830 .0280135
757.550 .0279945
758.269 .0279756
758.989 .0279569
759.708 .0279385
760.427 .0279203
761.146 .0279023
761.864 .0278845
762.582 .0278669
763.300 .0278494
764.018 .0278319
764.736 .0278145
765.453 .0277971
766.170 .0277797
766.887 .0277624
767.603 .0277451
768.320 .0277280
769.036 .0277112
769.751 .0276946
770.467 .0276785
771.182 .0276627
771.897 .0276475
772.612 .0276328
773.327 .0276185
774.041 .0276047
774.755 .0275913
775.469 .0275784
776.183 .0275661
776.896 .0275544
777.609 .0275434
778.322 .0275333
779.035 .0275240
779.747 .0275156
780.459 .0275081
781.171 .0275015
781.882 .0274956
782.594 .0274904
783.305 .0274858
784.016 .0274816
784.726 .0274779
785.436 .0274745
786.147 .0274699
786.856 .0274667
787.566 .0274636
788.275 .0274605
788.984 .0274573
789.693 .0274539
790.401 .0274505
791.110 .0274468
791.818 .0274428
792.525 .0274386
793.233 .0274340
793.940 .0274290
794.647 .0274253
795.353 .0274199
796.060 .0274142
796.766 .0274081
797.472 .0274019
798.177 .0273955
798.883 .0273890
799.588 .0273826
800.292 .0273762
800.997 .0273698
801.701 .0273636
802.405 .0273573
803.109 .0273510
803.812 .0273447
804.515 .0273383
805.218 .0273318
805.921 .0273252
806.623 .0273184
807.325 .0273116
808.027 .0273046
808.728 .0272975
809.429 .0272904
810.130 .0272832
810.831 .0272758
811.531 .0272684
812.231 .0272609
812.931 .0272533
813.630 .0272456
814.330 .0272378
815.029 .0272299
815.727 .0272219
816.426 .0272140
817.124 .0272061
817.821 .0271983
818.519 .0271907
819.216 .0271833
819.913 .0271761
820.609 .0271693
821.306 .0271628
822.002 .0271567
822.697 .0271511
823.393 .0271459
824.088 .0271412
824.783 .0271370
825.477 .0271331
826.171 .0271298
826.865 .0271268
827.559 .0271242
828.252 .0271219
828.945 .0271200
829.638 .0271183
830.330 .0271167
831.023 .0271153
831.714 .0271139
832.406 .0271124
833.097 .0271108
833.788 .0271088
834.479 .0271065
835.169 .0271037
835.859 .0271005
836.548 .0270969
837.238 .0270928
837.927 .0270882
838.615 .0270831
839.304 .0270774
839.992 .0270711
840.680 .0270641
841.367 .0270564
842.054 .0270481
842.741 .0270391
843.428 .0270294
844.114 .0270192
844.800 .0270083
845.485 .0269968
846.170 .0269848
846.855 .0269721
847.540 .0269588
848.224 .0269447
848.908 .0269300
849.592 .0269146
850.275 .0268986
850.958 .0268819
851.641 .0268646
852.323 .0268468
853.005 .0268284
853.687 .0268094
854.368 .0267900
855.049 .0267700
855.730 .0267495
856.410 .0267285
857.090 .0267071
857.769 .0266853
858.449 .0266632
859.128 .0266408
859.806 .0266183
860.485 .0265956
861.163 .0265728
861.840 .0265499
862.518 .0265270
863.195 .0265041
863.871 .0264813
864.548 .0264585
865.224 .0264359
865.899 .0264135
866.574 .0263912
867.249 .0263690
867.924 .0263471
868.598 .0263253
869.272 .0263038
869.946 .0262824
870.619 .0262613
871.292 .0262405
871.964 .0262200
872.636 .0261998
873.308 .0261799
873.979 .0261604
874.651 .0261412
875.321 .0261223
875.992 .0261037
876.662 .0260854
877.331 .0260672
878.001 .0260493
878.670 .0260315
879.338 .0260140
880.007 .0259968
880.675 .0259800
881.342 .0259635
882.009 .0259476
882.676 .0259321
883.343 .0259172
884.009 .0259029
884.675 .0258893
885.340 .0258763
886.005 .0258641
886.670 .0258526
887.334 .0258418
887.998 .0258319
888.662 .0258226
889.325 .0258142
889.988 .0258064
890.650 .0257995
891.312 .0257931
891.974 .0257875
892.636 .0257825
893.297 .0257780
893.957 .0257740
894.618 .0257704
895.278 .0257672
895.937 .0257641
896.596 .0257612
897.255 .0257583
897.914 .0257554
898.572 .0257524
899.230 .0257492
899.887 .0257457
900.544 .0257419
901.201 .0257378
901.857 .0257290
902.513 .0257235
903.168 .0257173
903.823 .0257106
904.478 .0257031
905.132 .0256950
905.786 .0256862
906.440 .0256767
907.093 .0256665
907.746 .0256559
908.399 .0256447
909.051 .0256332
909.703 .0256214
910.354 .0256146
911.005 .0256027
911.656 .0255906
912.306 .0255785
912.956 .0255664
913.605 .0255544
914.254 .0255425
914.903 .0255308
915.551 .0255194
916.199 .0255084
916.847 .0254976
917.494 .0254872
918.141 .0254772
918.788 .0254675
919.434 .0254582
920.079 .0254492
920.725 .0254406
921.370 .0254322
922.014 .0254241
922.658 .0254162
923.302 .0254086
923.946 .0254010
924.589 .0253936
925.231 .0253862
925.873 .0253788
926.515 .0253713
927.157 .0253638
927.798 .0253562
928.439 .0253484
929.079 .0253407
929.719 .0253328
930.359 .0253250
930.998 .0253171
931.637 .0253091
932.275 .0253012
932.913 .0252934
933.551 .0252856
934.188 .0252781
934.825 .0252709
935.462 .0252640
936.098 .0252576
936.733 .0252518
937.369 .0252464
938.004 .0252417
938.638 .0252375
939.273 .0252340
939.907 .0252311
940.540 .0252289
941.173 .0252274
941.806 .0252266
942.438 .0252266
943.070 .0252273
943.702 .0252287
944.333 .0252308
944.964 .0252335
945.594 .0252366
946.224 .0252402
946.854 .0252441
947.483 .0252481
948.112 .0252524
948.741 .0252567
949.369 .0252611
949.996 .0252655
950.624 .0252699
951.251 .0252741
951.878 .0252781
952.504 .0252818
953.130 .0252852
953.755 .0252882
954.380 .0252908
955.005 .0252929
955.629 .0252947
956.253 .0252960
956.877 .0252969
957.500 .0252974
958.123 .0252975
958.746 .0252974
959.368 .0252969
959.990 .0252963
960.611 .0252955
961.232 .0252945
961.853 .0252935
962.473 .0252924
963.093 .0252912
963.712 .0252900
964.331 .0252888
964.950 .0252875
965.569 .0252861
966.187 .0252847
966.804 .0252832
967.422 .0252816
968.039 .0252798
968.655 .0252778
969.272 .0252755
969.887 .0252730
970.503 .0252700
971.118 .0252666
971.733 .0252626
972.347 .0252582
972.961 .0252531
973.575 .0252475
974.188 .0252414
974.801 .0252347
975.414 .0252274
976.026 .0252195
976.638 .0252111
977.250 .0252021
977.861 .0251924
978.472 .0251822
979.083 .0251713
979.693 .0251600
980.303 .0251482
980.912 .0251288
981.521 .0251163
982.130 .0251036
982.738 .0250907
983.346 .0250775
983.954 .0250643
984.562 .0250510
985.169 .0250378
985.775 .0250246
986.382 .0250117
986.988 .0249991
987.594 .0249870
988.199 .0249752
988.804 .0249639
989.409 .0249599
990.013 .0249492
990.617 .0249391
991.221 .0249293
991.824 .0249199
992.427 .0249108
993.030 .0249020
993.632 .0248934
994.234 .0248850
994.836 .0248767
995.438 .0248685
996.039 .0248604
996.640 .0248524
997.240 .0248444
997.840 .0248365
998.440 .0248287
999.040 .0248209
999.639 .0248131
1000.238 .0248053
1000.836 .0247975
1001.435 .0247896
1002.033 .0247817
1002.630 .0247737
1003.228 .0247657
1003.825 .0247575
1004.422 .0247493
1005.018 .0247411
1005.614 .0247328
1006.210 .0247244
1006.806 .0247158
1007.401 .0247071
1007.996 .0246983
1008.591 .0246892
1009.186 .0246798
1009.780 .0246703
1010.374 .0246607
1010.967 .0246509
1011.561 .0246410
1012.154 .0246311
1012.746 .0246212
1013.339 .0246113
1013.931 .0246015
1014.523 .0245918
1015.115 .0245820
1015.706 .0245723
1016.298 .0245626
1016.888 .0245530
1017.479 .0245435
1018.069 .0245343
1018.660 .0245252
1019.250 .0245165
1019.839 .0245080
1020.429 .0244998
1021.018 .0244918
1021.607 .0244840
1022.195 .0244763
1022.784 .0244687
1023.372 .0244612
1023.960 .0244540
1024.547 .0244471
1025.135 .0244405
1025.722 .0244343
1026.309 .0244285
1026.896 .0244229
1027.483 .0244176
1028.069 .0244124
1028.655 .0244073
1029.241 .0244022
1029.827 .0243971
1030.412 .0243920
1030.997 .0243871
1031.582 .0243825
1032.167 .0243782
1032.752 .0243741
1033.336 .0243703
1033.921 .0243667
1034.505 .0243631
1035.089 .0243595
1035.672 .0243557
1036.256 .0243516
1036.839 .0243472
1037.422 .0243426
1038.005 .0243378
1038.588 .0243327
1039.171 .0243275
1039.753 .0243221
1040.335 .0243165
1040.918 .0243107
1041.500 .0243045
1042.081 .0242980
1042.663 .0242910
1043.244 .0242837
1043.826 .0242760
1044.407 .0242681
1044.988 .0242600
1045.569 .0242519
1046.150 .0242438
1046.730 .0242359
1047.311 .0242281
1047.891 .0242204
1048.471 .0242129
1049.052 .0242053
1049.632 .0241978
1050.211 .0241903
1050.791 .0241827
1051.371 .0241750
1051.950 .0241674
1052.530 .0241599
1053.109 .0241526
1053.688 .0241454
1054.268 .0241385
1054.847 .0241319
1055.426 .0241256
1056.005 .0241195
1056.583 .0241138
1057.162 .0241084
1057.741 .0241033
1058.319 .0240986
1058.898 .0240943
1059.476 .0240905
1060.055 .0240872
1060.633 .0240844
1061.211 .0240821
1061.790 .0240801
1062.368 .0240786
1062.946 .0240774
1063.524 .0240764
1064.102 .0240755
1064.680 .0240748
1065.258 .0240742
1065.836 .0240738
1066.414 .0240734
1066.992 .0240733
1067.570 .0240735
1068.148 .0240741
1068.726 .0240752
1069.304 .0240769
1069.882 .0240792
1070.460 .0240822
1071.038 .0240859
1071.616 .0240904
1072.194 .0240956
1072.772 .0241015
1073.350 .0241080
1073.928 .0241151
1074.506 .0241227
1075.084 .0241307
1075.662 .0241391
1076.240 .0241479
1076.819 .0241571
1077.397 .0241665
1077.976 .0241762
1078.554 .0241862
1079.133 .0241964
1079.711 .0242067
1080.290 .0242171
1080.869 .0242274
1081.448 .0242377
1082.027 .0242479
1082.606 .0242581
1083.185 .0242685
1083.764 .0242792
1084.343 .0242903
1084.923 .0243017
1085.502 .0243136
1086.082 .0243260
1086.662 .0243389
1087.242 .0243522
1087.822 .0243659
1088.402 .0243800
1088.983 .0243945
1089.563 .0244094
1090.144 .0244248
1090.725 .0244410
1091.306 .0244579
1091.887 .0244757
1092.469 .0244943
1093.050 .0245138
1093.632 .0245344
1094.214 .0245559
1094.796 .0245783
1095.379 .0246017
1095.961 .0246261
1096.544 .0246514
1097.127 .0246780
1097.710 .0247058
1098.294 .0247349
1098.877 .0247652
1099.461 .0247966
1100.046 .0248289
1100.630 .0248619
1101.215 .0248954
1101.800 .0249293
1102.385 .0249633
1102.970 .0249975
1103.556 .0250316
1104.142 .0250657
1104.728 .0250999
1105.315 .0251340
1105.902 .0251681
1106.489 .0252022
1107.077 .0252358
1107.664 .0252689
1108.253 .0253012
1108.841 .0253326
1109.430 .0253630
1110.019 .0253925
1110.609 .0254212
1111.198 .0254494
1111.789 .0254778
1112.379 .0255067
1112.970 .0255364
1113.561 .0255672
1114.153 .0255992
1114.745 .0256322
1115.338 .0256664
1115.931 .0257016
1116.524 .0257379
1117.117 .0257754
1117.712 .0258144
1118.306 .0258551
1118.901 .0258979
1119.496 .0259432
1120.092 .0259916
1120.689 .0260429
1121.285 .0260972
1121.882 .0261543
1122.480 .0262137
1123.078 .0262749
1123.677 .0263377
1124.276 .0264020
1124.875 .0264675
1125.476 .0265345
1126.076 .0266032
1126.677 .0266737
1127.279 .0267465
1127.881 .0268213
1128.484 .0268982
1129.087 .0269364
1129.691 .0270159
1130.295 .0270959
1130.900 .0271761
1131.505 .0272561
1132.111 .0273360
1132.718 .0274155
1133.325 .0274947
1133.933 .0275739
1134.541 .0276529
1135.150 .0277359
1135.760 .0278131
1136.370 .0278879
1136.981 .0280195
1137.592 .0281027
1138.204 .0281755
1138.817 .0282446
1139.431 .0283087
1140.045 .0283739
1140.660 .0284317
1141.275 .0284878
1141.891 .0285533
1142.508 .0286181
1143.126 .0288068
1143.744 .0287241
1144.363 .0287519
1144.983 .0290043
