Measurement Sequence started on: 15-12-46-377
Integration time: 28
Scans to Average: 2 
>>>>>Begin Spectral Data<<<<<
432.689 .0000100
433.621 .0000100
434.552 .0000100
435.482 .0000100
436.410 .0000100
437.337 .0000100
438.262 .0288293
439.187 .0610180
440.110 .1009353
441.031 .1459208
441.952 .1164677
442.871 .1215878
443.789 .1263489
444.705 .1308252
445.621 .1350674
446.535 .1391151
447.447 .1414785
448.359 .1420033
449.269 .1403020
450.178 .1361226
451.086 .1295496
451.993 .1210881
452.898 .1115690
453.803 .1019344
454.706 .0929822
455.608 .0852059
456.508 .0787694
457.408 .0744106
458.306 .0710554
459.204 .0683181
460.100 .0660102
460.995 .0640266
461.888 .0622960
462.781 .0607713
463.673 .0594153
464.563 .0582031
465.452 .0571139
466.340 .0561296
467.228 .0552369
468.114 .0544251
468.999 .0536846
469.882 .0530082
470.765 .0523899
471.647 .0518240
472.528 .0513070
473.407 .0508348
474.286 .0504047
475.163 .0500139
476.040 .0496593
476.915 .0493377
477.790 .0490458
478.663 .0487815
479.535 .0485427
480.407 .0483279
481.277 .0481360
482.147 .0479653
483.015 .0478150
483.883 .0476843
484.749 .0475722
485.615 .0474779
486.479 .0474011
487.343 .0473415
488.206 .0472993
489.067 .0472742
489.928 .0472674
490.788 .0472802
491.647 .0473139
492.505 .0473703
493.362 .0474500
494.218 .0475541
495.073 .0476835
495.928 .0479720
496.781 .0481681
497.634 .0483900
498.486 .0486383
499.337 .0489144
500.187 .0492200
501.036 .0495577
501.884 .0499314
502.731 .0503453
503.578 .0508036
504.424 .0511222
505.268 .0516602
506.113 .0522526
506.956 .0529029
507.798 .0536151
508.640 .0543957
509.480 .0552534
510.320 .0561991
511.160 .0572470
511.998 .0584121
512.836 .0597137
513.672 .0611702
514.508 .0628007
515.344 .0646262
516.178 .0666682
517.012 .0689492
517.845 .0714899
518.677 .0743113
519.508 .0774298
520.339 .0808534
521.169 .0845849
521.998 .0886011
522.826 .0928670
523.654 .0973314
524.481 .1019305
525.307 .1065910
526.133 .1112286
526.958 .1157511
527.782 .1200682
528.605 .1240932
529.428 .1277450
530.250 .1309458
531.072 .1336412
531.892 .1357863
532.712 .1373491
533.532 .1383112
534.350 .1386648
535.168 .1384150
535.986 .1375701
536.802 .1361378
537.618 .1341306
538.434 .1315653
539.249 .1284841
540.063 .1249368
540.876 .1209866
541.689 .1167082
542.501 .1121828
543.313 .1074983
544.124 .1027465
544.934 .0980148
545.744 .0933821
546.553 .0889203
547.361 .0846926
548.169 .0807386
548.976 .0770886
549.783 .0737575
550.589 .0707445
551.395 .0680370
552.200 .0656103
553.004 .0634332
553.808 .0614794
554.611 .0597242
555.414 .0581437
556.216 .0567142
557.018 .0554160
557.819 .0542318
558.619 .0531458
559.419 .0521447
560.218 .0512171
561.017 .0503534
561.815 .0495456
562.613 .0487865
563.410 .0480690
564.207 .0473880
565.003 .0467385
565.799 .0461147
566.594 .0455124
567.388 .0449278
568.182 .0443575
568.976 .0437985
569.769 .0432501
570.562 .0427117
571.354 .0421840
572.145 .0416683
572.936 .0411655
573.727 .0406769
574.517 .0402035
575.307 .0397459
576.096 .0393047
576.885 .0388802
577.673 .0384728
578.461 .0380822
579.248 .0377090
580.035 .0373536
580.821 .0370162
581.607 .0366975
582.392 .0363981
583.177 .0361185
583.962 .0358588
584.746 .0356190
585.529 .0353988
586.313 .0351973
587.095 .0350134
587.878 .0348456
588.660 .0346924
589.441 .0345523
590.222 .0344243
591.003 .0343072
591.783 .0342000
592.563 .0341018
593.342 .0340116
594.121 .0339284
594.899 .0338510
595.678 .0337783
596.455 .0337092
597.233 .0336429
598.009 .0335785
598.786 .0335155
599.562 .0334537
600.338 .0333931
601.113 .0333338
601.888 .0332507
602.663 .0331960
603.437 .0331434
604.211 .0330928
604.984 .0330443
605.757 .0329977
606.530 .0329531
607.302 .0329102
608.074 .0328692
608.845 .0328298
609.616 .0327923
610.387 .0327786
611.158 .0327441
611.928 .0327115
612.697 .0326810
613.467 .0326524
614.236 .0326257
615.004 .0326008
615.773 .0325772
616.541 .0325548
617.308 .0325332
618.076 .0325119
618.843 .0324908
619.609 .0324696
620.375 .0324482
621.141 .0324263
621.907 .0324041
622.672 .0323815
623.437 .0323585
624.202 .0323349
624.966 .0323108
625.730 .0322859
626.493 .0322602
627.257 .0322335
628.020 .0322056
628.782 .0321766
629.545 .0321465
630.307 .0321154
631.068 .0320834
631.830 .0320508
632.591 .0320178
633.352 .0319846
634.112 .0319514
634.872 .0319184
635.632 .0318856
636.392 .0318533
637.151 .0318213
637.910 .0317898
638.668 .0317587
639.427 .0317281
640.185 .0316980
640.943 .0316685
641.700 .0316396
642.457 .0316112
643.214 .0315836
643.971 .0315566
644.727 .0315302
645.483 .0315044
646.239 .0314790
646.994 .0314539
647.750 .0314291
648.505 .0314044
649.259 .0313796
650.014 .0313547
650.768 .0313297
651.521 .0313044
652.275 .0312789
653.028 .0312533
653.781 .0312274
654.534 .0312014
655.286 .0311753
656.039 .0311490
656.791 .0311227
657.542 .0310963
658.294 .0310700
659.045 .0310436
659.796 .0310173
660.546 .0309911
661.297 .0309652
662.047 .0309394
662.796 .0309140
663.546 .0308889
664.295 .0308642
665.044 .0308401
665.793 .0308165
666.542 .0307936
667.290 .0307714
668.038 .0307497
668.786 .0307287
669.533 .0307082
670.281 .0306882
671.028 .0306688
671.774 .0306497
672.521 .0306309
673.267 .0306125
674.013 .0305943
674.759 .0305763
675.505 .0305586
676.250 .0305411
676.995 .0305238
677.740 .0305067
678.484 .0304899
679.229 .0304732
679.973 .0304567
680.717 .0304403
681.460 .0304239
682.204 .0304075
682.947 .0303910
683.690 .0303743
684.433 .0303574
685.175 .0303403
685.917 .0303231
686.659 .0303057
687.401 .0302880
688.142 .0302701
688.884 .0302520
689.625 .0302336
690.365 .0302149
691.106 .0301960
691.846 .0301769
692.586 .0301574
693.326 .0301377
694.066 .0301177
694.805 .0300976
695.545 .0300774
696.284 .0300570
697.022 .0300366
697.761 .0300161
698.499 .0299957
699.237 .0299754
699.975 .0299552
700.713 .0299353
701.450 .0299155
702.187 .0298959
702.924 .0298764
703.661 .0298570
704.397 .0298378
705.133 .0298186
705.869 .0297995
706.605 .0297804
707.341 .0297614
708.076 .0297424
708.811 .0297234
709.546 .0297043
710.281 .0296851
711.015 .0296656
711.749 .0296459
712.483 .0296258
713.217 .0296055
713.950 .0295848
714.684 .0295638
715.417 .0295424
716.150 .0295206
716.882 .0294986
717.615 .0294762
718.347 .0294535
719.079 .0294306
719.811 .0294075
720.542 .0293844
721.273 .0293613
722.005 .0293383
722.735 .0293155
723.466 .0292929
724.196 .0292706
724.927 .0292485
725.656 .0292268
726.386 .0292054
727.116 .0291843
727.845 .0291636
728.574 .0291434
729.303 .0291235
730.031 .0291041
730.760 .0290851
731.488 .0290666
732.216 .0290487
732.944 .0290312
733.671 .0290141
734.398 .0289975
735.125 .0289812
735.852 .0289653
736.579 .0289498
737.305 .0289347
738.031 .0289200
738.757 .0289058
739.483 .0288920
740.208 .0288786
740.933 .0288657
741.658 .0288533
742.383 .0288413
743.108 .0288296
743.832 .0288182
744.556 .0288070
745.280 .0287961
746.004 .0287855
746.727 .0287749
747.450 .0287645
748.173 .0287542
748.896 .0287438
749.618 .0287333
750.340 .0287227
751.062 .0287119
751.784 .0287009
752.506 .0286896
753.227 .0286780
753.948 .0286661
754.669 .0286540
755.389 .0286414
756.110 .0286285
756.830 .0286152
757.550 .0286015
758.269 .0285875
758.989 .0285732
759.708 .0285586
760.427 .0285438
761.146 .0285290
761.864 .0285140
762.582 .0284991
763.300 .0284842
764.018 .0284694
764.736 .0284547
765.453 .0284402
766.170 .0284260
766.887 .0284122
767.603 .0283988
768.320 .0283859
769.036 .0283735
769.751 .0283616
770.467 .0283501
771.182 .0283392
771.897 .0283287
772.612 .0283188
773.327 .0283094
774.041 .0283007
774.755 .0282926
775.469 .0282852
776.183 .0282785
776.896 .0282723
777.609 .0282668
778.322 .0282617
779.035 .0282571
779.747 .0282529
780.459 .0282490
781.171 .0282455
781.882 .0282424
782.594 .0282396
783.305 .0282371
784.016 .0282349
784.726 .0282329
785.436 .0282310
786.147 .0282282
786.856 .0282259
787.566 .0282233
788.275 .0282205
788.984 .0282173
789.693 .0282137
790.401 .0282097
791.110 .0282052
791.818 .0282001
792.525 .0281945
793.233 .0281883
793.940 .0281815
794.647 .0281763
795.353 .0281687
796.060 .0281606
796.766 .0281520
797.472 .0281429
798.177 .0281332
798.883 .0281230
799.588 .0281122
800.292 .0281009
800.997 .0280889
801.701 .0280764
802.405 .0280633
803.109 .0280499
803.812 .0280360
804.515 .0280219
805.218 .0280074
805.921 .0279927
806.623 .0279776
807.325 .0279624
808.027 .0279468
808.728 .0279310
809.429 .0279149
810.130 .0278986
810.831 .0278821
811.531 .0278653
812.231 .0278484
812.931 .0278313
813.630 .0278141
814.330 .0277968
815.029 .0277794
815.727 .0277621
816.426 .0277448
817.124 .0277277
817.821 .0277108
818.519 .0276941
819.216 .0276776
819.913 .0276614
820.609 .0276456
821.306 .0276302
822.002 .0276152
822.697 .0276007
823.393 .0275867
824.088 .0275733
824.783 .0275604
825.477 .0275481
826.171 .0275362
826.865 .0275248
827.559 .0275138
828.252 .0275032
828.945 .0274929
829.638 .0274829
830.330 .0274731
831.023 .0274637
831.714 .0274545
832.406 .0274454
833.097 .0274364
833.788 .0274275
834.479 .0274185
835.169 .0274094
835.859 .0274002
836.548 .0273910
837.238 .0273816
837.927 .0273723
838.615 .0273629
839.304 .0273535
839.992 .0273440
840.680 .0273343
841.367 .0273244
842.054 .0273143
842.741 .0273039
843.428 .0272931
844.114 .0272821
844.800 .0272709
845.485 .0272593
846.170 .0272476
846.855 .0272355
847.540 .0272230
848.224 .0272101
848.908 .0271967
849.592 .0271827
850.275 .0271683
850.958 .0271533
851.641 .0271379
852.323 .0271220
853.005 .0271057
853.687 .0270890
854.368 .0270720
855.049 .0270546
855.730 .0270369
856.410 .0270189
857.090 .0270006
857.769 .0269822
858.449 .0269637
859.128 .0269453
859.806 .0269270
860.485 .0269089
861.163 .0268911
861.840 .0268735
862.518 .0268563
863.195 .0268395
863.871 .0268231
864.548 .0268072
865.224 .0267919
865.899 .0267773
866.574 .0267633
867.249 .0267500
867.924 .0267375
868.598 .0267257
869.272 .0267146
869.946 .0267042
870.619 .0266944
871.292 .0266852
871.964 .0266766
872.636 .0266687
873.308 .0266614
873.979 .0266547
874.651 .0266486
875.321 .0266431
875.992 .0266380
876.662 .0266335
877.331 .0266293
878.001 .0266255
878.670 .0266219
879.338 .0266188
880.007 .0266159
880.675 .0266134
881.342 .0266114
882.009 .0266098
882.676 .0266086
883.343 .0266078
884.009 .0266074
884.675 .0266074
885.340 .0266076
886.005 .0266081
886.670 .0266088
887.334 .0266099
887.998 .0266111
888.662 .0266127
889.325 .0266146
889.988 .0266168
890.650 .0266191
891.312 .0266218
891.974 .0266246
892.636 .0266275
893.297 .0266306
893.957 .0266338
894.618 .0266371
895.278 .0266404
895.937 .0266437
896.596 .0266469
897.255 .0266500
897.914 .0266527
898.572 .0266550
899.230 .0266570
899.887 .0266584
900.544 .0266592
901.201 .0266595
901.857 .0266573
902.513 .0266559
903.168 .0266538
903.823 .0266511
904.478 .0266476
905.132 .0266433
905.786 .0266381
906.440 .0266321
907.093 .0266253
907.746 .0266177
908.399 .0266093
909.051 .0266003
909.703 .0265907
910.354 .0265843
911.005 .0265742
911.656 .0265636
912.306 .0265527
912.956 .0265414
913.605 .0265297
914.254 .0265178
914.903 .0265056
915.551 .0264932
916.199 .0264806
916.847 .0264680
917.494 .0264552
918.141 .0264424
918.788 .0264295
919.434 .0264165
920.079 .0264035
920.725 .0263903
921.370 .0263770
922.014 .0263635
922.658 .0263499
923.302 .0263361
923.946 .0263221
924.589 .0263079
925.231 .0262935
925.873 .0262789
926.515 .0262641
927.157 .0262490
927.798 .0262337
928.439 .0262182
929.079 .0262024
929.719 .0261865
930.359 .0261704
930.998 .0261542
931.637 .0261380
932.275 .0261217
932.913 .0261054
933.551 .0260892
934.188 .0260731
934.825 .0260571
935.462 .0260413
936.098 .0260256
936.733 .0260102
937.369 .0259950
938.004 .0259802
938.638 .0259657
939.273 .0259516
939.907 .0259379
940.540 .0259247
941.173 .0259120
941.806 .0258998
942.438 .0258881
943.070 .0258770
943.702 .0258664
944.333 .0258563
944.964 .0258467
945.594 .0258375
946.224 .0258287
946.854 .0258201
947.483 .0258118
948.112 .0258036
948.741 .0257956
949.369 .0257876
949.996 .0257797
950.624 .0257717
951.251 .0257637
951.878 .0257556
952.504 .0257473
953.130 .0257388
953.755 .0257300
954.380 .0257210
955.005 .0257117
955.629 .0257020
956.253 .0256920
956.877 .0256816
957.500 .0256708
958.123 .0256597
958.746 .0256481
959.368 .0256361
959.990 .0256237
960.611 .0256109
961.232 .0255977
961.853 .0255841
962.473 .0255702
963.093 .0255559
963.712 .0255414
964.331 .0255265
964.950 .0255113
965.569 .0254959
966.187 .0254802
966.804 .0254643
967.422 .0254481
968.039 .0254318
968.655 .0254153
969.272 .0253985
969.887 .0253816
970.503 .0253646
971.118 .0253475
971.733 .0253304
972.347 .0253132
972.961 .0252960
973.575 .0252788
974.188 .0252616
974.801 .0252442
975.414 .0252268
976.026 .0252091
976.638 .0251913
977.250 .0251733
977.861 .0251552
978.472 .0251369
979.083 .0251186
979.693 .0251002
980.303 .0250819
980.912 .0250544
981.521 .0250363
982.130 .0250182
982.738 .0250001
983.346 .0249821
983.954 .0249642
984.562 .0249464
985.169 .0249288
985.775 .0249116
986.382 .0248946
986.988 .0248781
987.594 .0248620
988.199 .0248463
988.804 .0248310
989.409 .0248249
990.013 .0248105
990.617 .0247967
991.221 .0247834
991.824 .0247708
992.427 .0247587
993.030 .0247472
993.632 .0247363
994.234 .0247258
994.836 .0247158
995.438 .0247063
996.039 .0246971
996.640 .0246883
997.240 .0246800
997.840 .0246722
998.440 .0246647
999.040 .0246577
999.639 .0246512
1000.238 .0246449
1000.836 .0246391
1001.435 .0246335
1002.033 .0246281
1002.630 .0246230
1003.228 .0246181
1003.825 .0246134
1004.422 .0246088
1005.018 .0246045
1005.614 .0246003
1006.210 .0245963
1006.806 .0245924
1007.401 .0245887
1007.996 .0245850
1008.591 .0245816
1009.186 .0245783
1009.780 .0245753
1010.374 .0245727
1010.967 .0245705
1011.561 .0245688
1012.154 .0245675
1012.746 .0245666
1013.339 .0245661
1013.931 .0245660
1014.523 .0245662
1015.115 .0245667
1015.706 .0245675
1016.298 .0245685
1016.888 .0245700
1017.479 .0245718
1018.069 .0245740
1018.660 .0245767
1019.250 .0245799
1019.839 .0245833
1020.429 .0245871
1021.018 .0245912
1021.607 .0245955
1022.195 .0246000
1022.784 .0246048
1023.372 .0246099
1023.960 .0246155
1024.547 .0246215
1025.135 .0246280
1025.722 .0246350
1026.309 .0246424
1026.896 .0246502
1027.483 .0246583
1028.069 .0246666
1028.655 .0246750
1029.241 .0246834
1029.827 .0246918
1030.412 .0247003
1030.997 .0247087
1031.582 .0247173
1032.167 .0247259
1032.752 .0247347
1033.336 .0247437
1033.921 .0247527
1034.505 .0247618
1035.089 .0247710
1035.672 .0247802
1036.256 .0247895
1036.839 .0247989
1037.422 .0248082
1038.005 .0248176
1038.588 .0248271
1039.171 .0248366
1039.753 .0248460
1040.335 .0248554
1040.918 .0248646
1041.500 .0248735
1042.081 .0248821
1042.663 .0248904
1043.244 .0248982
1043.826 .0249057
1044.407 .0249128
1044.988 .0249197
1045.569 .0249263
1046.150 .0249328
1046.730 .0249393
1047.311 .0249456
1047.891 .0249519
1048.471 .0249581
1049.052 .0249641
1049.632 .0249700
1050.211 .0249756
1050.791 .0249811
1051.371 .0249864
1051.950 .0249917
1052.530 .0249968
1053.109 .0250019
1053.688 .0250070
1054.268 .0250121
1054.847 .0250172
1055.426 .0250224
1056.005 .0250277
1056.583 .0250332
1057.162 .0250389
1057.741 .0250448
1058.319 .0250511
1058.898 .0250578
1059.476 .0250649
1060.055 .0250725
1060.633 .0250806
1061.211 .0250892
1061.790 .0250983
1062.368 .0251079
1062.946 .0251181
1063.524 .0251289
1064.102 .0251402
1064.680 .0251522
1065.258 .0251649
1065.836 .0251781
1066.414 .0251918
1066.992 .0252059
1067.570 .0252202
1068.148 .0252348
1068.726 .0252496
1069.304 .0252645
1069.882 .0252796
1070.460 .0252949
1071.038 .0253106
1071.616 .0253265
1072.194 .0253427
1072.772 .0253592
1073.350 .0253758
1073.928 .0253924
1074.506 .0254089
1075.084 .0254252
1075.662 .0254411
1076.240 .0254567
1076.819 .0254719
1077.397 .0254867
1077.976 .0255013
1078.554 .0255156
1079.133 .0255297
1079.711 .0255435
1080.290 .0255571
1080.869 .0255704
1081.448 .0255834
1082.027 .0255961
1082.606 .0256085
1083.185 .0256208
1083.764 .0256331
1084.343 .0256455
1084.923 .0256583
1085.502 .0256715
1086.082 .0256853
1086.662 .0256996
1087.242 .0257146
1087.822 .0257302
1088.402 .0257464
1088.983 .0257631
1089.563 .0257804
1090.144 .0257983
1090.725 .0258167
1091.306 .0258356
1091.887 .0258551
1092.469 .0258751
1093.050 .0258956
1093.632 .0259166
1094.214 .0259382
1094.796 .0259603
1095.379 .0259831
1095.961 .0260065
1096.544 .0260306
1097.127 .0260553
1097.710 .0260804
1098.294 .0261061
1098.877 .0261321
1099.461 .0261584
1100.046 .0261850
1100.630 .0262118
1101.215 .0262389
1101.800 .0262661
1102.385 .0262935
1102.970 .0263209
1103.556 .0263483
1104.142 .0263755
1104.728 .0264023
1105.315 .0264286
1105.902 .0264545
1106.489 .0264799
1107.077 .0265052
1107.664 .0265305
1108.253 .0265561
1108.841 .0265823
1109.430 .0266093
1110.019 .0266373
1110.609 .0266665
1111.198 .0266967
1111.789 .0267279
1112.379 .0267601
1112.970 .0267933
1113.561 .0268272
1114.153 .0268618
1114.745 .0268972
1115.338 .0269331
1115.931 .0269698
1116.524 .0270072
1117.117 .0270451
1117.712 .0270835
1118.306 .0271223
1118.901 .0271611
1119.496 .0271998
1120.092 .0272386
1120.689 .0272772
1121.285 .0273158
1121.882 .0273547
1122.480 .0273942
1123.078 .0274347
1123.677 .0274767
1124.276 .0275205
1124.875 .0275664
1125.476 .0276145
1126.076 .0276646
1126.677 .0277167
1127.279 .0277709
1127.881 .0278271
1128.484 .0278854
1129.087 .0279093
1129.691 .0279702
1130.295 .0280338
1130.900 .0281008
1131.505 .0281718
1132.111 .0282469
1132.718 .0283266
1133.325 .0284118
1133.933 .0285030
1134.541 .0285993
1135.150 .0286945
1135.760 .0288006
1136.370 .0289279
1136.981 .0288491
1137.592 .0289780
1138.204 .0291133
1138.817 .0292619
1139.431 .0294257
1140.045 .0295905
1140.660 .0297671
1141.275 .0299631
1141.891 .0301766
1142.508 .0303600
1143.126 .0303638
1143.744 .0307055
1144.363 .0313297
1144.983 .0316160
