Measurement Sequence started on: 15-12-46-377
Integration time: 28
Scans to Average: 2 
>>>>>Begin Spectral Data<<<<<
432.689 .0000100
433.621 .0000100
434.552 .0000100
435.482 .0000100
436.410 .0000100
437.337 .0000100
438.262 .0271387
439.187 .0573163
440.110 .0948117
441.031 .1370950
441.952 .1095316
442.871 .1143387
443.789 .1188048
444.705 .1230033
445.621 .1269846
446.535 .1307865
447.447 .1330080
448.359 .1335092
449.269 .1319224
450.178 .1280086
451.086 .1218442
451.993 .1139031
452.898 .1049661
453.803 .0959174
454.706 .0875084
455.608 .0802050
456.508 .0741637
457.408 .0700823
458.306 .0669470
459.204 .0643994
460.100 .0622596
460.995 .0604255
461.888 .0588260
462.781 .0574138
463.673 .0561540
464.563 .0550224
465.452 .0540012
466.340 .0530751
467.228 .0522329
468.114 .0514660
468.999 .0507662
469.882 .0501259
470.765 .0495393
471.647 .0490013
472.528 .0485085
473.407 .0480578
474.286 .0476478
475.163 .0472773
476.040 .0469453
476.915 .0466510
477.790 .0463928
478.663 .0461686
479.535 .0459769
480.407 .0458144
481.277 .0456792
482.147 .0455684
483.015 .0454799
483.883 .0454120
484.749 .0453635
485.615 .0453332
486.479 .0453204
487.343 .0453238
488.206 .0453431
489.067 .0453770
489.928 .0454251
490.788 .0454870
491.647 .0455625
492.505 .0456520
493.362 .0457564
494.218 .0458765
495.073 .0460148
495.928 .0462962
496.781 .0464922
497.634 .0467121
498.486 .0469574
499.337 .0472297
500.187 .0475307
501.036 .0478629
501.884 .0482287
502.731 .0486323
503.578 .0490775
504.424 .0493920
505.268 .0499141
506.113 .0504894
506.956 .0511227
507.798 .0518193
508.640 .0525851
509.480 .0534280
510.320 .0543583
511.160 .0553884
511.998 .0565315
512.836 .0578043
513.672 .0592242
514.508 .0608086
515.344 .0625770
516.178 .0645489
517.012 .0667447
517.845 .0691857
518.677 .0718904
519.508 .0748734
520.339 .0781427
521.169 .0816978
521.998 .0855127
522.826 .0895527
523.654 .0937637
524.481 .0980798
525.307 .1024283
526.133 .1067295
526.958 .1108978
527.782 .1148503
528.605 .1185114
529.428 .1218122
530.250 .1246879
531.072 .1270933
531.892 .1289901
532.712 .1303549
533.532 .1311726
534.350 .1314363
535.168 .1311459
535.986 .1303090
536.802 .1289327
537.618 .1270257
538.434 .1246034
539.249 .1217073
540.063 .1183839
540.876 .1146968
541.689 .1107202
542.501 .1065316
543.313 .1022130
544.124 .0978497
544.934 .0935189
545.744 .0892886
546.553 .0852178
547.361 .0813583
548.169 .0777403
548.976 .0743885
549.783 .0713098
550.589 .0685026
551.395 .0659568
552.200 .0636531
553.004 .0615655
553.808 .0596718
554.611 .0579524
555.414 .0563892
556.216 .0549620
557.018 .0536551
557.819 .0524547
558.619 .0513482
559.419 .0503251
560.218 .0493769
561.017 .0484951
561.815 .0476736
562.613 .0469062
563.410 .0461870
564.207 .0455094
565.003 .0448684
565.799 .0442590
566.594 .0436769
567.388 .0431184
568.182 .0425797
568.976 .0420580
569.769 .0415516
570.562 .0410593
571.354 .0405803
572.145 .0401152
572.936 .0396638
573.727 .0392263
574.517 .0388025
575.307 .0383924
576.096 .0379958
576.885 .0376133
577.673 .0372452
578.461 .0368921
579.248 .0365544
580.035 .0362330
580.821 .0359286
581.607 .0356418
582.392 .0353727
583.177 .0351213
583.962 .0348875
584.746 .0346706
585.529 .0344699
586.313 .0342848
587.095 .0341144
587.878 .0339580
588.660 .0338146
589.441 .0336830
590.222 .0335623
591.003 .0334514
591.783 .0333491
592.563 .0332545
593.342 .0331663
594.121 .0330836
594.899 .0330056
595.678 .0329318
596.455 .0328616
597.233 .0327946
598.009 .0327306
598.786 .0326694
599.562 .0326107
600.338 .0325543
601.113 .0324999
601.888 .0324247
602.663 .0323751
603.437 .0323274
604.211 .0322814
604.984 .0322372
605.757 .0321948
606.530 .0321544
607.302 .0321160
608.074 .0320796
608.845 .0320451
609.616 .0320126
610.387 .0320009
611.158 .0319708
611.928 .0319422
612.697 .0319151
613.467 .0318893
614.236 .0318648
615.004 .0318415
615.773 .0318191
616.541 .0317976
617.308 .0317769
618.076 .0317568
618.843 .0317371
619.609 .0317175
620.375 .0316977
621.141 .0316777
621.907 .0316572
622.672 .0316362
623.437 .0316145
624.202 .0315922
624.966 .0315693
625.730 .0315456
626.493 .0315214
627.257 .0314965
628.020 .0314709
628.782 .0314448
629.545 .0314181
630.307 .0313908
631.068 .0313629
631.830 .0313345
632.591 .0313057
633.352 .0312764
634.112 .0312468
634.872 .0312171
635.632 .0311872
636.392 .0311573
637.151 .0311275
637.910 .0310979
638.668 .0310687
639.427 .0310399
640.185 .0310116
640.943 .0309838
641.700 .0309564
642.457 .0309295
643.214 .0309029
643.971 .0308767
644.727 .0308508
645.483 .0308252
646.239 .0308000
646.994 .0307751
647.750 .0307507
648.505 .0307267
649.259 .0307033
650.014 .0306804
650.768 .0306578
651.521 .0306356
652.275 .0306135
653.028 .0305915
653.781 .0305696
654.534 .0305477
655.286 .0305258
656.039 .0305039
656.791 .0304821
657.542 .0304603
658.294 .0304387
659.045 .0304172
659.796 .0303960
660.546 .0303751
661.297 .0303544
662.047 .0303339
662.796 .0303136
663.546 .0302936
664.295 .0302737
665.044 .0302541
665.793 .0302347
666.542 .0302157
667.290 .0301969
668.038 .0301785
668.786 .0301606
669.533 .0301432
670.281 .0301262
671.028 .0301099
671.774 .0300940
672.521 .0300786
673.267 .0300636
674.013 .0300489
674.759 .0300346
675.505 .0300204
676.250 .0300064
676.995 .0299924
677.740 .0299786
678.484 .0299648
679.229 .0299511
679.973 .0299376
680.717 .0299241
681.460 .0299107
682.204 .0298972
682.947 .0298837
683.690 .0298699
684.433 .0298558
685.175 .0298413
685.917 .0298264
686.659 .0298111
687.401 .0297953
688.142 .0297791
688.884 .0297624
689.625 .0297454
690.365 .0297279
691.106 .0297100
691.846 .0296916
692.586 .0296727
693.326 .0296535
694.066 .0296338
694.805 .0296138
695.545 .0295935
696.284 .0295730
697.022 .0295523
697.761 .0295315
698.499 .0295105
699.237 .0294894
699.975 .0294683
700.713 .0294473
701.450 .0294263
702.187 .0294053
702.924 .0293843
703.661 .0293634
704.397 .0293424
705.133 .0293214
705.869 .0293002
706.605 .0292789
707.341 .0292575
708.076 .0292360
708.811 .0292143
709.546 .0291926
710.281 .0291707
711.015 .0291487
711.749 .0291266
712.483 .0291042
713.217 .0290817
713.950 .0290590
714.684 .0290362
715.417 .0290131
716.150 .0289899
716.882 .0289666
717.615 .0289432
718.347 .0289198
719.079 .0288965
719.811 .0288732
720.542 .0288501
721.273 .0288272
722.005 .0288047
722.735 .0287824
723.466 .0287606
724.196 .0287391
724.927 .0287182
725.656 .0286976
726.386 .0286776
727.116 .0286581
727.845 .0286392
728.574 .0286209
729.303 .0286032
730.031 .0285861
730.760 .0285696
731.488 .0285538
732.216 .0285386
732.944 .0285240
733.671 .0285099
734.398 .0284964
735.125 .0284834
735.852 .0284709
736.579 .0284589
737.305 .0284473
738.031 .0284362
738.757 .0284255
739.483 .0284153
740.208 .0284055
740.933 .0283962
741.658 .0283873
742.383 .0283789
743.108 .0283709
743.832 .0283632
744.556 .0283558
745.280 .0283487
746.004 .0283418
746.727 .0283352
747.450 .0283287
748.173 .0283224
748.896 .0283162
749.618 .0283102
750.340 .0283043
751.062 .0282984
751.784 .0282925
752.506 .0282867
753.227 .0282807
753.948 .0282747
754.669 .0282685
755.389 .0282622
756.110 .0282556
756.830 .0282488
757.550 .0282417
758.269 .0282343
758.989 .0282265
759.708 .0282185
760.427 .0282101
761.146 .0282014
761.864 .0281923
762.582 .0281830
763.300 .0281733
764.018 .0281632
764.736 .0281528
765.453 .0281419
766.170 .0281307
766.887 .0281191
767.603 .0281071
768.320 .0280948
769.036 .0280824
769.751 .0280697
770.467 .0280569
771.182 .0280440
771.897 .0280310
772.612 .0280180
773.327 .0280050
774.041 .0279921
774.755 .0279792
775.469 .0279664
776.183 .0279538
776.896 .0279414
777.609 .0279292
778.322 .0279172
779.035 .0279054
779.747 .0278937
780.459 .0278823
781.171 .0278710
781.882 .0278598
782.594 .0278486
783.305 .0278375
784.016 .0278264
784.726 .0278151
785.436 .0278037
786.147 .0277854
786.856 .0277732
787.566 .0277606
788.275 .0277476
788.984 .0277342
789.693 .0277203
790.401 .0277060
791.110 .0276912
791.818 .0276758
792.525 .0276598
793.233 .0276433
793.940 .0276262
794.647 .0276159
795.353 .0275981
796.060 .0275797
796.766 .0275608
797.472 .0275414
798.177 .0275216
798.883 .0275014
799.588 .0274808
800.292 .0274599
800.997 .0274387
801.701 .0274174
802.405 .0273959
803.109 .0273744
803.812 .0273527
804.515 .0273311
805.218 .0273094
805.921 .0272876
806.623 .0272659
807.325 .0272441
808.027 .0272223
808.728 .0272004
809.429 .0271786
810.130 .0271568
810.831 .0271349
811.531 .0271132
812.231 .0270915
812.931 .0270699
813.630 .0270484
814.330 .0270271
815.029 .0270060
815.727 .0269852
816.426 .0269647
817.124 .0269447
817.821 .0269252
818.519 .0269064
819.216 .0268883
819.913 .0268710
820.609 .0268546
821.306 .0268390
822.002 .0268244
822.697 .0268109
823.393 .0267984
824.088 .0267870
824.783 .0267768
825.477 .0267676
826.171 .0267596
826.865 .0267527
827.559 .0267468
828.252 .0267419
828.945 .0267379
829.638 .0267347
830.330 .0267324
831.023 .0267309
831.714 .0267300
832.406 .0267298
833.097 .0267302
833.788 .0267312
834.479 .0267326
835.169 .0267345
835.859 .0267367
836.548 .0267391
837.238 .0267417
837.927 .0267444
838.615 .0267471
839.304 .0267497
839.992 .0267522
840.680 .0267545
841.367 .0267566
842.054 .0267586
842.741 .0267603
843.428 .0267619
844.114 .0267632
844.800 .0267644
845.485 .0267653
846.170 .0267659
846.855 .0267662
847.540 .0267662
848.224 .0267658
848.908 .0267652
849.592 .0267642
850.275 .0267630
850.958 .0267614
851.641 .0267596
852.323 .0267575
853.005 .0267550
853.687 .0267522
854.368 .0267489
855.049 .0267452
855.730 .0267411
856.410 .0267367
857.090 .0267319
857.769 .0267268
858.449 .0267214
859.128 .0267157
859.806 .0267097
860.485 .0267034
861.163 .0266968
861.840 .0266899
862.518 .0266829
863.195 .0266757
863.871 .0266685
864.548 .0266613
865.224 .0266542
865.899 .0266471
866.574 .0266400
867.249 .0266330
867.924 .0266259
868.598 .0266188
869.272 .0266117
869.946 .0266046
870.619 .0265975
871.292 .0265905
871.964 .0265835
872.636 .0265767
873.308 .0265700
873.979 .0265633
874.651 .0265567
875.321 .0265502
875.992 .0265436
876.662 .0265370
877.331 .0265304
878.001 .0265237
878.670 .0265170
879.338 .0265102
880.007 .0265033
880.675 .0264962
881.342 .0264889
882.009 .0264813
882.676 .0264734
883.343 .0264652
884.009 .0264567
884.675 .0264478
885.340 .0264386
886.005 .0264290
886.670 .0264191
887.334 .0264089
887.998 .0263984
888.662 .0263876
889.325 .0263765
889.988 .0263651
890.650 .0263535
891.312 .0263416
891.974 .0263294
892.636 .0263170
893.297 .0263044
893.957 .0262914
894.618 .0262781
895.278 .0262644
895.937 .0262502
896.596 .0262357
897.255 .0262206
897.914 .0262050
898.572 .0261889
899.230 .0261722
899.887 .0261549
900.544 .0261371
901.201 .0261186
901.857 .0260876
902.513 .0260673
903.168 .0260463
903.823 .0260245
904.478 .0260019
905.132 .0259786
905.786 .0259545
906.440 .0259297
907.093 .0259041
907.746 .0258779
908.399 .0258510
909.051 .0258235
909.703 .0257956
910.354 .0257806
911.005 .0257523
911.656 .0257236
912.306 .0256947
912.956 .0256656
913.605 .0256364
914.254 .0256073
914.903 .0255782
915.551 .0255492
916.199 .0255204
916.847 .0254918
917.494 .0254635
918.141 .0254353
918.788 .0254075
919.434 .0253799
920.079 .0253525
920.725 .0253254
921.370 .0252985
922.014 .0252719
922.658 .0252455
923.302 .0252193
923.946 .0251934
924.589 .0251677
925.231 .0251422
925.873 .0251171
926.515 .0250922
927.157 .0250676
927.798 .0250434
928.439 .0250196
929.079 .0249963
929.719 .0249734
930.359 .0249511
930.998 .0249293
931.637 .0249081
932.275 .0248874
932.913 .0248673
933.551 .0248478
934.188 .0248289
934.825 .0248106
935.462 .0247931
936.098 .0247763
936.733 .0247603
937.369 .0247453
938.004 .0247311
938.638 .0247179
939.273 .0247057
939.907 .0246944
940.540 .0246842
941.173 .0246750
941.806 .0246668
942.438 .0246596
943.070 .0246535
943.702 .0246483
944.333 .0246442
944.964 .0246409
945.594 .0246385
946.224 .0246368
946.854 .0246358
947.483 .0246354
948.112 .0246354
948.741 .0246360
949.369 .0246371
949.996 .0246385
950.624 .0246404
951.251 .0246427
951.878 .0246453
952.504 .0246483
953.130 .0246514
953.755 .0246548
954.380 .0246584
955.005 .0246622
955.629 .0246661
956.253 .0246702
956.877 .0246745
957.500 .0246789
958.123 .0246834
958.746 .0246881
959.368 .0246928
959.990 .0246976
960.611 .0247024
961.232 .0247072
961.853 .0247121
962.473 .0247171
963.093 .0247222
963.712 .0247274
964.331 .0247327
964.950 .0247382
965.569 .0247439
966.187 .0247497
966.804 .0247556
967.422 .0247615
968.039 .0247676
968.655 .0247737
969.272 .0247798
969.887 .0247860
970.503 .0247923
971.118 .0247986
971.733 .0248050
972.347 .0248113
972.961 .0248177
973.575 .0248240
974.188 .0248302
974.801 .0248362
975.414 .0248420
976.026 .0248475
976.638 .0248528
977.250 .0248578
977.861 .0248626
978.472 .0248671
979.083 .0248715
979.693 .0248757
980.303 .0248798
980.912 .0248851
981.521 .0248888
982.130 .0248922
982.738 .0248954
983.346 .0248983
983.954 .0249011
984.562 .0249036
985.169 .0249061
985.775 .0249086
986.382 .0249112
986.988 .0249139
987.594 .0249166
988.199 .0249195
988.804 .0249224
989.409 .0249243
990.013 .0249273
990.617 .0249304
991.221 .0249334
991.824 .0249364
992.427 .0249395
993.030 .0249427
993.632 .0249458
994.234 .0249490
994.836 .0249522
995.438 .0249552
996.039 .0249581
996.640 .0249608
997.240 .0249631
997.840 .0249652
998.440 .0249671
999.040 .0249687
999.639 .0249701
1000.238 .0249713
1000.836 .0249724
1001.435 .0249735
1002.033 .0249744
1002.630 .0249752
1003.228 .0249758
1003.825 .0249762
1004.422 .0249764
1005.018 .0249763
1005.614 .0249759
1006.210 .0249751
1006.806 .0249739
1007.401 .0249724
1007.996 .0249705
1008.591 .0249683
1009.186 .0249657
1009.780 .0249628
1010.374 .0249596
1010.967 .0249561
1011.561 .0249523
1012.154 .0249482
1012.746 .0249439
1013.339 .0249393
1013.931 .0249344
1014.523 .0249293
1015.115 .0249239
1015.706 .0249183
1016.298 .0249124
1016.888 .0249062
1017.479 .0248999
1018.069 .0248932
1018.660 .0248863
1019.250 .0248792
1019.839 .0248719
1020.429 .0248642
1021.018 .0248564
1021.607 .0248482
1022.195 .0248398
1022.784 .0248312
1023.372 .0248224
1023.960 .0248134
1024.547 .0248043
1025.135 .0247952
1025.722 .0247862
1026.309 .0247772
1026.896 .0247683
1027.483 .0247595
1028.069 .0247507
1028.655 .0247419
1029.241 .0247331
1029.827 .0247241
1030.412 .0247151
1030.997 .0247061
1031.582 .0246970
1032.167 .0246881
1032.752 .0246793
1033.336 .0246706
1033.921 .0246621
1034.505 .0246538
1035.089 .0246456
1035.672 .0246374
1036.256 .0246292
1036.839 .0246208
1037.422 .0246121
1038.005 .0246032
1038.588 .0245940
1039.171 .0245844
1039.753 .0245744
1040.335 .0245641
1040.918 .0245532
1041.500 .0245418
1042.081 .0245297
1042.663 .0245169
1043.244 .0245034
1043.826 .0244890
1044.407 .0244740
1044.988 .0244583
1045.569 .0244421
1046.150 .0244257
1046.730 .0244091
1047.311 .0243926
1047.891 .0243763
1048.471 .0243602
1049.052 .0243444
1049.632 .0243288
1050.211 .0243133
1050.791 .0242981
1051.371 .0242830
1051.950 .0242682
1052.530 .0242535
1053.109 .0242390
1053.688 .0242249
1054.268 .0242111
1054.847 .0241977
1055.426 .0241848
1056.005 .0241723
1056.583 .0241602
1057.162 .0241485
1057.741 .0241374
1058.319 .0241268
1058.898 .0241167
1059.476 .0241073
1060.055 .0240984
1060.633 .0240902
1061.211 .0240826
1061.790 .0240756
1062.368 .0240690
1062.946 .0240630
1063.524 .0240574
1064.102 .0240520
1064.680 .0240468
1065.258 .0240416
1065.836 .0240364
1066.414 .0240310
1066.992 .0240254
1067.570 .0240195
1068.148 .0240133
1068.726 .0240070
1069.304 .0240006
1069.882 .0239942
1070.460 .0239880
1071.038 .0239820
1071.616 .0239765
1072.194 .0239716
1072.772 .0239673
1073.350 .0239637
1073.928 .0239609
1074.506 .0239589
1075.084 .0239577
1075.662 .0239574
1076.240 .0239577
1076.819 .0239589
1077.397 .0239609
1077.976 .0239637
1078.554 .0239671
1079.133 .0239713
1079.711 .0239763
1080.290 .0239819
1080.869 .0239882
1081.448 .0239952
1082.027 .0240027
1082.606 .0240108
1083.185 .0240192
1083.764 .0240279
1084.343 .0240369
1084.923 .0240460
1085.502 .0240554
1086.082 .0240650
1086.662 .0240747
1087.242 .0240846
1087.822 .0240946
1088.402 .0241049
1088.983 .0241153
1089.563 .0241257
1090.144 .0241361
1090.725 .0241464
1091.306 .0241565
1091.887 .0241666
1092.469 .0241769
1093.050 .0241875
1093.632 .0241986
1094.214 .0242104
1094.796 .0242232
1095.379 .0242371
1095.961 .0242519
1096.544 .0242678
1097.127 .0242845
1097.710 .0243020
1098.294 .0243201
1098.877 .0243390
1099.461 .0243586
1100.046 .0243792
1100.630 .0244010
1101.215 .0244240
1101.800 .0244483
1102.385 .0244739
1102.970 .0245006
1103.556 .0245284
1104.142 .0245573
1104.728 .0245873
1105.315 .0246185
1105.902 .0246509
1106.489 .0246848
1107.077 .0247202
1107.664 .0247571
1108.253 .0247957
1108.841 .0248359
1109.430 .0248774
1110.019 .0249200
1110.609 .0249634
1111.198 .0250074
1111.789 .0250518
1112.379 .0250966
1112.970 .0251415
1113.561 .0251865
1114.153 .0252316
1114.745 .0252765
1115.338 .0253215
1115.931 .0253665
1116.524 .0254116
1117.117 .0254570
1117.712 .0255030
1118.306 .0255498
1118.901 .0255975
1119.496 .0256463
1120.092 .0256965
1120.689 .0257478
1121.285 .0258000
1121.882 .0258533
1122.480 .0259077
1123.078 .0259634
1123.677 .0260206
1124.276 .0260797
1124.875 .0261411
1125.476 .0262048
1126.076 .0262708
1126.677 .0263392
1127.279 .0264099
1127.881 .0264826
1128.484 .0265569
1129.087 .0265866
1129.691 .0266633
1130.295 .0267419
1130.900 .0268225
1131.505 .0269055
1132.111 .0269911
1132.718 .0270793
1133.325 .0271700
1133.933 .0272640
1134.541 .0273572
1135.150 .0274565
1135.760 .0275498
1136.370 .0276484
1136.981 .0278281
1137.592 .0279260
1138.204 .0280284
1138.817 .0281354
1139.431 .0282410
1140.045 .0283537
1140.660 .0284632
1141.275 .0285695
1141.891 .0287004
1142.508 .0287182
1143.126 .0289368
1143.744 .0288262
1144.363 .0290366
1144.983 .0299451
