Measurement Sequence started on: 15-12-46-377
Integration time: 28
Scans to Average: 2 
>>>>>Begin Spectral Data<<<<<
432.689 .0000100
433.621 .0000100
434.552 .0000100
435.482 .0000100
436.410 .0000100
437.337 .0000100
438.262 .0250808
439.187 .0529376
440.110 .0876381
441.031 .1266862
441.952 .1016314
442.871 .1061686
443.789 .1103893
444.705 .1143581
445.621 .1181207
446.535 .1217133
447.447 .1238422
448.359 .1243814
449.269 .1229875
450.178 .1194438
451.086 .1138183
451.993 .1065444
452.898 .0983388
453.803 .0900142
454.706 .0822618
455.608 .0755102
456.508 .0699038
457.408 .0660912
458.306 .0631387
459.204 .0607247
460.100 .0586837
460.995 .0569278
461.888 .0553946
462.781 .0540402
463.673 .0528307
464.563 .0517421
465.452 .0507565
466.340 .0498594
467.228 .0490414
468.114 .0482957
468.999 .0476168
469.882 .0469997
470.765 .0464390
471.647 .0459296
472.528 .0454664
473.407 .0450447
474.286 .0446599
475.163 .0443090
476.040 .0439885
476.915 .0436964
477.790 .0434310
478.663 .0431914
479.535 .0429766
480.407 .0427853
481.277 .0426164
482.147 .0424677
483.015 .0423376
483.883 .0422242
484.749 .0421269
485.615 .0420450
486.479 .0419780
487.343 .0419261
488.206 .0418899
489.067 .0418698
489.928 .0418664
490.788 .0418806
491.647 .0419130
492.505 .0419643
493.362 .0420349
494.218 .0421251
495.073 .0422357
495.928 .0424769
496.781 .0426420
497.634 .0428291
498.486 .0430386
499.337 .0432710
500.187 .0435286
501.036 .0438131
501.884 .0441268
502.731 .0444740
503.578 .0448584
504.424 .0451300
505.268 .0455869
506.113 .0460941
506.956 .0466560
507.798 .0472775
508.640 .0479639
509.480 .0487216
510.320 .0495600
511.160 .0504904
511.998 .0515264
512.836 .0526859
513.672 .0539872
514.508 .0554517
515.344 .0571011
516.178 .0589566
517.012 .0610382
517.845 .0633645
518.677 .0659499
519.508 .0688053
520.339 .0719372
521.169 .0753447
521.998 .0790069
522.826 .0828931
523.654 .0869562
524.481 .0911382
525.307 .0953692
526.133 .0995709
526.958 .1036565
527.782 .1075428
528.605 .1111503
529.428 .1144064
530.250 .1172473
531.072 .1196293
531.892 .1215150
532.712 .1228797
533.532 .1237094
534.350 .1240010
535.168 .1237567
535.986 .1229859
536.802 .1216970
537.618 .1199012
538.434 .1176148
539.249 .1148726
540.063 .1117163
540.876 .1082019
541.689 .1043950
542.501 .1003691
543.313 .0962045
544.124 .0919882
544.934 .0878011
545.744 .0837167
546.553 .0797992
547.361 .0760992
548.169 .0726454
548.976 .0694579
549.783 .0665424
550.589 .0638944
551.395 .0614990
552.200 .0593356
553.004 .0573807
553.808 .0556137
554.611 .0540143
555.414 .0525633
556.216 .0512418
557.018 .0500335
557.819 .0489233
558.619 .0478981
559.419 .0469484
560.218 .0460670
561.017 .0452469
561.815 .0444809
562.613 .0437639
563.410 .0430903
564.207 .0424543
565.003 .0418521
565.799 .0412786
566.594 .0407302
567.388 .0402035
568.182 .0396954
568.976 .0392038
569.769 .0387266
570.562 .0382628
571.354 .0378118
572.145 .0373739
572.936 .0369497
573.727 .0365393
574.517 .0361438
575.307 .0357642
576.096 .0354004
576.885 .0350522
577.673 .0347196
578.461 .0344023
579.248 .0340999
580.035 .0338121
580.821 .0335389
581.607 .0332804
582.392 .0330369
583.177 .0328087
583.962 .0325960
584.746 .0323987
585.529 .0322167
586.313 .0320491
587.095 .0318951
587.878 .0317539
588.660 .0316243
589.441 .0315054
590.222 .0313966
591.003 .0312970
591.783 .0312061
592.563 .0311230
593.342 .0310474
594.121 .0309781
594.899 .0309146
595.678 .0308560
596.455 .0308014
597.233 .0307503
598.009 .0307021
598.786 .0306562
599.562 .0306123
600.338 .0305698
601.113 .0305286
601.888 .0304692
602.663 .0304299
603.437 .0303913
604.211 .0303533
604.984 .0303159
605.757 .0302791
606.530 .0302430
607.302 .0302077
608.074 .0301731
608.845 .0301393
609.616 .0301062
610.387 .0300913
611.158 .0300594
611.928 .0300281
612.697 .0299976
613.467 .0299678
614.236 .0299388
615.004 .0299107
615.773 .0298835
616.541 .0298573
617.308 .0298320
618.076 .0298076
618.843 .0297841
619.609 .0297614
620.375 .0297394
621.141 .0297179
621.907 .0296970
622.672 .0296765
623.437 .0296564
624.202 .0296367
624.966 .0296175
625.730 .0295986
626.493 .0295802
627.257 .0295622
628.020 .0295447
628.782 .0295275
629.545 .0295107
630.307 .0294941
631.068 .0294777
631.830 .0294615
632.591 .0294453
633.352 .0294293
634.112 .0294135
634.872 .0293979
635.632 .0293826
636.392 .0293678
637.151 .0293534
637.910 .0293394
638.668 .0293259
639.427 .0293128
640.185 .0293000
640.943 .0292877
641.700 .0292756
642.457 .0292638
643.214 .0292523
643.971 .0292411
644.727 .0292300
645.483 .0292192
646.239 .0292086
646.994 .0291982
647.750 .0291880
648.505 .0291778
649.259 .0291677
650.014 .0291574
650.768 .0291469
651.521 .0291359
652.275 .0291244
653.028 .0291122
653.781 .0290994
654.534 .0290857
655.286 .0290713
656.039 .0290562
656.791 .0290403
657.542 .0290239
658.294 .0290068
659.045 .0289889
659.796 .0289704
660.546 .0289510
661.297 .0289308
662.047 .0289097
662.796 .0288879
663.546 .0288654
664.295 .0288423
665.044 .0288186
665.793 .0287946
666.542 .0287703
667.290 .0287459
668.038 .0287216
668.786 .0286973
669.533 .0286732
670.281 .0286493
671.028 .0286257
671.774 .0286023
672.521 .0285792
673.267 .0285565
674.013 .0285340
674.759 .0285119
675.505 .0284902
676.250 .0284689
676.995 .0284481
677.740 .0284278
678.484 .0284079
679.229 .0283885
679.973 .0283696
680.717 .0283509
681.460 .0283326
682.204 .0283145
682.947 .0282966
683.690 .0282788
684.433 .0282611
685.175 .0282436
685.917 .0282261
686.659 .0282087
687.401 .0281915
688.142 .0281744
688.884 .0281575
689.625 .0281406
690.365 .0281240
691.106 .0281075
691.846 .0280913
692.586 .0280753
693.326 .0280597
694.066 .0280444
694.805 .0280295
695.545 .0280149
696.284 .0280008
697.022 .0279871
697.761 .0279738
698.499 .0279609
699.237 .0279485
699.975 .0279365
700.713 .0279250
701.450 .0279139
702.187 .0279032
702.924 .0278927
703.661 .0278826
704.397 .0278726
705.133 .0278628
705.869 .0278531
706.605 .0278435
707.341 .0278339
708.076 .0278244
708.811 .0278148
709.546 .0278053
710.281 .0277957
711.015 .0277859
711.749 .0277761
712.483 .0277661
713.217 .0277559
713.950 .0277454
714.684 .0277346
715.417 .0277235
716.150 .0277120
716.882 .0277001
717.615 .0276876
718.347 .0276748
719.079 .0276615
719.811 .0276478
720.542 .0276337
721.273 .0276193
722.005 .0276045
722.735 .0275895
723.466 .0275742
724.196 .0275585
724.927 .0275426
725.656 .0275264
726.386 .0275100
727.116 .0274934
727.845 .0274767
728.574 .0274599
729.303 .0274430
730.031 .0274260
730.760 .0274091
731.488 .0273921
732.216 .0273750
732.944 .0273579
733.671 .0273407
734.398 .0273234
735.125 .0273060
735.852 .0272885
736.579 .0272710
737.305 .0272534
738.031 .0272358
738.757 .0272181
739.483 .0272003
740.208 .0271824
740.933 .0271643
741.658 .0271460
742.383 .0271275
743.108 .0271086
743.832 .0270893
744.556 .0270696
745.280 .0270496
746.004 .0270291
746.727 .0270084
747.450 .0269874
748.173 .0269663
748.896 .0269450
749.618 .0269237
750.340 .0269023
751.062 .0268809
751.784 .0268596
752.506 .0268382
753.227 .0268169
753.948 .0267957
754.669 .0267745
755.389 .0267535
756.110 .0267326
756.830 .0267118
757.550 .0266912
758.269 .0266708
758.989 .0266507
759.708 .0266308
760.427 .0266113
761.146 .0265923
761.864 .0265736
762.582 .0265555
763.300 .0265378
764.018 .0265206
764.736 .0265040
765.453 .0264879
766.170 .0264725
766.887 .0264578
767.603 .0264439
768.320 .0264309
769.036 .0264189
769.751 .0264077
770.467 .0263976
771.182 .0263883
771.897 .0263799
772.612 .0263723
773.327 .0263655
774.041 .0263593
774.755 .0263539
775.469 .0263491
776.183 .0263450
776.896 .0263414
777.609 .0263384
778.322 .0263359
779.035 .0263338
779.747 .0263322
780.459 .0263309
781.171 .0263299
781.882 .0263293
782.594 .0263290
783.305 .0263290
784.016 .0263291
784.726 .0263294
785.436 .0263297
786.147 .0263307
786.856 .0263311
787.566 .0263315
788.275 .0263320
788.984 .0263324
789.693 .0263328
790.401 .0263332
791.110 .0263335
791.818 .0263336
792.525 .0263335
793.233 .0263330
793.940 .0263321
794.647 .0263304
795.353 .0263287
796.060 .0263266
796.766 .0263241
797.472 .0263211
798.177 .0263176
798.883 .0263136
799.588 .0263090
800.292 .0263039
800.997 .0262981
801.701 .0262916
802.405 .0262846
803.109 .0262771
803.812 .0262689
804.515 .0262602
805.218 .0262510
805.921 .0262413
806.623 .0262309
807.325 .0262201
808.027 .0262086
808.728 .0261967
809.429 .0261843
810.130 .0261714
810.831 .0261581
811.531 .0261445
812.231 .0261305
812.931 .0261161
813.630 .0261014
814.330 .0260863
815.029 .0260709
815.727 .0260552
816.426 .0260391
817.124 .0260228
817.821 .0260061
818.519 .0259892
819.216 .0259721
819.913 .0259547
820.609 .0259371
821.306 .0259193
822.002 .0259013
822.697 .0258833
823.393 .0258652
824.088 .0258471
824.783 .0258291
825.477 .0258113
826.171 .0257935
826.865 .0257757
827.559 .0257581
828.252 .0257405
828.945 .0257228
829.638 .0257050
830.330 .0256872
831.023 .0256693
831.714 .0256513
832.406 .0256333
833.097 .0256152
833.788 .0255970
834.479 .0255786
835.169 .0255602
835.859 .0255415
836.548 .0255226
837.238 .0255034
837.927 .0254839
838.615 .0254640
839.304 .0254437
839.992 .0254230
840.680 .0254020
841.367 .0253807
842.054 .0253591
842.741 .0253374
843.428 .0253156
844.114 .0252937
844.800 .0252719
845.485 .0252502
846.170 .0252286
846.855 .0252071
847.540 .0251858
848.224 .0251647
848.908 .0251439
849.592 .0251233
850.275 .0251031
850.958 .0250832
851.641 .0250638
852.323 .0250449
853.005 .0250264
853.687 .0250086
854.368 .0249914
855.049 .0249748
855.730 .0249588
856.410 .0249435
857.090 .0249289
857.769 .0249150
858.449 .0249018
859.128 .0248892
859.806 .0248773
860.485 .0248660
861.163 .0248554
861.840 .0248456
862.518 .0248365
863.195 .0248282
863.871 .0248208
864.548 .0248142
865.224 .0248085
865.899 .0248035
866.574 .0247993
867.249 .0247956
867.924 .0247925
868.598 .0247900
869.272 .0247879
869.946 .0247864
870.619 .0247854
871.292 .0247850
871.964 .0247852
872.636 .0247861
873.308 .0247875
873.979 .0247896
874.651 .0247922
875.321 .0247953
875.992 .0247988
876.662 .0248028
877.331 .0248072
878.001 .0248119
878.670 .0248170
879.338 .0248225
880.007 .0248283
880.675 .0248343
881.342 .0248406
882.009 .0248471
882.676 .0248538
883.343 .0248607
884.009 .0248677
884.675 .0248750
885.340 .0248824
886.005 .0248901
886.670 .0248979
887.334 .0249059
887.998 .0249140
888.662 .0249221
889.325 .0249302
889.988 .0249383
890.650 .0249462
891.312 .0249540
891.974 .0249617
892.636 .0249692
893.297 .0249765
893.957 .0249835
894.618 .0249903
895.278 .0249968
895.937 .0250028
896.596 .0250083
897.255 .0250133
897.914 .0250177
898.572 .0250215
899.230 .0250246
899.887 .0250271
900.544 .0250289
901.201 .0250300
901.857 .0250281
902.513 .0250270
903.168 .0250251
903.823 .0250222
904.478 .0250183
905.132 .0250134
905.786 .0250075
906.440 .0250006
907.093 .0249928
907.746 .0249841
908.399 .0249744
909.051 .0249639
909.703 .0249526
910.354 .0249447
911.005 .0249323
911.656 .0249192
912.306 .0249053
912.956 .0248909
913.605 .0248759
914.254 .0248604
914.903 .0248444
915.551 .0248279
916.199 .0248111
916.847 .0247937
917.494 .0247759
918.141 .0247576
918.788 .0247388
919.434 .0247196
920.079 .0247001
920.725 .0246803
921.370 .0246602
922.014 .0246399
922.658 .0246192
923.302 .0245984
923.946 .0245772
924.589 .0245558
925.231 .0245341
925.873 .0245120
926.515 .0244897
927.157 .0244671
927.798 .0244443
928.439 .0244212
929.079 .0243977
929.719 .0243740
930.359 .0243500
930.998 .0243256
931.637 .0243008
932.275 .0242757
932.913 .0242503
933.551 .0242247
934.188 .0241990
934.825 .0241731
935.462 .0241472
936.098 .0241213
936.733 .0240954
937.369 .0240695
938.004 .0240435
938.638 .0240176
939.273 .0239918
939.907 .0239661
940.540 .0239406
941.173 .0239153
941.806 .0238903
942.438 .0238656
943.070 .0238413
943.702 .0238172
944.333 .0237934
944.964 .0237698
945.594 .0237464
946.224 .0237231
946.854 .0237001
947.483 .0236774
948.112 .0236549
948.741 .0236327
949.369 .0236109
949.996 .0235893
950.624 .0235680
951.251 .0235468
951.878 .0235258
952.504 .0235050
953.130 .0234841
953.755 .0234634
954.380 .0234427
955.005 .0234222
955.629 .0234018
956.253 .0233814
956.877 .0233612
957.500 .0233411
958.123 .0233210
958.746 .0233010
959.368 .0232810
959.990 .0232612
960.611 .0232415
961.232 .0232222
961.853 .0232032
962.473 .0231846
963.093 .0231664
963.712 .0231488
964.331 .0231315
964.950 .0231148
965.569 .0230984
966.187 .0230826
966.804 .0230672
967.422 .0230523
968.039 .0230380
968.655 .0230244
969.272 .0230114
969.887 .0229991
970.503 .0229875
971.118 .0229765
971.733 .0229662
972.347 .0229565
972.961 .0229473
973.575 .0229387
974.188 .0229306
974.801 .0229231
975.414 .0229161
976.026 .0229097
976.638 .0229037
977.250 .0228982
977.861 .0228931
978.472 .0228884
979.083 .0228839
979.693 .0228798
980.303 .0228760
980.912 .0228713
981.521 .0228680
982.130 .0228651
982.738 .0228623
983.346 .0228599
983.954 .0228578
984.562 .0228560
985.169 .0228546
985.775 .0228538
986.382 .0228534
986.988 .0228537
987.594 .0228547
988.199 .0228564
988.804 .0228588
989.409 .0228621
990.013 .0228657
990.617 .0228702
991.221 .0228755
991.824 .0228815
992.427 .0228884
993.030 .0228961
993.632 .0229044
994.234 .0229135
994.836 .0229232
995.438 .0229335
996.039 .0229443
996.640 .0229557
997.240 .0229676
997.840 .0229800
998.440 .0229930
999.040 .0230065
999.639 .0230206
1000.238 .0230351
1000.836 .0230501
1001.435 .0230655
1002.033 .0230812
1002.630 .0230972
1003.228 .0231134
1003.825 .0231298
1004.422 .0231463
1005.018 .0231629
1005.614 .0231796
1006.210 .0231964
1006.806 .0232133
1007.401 .0232302
1007.996 .0232472
1008.591 .0232641
1009.186 .0232810
1009.780 .0232978
1010.374 .0233146
1010.967 .0233313
1011.561 .0233480
1012.154 .0233647
1012.746 .0233815
1013.339 .0233985
1013.931 .0234155
1014.523 .0234327
1015.115 .0234499
1015.706 .0234673
1016.298 .0234847
1016.888 .0235021
1017.479 .0235196
1018.069 .0235371
1018.660 .0235547
1019.250 .0235724
1019.839 .0235902
1020.429 .0236081
1021.018 .0236260
1021.607 .0236439
1022.195 .0236618
1022.784 .0236795
1023.372 .0236970
1023.960 .0237143
1024.547 .0237312
1025.135 .0237478
1025.722 .0237640
1026.309 .0237799
1026.896 .0237953
1027.483 .0238103
1028.069 .0238248
1028.655 .0238389
1029.241 .0238524
1029.827 .0238653
1030.412 .0238777
1030.997 .0238896
1031.582 .0239010
1032.167 .0239120
1032.752 .0239226
1033.336 .0239328
1033.921 .0239426
1034.505 .0239521
1035.089 .0239612
1035.672 .0239697
1036.256 .0239777
1036.839 .0239850
1037.422 .0239915
1038.005 .0239972
1038.588 .0240021
1039.171 .0240062
1039.753 .0240094
1040.335 .0240119
1040.918 .0240138
1041.500 .0240149
1042.081 .0240154
1042.663 .0240153
1043.244 .0240147
1043.826 .0240135
1044.407 .0240119
1044.988 .0240100
1045.569 .0240077
1046.150 .0240052
1046.730 .0240026
1047.311 .0239998
1047.891 .0239968
1048.471 .0239937
1049.052 .0239903
1049.632 .0239866
1050.211 .0239824
1050.791 .0239778
1051.371 .0239727
1051.950 .0239671
1052.530 .0239610
1053.109 .0239546
1053.688 .0239479
1054.268 .0239410
1054.847 .0239339
1055.426 .0239270
1056.005 .0239201
1056.583 .0239136
1057.162 .0239073
1057.741 .0239014
1058.319 .0238959
1058.898 .0238908
1059.476 .0238860
1060.055 .0238817
1060.633 .0238776
1061.211 .0238738
1061.790 .0238703
1062.368 .0238669
1062.946 .0238637
1063.524 .0238605
1064.102 .0238573
1064.680 .0238538
1065.258 .0238501
1065.836 .0238460
1066.414 .0238414
1066.992 .0238363
1067.570 .0238306
1068.148 .0238243
1068.726 .0238174
1069.304 .0238101
1069.882 .0238023
1070.460 .0237941
1071.038 .0237857
1071.616 .0237769
1072.194 .0237678
1072.772 .0237584
1073.350 .0237485
1073.928 .0237383
1074.506 .0237276
1075.084 .0237165
1075.662 .0237050
1076.240 .0236934
1076.819 .0236815
1077.397 .0236696
1077.976 .0236577
1078.554 .0236458
1079.133 .0236339
1079.711 .0236219
1080.290 .0236100
1080.869 .0235981
1081.448 .0235863
1082.027 .0235746
1082.606 .0235633
1083.185 .0235523
1083.764 .0235419
1084.343 .0235321
1084.923 .0235229
1085.502 .0235145
1086.082 .0235068
1086.662 .0234998
1087.242 .0234935
1087.822 .0234879
1088.402 .0234831
1088.983 .0234790
1089.563 .0234756
1090.144 .0234728
1090.725 .0234708
1091.306 .0234693
1091.887 .0234684
1092.469 .0234680
1093.050 .0234680
1093.632 .0234681
1094.214 .0234685
1094.796 .0234689
1095.379 .0234693
1095.961 .0234696
1096.544 .0234700
1097.127 .0234703
1097.710 .0234708
1098.294 .0234714
1098.877 .0234723
1099.461 .0234737
1100.046 .0234755
1100.630 .0234777
1101.215 .0234806
1101.800 .0234841
1102.385 .0234882
1102.970 .0234929
1103.556 .0234982
1104.142 .0235043
1104.728 .0235112
1105.315 .0235191
1105.902 .0235281
1106.489 .0235384
1107.077 .0235502
1107.664 .0235634
1108.253 .0235783
1108.841 .0235948
1109.430 .0236130
1110.019 .0236330
1110.609 .0236548
1111.198 .0236785
1111.789 .0237040
1112.379 .0237314
1112.970 .0237606
1113.561 .0237915
1114.153 .0238238
1114.745 .0238572
1115.338 .0238915
1115.931 .0239263
1116.524 .0239614
1117.117 .0239968
1117.712 .0240324
1118.306 .0240683
1118.901 .0241047
1119.496 .0241415
1120.092 .0241789
1120.689 .0242167
1121.285 .0242549
1121.882 .0242932
1122.480 .0243315
1123.078 .0243697
1123.677 .0244080
1124.276 .0244464
1124.875 .0244851
1125.476 .0245244
1126.076 .0245647
1126.677 .0246060
1127.279 .0246485
1127.881 .0246921
1128.484 .0247369
1129.087 .0247546
1129.691 .0248002
1130.295 .0248470
1130.900 .0248953
1131.505 .0249455
1132.111 .0249979
1132.718 .0250533
1133.325 .0251119
1133.933 .0251743
1134.541 .0252443
1135.150 .0253150
1135.760 .0253904
1136.370 .0254679
1136.981 .0254832
1137.592 .0255719
1138.204 .0256621
1138.817 .0257474
1139.431 .0258413
1140.045 .0259395
1140.660 .0260464
1141.275 .0261587
1141.891 .0262786
1142.508 .0265025
1143.126 .0265398
1143.744 .0266934
1144.363 .0267719
1144.983 .0268695
