Measurement Sequence started on: 15-12-46-377
Integration time: 28
Scans to Average: 2 
>>>>>Begin Spectral Data<<<<<
432.689 .0000100
433.621 .0000100
434.552 .0000100
435.482 .0000100
436.410 .0000100
437.337 .0000100
438.262 .0267136
439.187 .0565347
440.110 .0935630
441.031 .1353279
441.952 .1077755
442.871 .1124650
443.789 .1168254
444.705 .1209275
445.621 .1248196
446.535 .1285388
447.447 .1307066
448.359 .1311804
449.269 .1295984
450.178 .1257249
451.086 .1196412
451.993 .1118163
452.898 .1030218
453.803 .0941314
454.706 .0858871
455.608 .0787470
456.508 .0728619
457.408 .0689137
458.306 .0659031
459.204 .0634695
460.100 .0614330
460.995 .0596898
461.888 .0581722
462.781 .0568349
463.673 .0556436
464.563 .0545737
465.452 .0536062
466.340 .0527257
467.228 .0519206
468.114 .0511810
468.999 .0505001
469.882 .0498721
470.765 .0492926
471.647 .0487596
472.528 .0482724
473.407 .0478298
474.286 .0474306
475.163 .0470739
476.040 .0467571
476.915 .0464779
477.790 .0462332
478.663 .0460202
479.535 .0458364
480.407 .0456800
481.277 .0455486
482.147 .0454404
483.015 .0453537
483.883 .0452865
484.749 .0452364
485.615 .0452015
486.479 .0451795
487.343 .0451683
488.206 .0451664
489.067 .0451730
489.928 .0451879
490.788 .0452129
491.647 .0452489
492.505 .0452977
493.362 .0453609
494.218 .0454401
495.073 .0455358
495.928 .0457440
496.781 .0458861
497.634 .0460470
498.486 .0462276
499.337 .0464295
500.187 .0466558
501.036 .0469091
501.884 .0471918
502.731 .0475069
503.578 .0478573
504.424 .0481066
505.268 .0485172
506.113 .0489690
506.956 .0494651
507.798 .0500090
508.640 .0506082
509.480 .0512714
510.320 .0520092
511.160 .0528338
511.998 .0537605
512.836 .0548070
513.672 .0559917
514.508 .0573347
515.344 .0588578
516.178 .0605831
517.012 .0625360
517.845 .0647393
518.677 .0672158
519.508 .0699860
520.339 .0730645
521.169 .0764584
521.998 .0801516
522.826 .0841139
523.654 .0882987
524.481 .0926443
525.307 .0970774
526.133 .1015082
526.958 .1058439
527.782 .1099933
528.605 .1138705
529.428 .1174005
530.250 .1205162
531.072 .1231711
531.892 .1253279
532.712 .1269599
533.532 .1280513
534.350 .1285916
535.168 .1285795
535.986 .1280157
536.802 .1269007
537.618 .1252387
538.434 .1230380
539.249 .1203317
540.063 .1171658
540.876 .1135991
541.689 .1097026
542.501 .1055560
543.313 .1012496
544.124 .0968752
544.934 .0925187
545.744 .0882586
546.553 .0841599
547.361 .0802764
548.169 .0766400
548.976 .0732722
549.783 .0701815
550.589 .0673646
551.395 .0648081
552.200 .0624913
553.004 .0603914
553.808 .0584865
554.611 .0567566
555.414 .0551848
556.216 .0537530
557.018 .0524431
557.819 .0512408
558.619 .0501338
559.419 .0491114
560.218 .0481654
561.017 .0472879
561.815 .0464725
562.613 .0457140
563.410 .0450062
564.207 .0443439
565.003 .0437218
565.799 .0431342
566.594 .0425760
567.388 .0420430
568.182 .0415323
568.976 .0410408
569.769 .0405661
570.562 .0401073
571.354 .0396642
572.145 .0392362
572.936 .0388223
573.727 .0384222
574.517 .0380351
575.307 .0376606
576.096 .0372976
576.885 .0369459
577.673 .0366052
578.461 .0362756
579.248 .0359575
580.035 .0356516
580.821 .0353589
581.607 .0350804
582.392 .0348170
583.177 .0345697
583.962 .0343383
584.746 .0341225
585.529 .0339220
586.313 .0337361
587.095 .0335640
587.878 .0334046
588.660 .0332570
589.441 .0331207
590.222 .0329948
591.003 .0328789
591.783 .0327722
592.563 .0326742
593.342 .0325840
594.121 .0325006
594.899 .0324231
595.678 .0323505
596.455 .0322817
597.233 .0322160
598.009 .0321528
598.786 .0320915
599.562 .0320318
600.338 .0319735
601.113 .0319165
601.888 .0318350
602.663 .0317809
603.437 .0317277
604.211 .0316756
604.984 .0316244
605.757 .0315743
606.530 .0315252
607.302 .0314771
608.074 .0314301
608.845 .0313842
609.616 .0313395
610.387 .0313198
611.158 .0312772
611.928 .0312362
612.697 .0311967
613.467 .0311590
614.236 .0311231
615.004 .0310891
615.773 .0310571
616.541 .0310269
617.308 .0309986
618.076 .0309720
618.843 .0309471
619.609 .0309238
620.375 .0309019
621.141 .0308815
621.907 .0308624
622.672 .0308444
623.437 .0308276
624.202 .0308118
624.966 .0307968
625.730 .0307824
626.493 .0307684
627.257 .0307548
628.020 .0307414
628.782 .0307281
629.545 .0307149
630.307 .0307016
631.068 .0306882
631.830 .0306744
632.591 .0306602
633.352 .0306456
634.112 .0306304
634.872 .0306147
635.632 .0305983
636.392 .0305814
637.151 .0305640
637.910 .0305463
638.668 .0305283
639.427 .0305101
640.185 .0304919
640.943 .0304735
641.700 .0304551
642.457 .0304367
643.214 .0304183
643.971 .0304000
644.727 .0303817
645.483 .0303632
646.239 .0303446
646.994 .0303257
647.750 .0303064
648.505 .0302866
649.259 .0302665
650.014 .0302458
650.768 .0302247
651.521 .0302031
652.275 .0301810
653.028 .0301584
653.781 .0301353
654.534 .0301116
655.286 .0300873
656.039 .0300622
656.791 .0300364
657.542 .0300100
658.294 .0299830
659.045 .0299555
659.796 .0299277
660.546 .0298995
661.297 .0298711
662.047 .0298424
662.796 .0298135
663.546 .0297844
664.295 .0297552
665.044 .0297258
665.793 .0296963
666.542 .0296667
667.290 .0296372
668.038 .0296079
668.786 .0295788
669.533 .0295501
670.281 .0295219
671.028 .0294941
671.774 .0294668
672.521 .0294401
673.267 .0294141
674.013 .0293886
674.759 .0293638
675.505 .0293395
676.250 .0293159
676.995 .0292929
677.740 .0292705
678.484 .0292490
679.229 .0292283
679.973 .0292085
680.717 .0291897
681.460 .0291718
682.204 .0291548
682.947 .0291386
683.690 .0291233
684.433 .0291087
685.175 .0290947
685.917 .0290813
686.659 .0290685
687.401 .0290564
688.142 .0290448
688.884 .0290338
689.625 .0290234
690.365 .0290134
691.106 .0290038
691.846 .0289944
692.586 .0289851
693.326 .0289759
694.066 .0289667
694.805 .0289576
695.545 .0289484
696.284 .0289392
697.022 .0289300
697.761 .0289209
698.499 .0289118
699.237 .0289027
699.975 .0288937
700.713 .0288847
701.450 .0288756
702.187 .0288665
702.924 .0288572
703.661 .0288478
704.397 .0288381
705.133 .0288281
705.869 .0288176
706.605 .0288066
707.341 .0287951
708.076 .0287833
708.811 .0287710
709.546 .0287583
710.281 .0287453
711.015 .0287319
711.749 .0287181
712.483 .0287037
713.217 .0286889
713.950 .0286734
714.684 .0286572
715.417 .0286402
716.150 .0286226
716.882 .0286043
717.615 .0285853
718.347 .0285657
719.079 .0285456
719.811 .0285249
720.542 .0285038
721.273 .0284822
722.005 .0284602
722.735 .0284379
723.466 .0284154
724.196 .0283926
724.927 .0283697
725.656 .0283467
726.386 .0283236
727.116 .0283005
727.845 .0282774
728.574 .0282543
729.303 .0282314
730.031 .0282087
730.760 .0281862
731.488 .0281640
732.216 .0281420
732.944 .0281203
733.671 .0280989
734.398 .0280777
735.125 .0280566
735.852 .0280358
736.579 .0280150
737.305 .0279944
738.031 .0279740
738.757 .0279536
739.483 .0279335
740.208 .0279135
740.933 .0278937
741.658 .0278742
742.383 .0278549
743.108 .0278358
743.832 .0278169
744.556 .0277983
745.280 .0277798
746.004 .0277615
746.727 .0277434
747.450 .0277254
748.173 .0277076
748.896 .0276899
749.618 .0276723
750.340 .0276549
751.062 .0276377
751.784 .0276207
752.506 .0276038
753.227 .0275872
753.948 .0275707
754.669 .0275544
755.389 .0275384
756.110 .0275226
756.830 .0275072
757.550 .0274921
758.269 .0274776
758.989 .0274635
759.708 .0274500
760.427 .0274372
761.146 .0274249
761.864 .0274134
762.582 .0274025
763.300 .0273924
764.018 .0273831
764.736 .0273746
765.453 .0273669
766.170 .0273600
766.887 .0273538
767.603 .0273485
768.320 .0273439
769.036 .0273401
769.751 .0273370
770.467 .0273347
771.182 .0273331
771.897 .0273322
772.612 .0273319
773.327 .0273322
774.041 .0273330
774.755 .0273342
775.469 .0273358
776.183 .0273377
776.896 .0273399
777.609 .0273424
778.322 .0273450
779.035 .0273479
779.747 .0273509
780.459 .0273542
781.171 .0273575
781.882 .0273610
782.594 .0273646
783.305 .0273682
784.016 .0273719
784.726 .0273755
785.436 .0273789
786.147 .0273833
786.856 .0273858
787.566 .0273880
788.275 .0273897
788.984 .0273910
789.693 .0273919
790.401 .0273923
791.110 .0273921
791.818 .0273915
792.525 .0273901
793.233 .0273881
793.940 .0273853
794.647 .0273816
795.353 .0273775
796.060 .0273727
796.766 .0273671
797.472 .0273606
798.177 .0273533
798.883 .0273451
799.588 .0273362
800.292 .0273264
800.997 .0273159
801.701 .0273046
802.405 .0272925
803.109 .0272797
803.812 .0272662
804.515 .0272518
805.218 .0272365
805.921 .0272203
806.623 .0272031
807.325 .0271850
808.027 .0271659
808.728 .0271459
809.429 .0271249
810.130 .0271032
810.831 .0270808
811.531 .0270577
812.231 .0270340
812.931 .0270098
813.630 .0269852
814.330 .0269600
815.029 .0269345
815.727 .0269086
816.426 .0268825
817.124 .0268562
817.821 .0268296
818.519 .0268030
819.216 .0267764
819.913 .0267499
820.609 .0267235
821.306 .0266975
822.002 .0266718
822.697 .0266466
823.393 .0266218
824.088 .0265976
824.783 .0265738
825.477 .0265507
826.171 .0265281
826.865 .0265060
827.559 .0264844
828.252 .0264635
828.945 .0264430
829.638 .0264232
830.330 .0264038
831.023 .0263850
831.714 .0263666
832.406 .0263486
833.097 .0263310
833.788 .0263138
834.479 .0262969
835.169 .0262804
835.859 .0262643
836.548 .0262486
837.238 .0262333
837.927 .0262183
838.615 .0262037
839.304 .0261895
839.992 .0261755
840.680 .0261620
841.367 .0261487
842.054 .0261359
842.741 .0261235
843.428 .0261116
844.114 .0261000
844.800 .0260888
845.485 .0260779
846.170 .0260671
846.855 .0260564
847.540 .0260458
848.224 .0260351
848.908 .0260246
849.592 .0260141
850.275 .0260037
850.958 .0259934
851.641 .0259833
852.323 .0259734
853.005 .0259636
853.687 .0259540
854.368 .0259446
855.049 .0259354
855.730 .0259265
856.410 .0259180
857.090 .0259100
857.769 .0259025
858.449 .0258956
859.128 .0258893
859.806 .0258836
860.485 .0258785
861.163 .0258740
861.840 .0258701
862.518 .0258669
863.195 .0258645
863.871 .0258628
864.548 .0258621
865.224 .0258622
865.899 .0258631
866.574 .0258648
867.249 .0258672
867.924 .0258702
868.598 .0258737
869.272 .0258778
869.946 .0258825
870.619 .0258877
871.292 .0258935
871.964 .0258998
872.636 .0259066
873.308 .0259138
873.979 .0259213
874.651 .0259290
875.321 .0259369
875.992 .0259449
876.662 .0259530
877.331 .0259613
878.001 .0259697
878.670 .0259782
879.338 .0259869
880.007 .0259958
880.675 .0260047
881.342 .0260137
882.009 .0260227
882.676 .0260317
883.343 .0260406
884.009 .0260494
884.675 .0260582
885.340 .0260669
886.005 .0260756
886.670 .0260842
887.334 .0260927
887.998 .0261010
888.662 .0261091
889.325 .0261169
889.988 .0261243
890.650 .0261314
891.312 .0261381
891.974 .0261445
892.636 .0261505
893.297 .0261561
893.957 .0261612
894.618 .0261657
895.278 .0261694
895.937 .0261723
896.596 .0261743
897.255 .0261751
897.914 .0261749
898.572 .0261735
899.230 .0261710
899.887 .0261674
900.544 .0261627
901.201 .0261569
901.857 .0261430
902.513 .0261344
903.168 .0261246
903.823 .0261136
904.478 .0261015
905.132 .0260881
905.786 .0260737
906.440 .0260582
907.093 .0260416
907.746 .0260242
908.399 .0260059
909.051 .0259867
909.703 .0259668
910.354 .0259554
911.005 .0259347
911.656 .0259133
912.306 .0258912
912.956 .0258686
913.605 .0258454
914.254 .0258218
914.903 .0257977
915.551 .0257733
916.199 .0257485
916.847 .0257233
917.494 .0256978
918.141 .0256718
918.788 .0256454
919.434 .0256185
920.079 .0255911
920.725 .0255632
921.370 .0255347
922.014 .0255057
922.658 .0254761
923.302 .0254459
923.946 .0254152
924.589 .0253839
925.231 .0253520
925.873 .0253195
926.515 .0252865
927.157 .0252529
927.798 .0252189
928.439 .0251845
929.079 .0251497
929.719 .0251148
930.359 .0250798
930.998 .0250447
931.637 .0250098
932.275 .0249751
932.913 .0249407
933.551 .0249065
934.188 .0248728
934.825 .0248395
935.462 .0248067
936.098 .0247744
936.733 .0247427
937.369 .0247116
938.004 .0246812
938.638 .0246516
939.273 .0246228
939.907 .0245949
940.540 .0245680
941.173 .0245420
941.806 .0245169
942.438 .0244927
943.070 .0244693
943.702 .0244467
944.333 .0244248
944.964 .0244034
945.594 .0243827
946.224 .0243624
946.854 .0243427
947.483 .0243235
948.112 .0243047
948.741 .0242863
949.369 .0242683
949.996 .0242506
950.624 .0242332
951.251 .0242161
951.878 .0241992
952.504 .0241826
953.130 .0241664
953.755 .0241504
954.380 .0241349
955.005 .0241198
955.629 .0241051
956.253 .0240910
956.877 .0240772
957.500 .0240639
958.123 .0240510
958.746 .0240386
959.368 .0240265
959.990 .0240150
960.611 .0240040
961.232 .0239936
961.853 .0239837
962.473 .0239745
963.093 .0239659
963.712 .0239580
964.331 .0239507
964.950 .0239441
965.569 .0239382
966.187 .0239330
966.804 .0239284
967.422 .0239244
968.039 .0239210
968.655 .0239183
969.272 .0239161
969.887 .0239144
970.503 .0239133
971.118 .0239126
971.733 .0239124
972.347 .0239126
972.961 .0239131
973.575 .0239139
974.188 .0239149
974.801 .0239162
975.414 .0239177
976.026 .0239194
976.638 .0239214
977.250 .0239238
977.861 .0239264
978.472 .0239293
979.083 .0239325
979.693 .0239360
980.303 .0239398
980.912 .0239465
981.521 .0239510
982.130 .0239557
982.738 .0239608
983.346 .0239663
983.954 .0239721
984.562 .0239783
985.169 .0239849
985.775 .0239919
986.382 .0239995
986.988 .0240075
987.594 .0240160
988.199 .0240249
988.804 .0240344
989.409 .0240409
990.013 .0240512
990.617 .0240620
991.221 .0240734
991.824 .0240854
992.427 .0240980
993.030 .0241112
993.632 .0241249
994.234 .0241392
994.836 .0241539
995.438 .0241689
996.039 .0241843
996.640 .0242001
997.240 .0242162
997.840 .0242327
998.440 .0242497
999.040 .0242669
999.639 .0242845
1000.238 .0243024
1000.836 .0243206
1001.435 .0243389
1002.033 .0243572
1002.630 .0243757
1003.228 .0243941
1003.825 .0244124
1004.422 .0244307
1005.018 .0244488
1005.614 .0244669
1006.210 .0244849
1006.806 .0245026
1007.401 .0245201
1007.996 .0245373
1008.591 .0245542
1009.186 .0245706
1009.780 .0245866
1010.374 .0246023
1010.967 .0246177
1011.561 .0246328
1012.154 .0246479
1012.746 .0246629
1013.339 .0246778
1013.931 .0246927
1014.523 .0247074
1015.115 .0247221
1015.706 .0247365
1016.298 .0247508
1016.888 .0247650
1017.479 .0247791
1018.069 .0247933
1018.660 .0248076
1019.250 .0248221
1019.839 .0248368
1020.429 .0248517
1021.018 .0248667
1021.607 .0248817
1022.195 .0248965
1022.784 .0249111
1023.372 .0249255
1023.960 .0249396
1024.547 .0249535
1025.135 .0249671
1025.722 .0249805
1026.309 .0249936
1026.896 .0250062
1027.483 .0250183
1028.069 .0250296
1028.655 .0250401
1029.241 .0250495
1029.827 .0250580
1030.412 .0250656
1030.997 .0250722
1031.582 .0250781
1032.167 .0250832
1032.752 .0250877
1033.336 .0250914
1033.921 .0250944
1034.505 .0250965
1035.089 .0250976
1035.672 .0250976
1036.256 .0250967
1036.839 .0250947
1037.422 .0250919
1038.005 .0250884
1038.588 .0250842
1039.171 .0250797
1039.753 .0250747
1040.335 .0250693
1040.918 .0250635
1041.500 .0250572
1042.081 .0250505
1042.663 .0250434
1043.244 .0250360
1043.826 .0250283
1044.407 .0250206
1044.988 .0250128
1045.569 .0250050
1046.150 .0249971
1046.730 .0249890
1047.311 .0249805
1047.891 .0249716
1048.471 .0249619
1049.052 .0249515
1049.632 .0249403
1050.211 .0249283
1050.791 .0249156
1051.371 .0249021
1051.950 .0248881
1052.530 .0248736
1053.109 .0248585
1053.688 .0248428
1054.268 .0248266
1054.847 .0248099
1055.426 .0247928
1056.005 .0247754
1056.583 .0247578
1057.162 .0247401
1057.741 .0247225
1058.319 .0247050
1058.898 .0246876
1059.476 .0246702
1060.055 .0246529
1060.633 .0246354
1061.211 .0246178
1061.790 .0245999
1062.368 .0245819
1062.946 .0245638
1063.524 .0245458
1064.102 .0245279
1064.680 .0245103
1065.258 .0244931
1065.836 .0244763
1066.414 .0244599
1066.992 .0244441
1067.570 .0244287
1068.148 .0244137
1068.726 .0243994
1069.304 .0243856
1069.882 .0243724
1070.460 .0243598
1071.038 .0243479
1071.616 .0243364
1072.194 .0243251
1072.772 .0243139
1073.350 .0243026
1073.928 .0242911
1074.506 .0242792
1075.084 .0242670
1075.662 .0242545
1076.240 .0242419
1076.819 .0242293
1077.397 .0242167
1077.976 .0242044
1078.554 .0241923
1079.133 .0241805
1079.711 .0241689
1080.290 .0241576
1080.869 .0241465
1081.448 .0241357
1082.027 .0241252
1082.606 .0241151
1083.185 .0241054
1083.764 .0240962
1084.343 .0240877
1084.923 .0240796
1085.502 .0240719
1086.082 .0240646
1086.662 .0240576
1087.242 .0240508
1087.822 .0240442
1088.402 .0240380
1088.983 .0240323
1089.563 .0240271
1090.144 .0240228
1090.725 .0240194
1091.306 .0240171
1091.887 .0240160
1092.469 .0240160
1093.050 .0240170
1093.632 .0240188
1094.214 .0240212
1094.796 .0240240
1095.379 .0240271
1095.961 .0240305
1096.544 .0240340
1097.127 .0240380
1097.710 .0240426
1098.294 .0240478
1098.877 .0240540
1099.461 .0240609
1100.046 .0240685
1100.630 .0240768
1101.215 .0240855
1101.800 .0240944
1102.385 .0241036
1102.970 .0241129
1103.556 .0241224
1104.142 .0241324
1104.728 .0241431
1105.315 .0241546
1105.902 .0241673
1106.489 .0241811
1107.077 .0241959
1107.664 .0242118
1108.253 .0242284
1108.841 .0242457
1109.430 .0242636
1110.019 .0242822
1110.609 .0243017
1111.198 .0243227
1111.789 .0243455
1112.379 .0243703
1112.970 .0243976
1113.561 .0244273
1114.153 .0244594
1114.745 .0244938
1115.338 .0245302
1115.931 .0245685
1116.524 .0246085
1117.117 .0246504
1117.712 .0246939
1118.306 .0247395
1118.901 .0247872
1119.496 .0248371
1120.092 .0248892
1120.689 .0249432
1121.285 .0249991
1121.882 .0250564
1122.480 .0251153
1123.078 .0251754
1123.677 .0252370
1124.276 .0252999
1124.875 .0253644
1125.476 .0254304
1126.076 .0254981
1126.677 .0255672
1127.279 .0256379
1127.881 .0257097
1128.484 .0257825
1129.087 .0258179
1129.691 .0258920
1130.295 .0259666
1130.900 .0260423
1131.505 .0261191
1132.111 .0261975
1132.718 .0262777
1133.325 .0263606
1133.933 .0264466
1134.541 .0265328
1135.150 .0266254
1135.760 .0267167
1136.370 .0268291
1136.981 .0268467
1137.592 .0269237
1138.204 .0270072
1138.817 .0271020
1139.431 .0272055
1140.045 .0273194
1140.660 .0274417
1141.275 .0275900
1141.891 .0277491
1142.508 .0278239
1143.126 .0280751
1143.744 .0281097
1144.363 .0287710
1144.983 .0287281
