Measurement Sequence started on: 15-12-46-377
Integration time: 28
Scans to Average: 2 
>>>>>Begin Spectral Data<<<<<
432.689 .0000100
433.621 .0000100
434.552 .0000100
435.482 .0000100
436.410 .0000100
437.337 .0000100
438.262 .0290585
439.187 .0614729
440.110 .1017268
441.031 .1470366
441.952 .1169991
442.871 .1220727
443.789 .1267772
444.705 .1311875
445.621 .1353562
446.535 .1393200
447.447 .1415795
448.359 .1419798
449.269 .1401286
450.178 .1357756
451.086 .1290080
451.993 .1203367
452.898 .1106060
453.803 .1007659
454.706 .0916244
455.608 .0836798
456.508 .0770980
457.408 .0726233
458.306 .0691717
459.204 .0663548
460.100 .0639792
460.995 .0619399
461.888 .0601659
462.781 .0586073
463.673 .0572310
464.563 .0560100
465.452 .0549241
466.340 .0539546
467.228 .0530872
468.114 .0523087
468.999 .0516090
469.882 .0509772
470.765 .0504048
471.647 .0498853
472.528 .0494144
473.407 .0489871
474.286 .0486006
475.163 .0482519
476.040 .0479378
476.915 .0476557
477.790 .0474026
478.663 .0471755
479.535 .0469729
480.407 .0467927
481.277 .0466335
482.147 .0464940
483.015 .0463737
483.883 .0462718
484.749 .0461880
485.615 .0461219
486.479 .0460730
487.343 .0460414
488.206 .0460275
489.067 .0460316
489.928 .0460547
490.788 .0460980
491.647 .0461621
492.505 .0462482
493.362 .0463563
494.218 .0464859
495.073 .0466360
495.928 .0469337
496.781 .0471327
497.634 .0473514
498.486 .0475915
499.337 .0478553
500.187 .0481467
501.036 .0484687
501.884 .0488251
502.731 .0492194
503.578 .0496546
504.424 .0499560
505.268 .0504629
506.113 .0510174
506.956 .0516220
507.798 .0522819
508.640 .0530051
509.480 .0538004
510.320 .0546801
511.160 .0556579
511.998 .0567498
512.836 .0579722
513.672 .0593434
514.508 .0608817
515.344 .0626077
516.178 .0645416
517.012 .0667069
517.845 .0691266
518.677 .0718264
519.508 .0748276
520.339 .0781442
521.169 .0817879
521.998 .0857432
522.826 .0899789
523.654 .0944448
524.481 .0990746
525.307 .1037898
526.133 .1084952
526.958 .1130927
527.782 .1174834
528.605 .1215761
529.428 .1252913
530.250 .1285551
531.072 .1313180
531.892 .1335401
532.712 .1351936
533.532 .1362613
534.350 .1367329
535.168 .1366059
535.986 .1358787
536.802 .1345521
537.618 .1326325
538.434 .1301271
539.249 .1270725
540.063 .1235193
540.876 .1195343
541.689 .1151990
542.501 .1106028
543.313 .1058449
544.124 .1010262
544.934 .0962415
545.744 .0915756
546.553 .0870979
547.361 .0828704
548.169 .0789280
548.976 .0752967
549.783 .0719866
550.589 .0689954
551.395 .0663095
552.200 .0639077
553.004 .0617637
553.808 .0598517
554.611 .0581475
555.414 .0566288
556.216 .0552706
557.018 .0540485
557.819 .0529413
558.619 .0519292
559.419 .0509947
560.218 .0501250
561.017 .0493072
561.815 .0485333
562.613 .0477967
563.410 .0470923
564.207 .0464158
565.003 .0457642
565.799 .0451330
566.594 .0445183
567.388 .0439181
568.182 .0433303
568.976 .0427525
569.769 .0421848
570.562 .0416281
571.354 .0410834
572.145 .0405524
572.936 .0400374
573.727 .0395398
574.517 .0390615
575.307 .0386037
576.096 .0381665
576.885 .0377504
577.673 .0373561
578.461 .0369830
579.248 .0366311
580.035 .0363002
580.821 .0359895
581.607 .0356985
582.392 .0354271
583.177 .0351748
583.962 .0349408
584.746 .0347248
585.529 .0345258
586.313 .0343427
587.095 .0341744
587.878 .0340197
588.660 .0338774
589.441 .0337463
590.222 .0336257
591.003 .0335143
591.783 .0334116
592.563 .0333170
593.342 .0332294
594.121 .0331482
594.899 .0330727
595.678 .0330020
596.455 .0329357
597.233 .0328732
598.009 .0328142
598.786 .0327585
599.562 .0327057
600.338 .0326557
601.113 .0326083
601.888 .0325452
602.663 .0325032
603.437 .0324632
604.211 .0324249
604.984 .0323882
605.757 .0323528
606.530 .0323185
607.302 .0322854
608.074 .0322532
608.845 .0322219
609.616 .0321914
610.387 .0321779
611.158 .0321486
611.928 .0321202
612.697 .0320927
613.467 .0320661
614.236 .0320402
615.004 .0320149
615.773 .0319902
616.541 .0319659
617.308 .0319419
618.076 .0319182
618.843 .0318945
619.609 .0318709
620.375 .0318473
621.141 .0318238
621.907 .0318002
622.672 .0317766
623.437 .0317528
624.202 .0317288
624.966 .0317044
625.730 .0316796
626.493 .0316543
627.257 .0316286
628.020 .0316023
628.782 .0315757
629.545 .0315486
630.307 .0315212
631.068 .0314934
631.830 .0314654
632.591 .0314373
633.352 .0314090
634.112 .0313807
634.872 .0313525
635.632 .0313244
636.392 .0312964
637.151 .0312686
637.910 .0312409
638.668 .0312133
639.427 .0311859
640.185 .0311586
640.943 .0311316
641.700 .0311048
642.457 .0310785
643.214 .0310524
643.971 .0310268
644.727 .0310015
645.483 .0309764
646.239 .0309514
646.994 .0309265
647.750 .0309014
648.505 .0308762
649.259 .0308508
650.014 .0308251
650.768 .0307993
651.521 .0307733
652.275 .0307471
653.028 .0307209
653.781 .0306946
654.534 .0306682
655.286 .0306418
656.039 .0306154
656.791 .0305890
657.542 .0305626
658.294 .0305363
659.045 .0305101
659.796 .0304841
660.546 .0304583
661.297 .0304326
662.047 .0304072
662.796 .0303821
663.546 .0303572
664.295 .0303327
665.044 .0303085
665.793 .0302848
666.542 .0302616
667.290 .0302390
668.038 .0302169
668.786 .0301954
669.533 .0301745
670.281 .0301540
671.028 .0301340
671.774 .0301146
672.521 .0300956
673.267 .0300772
674.013 .0300593
674.759 .0300421
675.505 .0300254
676.250 .0300093
676.995 .0299936
677.740 .0299785
678.484 .0299637
679.229 .0299493
679.973 .0299352
680.717 .0299214
681.460 .0299079
682.204 .0298946
682.947 .0298816
683.690 .0298687
684.433 .0298559
685.175 .0298431
685.917 .0298303
686.659 .0298174
687.401 .0298044
688.142 .0297913
688.884 .0297782
689.625 .0297649
690.365 .0297514
691.106 .0297377
691.846 .0297238
692.586 .0297096
693.326 .0296951
694.066 .0296802
694.805 .0296651
695.545 .0296496
696.284 .0296340
697.022 .0296182
697.761 .0296023
698.499 .0295864
699.237 .0295704
699.975 .0295544
700.713 .0295383
701.450 .0295222
702.187 .0295059
702.924 .0294894
703.661 .0294727
704.397 .0294558
705.133 .0294386
705.869 .0294212
706.605 .0294036
707.341 .0293857
708.076 .0293676
708.811 .0293493
709.546 .0293309
710.281 .0293122
711.015 .0292933
711.749 .0292742
712.483 .0292549
713.217 .0292355
713.950 .0292158
714.684 .0291959
715.417 .0291758
716.150 .0291554
716.882 .0291348
717.615 .0291139
718.347 .0290928
719.079 .0290715
719.811 .0290501
720.542 .0290286
721.273 .0290070
722.005 .0289854
722.735 .0289636
723.466 .0289419
724.196 .0289202
724.927 .0288985
725.656 .0288770
726.386 .0288557
727.116 .0288346
727.845 .0288139
728.574 .0287937
729.303 .0287739
730.031 .0287546
730.760 .0287357
731.488 .0287174
732.216 .0286995
732.944 .0286822
733.671 .0286655
734.398 .0286493
735.125 .0286336
735.852 .0286184
736.579 .0286037
737.305 .0285895
738.031 .0285757
738.757 .0285622
739.483 .0285491
740.208 .0285362
740.933 .0285236
741.658 .0285111
742.383 .0284988
743.108 .0284866
743.832 .0284743
744.556 .0284620
745.280 .0284495
746.004 .0284368
746.727 .0284239
747.450 .0284108
748.173 .0283974
748.896 .0283837
749.618 .0283697
750.340 .0283556
751.062 .0283413
751.784 .0283270
752.506 .0283125
753.227 .0282980
753.948 .0282836
754.669 .0282692
755.389 .0282549
756.110 .0282407
756.830 .0282268
757.550 .0282130
758.269 .0281995
758.989 .0281863
759.708 .0281734
760.427 .0281608
761.146 .0281486
761.864 .0281367
762.582 .0281250
763.300 .0281137
764.018 .0281027
764.736 .0280920
765.453 .0280816
766.170 .0280715
766.887 .0280616
767.603 .0280521
768.320 .0280429
769.036 .0280341
769.751 .0280256
770.467 .0280175
771.182 .0280099
771.897 .0280027
772.612 .0279960
773.327 .0279898
774.041 .0279841
774.755 .0279787
775.469 .0279739
776.183 .0279694
776.896 .0279654
777.609 .0279618
778.322 .0279587
779.035 .0279561
779.747 .0279540
780.459 .0279524
781.171 .0279512
781.882 .0279504
782.594 .0279499
783.305 .0279496
784.016 .0279494
784.726 .0279493
785.436 .0279493
786.147 .0279486
786.856 .0279481
787.566 .0279474
788.275 .0279464
788.984 .0279451
789.693 .0279434
790.401 .0279413
791.110 .0279388
791.818 .0279357
792.525 .0279322
793.233 .0279282
793.940 .0279236
794.647 .0279197
795.353 .0279141
796.060 .0279080
796.766 .0279013
797.472 .0278940
798.177 .0278861
798.883 .0278777
799.588 .0278687
800.292 .0278593
800.997 .0278493
801.701 .0278388
802.405 .0278279
803.109 .0278165
803.812 .0278046
804.515 .0277923
805.218 .0277796
805.921 .0277665
806.623 .0277530
807.325 .0277391
808.027 .0277248
808.728 .0277102
809.429 .0276952
810.130 .0276799
810.831 .0276644
811.531 .0276486
812.231 .0276328
812.931 .0276169
813.630 .0276009
814.330 .0275850
815.029 .0275691
815.727 .0275532
816.426 .0275374
817.124 .0275216
817.821 .0275059
818.519 .0274903
819.216 .0274748
819.913 .0274594
820.609 .0274443
821.306 .0274294
822.002 .0274148
822.697 .0274004
823.393 .0273863
824.088 .0273724
824.783 .0273588
825.477 .0273453
826.171 .0273320
826.865 .0273188
827.559 .0273057
828.252 .0272927
828.945 .0272799
829.638 .0272672
830.330 .0272546
831.023 .0272421
831.714 .0272296
832.406 .0272171
833.097 .0272045
833.788 .0271919
834.479 .0271793
835.169 .0271665
835.859 .0271537
836.548 .0271408
837.238 .0271278
837.927 .0271148
838.615 .0271017
839.304 .0270885
839.992 .0270752
840.680 .0270618
841.367 .0270482
842.054 .0270344
842.741 .0270204
843.428 .0270063
844.114 .0269920
844.800 .0269776
845.485 .0269630
846.170 .0269482
846.855 .0269331
847.540 .0269178
848.224 .0269021
848.908 .0268860
849.592 .0268696
850.275 .0268527
850.958 .0268354
851.641 .0268177
852.323 .0267997
853.005 .0267813
853.687 .0267627
854.368 .0267437
855.049 .0267245
855.730 .0267049
856.410 .0266852
857.090 .0266652
857.769 .0266451
858.449 .0266250
859.128 .0266048
859.806 .0265847
860.485 .0265647
861.163 .0265449
861.840 .0265254
862.518 .0265061
863.195 .0264872
863.871 .0264687
864.548 .0264505
865.224 .0264329
865.899 .0264157
866.574 .0263992
867.249 .0263833
867.924 .0263681
868.598 .0263536
869.272 .0263399
869.946 .0263270
870.619 .0263147
871.292 .0263032
871.964 .0262924
872.636 .0262822
873.308 .0262726
873.979 .0262637
874.651 .0262554
875.321 .0262478
875.992 .0262409
876.662 .0262347
877.331 .0262292
878.001 .0262244
878.670 .0262202
879.338 .0262167
880.007 .0262137
880.675 .0262113
881.342 .0262094
882.009 .0262080
882.676 .0262071
883.343 .0262067
884.009 .0262068
884.675 .0262074
885.340 .0262085
886.005 .0262101
886.670 .0262121
887.334 .0262147
887.998 .0262176
888.662 .0262210
889.325 .0262247
889.988 .0262289
890.650 .0262334
891.312 .0262382
891.974 .0262432
892.636 .0262485
893.297 .0262538
893.957 .0262593
894.618 .0262647
895.278 .0262701
895.937 .0262752
896.596 .0262802
897.255 .0262850
897.914 .0262894
898.572 .0262933
899.230 .0262968
899.887 .0262997
900.544 .0263019
901.201 .0263033
901.857 .0263020
902.513 .0263014
903.168 .0263000
903.823 .0262979
904.478 .0262950
905.132 .0262914
905.786 .0262871
906.440 .0262821
907.093 .0262764
907.746 .0262701
908.399 .0262632
909.051 .0262560
909.703 .0262485
910.354 .0262441
911.005 .0262366
911.656 .0262291
912.306 .0262217
912.956 .0262142
913.605 .0262068
914.254 .0261994
914.903 .0261922
915.551 .0261851
916.199 .0261782
916.847 .0261714
917.494 .0261648
918.141 .0261584
918.788 .0261519
919.434 .0261455
920.079 .0261390
920.725 .0261322
921.370 .0261252
922.014 .0261178
922.658 .0261101
923.302 .0261021
923.946 .0260939
924.589 .0260853
925.231 .0260764
925.873 .0260673
926.515 .0260578
927.157 .0260480
927.798 .0260379
928.439 .0260274
929.079 .0260165
929.719 .0260054
930.359 .0259941
930.998 .0259826
931.637 .0259709
932.275 .0259592
932.913 .0259475
933.551 .0259359
934.188 .0259244
934.825 .0259130
935.462 .0259020
936.098 .0258912
936.733 .0258808
937.369 .0258709
938.004 .0258614
938.638 .0258525
939.273 .0258441
939.907 .0258363
940.540 .0258291
941.173 .0258224
941.806 .0258163
942.438 .0258107
943.070 .0258055
943.702 .0258005
944.333 .0257957
944.964 .0257910
945.594 .0257862
946.224 .0257812
946.854 .0257759
947.483 .0257703
948.112 .0257643
948.741 .0257580
949.369 .0257512
949.996 .0257439
950.624 .0257362
951.251 .0257279
951.878 .0257191
952.504 .0257098
953.130 .0256998
953.755 .0256894
954.380 .0256784
955.005 .0256669
955.629 .0256551
956.253 .0256428
956.877 .0256302
957.500 .0256172
958.123 .0256037
958.746 .0255900
959.368 .0255758
959.990 .0255613
960.611 .0255466
961.232 .0255317
961.853 .0255167
962.473 .0255016
963.093 .0254867
963.712 .0254718
964.331 .0254569
964.950 .0254421
965.569 .0254273
966.187 .0254124
966.804 .0253974
967.422 .0253823
968.039 .0253670
968.655 .0253516
969.272 .0253360
969.887 .0253204
970.503 .0253045
971.118 .0252886
971.733 .0252724
972.347 .0252559
972.961 .0252391
973.575 .0252220
974.188 .0252044
974.801 .0251864
975.414 .0251679
976.026 .0251491
976.638 .0251299
977.250 .0251103
977.861 .0250903
978.472 .0250699
979.083 .0250492
979.693 .0250282
980.303 .0250069
980.912 .0249740
981.521 .0249522
982.130 .0249303
982.738 .0249084
983.346 .0248864
983.954 .0248645
984.562 .0248428
985.169 .0248212
985.775 .0248000
986.382 .0247791
986.988 .0247586
987.594 .0247386
988.199 .0247190
988.804 .0246998
989.409 .0246920
990.013 .0246736
990.617 .0246557
991.221 .0246384
991.824 .0246217
992.427 .0246055
993.030 .0245899
993.632 .0245750
994.234 .0245606
994.836 .0245469
995.438 .0245337
996.039 .0245210
996.640 .0245088
997.240 .0244971
997.840 .0244858
998.440 .0244750
999.040 .0244647
999.639 .0244547
1000.238 .0244451
1000.836 .0244359
1001.435 .0244271
1002.033 .0244186
1002.630 .0244104
1003.228 .0244025
1003.825 .0243948
1004.422 .0243873
1005.018 .0243798
1005.614 .0243723
1006.210 .0243649
1006.806 .0243575
1007.401 .0243501
1007.996 .0243428
1008.591 .0243357
1009.186 .0243288
1009.780 .0243222
1010.374 .0243159
1010.967 .0243099
1011.561 .0243042
1012.154 .0242986
1012.746 .0242933
1013.339 .0242882
1013.931 .0242833
1014.523 .0242787
1015.115 .0242745
1015.706 .0242707
1016.298 .0242674
1016.888 .0242647
1017.479 .0242626
1018.069 .0242612
1018.660 .0242603
1019.250 .0242599
1019.839 .0242601
1020.429 .0242607
1021.018 .0242617
1021.607 .0242633
1022.195 .0242653
1022.784 .0242677
1023.372 .0242706
1023.960 .0242740
1024.547 .0242779
1025.135 .0242822
1025.722 .0242868
1026.309 .0242918
1026.896 .0242971
1027.483 .0243026
1028.069 .0243084
1028.655 .0243144
1029.241 .0243206
1029.827 .0243270
1030.412 .0243335
1030.997 .0243402
1031.582 .0243472
1032.167 .0243543
1032.752 .0243616
1033.336 .0243690
1033.921 .0243765
1034.505 .0243842
1035.089 .0243917
1035.672 .0243992
1036.256 .0244066
1036.839 .0244137
1037.422 .0244206
1038.005 .0244272
1038.588 .0244336
1039.171 .0244398
1039.753 .0244458
1040.335 .0244517
1040.918 .0244575
1041.500 .0244632
1042.081 .0244688
1042.663 .0244743
1043.244 .0244795
1043.826 .0244847
1044.407 .0244897
1044.988 .0244946
1045.569 .0244996
1046.150 .0245047
1046.730 .0245100
1047.311 .0245155
1047.891 .0245213
1048.471 .0245274
1049.052 .0245337
1049.632 .0245402
1050.211 .0245468
1050.791 .0245535
1051.371 .0245603
1051.950 .0245672
1052.530 .0245744
1053.109 .0245818
1053.688 .0245896
1054.268 .0245978
1054.847 .0246065
1055.426 .0246156
1056.005 .0246253
1056.583 .0246356
1057.162 .0246465
1057.741 .0246580
1058.319 .0246703
1058.898 .0246832
1059.476 .0246969
1060.055 .0247114
1060.633 .0247265
1061.211 .0247423
1061.790 .0247586
1062.368 .0247754
1062.946 .0247927
1063.524 .0248104
1064.102 .0248284
1064.680 .0248467
1065.258 .0248652
1065.836 .0248837
1066.414 .0249023
1066.992 .0249207
1067.570 .0249389
1068.148 .0249570
1068.726 .0249748
1069.304 .0249923
1069.882 .0250097
1070.460 .0250270
1071.038 .0250443
1071.616 .0250615
1072.194 .0250785
1072.772 .0250953
1073.350 .0251118
1073.928 .0251277
1074.506 .0251430
1075.084 .0251577
1075.662 .0251717
1076.240 .0251852
1076.819 .0251981
1077.397 .0252105
1077.976 .0252226
1078.554 .0252343
1079.133 .0252458
1079.711 .0252572
1080.290 .0252683
1080.869 .0252792
1081.448 .0252900
1082.027 .0253006
1082.606 .0253113
1083.185 .0253221
1083.764 .0253332
1084.343 .0253447
1084.923 .0253567
1085.502 .0253694
1086.082 .0253828
1086.662 .0253970
1087.242 .0254120
1087.822 .0254275
1088.402 .0254435
1088.983 .0254599
1089.563 .0254766
1090.144 .0254936
1090.725 .0255109
1091.306 .0255286
1091.887 .0255468
1092.469 .0255655
1093.050 .0255850
1093.632 .0256053
1094.214 .0256266
1094.796 .0256486
1095.379 .0256714
1095.961 .0256946
1096.544 .0257182
1097.127 .0257420
1097.710 .0257661
1098.294 .0257906
1098.877 .0258156
1099.461 .0258412
1100.046 .0258673
1100.630 .0258941
1101.215 .0259215
1101.800 .0259493
1102.385 .0259773
1102.970 .0260052
1103.556 .0260329
1104.142 .0260603
1104.728 .0260873
1105.315 .0261141
1105.902 .0261411
1106.489 .0261683
1107.077 .0261959
1107.664 .0262239
1108.253 .0262522
1108.841 .0262804
1109.430 .0263084
1110.019 .0263358
1110.609 .0263624
1111.198 .0263881
1111.789 .0264129
1112.379 .0264372
1112.970 .0264613
1113.561 .0264855
1114.153 .0265100
1114.745 .0265350
1115.338 .0265607
1115.931 .0265870
1116.524 .0266140
1117.117 .0266418
1117.712 .0266706
1118.306 .0267007
1118.901 .0267323
1119.496 .0267657
1120.092 .0268014
1120.689 .0268397
1121.285 .0268806
1121.882 .0269243
1122.480 .0269708
1123.078 .0270197
1123.677 .0270710
1124.276 .0271245
1124.875 .0271804
1125.476 .0272388
1126.076 .0272997
1126.677 .0273633
1127.279 .0274298
1127.881 .0274994
1128.484 .0275722
1129.087 .0276031
1129.691 .0276812
1130.295 .0277621
1130.900 .0278458
1131.505 .0279324
1132.111 .0280218
1132.718 .0281137
1133.325 .0282086
1133.933 .0283064
1134.541 .0284092
1135.150 .0285124
1135.760 .0286076
1136.370 .0287257
1136.981 .0288040
1137.592 .0289091
1138.204 .0290121
1138.817 .0291207
1139.431 .0292355
1140.045 .0293542
1140.660 .0294693
1141.275 .0296031
1141.891 .0297403
1142.508 .0299412
1143.126 .0300193
1143.744 .0298717
1144.363 .0305898
1144.983 .0306099
