Measurement Sequence started on: 15-12-46-377
Integration time: 28
Scans to Average: 2 
>>>>>Begin Spectral Data<<<<<
432.689 .0000100
433.621 .0000100
434.552 .0000100
435.482 .0000100
436.410 .0000100
437.337 .0000100
438.262 .0265320
439.187 .0562450
440.110 .0932055
441.031 .1349266
441.952 .1084161
442.871 .1132532
443.789 .1177626
444.705 .1220163
445.621 .1260634
446.535 .1299406
447.447 .1322783
448.359 .1329279
449.269 .1315243
450.178 .1278284
451.086 .1219101
451.993 .1142296
452.898 .1055502
453.803 .0967397
454.706 .0885385
455.608 .0814071
456.508 .0755013
457.408 .0715056
458.306 .0684345
459.204 .0659325
460.100 .0638211
460.995 .0619992
461.888 .0603980
462.781 .0589719
463.673 .0576872
464.563 .0565205
465.452 .0554554
466.340 .0544783
467.228 .0535801
468.114 .0527548
468.999 .0519973
469.882 .0513030
470.765 .0506677
471.647 .0500879
472.528 .0495607
473.407 .0490827
474.286 .0486512
475.163 .0482635
476.040 .0479168
476.915 .0476078
477.790 .0473329
478.663 .0470889
479.535 .0468728
480.407 .0466814
481.277 .0465125
482.147 .0463639
483.015 .0462340
483.883 .0461219
484.749 .0460263
485.615 .0459469
486.479 .0458832
487.343 .0458340
488.206 .0457988
489.067 .0457767
489.928 .0457676
490.788 .0457722
491.647 .0457913
492.505 .0458268
493.362 .0458806
494.218 .0459549
495.073 .0460519
495.928 .0462870
496.781 .0464500
497.634 .0466395
498.486 .0468561
499.337 .0470993
500.187 .0473701
501.036 .0476697
501.884 .0479998
502.731 .0483632
503.578 .0487632
504.424 .0490423
505.268 .0495085
506.113 .0500220
506.956 .0505871
507.798 .0512093
508.640 .0518955
509.480 .0526536
510.320 .0534932
511.160 .0544258
511.998 .0554652
512.836 .0566284
513.672 .0579323
514.508 .0593950
515.344 .0610375
516.178 .0628819
517.012 .0649516
517.845 .0672701
518.677 .0698591
519.508 .0727376
520.339 .0759172
521.169 .0794073
521.998 .0831916
522.826 .0872407
523.654 .0915028
524.481 .0959121
525.307 .1003907
526.133 .1048480
526.958 .1091875
527.782 .1133202
528.605 .1171621
529.428 .1206411
530.250 .1236910
531.072 .1262701
531.892 .1283457
532.712 .1298959
533.532 .1309028
534.350 .1313566
535.168 .1312537
535.986 .1305949
536.802 .1293790
537.618 .1276135
538.434 .1253043
539.249 .1224832
540.063 .1191939
540.876 .1154995
541.689 .1114755
542.501 .1072077
543.313 .1027896
544.124 .0983187
544.934 .0938810
545.744 .0895539
546.553 .0854003
547.361 .0814744
548.169 .0778047
548.976 .0744102
549.783 .0712960
550.589 .0684611
551.395 .0658942
552.200 .0635767
553.004 .0614857
553.808 .0596016
554.611 .0579022
555.414 .0563687
556.216 .0549817
557.018 .0537221
557.819 .0525733
558.619 .0515200
559.419 .0505488
560.218 .0496485
561.017 .0488083
561.815 .0480204
562.613 .0472784
563.410 .0465763
564.207 .0459080
565.003 .0452688
565.799 .0446539
566.594 .0440593
567.388 .0434814
568.182 .0429176
568.976 .0423654
569.769 .0418241
570.562 .0412936
571.354 .0407746
572.145 .0402685
572.936 .0397765
573.727 .0392997
574.517 .0388396
575.307 .0383971
576.096 .0379721
576.885 .0375654
577.673 .0371773
578.461 .0368081
579.248 .0364577
580.035 .0361262
580.821 .0358138
581.607 .0355205
582.392 .0352460
583.177 .0349902
583.962 .0347525
584.746 .0345327
585.529 .0343297
586.313 .0341430
587.095 .0339715
587.878 .0338140
588.660 .0336694
589.441 .0335364
590.222 .0334138
591.003 .0333006
591.783 .0331958
592.563 .0330986
593.342 .0330082
594.121 .0329242
594.899 .0328459
595.678 .0327726
596.455 .0327038
597.233 .0326388
598.009 .0325769
598.786 .0325177
599.562 .0324606
600.338 .0324055
601.113 .0323522
601.888 .0322783
602.663 .0322294
603.437 .0321822
604.211 .0321368
604.984 .0320932
605.757 .0320513
606.530 .0320108
607.302 .0319719
608.074 .0319344
608.845 .0318981
609.616 .0318633
610.387 .0318492
611.158 .0318161
611.928 .0317843
612.697 .0317536
613.467 .0317239
614.236 .0316954
615.004 .0316677
615.773 .0316408
616.541 .0316146
617.308 .0315891
618.076 .0315640
618.843 .0315392
619.609 .0315146
620.375 .0314901
621.141 .0314656
621.907 .0314409
622.672 .0314161
623.437 .0313911
624.202 .0313661
624.966 .0313408
625.730 .0313155
626.493 .0312900
627.257 .0312642
628.020 .0312381
628.782 .0312117
629.545 .0311847
630.307 .0311575
631.068 .0311299
631.830 .0311020
632.591 .0310740
633.352 .0310460
634.112 .0310180
634.872 .0309902
635.632 .0309625
636.392 .0309349
637.151 .0309077
637.910 .0308806
638.668 .0308539
639.427 .0308274
640.185 .0308012
640.943 .0307753
641.700 .0307497
642.457 .0307244
643.214 .0306995
643.971 .0306750
644.727 .0306509
645.483 .0306273
646.239 .0306043
646.994 .0305816
647.750 .0305593
648.505 .0305372
649.259 .0305151
650.014 .0304930
650.768 .0304708
651.521 .0304486
652.275 .0304263
653.028 .0304039
653.781 .0303816
654.534 .0303593
655.286 .0303370
656.039 .0303148
656.791 .0302924
657.542 .0302701
658.294 .0302477
659.045 .0302254
659.796 .0302030
660.546 .0301808
661.297 .0301587
662.047 .0301367
662.796 .0301149
663.546 .0300932
664.295 .0300718
665.044 .0300506
665.793 .0300297
666.542 .0300093
667.290 .0299894
668.038 .0299699
668.786 .0299510
669.533 .0299326
670.281 .0299146
671.028 .0298969
671.774 .0298796
672.521 .0298625
673.267 .0298456
674.013 .0298290
674.759 .0298125
675.505 .0297961
676.250 .0297799
676.995 .0297636
677.740 .0297472
678.484 .0297307
679.229 .0297140
679.973 .0296971
680.717 .0296800
681.460 .0296628
682.204 .0296454
682.947 .0296279
683.690 .0296101
684.433 .0295921
685.175 .0295737
685.917 .0295550
686.659 .0295359
687.401 .0295165
688.142 .0294969
688.884 .0294771
689.625 .0294573
690.365 .0294375
691.106 .0294178
691.846 .0293981
692.586 .0293784
693.326 .0293587
694.066 .0293390
694.805 .0293192
695.545 .0292994
696.284 .0292797
697.022 .0292601
697.761 .0292406
698.499 .0292212
699.237 .0292019
699.975 .0291828
700.713 .0291638
701.450 .0291449
702.187 .0291260
702.924 .0291073
703.661 .0290886
704.397 .0290699
705.133 .0290511
705.869 .0290323
706.605 .0290133
707.341 .0289942
708.076 .0289748
708.811 .0289552
709.546 .0289354
710.281 .0289155
711.015 .0288954
711.749 .0288753
712.483 .0288552
713.217 .0288350
713.950 .0288147
714.684 .0287944
715.417 .0287739
716.150 .0287533
716.882 .0287326
717.615 .0287118
718.347 .0286910
719.079 .0286700
719.811 .0286491
720.542 .0286281
721.273 .0286072
722.005 .0285863
722.735 .0285655
723.466 .0285448
724.196 .0285242
724.927 .0285038
725.656 .0284836
726.386 .0284638
727.116 .0284443
727.845 .0284251
728.574 .0284063
729.303 .0283878
730.031 .0283698
730.760 .0283524
731.488 .0283354
732.216 .0283191
732.944 .0283033
733.671 .0282881
734.398 .0282733
735.125 .0282590
735.852 .0282450
736.579 .0282313
737.305 .0282177
738.031 .0282041
738.757 .0281906
739.483 .0281771
740.208 .0281636
740.933 .0281501
741.658 .0281365
742.383 .0281228
743.108 .0281089
743.832 .0280948
744.556 .0280805
745.280 .0280660
746.004 .0280513
746.727 .0280364
747.450 .0280213
748.173 .0280059
748.896 .0279905
749.618 .0279748
750.340 .0279591
751.062 .0279434
751.784 .0279278
752.506 .0279122
753.227 .0278969
753.948 .0278817
754.669 .0278668
755.389 .0278521
756.110 .0278376
756.830 .0278233
757.550 .0278092
758.269 .0277952
758.989 .0277814
759.708 .0277679
760.427 .0277546
761.146 .0277415
761.864 .0277287
762.582 .0277161
763.300 .0277037
764.018 .0276914
764.736 .0276794
765.453 .0276674
766.170 .0276557
766.887 .0276441
767.603 .0276326
768.320 .0276213
769.036 .0276101
769.751 .0275991
770.467 .0275883
771.182 .0275777
771.897 .0275674
772.612 .0275573
773.327 .0275477
774.041 .0275384
774.755 .0275296
775.469 .0275212
776.183 .0275131
776.896 .0275054
777.609 .0274980
778.322 .0274908
779.035 .0274840
779.747 .0274774
780.459 .0274711
781.171 .0274652
781.882 .0274596
782.594 .0274544
783.305 .0274495
784.016 .0274448
784.726 .0274404
785.436 .0274362
786.147 .0274305
786.856 .0274262
787.566 .0274219
788.275 .0274174
788.984 .0274128
789.693 .0274078
790.401 .0274025
791.110 .0273968
791.818 .0273908
792.525 .0273843
793.233 .0273774
793.940 .0273701
794.647 .0273648
795.353 .0273568
796.060 .0273486
796.766 .0273399
797.472 .0273309
798.177 .0273214
798.883 .0273116
799.588 .0273014
800.292 .0272909
800.997 .0272801
801.701 .0272690
802.405 .0272578
803.109 .0272463
803.812 .0272347
804.515 .0272230
805.218 .0272111
805.921 .0271992
806.623 .0271873
807.325 .0271753
808.027 .0271632
808.728 .0271511
809.429 .0271389
810.130 .0271266
810.831 .0271142
811.531 .0271016
812.231 .0270889
812.931 .0270760
813.630 .0270629
814.330 .0270497
815.029 .0270364
815.727 .0270230
816.426 .0270095
817.124 .0269959
817.821 .0269823
818.519 .0269686
819.216 .0269549
819.913 .0269414
820.609 .0269280
821.306 .0269149
822.002 .0269021
822.697 .0268896
823.393 .0268775
824.088 .0268659
824.783 .0268547
825.477 .0268439
826.171 .0268336
826.865 .0268237
827.559 .0268143
828.252 .0268054
828.945 .0267969
829.638 .0267889
830.330 .0267813
831.023 .0267740
831.714 .0267671
832.406 .0267604
833.097 .0267538
833.788 .0267474
834.479 .0267410
835.169 .0267346
835.859 .0267283
836.548 .0267218
837.238 .0267153
837.927 .0267086
838.615 .0267016
839.304 .0266944
839.992 .0266868
840.680 .0266788
841.367 .0266703
842.054 .0266614
842.741 .0266519
843.428 .0266421
844.114 .0266318
844.800 .0266210
845.485 .0266098
846.170 .0265982
846.855 .0265861
847.540 .0265734
848.224 .0265601
848.908 .0265462
849.592 .0265316
850.275 .0265165
850.958 .0265007
851.641 .0264844
852.323 .0264676
853.005 .0264504
853.687 .0264329
854.368 .0264149
855.049 .0263966
855.730 .0263779
856.410 .0263588
857.090 .0263395
857.769 .0263200
858.449 .0263004
859.128 .0262808
859.806 .0262614
860.485 .0262422
861.163 .0262234
861.840 .0262050
862.518 .0261869
863.195 .0261693
863.871 .0261521
864.548 .0261353
865.224 .0261190
865.899 .0261033
866.574 .0260881
867.249 .0260735
867.924 .0260595
868.598 .0260461
869.272 .0260334
869.946 .0260211
870.619 .0260092
871.292 .0259978
871.964 .0259867
872.636 .0259759
873.308 .0259655
873.979 .0259553
874.651 .0259455
875.321 .0259360
875.992 .0259266
876.662 .0259174
877.331 .0259082
878.001 .0258988
878.670 .0258893
879.338 .0258795
880.007 .0258696
880.675 .0258594
881.342 .0258492
882.009 .0258390
882.676 .0258289
883.343 .0258189
884.009 .0258090
884.675 .0257992
885.340 .0257896
886.005 .0257799
886.670 .0257704
887.334 .0257611
887.998 .0257519
888.662 .0257432
889.325 .0257348
889.988 .0257270
890.650 .0257197
891.312 .0257129
891.974 .0257066
892.636 .0257007
893.297 .0256952
893.957 .0256899
894.618 .0256850
895.278 .0256803
895.937 .0256758
896.596 .0256715
897.255 .0256674
897.914 .0256634
898.572 .0256592
899.230 .0256549
899.887 .0256504
900.544 .0256454
901.201 .0256400
901.857 .0256295
902.513 .0256227
903.168 .0256154
903.823 .0256077
904.478 .0255995
905.132 .0255907
905.786 .0255813
906.440 .0255712
907.093 .0255604
907.746 .0255489
908.399 .0255367
909.051 .0255239
909.703 .0255107
910.354 .0255033
911.005 .0254900
911.656 .0254766
912.306 .0254631
912.956 .0254497
913.605 .0254363
914.254 .0254229
914.903 .0254096
915.551 .0253963
916.199 .0253831
916.847 .0253700
917.494 .0253570
918.141 .0253442
918.788 .0253316
919.434 .0253193
920.079 .0253071
920.725 .0252950
921.370 .0252829
922.014 .0252708
922.658 .0252587
923.302 .0252465
923.946 .0252342
924.589 .0252220
925.231 .0252097
925.873 .0251975
926.515 .0251855
927.157 .0251735
927.798 .0251615
928.439 .0251497
929.079 .0251378
929.719 .0251260
930.359 .0251143
930.998 .0251027
931.637 .0250912
932.275 .0250799
932.913 .0250690
933.551 .0250584
934.188 .0250481
934.825 .0250383
935.462 .0250289
936.098 .0250198
936.733 .0250112
937.369 .0250029
938.004 .0249949
938.638 .0249874
939.273 .0249802
939.907 .0249736
940.540 .0249675
941.173 .0249618
941.806 .0249568
942.438 .0249521
943.070 .0249479
943.702 .0249440
944.333 .0249402
944.964 .0249364
945.594 .0249325
946.224 .0249285
946.854 .0249244
947.483 .0249200
948.112 .0249156
948.741 .0249110
949.369 .0249064
949.996 .0249017
950.624 .0248970
951.251 .0248921
951.878 .0248870
952.504 .0248818
953.130 .0248763
953.755 .0248707
954.380 .0248650
955.005 .0248592
955.629 .0248536
956.253 .0248482
956.877 .0248429
957.500 .0248379
958.123 .0248331
958.746 .0248284
959.368 .0248239
959.990 .0248195
960.611 .0248151
961.232 .0248109
961.853 .0248070
962.473 .0248032
963.093 .0247997
963.712 .0247965
964.331 .0247935
964.950 .0247906
965.569 .0247879
966.187 .0247852
966.804 .0247825
967.422 .0247798
968.039 .0247770
968.655 .0247741
969.272 .0247711
969.887 .0247680
970.503 .0247648
971.118 .0247616
971.733 .0247582
972.347 .0247546
972.961 .0247507
973.575 .0247465
974.188 .0247419
974.801 .0247369
975.414 .0247314
976.026 .0247255
976.638 .0247192
977.250 .0247124
977.861 .0247053
978.472 .0246977
979.083 .0246898
979.693 .0246815
980.303 .0246729
980.912 .0246586
981.521 .0246492
982.130 .0246396
982.738 .0246298
983.346 .0246198
983.954 .0246097
984.562 .0245996
985.169 .0245895
985.775 .0245796
986.382 .0245698
986.988 .0245603
987.594 .0245511
988.199 .0245422
988.804 .0245336
989.409 .0245305
990.013 .0245227
990.617 .0245153
991.221 .0245083
991.824 .0245017
992.427 .0244956
993.030 .0244899
993.632 .0244848
994.234 .0244802
994.836 .0244762
995.438 .0244727
996.039 .0244699
996.640 .0244676
997.240 .0244658
997.840 .0244646
998.440 .0244637
999.040 .0244633
999.639 .0244631
1000.238 .0244632
1000.836 .0244635
1001.435 .0244638
1002.033 .0244643
1002.630 .0244648
1003.228 .0244653
1003.825 .0244657
1004.422 .0244659
1005.018 .0244660
1005.614 .0244659
1006.210 .0244655
1006.806 .0244648
1007.401 .0244638
1007.996 .0244624
1008.591 .0244607
1009.186 .0244587
1009.780 .0244565
1010.374 .0244541
1010.967 .0244516
1011.561 .0244489
1012.154 .0244462
1012.746 .0244433
1013.339 .0244405
1013.931 .0244376
1014.523 .0244348
1015.115 .0244320
1015.706 .0244293
1016.298 .0244268
1016.888 .0244245
1017.479 .0244225
1018.069 .0244208
1018.660 .0244195
1019.250 .0244185
1019.839 .0244179
1020.429 .0244176
1021.018 .0244177
1021.607 .0244181
1022.195 .0244189
1022.784 .0244200
1023.372 .0244215
1023.960 .0244235
1024.547 .0244259
1025.135 .0244287
1025.722 .0244321
1026.309 .0244358
1026.896 .0244398
1027.483 .0244441
1028.069 .0244485
1028.655 .0244530
1029.241 .0244574
1029.827 .0244618
1030.412 .0244660
1030.997 .0244702
1031.582 .0244743
1032.167 .0244782
1032.752 .0244821
1033.336 .0244857
1033.921 .0244891
1034.505 .0244922
1035.089 .0244949
1035.672 .0244971
1036.256 .0244988
1036.839 .0245001
1037.422 .0245009
1038.005 .0245014
1038.588 .0245016
1039.171 .0245016
1039.753 .0245012
1040.335 .0245006
1040.918 .0244997
1041.500 .0244983
1042.081 .0244965
1042.663 .0244940
1043.244 .0244908
1043.826 .0244868
1044.407 .0244822
1044.988 .0244769
1045.569 .0244710
1046.150 .0244645
1046.730 .0244577
1047.311 .0244504
1047.891 .0244429
1048.471 .0244351
1049.052 .0244270
1049.632 .0244187
1050.211 .0244100
1050.791 .0244012
1051.371 .0243921
1051.950 .0243830
1052.530 .0243740
1053.109 .0243653
1053.688 .0243568
1054.268 .0243486
1054.847 .0243408
1055.426 .0243333
1056.005 .0243259
1056.583 .0243187
1057.162 .0243116
1057.741 .0243046
1058.319 .0242978
1058.898 .0242913
1059.476 .0242853
1060.055 .0242799
1060.633 .0242752
1061.211 .0242712
1061.790 .0242680
1062.368 .0242654
1062.946 .0242634
1063.524 .0242620
1064.102 .0242609
1064.680 .0242602
1065.258 .0242597
1065.836 .0242593
1066.414 .0242592
1066.992 .0242591
1067.570 .0242592
1068.148 .0242592
1068.726 .0242591
1069.304 .0242587
1069.882 .0242578
1070.460 .0242564
1071.038 .0242545
1071.616 .0242521
1072.194 .0242493
1072.772 .0242462
1073.350 .0242430
1073.928 .0242398
1074.506 .0242368
1075.084 .0242342
1075.662 .0242320
1076.240 .0242303
1076.819 .0242292
1077.397 .0242288
1077.976 .0242292
1078.554 .0242303
1079.133 .0242323
1079.711 .0242350
1080.290 .0242384
1080.869 .0242425
1081.448 .0242472
1082.027 .0242523
1082.606 .0242577
1083.185 .0242635
1083.764 .0242695
1084.343 .0242758
1084.923 .0242823
1085.502 .0242892
1086.082 .0242963
1086.662 .0243038
1087.242 .0243115
1087.822 .0243194
1088.402 .0243275
1088.983 .0243358
1089.563 .0243442
1090.144 .0243527
1090.725 .0243614
1091.306 .0243702
1091.887 .0243792
1092.469 .0243883
1093.050 .0243973
1093.632 .0244063
1094.214 .0244151
1094.796 .0244236
1095.379 .0244315
1095.961 .0244388
1096.544 .0244455
1097.127 .0244518
1097.710 .0244578
1098.294 .0244636
1098.877 .0244695
1099.461 .0244755
1100.046 .0244817
1100.630 .0244882
1101.215 .0244951
1101.800 .0245023
1102.385 .0245100
1102.970 .0245182
1103.556 .0245270
1104.142 .0245366
1104.728 .0245473
1105.315 .0245591
1105.902 .0245724
1106.489 .0245872
1107.077 .0246034
1107.664 .0246209
1108.253 .0246400
1108.841 .0246605
1109.430 .0246827
1110.019 .0247066
1110.609 .0247324
1111.198 .0247603
1111.789 .0247903
1112.379 .0248225
1112.970 .0248568
1113.561 .0248931
1114.153 .0249311
1114.745 .0249707
1115.338 .0250119
1115.931 .0250547
1116.524 .0250992
1117.117 .0251455
1117.712 .0251937
1118.306 .0252436
1118.901 .0252952
1119.496 .0253481
1120.092 .0254024
1120.689 .0254578
1121.285 .0255142
1121.882 .0255718
1122.480 .0256306
1123.078 .0256908
1123.677 .0257526
1124.276 .0258161
1124.875 .0258814
1125.476 .0259481
1126.076 .0260159
1126.677 .0260845
1127.279 .0261535
1127.881 .0262228
1128.484 .0262926
1129.087 .0263247
1129.691 .0263951
1130.295 .0264669
1130.900 .0265406
1131.505 .0266168
1132.111 .0266955
1132.718 .0267768
1133.325 .0268612
1133.933 .0269493
1134.541 .0270381
1135.150 .0271276
1135.760 .0272167
1136.370 .0273316
1136.981 .0273375
1137.592 .0274377
1138.204 .0275492
1138.817 .0276671
1139.431 .0277965
1140.045 .0279264
1140.660 .0280549
1141.275 .0282006
1141.891 .0283677
1142.508 .0284530
1143.126 .0285374
1143.744 .0285845
1144.363 .0293651
1144.983 .0298247
