Measurement Sequence started on: 15-12-46-377
Integration time: 28
Scans to Average: 2 
>>>>>Begin Spectral Data<<<<<
432.689 .0000100
433.621 .0000100
434.552 .0000100
435.482 .0000100
436.410 .0000100
437.337 .0000100
438.262 .0268981
439.187 .0569378
440.110 .0943375
441.031 .1365911
441.952 .1104503
442.871 .1155132
443.789 .1202524
444.705 .1247355
445.621 .1290083
446.535 .1331026
447.447 .1356269
448.359 .1364338
449.269 .1351516
450.178 .1315370
451.086 .1256609
451.993 .1179871
452.898 .1092869
453.803 .1004341
454.706 .0921751
455.608 .0849734
456.508 .0789861
457.408 .0749070
458.306 .0717372
459.204 .0691235
460.100 .0668900
460.995 .0649387
461.888 .0632052
462.781 .0616470
463.673 .0602358
464.563 .0589516
465.452 .0577792
466.340 .0567067
467.228 .0557251
468.114 .0548268
468.999 .0540053
469.882 .0532546
470.765 .0525699
471.647 .0519468
472.528 .0513825
473.407 .0508736
474.286 .0504175
475.163 .0500119
476.040 .0496534
476.915 .0493393
477.790 .0490666
478.663 .0488326
479.535 .0486343
480.407 .0484686
481.277 .0483319
482.147 .0482208
483.015 .0481318
483.883 .0480621
484.749 .0480099
485.615 .0479735
486.479 .0479526
487.343 .0479460
488.206 .0479540
489.067 .0479760
489.928 .0480121
490.788 .0480626
491.647 .0481276
492.505 .0482072
493.362 .0483019
494.218 .0484123
495.073 .0485400
495.928 .0488038
496.781 .0489863
497.634 .0491930
498.486 .0494249
499.337 .0496838
500.187 .0499716
501.036 .0502905
501.884 .0506437
502.731 .0510349
503.578 .0514690
504.424 .0517791
505.268 .0522938
506.113 .0528645
506.956 .0534950
507.798 .0541895
508.640 .0549532
509.480 .0557946
510.320 .0567230
511.160 .0577509
511.998 .0588939
512.836 .0601708
513.672 .0616013
514.508 .0632045
515.344 .0649994
516.178 .0670040
517.012 .0692375
517.845 .0717170
518.677 .0744598
519.508 .0774807
520.339 .0807894
521.169 .0843923
521.998 .0882763
522.826 .0924174
523.654 .0967678
524.481 .1012683
525.307 .1058424
526.133 .1103958
526.958 .1148262
527.782 .1190318
528.605 .1229179
529.428 .1264007
530.250 .1294067
531.072 .1318880
531.892 .1338114
532.712 .1351637
533.532 .1359400
534.350 .1361436
535.168 .1357839
535.986 .1348678
536.802 .1334000
537.618 .1313875
538.434 .1288369
539.249 .1257762
540.063 .1222435
540.876 .1182987
541.689 .1140135
542.501 .1094741
543.313 .1047820
544.124 .1000413
544.934 .0953520
545.744 .0908014
546.553 .0864599
547.361 .0823851
548.169 .0786068
548.976 .0751412
549.783 .0719851
550.589 .0691282
551.395 .0665502
552.200 .0642258
553.004 .0621305
553.808 .0602430
554.611 .0585433
555.414 .0570138
556.216 .0556346
557.018 .0543860
557.819 .0532497
558.619 .0522086
559.419 .0512486
560.218 .0503571
561.017 .0495234
561.815 .0487398
562.613 .0480008
563.410 .0473027
564.207 .0466413
565.003 .0460134
565.799 .0454154
566.594 .0448434
567.388 .0442937
568.182 .0437627
568.976 .0432476
569.769 .0427468
570.562 .0422590
571.354 .0417838
572.145 .0413211
572.936 .0408717
573.727 .0404359
574.517 .0400143
575.307 .0396074
576.096 .0392150
576.885 .0388369
577.673 .0384733
578.461 .0381240
579.248 .0377890
580.035 .0374685
580.821 .0371628
581.607 .0368722
582.392 .0365968
583.177 .0363366
583.962 .0360917
584.746 .0358620
585.529 .0356472
586.313 .0354463
587.095 .0352591
587.878 .0350848
588.660 .0349229
589.441 .0347725
590.222 .0346332
591.003 .0345043
591.783 .0343852
592.563 .0342752
593.342 .0341736
594.121 .0340795
594.899 .0339924
595.678 .0339111
596.455 .0338350
597.233 .0337631
598.009 .0336950
598.786 .0336299
599.562 .0335675
600.338 .0335074
601.113 .0334496
601.888 .0333699
602.663 .0333173
603.437 .0332667
604.211 .0332181
604.984 .0331712
605.757 .0331261
606.530 .0330828
607.302 .0330412
608.074 .0330013
608.845 .0329632
609.616 .0329269
610.387 .0329134
611.158 .0328801
611.928 .0328486
612.697 .0328188
613.467 .0327908
614.236 .0327643
615.004 .0327393
615.773 .0327157
616.541 .0326933
617.308 .0326722
618.076 .0326521
618.843 .0326329
619.609 .0326143
620.375 .0325962
621.141 .0325782
621.907 .0325603
622.672 .0325422
623.437 .0325238
624.202 .0325050
624.966 .0324857
625.730 .0324657
626.493 .0324449
627.257 .0324233
628.020 .0324006
628.782 .0323770
629.545 .0323522
630.307 .0323263
631.068 .0322995
631.830 .0322717
632.591 .0322432
633.352 .0322138
634.112 .0321838
634.872 .0321532
635.632 .0321221
636.392 .0320905
637.151 .0320586
637.910 .0320265
638.668 .0319943
639.427 .0319622
640.185 .0319305
640.943 .0318991
641.700 .0318682
642.457 .0318378
643.214 .0318079
643.971 .0317785
644.727 .0317497
645.483 .0317215
646.239 .0316938
646.994 .0316667
647.750 .0316401
648.505 .0316140
649.259 .0315883
650.014 .0315629
650.768 .0315378
651.521 .0315127
652.275 .0314877
653.028 .0314625
653.781 .0314371
654.534 .0314114
655.286 .0313855
656.039 .0313592
656.791 .0313326
657.542 .0313056
658.294 .0312782
659.045 .0312505
659.796 .0312224
660.546 .0311939
661.297 .0311651
662.047 .0311360
662.796 .0311066
663.546 .0310770
664.295 .0310473
665.044 .0310175
665.793 .0309878
666.542 .0309583
667.290 .0309289
668.038 .0308999
668.786 .0308712
669.533 .0308430
670.281 .0308153
671.028 .0307882
671.774 .0307616
672.521 .0307357
673.267 .0307105
674.013 .0306861
674.759 .0306624
675.505 .0306393
676.250 .0306169
676.995 .0305951
677.740 .0305738
678.484 .0305531
679.229 .0305329
679.973 .0305131
680.717 .0304938
681.460 .0304750
682.204 .0304564
682.947 .0304382
683.690 .0304201
684.433 .0304022
685.175 .0303844
685.917 .0303667
686.659 .0303489
687.401 .0303312
688.142 .0303135
688.884 .0302958
689.625 .0302782
690.365 .0302605
691.106 .0302429
691.846 .0302253
692.586 .0302077
693.326 .0301902
694.066 .0301727
694.805 .0301554
695.545 .0301383
696.284 .0301215
697.022 .0301050
697.761 .0300887
698.499 .0300727
699.237 .0300571
699.975 .0300418
700.713 .0300269
701.450 .0300125
702.187 .0299985
702.924 .0299851
703.661 .0299722
704.397 .0299599
705.133 .0299481
705.869 .0299367
706.605 .0299257
707.341 .0299150
708.076 .0299044
708.811 .0298940
709.546 .0298836
710.281 .0298731
711.015 .0298624
711.749 .0298516
712.483 .0298404
713.217 .0298288
713.950 .0298169
714.684 .0298045
715.417 .0297916
716.150 .0297782
716.882 .0297642
717.615 .0297494
718.347 .0297340
719.079 .0297178
719.811 .0297007
720.542 .0296827
721.273 .0296638
722.005 .0296440
722.735 .0296235
723.466 .0296023
724.196 .0295805
724.927 .0295584
725.656 .0295360
726.386 .0295134
727.116 .0294906
727.845 .0294677
728.574 .0294447
729.303 .0294215
730.031 .0293983
730.760 .0293751
731.488 .0293520
732.216 .0293290
732.944 .0293062
733.671 .0292838
734.398 .0292618
735.125 .0292403
735.852 .0292193
736.579 .0291988
737.305 .0291787
738.031 .0291591
738.757 .0291398
739.483 .0291209
740.208 .0291022
740.933 .0290838
741.658 .0290655
742.383 .0290473
743.108 .0290293
743.832 .0290114
744.556 .0289936
745.280 .0289759
746.004 .0289583
746.727 .0289408
747.450 .0289232
748.173 .0289057
748.896 .0288880
749.618 .0288703
750.340 .0288523
751.062 .0288342
751.784 .0288159
752.506 .0287974
753.227 .0287787
753.948 .0287598
754.669 .0287407
755.389 .0287215
756.110 .0287021
756.830 .0286825
757.550 .0286628
758.269 .0286430
758.989 .0286230
759.708 .0286028
760.427 .0285825
761.146 .0285621
761.864 .0285416
762.582 .0285209
763.300 .0285003
764.018 .0284797
764.736 .0284592
765.453 .0284389
766.170 .0284190
766.887 .0283995
767.603 .0283804
768.320 .0283619
769.036 .0283441
769.751 .0283270
770.467 .0283106
771.182 .0282951
771.897 .0282805
772.612 .0282669
773.327 .0282543
774.041 .0282427
774.755 .0282322
775.469 .0282228
776.183 .0282143
776.896 .0282070
777.609 .0282006
778.322 .0281953
779.035 .0281909
779.747 .0281876
780.459 .0281851
781.171 .0281835
781.882 .0281827
782.594 .0281827
783.305 .0281832
784.016 .0281843
784.726 .0281858
785.436 .0281877
786.147 .0281913
786.856 .0281936
787.566 .0281960
788.275 .0281984
788.984 .0282007
789.693 .0282030
790.401 .0282051
791.110 .0282070
791.818 .0282087
792.525 .0282101
793.233 .0282112
793.940 .0282119
794.647 .0282111
795.353 .0282111
796.060 .0282108
796.766 .0282100
797.472 .0282088
798.177 .0282071
798.883 .0282050
799.588 .0282022
800.292 .0281989
800.997 .0281949
801.701 .0281902
802.405 .0281849
803.109 .0281789
803.812 .0281723
804.515 .0281650
805.218 .0281570
805.921 .0281484
806.623 .0281390
807.325 .0281290
808.027 .0281181
808.728 .0281066
809.429 .0280944
810.130 .0280817
810.831 .0280685
811.531 .0280549
812.231 .0280411
812.931 .0280270
813.630 .0280128
814.330 .0279985
815.029 .0279842
815.727 .0279698
816.426 .0279555
817.124 .0279414
817.821 .0279273
818.519 .0279134
819.216 .0278997
819.913 .0278863
820.609 .0278731
821.306 .0278602
822.002 .0278475
822.697 .0278352
823.393 .0278231
824.088 .0278113
824.783 .0277998
825.477 .0277885
826.171 .0277773
826.865 .0277663
827.559 .0277553
828.252 .0277443
828.945 .0277332
829.638 .0277219
830.330 .0277104
831.023 .0276987
831.714 .0276868
832.406 .0276744
833.097 .0276618
833.788 .0276488
834.479 .0276354
835.169 .0276217
835.859 .0276077
836.548 .0275932
837.238 .0275784
837.927 .0275633
838.615 .0275477
839.304 .0275318
839.992 .0275155
840.680 .0274988
841.367 .0274820
842.054 .0274649
842.741 .0274476
843.428 .0274301
844.114 .0274126
844.800 .0273948
845.485 .0273769
846.170 .0273587
846.855 .0273402
847.540 .0273213
848.224 .0273020
848.908 .0272823
849.592 .0272622
850.275 .0272416
850.958 .0272205
851.641 .0271989
852.323 .0271769
853.005 .0271543
853.687 .0271314
854.368 .0271079
855.049 .0270841
855.730 .0270600
856.410 .0270356
857.090 .0270110
857.769 .0269864
858.449 .0269618
859.128 .0269373
859.806 .0269130
860.485 .0268889
861.163 .0268651
861.840 .0268416
862.518 .0268187
863.195 .0267962
863.871 .0267742
864.548 .0267529
865.224 .0267322
865.899 .0267121
866.574 .0266928
867.249 .0266741
867.924 .0266561
868.598 .0266388
869.272 .0266222
869.946 .0266063
870.619 .0265911
871.292 .0265765
871.964 .0265627
872.636 .0265495
873.308 .0265370
873.979 .0265252
874.651 .0265141
875.321 .0265035
875.992 .0264935
876.662 .0264839
877.331 .0264749
878.001 .0264663
878.670 .0264583
879.338 .0264507
880.007 .0264437
880.675 .0264373
881.342 .0264316
882.009 .0264266
882.676 .0264222
883.343 .0264185
884.009 .0264155
884.675 .0264133
885.340 .0264118
886.005 .0264112
886.670 .0264115
887.334 .0264128
887.998 .0264150
888.662 .0264183
889.325 .0264224
889.988 .0264275
890.650 .0264333
891.312 .0264398
891.974 .0264470
892.636 .0264548
893.297 .0264631
893.957 .0264719
894.618 .0264811
895.278 .0264906
895.937 .0265002
896.596 .0265100
897.255 .0265196
897.914 .0265290
898.572 .0265380
899.230 .0265467
899.887 .0265548
900.544 .0265623
901.201 .0265693
901.857 .0265759
902.513 .0265807
903.168 .0265847
903.823 .0265879
904.478 .0265900
905.132 .0265913
905.786 .0265916
906.440 .0265909
907.093 .0265895
907.746 .0265872
908.399 .0265843
909.051 .0265807
909.703 .0265766
910.354 .0265733
911.005 .0265687
911.656 .0265636
912.306 .0265581
912.956 .0265524
913.605 .0265463
914.254 .0265401
914.903 .0265337
915.551 .0265272
916.199 .0265206
916.847 .0265139
917.494 .0265072
918.141 .0265003
918.788 .0264934
919.434 .0264863
920.079 .0264791
920.725 .0264716
921.370 .0264640
922.014 .0264561
922.658 .0264478
923.302 .0264392
923.946 .0264302
924.589 .0264207
925.231 .0264108
925.873 .0264002
926.515 .0263892
927.157 .0263776
927.798 .0263656
928.439 .0263531
929.079 .0263402
929.719 .0263270
930.359 .0263136
930.998 .0263000
931.637 .0262862
932.275 .0262724
932.913 .0262585
933.551 .0262446
934.188 .0262308
934.825 .0262171
935.462 .0262038
936.098 .0261907
936.733 .0261780
937.369 .0261657
938.004 .0261538
938.638 .0261423
939.273 .0261311
939.907 .0261203
940.540 .0261096
941.173 .0260992
941.806 .0260889
942.438 .0260788
943.070 .0260688
943.702 .0260588
944.333 .0260488
944.964 .0260388
945.594 .0260287
946.224 .0260184
946.854 .0260077
947.483 .0259967
948.112 .0259852
948.741 .0259732
949.369 .0259607
949.996 .0259477
950.624 .0259341
951.251 .0259200
951.878 .0259053
952.504 .0258900
953.130 .0258741
953.755 .0258577
954.380 .0258407
955.005 .0258232
955.629 .0258052
956.253 .0257867
956.877 .0257679
957.500 .0257488
958.123 .0257296
958.746 .0257103
959.368 .0256909
959.990 .0256716
960.611 .0256524
961.232 .0256334
961.853 .0256144
962.473 .0255957
963.093 .0255770
963.712 .0255585
964.331 .0255401
964.950 .0255218
965.569 .0255036
966.187 .0254854
966.804 .0254673
967.422 .0254490
968.039 .0254306
968.655 .0254120
969.272 .0253931
969.887 .0253739
970.503 .0253544
971.118 .0253347
971.733 .0253146
972.347 .0252943
972.961 .0252739
973.575 .0252532
974.188 .0252324
974.801 .0252113
975.414 .0251901
976.026 .0251687
976.638 .0251469
977.250 .0251249
977.861 .0251025
978.472 .0250798
979.083 .0250567
979.693 .0250333
980.303 .0250095
980.912 .0249730
981.521 .0249484
982.130 .0249235
982.738 .0248984
983.346 .0248730
983.954 .0248477
984.562 .0248224
985.169 .0247973
985.775 .0247726
986.382 .0247483
986.988 .0247246
987.594 .0247016
988.199 .0246793
988.804 .0246578
989.409 .0246489
990.013 .0246289
990.617 .0246098
991.221 .0245916
991.824 .0245742
992.427 .0245576
993.030 .0245418
993.632 .0245266
994.234 .0245120
994.836 .0244980
995.438 .0244845
996.039 .0244715
996.640 .0244590
997.240 .0244471
997.840 .0244358
998.440 .0244251
999.040 .0244151
999.639 .0244058
1000.238 .0243971
1000.836 .0243890
1001.435 .0243814
1002.033 .0243744
1002.630 .0243679
1003.228 .0243617
1003.825 .0243560
1004.422 .0243506
1005.018 .0243455
1005.614 .0243406
1006.210 .0243359
1006.806 .0243312
1007.401 .0243267
1007.996 .0243222
1008.591 .0243178
1009.186 .0243135
1009.780 .0243094
1010.374 .0243056
1010.967 .0243023
1011.561 .0242994
1012.154 .0242970
1012.746 .0242954
1013.339 .0242946
1013.931 .0242945
1014.523 .0242952
1015.115 .0242969
1015.706 .0242994
1016.298 .0243029
1016.888 .0243074
1017.479 .0243129
1018.069 .0243194
1018.660 .0243269
1019.250 .0243355
1019.839 .0243450
1020.429 .0243555
1021.018 .0243667
1021.607 .0243787
1022.195 .0243912
1022.784 .0244043
1023.372 .0244178
1023.960 .0244316
1024.547 .0244458
1025.135 .0244603
1025.722 .0244750
1026.309 .0244900
1026.896 .0245053
1027.483 .0245207
1028.069 .0245362
1028.655 .0245518
1029.241 .0245674
1029.827 .0245830
1030.412 .0245985
1030.997 .0246140
1031.582 .0246296
1032.167 .0246453
1032.752 .0246612
1033.336 .0246774
1033.921 .0246938
1034.505 .0247104
1035.089 .0247272
1035.672 .0247441
1036.256 .0247609
1036.839 .0247776
1037.422 .0247941
1038.005 .0248104
1038.588 .0248266
1039.171 .0248427
1039.753 .0248587
1040.335 .0248747
1040.918 .0248907
1041.500 .0249066
1042.081 .0249225
1042.663 .0249383
1043.244 .0249540
1043.826 .0249696
1044.407 .0249850
1044.988 .0250005
1045.569 .0250160
1046.150 .0250317
1046.730 .0250475
1047.311 .0250633
1047.891 .0250792
1048.471 .0250950
1049.052 .0251105
1049.632 .0251258
1050.211 .0251406
1050.791 .0251549
1051.371 .0251688
1051.950 .0251823
1052.530 .0251954
1053.109 .0252082
1053.688 .0252208
1054.268 .0252332
1054.847 .0252455
1055.426 .0252577
1056.005 .0252698
1056.583 .0252820
1057.162 .0252942
1057.741 .0253064
1058.319 .0253187
1058.898 .0253310
1059.476 .0253434
1060.055 .0253558
1060.633 .0253681
1061.211 .0253805
1061.790 .0253927
1062.368 .0254050
1062.946 .0254172
1063.524 .0254294
1064.102 .0254415
1064.680 .0254535
1065.258 .0254653
1065.836 .0254769
1066.414 .0254882
1066.992 .0254993
1067.570 .0255100
1068.148 .0255206
1068.726 .0255310
1069.304 .0255414
1069.882 .0255518
1070.460 .0255624
1071.038 .0255730
1071.616 .0255839
1072.194 .0255947
1072.772 .0256055
1073.350 .0256162
1073.928 .0256266
1074.506 .0256367
1075.084 .0256466
1075.662 .0256564
1076.240 .0256663
1076.819 .0256762
1077.397 .0256864
1077.976 .0256968
1078.554 .0257075
1079.133 .0257184
1079.711 .0257294
1080.290 .0257405
1080.869 .0257517
1081.448 .0257628
1082.027 .0257738
1082.606 .0257849
1083.185 .0257960
1083.764 .0258072
1084.343 .0258185
1084.923 .0258299
1085.502 .0258415
1086.082 .0258531
1086.662 .0258647
1087.242 .0258763
1087.822 .0258879
1088.402 .0258994
1088.983 .0259109
1089.563 .0259225
1090.144 .0259343
1090.725 .0259466
1091.306 .0259595
1091.887 .0259730
1092.469 .0259873
1093.050 .0260023
1093.632 .0260179
1094.214 .0260341
1094.796 .0260507
1095.379 .0260676
1095.961 .0260849
1096.544 .0261027
1097.127 .0261209
1097.710 .0261399
1098.294 .0261597
1098.877 .0261803
1099.461 .0262017
1100.046 .0262238
1100.630 .0262464
1101.215 .0262691
1101.800 .0262919
1102.385 .0263145
1102.970 .0263369
1103.556 .0263593
1104.142 .0263819
1104.728 .0264050
1105.315 .0264287
1105.902 .0264532
1106.489 .0264784
1107.077 .0265042
1107.664 .0265305
1108.253 .0265568
1108.841 .0265831
1109.430 .0266096
1110.019 .0266362
1110.609 .0266633
1111.198 .0266914
1111.789 .0267207
1112.379 .0267516
1112.970 .0267841
1113.561 .0268179
1114.153 .0268528
1114.745 .0268883
1115.338 .0269242
1115.931 .0269603
1116.524 .0269966
1117.117 .0270334
1117.712 .0270711
1118.306 .0271101
1118.901 .0271509
1119.496 .0271936
1120.092 .0272384
1120.689 .0272849
1121.285 .0273330
1121.882 .0273824
1122.480 .0274327
1123.078 .0274836
1123.677 .0275351
1124.276 .0275871
1124.875 .0276396
1125.476 .0276928
1126.076 .0277467
1126.677 .0278012
1127.279 .0278563
1127.881 .0279116
1128.484 .0279668
1129.087 .0279949
1129.691 .0280494
1130.295 .0281035
1130.900 .0281572
1131.505 .0282109
1132.111 .0282652
1132.718 .0283206
1133.325 .0283780
1133.933 .0284386
1134.541 .0284959
1135.150 .0285617
1135.760 .0286366
1136.370 .0287133
1136.981 .0287161
1137.592 .0287785
1138.204 .0288398
1138.817 .0288985
1139.431 .0289587
1140.045 .0290249
1140.660 .0291024
1141.275 .0291942
1141.891 .0293214
1142.508 .0292662
1143.126 .0295543
1143.744 .0298626
1144.363 .0299751
1144.983 .0305400
