Measurement Sequence started on: 15-12-46-377
Integration time: 28
Scans to Average: 2 
>>>>>Begin Spectral Data<<<<<
432.689 .0000100
433.621 .0000100
434.552 .0000100
435.482 .0000100
436.410 .0000100
437.337 .0000100
438.262 .0284120
439.187 .0602646
440.110 .0998936
441.031 .1445684
441.952 .1156693
442.871 .1207392
443.789 .1254516
444.705 .1298831
445.621 .1340880
446.535 .1381075
447.447 .1404773
448.359 .1410374
449.269 .1393968
450.178 .1353031
451.086 .1288355
451.993 .1204888
452.898 .1110841
453.803 .1015538
454.706 .0926952
455.608 .0850030
456.508 .0786448
457.408 .0743525
458.306 .0710713
459.204 .0684177
460.100 .0661959
460.995 .0642953
461.888 .0626412
462.781 .0611824
463.673 .0598806
464.563 .0587084
465.452 .0576474
466.340 .0566829
467.228 .0558049
468.114 .0550056
468.999 .0542789
469.882 .0536183
470.765 .0530178
471.647 .0524717
472.528 .0519747
473.407 .0515222
474.286 .0511108
475.163 .0507378
476.040 .0504016
476.915 .0501003
477.790 .0498322
478.663 .0495966
479.535 .0493915
480.407 .0492148
481.277 .0490637
482.147 .0489355
483.015 .0488273
483.883 .0487364
484.749 .0486613
485.615 .0486014
486.479 .0485567
487.343 .0485284
488.206 .0485170
489.067 .0485238
489.928 .0485501
490.788 .0485963
491.647 .0486631
492.505 .0487501
493.362 .0488571
494.218 .0489839
495.073 .0491302
495.928 .0494226
496.781 .0496195
497.634 .0498381
498.486 .0500794
499.337 .0503451
500.187 .0506373
501.036 .0509581
501.884 .0513101
502.731 .0516972
503.578 .0521228
504.424 .0524165
505.268 .0529170
506.113 .0534690
506.956 .0540769
507.798 .0547479
508.640 .0554900
509.480 .0563136
510.320 .0572319
511.160 .0582585
511.998 .0594105
512.836 .0607091
513.672 .0621741
514.508 .0638286
515.344 .0656959
516.178 .0678000
517.012 .0701641
517.845 .0728093
518.677 .0757554
519.508 .0790178
520.339 .0826051
521.169 .0865207
521.998 .0907364
522.826 .0952164
523.654 .0999003
524.481 .1047150
525.307 .1095762
526.133 .1143872
526.958 .1190468
527.782 .1234588
528.605 .1275334
529.428 .1311922
530.250 .1343633
531.072 .1370034
531.892 .1390712
532.712 .1405428
533.532 .1414017
534.350 .1416420
535.168 .1412685
535.986 .1402900
536.802 .1387123
537.618 .1365475
538.434 .1338085
539.249 .1305380
540.063 .1267855
540.876 .1226215
541.689 .1181289
542.501 .1133986
543.313 .1085294
544.124 .1036223
544.934 .0987684
545.744 .0940505
546.553 .0895363
547.361 .0852822
548.169 .0813164
548.976 .0776612
549.783 .0743206
550.589 .0712900
551.395 .0685542
552.200 .0660890
553.004 .0638659
553.808 .0618616
554.611 .0600526
555.414 .0584183
556.216 .0569391
557.018 .0555954
557.819 .0543712
558.619 .0532503
559.419 .0522187
560.218 .0512662
561.017 .0503824
561.815 .0495596
562.613 .0487911
563.410 .0480704
564.207 .0473906
565.003 .0467463
565.799 .0461318
566.594 .0455421
567.388 .0449731
568.182 .0444207
568.976 .0438816
569.769 .0433537
570.562 .0428367
571.354 .0423303
572.145 .0418356
572.936 .0413536
573.727 .0408847
574.517 .0404301
575.307 .0399907
576.096 .0395664
576.885 .0391573
577.673 .0387636
578.461 .0383850
579.248 .0380217
580.035 .0376741
580.821 .0373425
581.607 .0370277
582.392 .0367305
583.177 .0364512
583.962 .0361896
584.746 .0359459
585.529 .0357194
586.313 .0355094
587.095 .0353146
587.878 .0351340
588.660 .0349662
589.441 .0348102
590.222 .0346653
591.003 .0345308
591.783 .0344061
592.563 .0342906
593.342 .0341835
594.121 .0340841
594.899 .0339916
595.678 .0339053
596.455 .0338244
597.233 .0337484
598.009 .0336766
598.786 .0336087
599.562 .0335443
600.338 .0334834
601.113 .0334257
601.888 .0333498
602.663 .0332991
603.437 .0332510
604.211 .0332055
604.984 .0331622
605.757 .0331212
606.530 .0330822
607.302 .0330450
608.074 .0330098
608.845 .0329762
609.616 .0329445
610.387 .0329319
611.158 .0329025
611.928 .0328747
612.697 .0328486
613.467 .0328239
614.236 .0328008
615.004 .0327789
615.773 .0327582
616.541 .0327387
617.308 .0327202
618.076 .0327027
618.843 .0326861
619.609 .0326703
620.375 .0326552
621.141 .0326407
621.907 .0326267
622.672 .0326129
623.437 .0325994
624.202 .0325858
624.966 .0325722
625.730 .0325583
626.493 .0325441
627.257 .0325294
628.020 .0325141
628.782 .0324979
629.545 .0324810
630.307 .0324631
631.068 .0324442
631.830 .0324242
632.591 .0324032
633.352 .0323811
634.112 .0323579
634.872 .0323336
635.632 .0323083
636.392 .0322819
637.151 .0322546
637.910 .0322264
638.668 .0321974
639.427 .0321678
640.185 .0321375
640.943 .0321068
641.700 .0320756
642.457 .0320442
643.214 .0320126
643.971 .0319807
644.727 .0319488
645.483 .0319167
646.239 .0318846
646.994 .0318525
647.750 .0318204
648.505 .0317882
649.259 .0317559
650.014 .0317235
650.768 .0316910
651.521 .0316584
652.275 .0316256
653.028 .0315926
653.781 .0315595
654.534 .0315262
655.286 .0314927
656.039 .0314590
656.791 .0314250
657.542 .0313908
658.294 .0313564
659.045 .0313217
659.796 .0312870
660.546 .0312521
661.297 .0312173
662.047 .0311826
662.796 .0311482
663.546 .0311141
664.295 .0310803
665.044 .0310470
665.793 .0310141
666.542 .0309819
667.290 .0309502
668.038 .0309191
668.786 .0308887
669.533 .0308591
670.281 .0308303
671.028 .0308025
671.774 .0307756
672.521 .0307497
673.267 .0307249
674.013 .0307012
674.759 .0306786
675.505 .0306571
676.250 .0306366
676.995 .0306171
677.740 .0305986
678.484 .0305809
679.229 .0305640
679.973 .0305478
680.717 .0305324
681.460 .0305175
682.204 .0305033
682.947 .0304897
683.690 .0304766
684.433 .0304640
685.175 .0304520
685.917 .0304404
686.659 .0304292
687.401 .0304183
688.142 .0304074
688.884 .0303967
689.625 .0303859
690.365 .0303750
691.106 .0303640
691.846 .0303529
692.586 .0303417
693.326 .0303305
694.066 .0303192
694.805 .0303079
695.545 .0302968
696.284 .0302857
697.022 .0302747
697.761 .0302637
698.499 .0302527
699.237 .0302417
699.975 .0302308
700.713 .0302199
701.450 .0302090
702.187 .0301981
702.924 .0301874
703.661 .0301768
704.397 .0301663
705.133 .0301560
705.869 .0301458
706.605 .0301357
707.341 .0301257
708.076 .0301155
708.811 .0301053
709.546 .0300949
710.281 .0300841
711.015 .0300731
711.749 .0300616
712.483 .0300497
713.217 .0300372
713.950 .0300242
714.684 .0300105
715.417 .0299962
716.150 .0299812
716.882 .0299654
717.615 .0299489
718.347 .0299315
719.079 .0299134
719.811 .0298944
720.542 .0298746
721.273 .0298540
722.005 .0298327
722.735 .0298107
723.466 .0297880
724.196 .0297648
724.927 .0297411
725.656 .0297171
726.386 .0296928
727.116 .0296685
727.845 .0296442
728.574 .0296200
729.303 .0295960
730.031 .0295723
730.760 .0295488
731.488 .0295257
732.216 .0295027
732.944 .0294799
733.671 .0294574
734.398 .0294350
735.125 .0294128
735.852 .0293909
736.579 .0293692
737.305 .0293477
738.031 .0293265
738.757 .0293055
739.483 .0292846
740.208 .0292639
740.933 .0292432
741.658 .0292224
742.383 .0292016
743.108 .0291806
743.832 .0291593
744.556 .0291379
745.280 .0291162
746.004 .0290943
746.727 .0290722
747.450 .0290499
748.173 .0290276
748.896 .0290052
749.618 .0289827
750.340 .0289601
751.062 .0289375
751.784 .0289148
752.506 .0288920
753.227 .0288691
753.948 .0288461
754.669 .0288232
755.389 .0288004
756.110 .0287777
756.830 .0287552
757.550 .0287329
758.269 .0287110
758.989 .0286893
759.708 .0286680
760.427 .0286470
761.146 .0286262
761.864 .0286056
762.582 .0285852
763.300 .0285651
764.018 .0285452
764.736 .0285256
765.453 .0285064
766.170 .0284876
766.887 .0284692
767.603 .0284515
768.320 .0284343
769.036 .0284178
769.751 .0284020
770.467 .0283869
771.182 .0283725
771.897 .0283587
772.612 .0283458
773.327 .0283337
774.041 .0283224
774.755 .0283120
775.469 .0283026
776.183 .0282942
776.896 .0282868
777.609 .0282804
778.322 .0282750
779.035 .0282706
779.747 .0282672
780.459 .0282647
781.171 .0282631
781.882 .0282623
782.594 .0282624
783.305 .0282632
784.016 .0282647
784.726 .0282668
785.436 .0282694
786.147 .0282750
786.856 .0282783
787.566 .0282819
788.275 .0282856
788.984 .0282894
789.693 .0282933
790.401 .0282970
791.110 .0283006
791.818 .0283039
792.525 .0283070
793.233 .0283096
793.940 .0283118
794.647 .0283114
795.353 .0283128
796.060 .0283137
796.766 .0283141
797.472 .0283140
798.177 .0283134
798.883 .0283122
799.588 .0283105
800.292 .0283083
800.997 .0283056
801.701 .0283023
802.405 .0282985
803.109 .0282941
803.812 .0282893
804.515 .0282840
805.218 .0282783
805.921 .0282721
806.623 .0282656
807.325 .0282587
808.027 .0282514
808.728 .0282439
809.429 .0282362
810.130 .0282282
810.831 .0282201
811.531 .0282119
812.231 .0282035
812.931 .0281950
813.630 .0281865
814.330 .0281779
815.029 .0281693
815.727 .0281607
816.426 .0281522
817.124 .0281438
817.821 .0281355
818.519 .0281274
819.216 .0281195
819.913 .0281118
820.609 .0281042
821.306 .0280967
822.002 .0280894
822.697 .0280822
823.393 .0280751
824.088 .0280681
824.783 .0280612
825.477 .0280543
826.171 .0280475
826.865 .0280406
827.559 .0280337
828.252 .0280267
828.945 .0280196
829.638 .0280124
830.330 .0280049
831.023 .0279973
831.714 .0279895
832.406 .0279813
833.097 .0279728
833.788 .0279640
834.479 .0279546
835.169 .0279449
835.859 .0279346
836.548 .0279239
837.238 .0279126
837.927 .0279009
838.615 .0278886
839.304 .0278757
839.992 .0278624
840.680 .0278484
841.367 .0278339
842.054 .0278188
842.741 .0278031
843.428 .0277868
844.114 .0277698
844.800 .0277523
845.485 .0277341
846.170 .0277153
846.855 .0276958
847.540 .0276756
848.224 .0276547
848.908 .0276331
849.592 .0276108
850.275 .0275878
850.958 .0275641
851.641 .0275396
852.323 .0275146
853.005 .0274888
853.687 .0274624
854.368 .0274355
855.049 .0274080
855.730 .0273801
856.410 .0273517
857.090 .0273230
857.769 .0272939
858.449 .0272646
859.128 .0272350
859.806 .0272052
860.485 .0271753
861.163 .0271453
861.840 .0271153
862.518 .0270853
863.195 .0270554
863.871 .0270256
864.548 .0269960
865.224 .0269666
865.899 .0269375
866.574 .0269087
867.249 .0268802
867.924 .0268522
868.598 .0268246
869.272 .0267975
869.946 .0267709
870.619 .0267447
871.292 .0267191
871.964 .0266940
872.636 .0266696
873.308 .0266458
873.979 .0266227
874.651 .0266004
875.321 .0265790
875.992 .0265584
876.662 .0265386
877.331 .0265197
878.001 .0265017
878.670 .0264846
879.338 .0264684
880.007 .0264531
880.675 .0264389
881.342 .0264257
882.009 .0264135
882.676 .0264025
883.343 .0263925
884.009 .0263835
884.675 .0263755
885.340 .0263686
886.005 .0263626
886.670 .0263575
887.334 .0263534
887.998 .0263500
888.662 .0263475
889.325 .0263457
889.988 .0263445
890.650 .0263437
891.312 .0263434
891.974 .0263435
892.636 .0263437
893.297 .0263442
893.957 .0263447
894.618 .0263453
895.278 .0263458
895.937 .0263462
896.596 .0263462
897.255 .0263460
897.914 .0263453
898.572 .0263441
899.230 .0263424
899.887 .0263402
900.544 .0263373
901.201 .0263338
901.857 .0263258
902.513 .0263208
903.168 .0263152
903.823 .0263091
904.478 .0263026
905.132 .0262958
905.786 .0262887
906.440 .0262815
907.093 .0262741
907.746 .0262666
908.399 .0262591
909.051 .0262516
909.703 .0262442
910.354 .0262411
911.005 .0262341
911.656 .0262273
912.306 .0262207
912.956 .0262144
913.605 .0262084
914.254 .0262028
914.903 .0261974
915.551 .0261924
916.199 .0261876
916.847 .0261831
917.494 .0261788
918.141 .0261748
918.788 .0261709
919.434 .0261672
920.079 .0261637
920.725 .0261603
921.370 .0261570
922.014 .0261537
922.658 .0261505
923.302 .0261472
923.946 .0261438
924.589 .0261403
925.231 .0261367
925.873 .0261328
926.515 .0261288
927.157 .0261245
927.798 .0261201
928.439 .0261156
929.079 .0261109
929.719 .0261063
930.359 .0261016
930.998 .0260970
931.637 .0260925
932.275 .0260882
932.913 .0260840
933.551 .0260802
934.188 .0260768
934.825 .0260739
935.462 .0260716
936.098 .0260700
936.733 .0260690
937.369 .0260687
938.004 .0260690
938.638 .0260700
939.273 .0260716
939.907 .0260737
940.540 .0260764
941.173 .0260795
941.806 .0260832
942.438 .0260874
943.070 .0260920
943.702 .0260971
944.333 .0261025
944.964 .0261082
945.594 .0261140
946.224 .0261200
946.854 .0261260
947.483 .0261319
948.112 .0261378
948.741 .0261435
949.369 .0261491
949.996 .0261544
950.624 .0261595
951.251 .0261642
951.878 .0261686
952.504 .0261725
953.130 .0261760
953.755 .0261790
954.380 .0261815
955.005 .0261836
955.629 .0261852
956.253 .0261863
956.877 .0261869
957.500 .0261871
958.123 .0261868
958.746 .0261860
959.368 .0261848
959.990 .0261832
960.611 .0261813
961.232 .0261791
961.853 .0261766
962.473 .0261738
963.093 .0261708
963.712 .0261675
964.331 .0261639
964.950 .0261601
965.569 .0261559
966.187 .0261515
966.804 .0261469
967.422 .0261420
968.039 .0261368
968.655 .0261313
969.272 .0261255
969.887 .0261194
970.503 .0261128
971.118 .0261057
971.733 .0260980
972.347 .0260897
972.961 .0260808
973.575 .0260713
974.188 .0260612
974.801 .0260504
975.414 .0260389
976.026 .0260267
976.638 .0260138
977.250 .0260001
977.861 .0259855
978.472 .0259701
979.083 .0259540
979.693 .0259371
980.303 .0259196
980.912 .0258902
981.521 .0258712
982.130 .0258517
982.738 .0258317
983.346 .0258113
983.954 .0257904
984.562 .0257691
985.169 .0257476
985.775 .0257257
986.382 .0257037
986.988 .0256816
987.594 .0256595
988.199 .0256374
988.804 .0256154
989.409 .0256053
990.013 .0255836
990.617 .0255621
991.221 .0255408
991.824 .0255198
992.427 .0254991
993.030 .0254789
993.632 .0254591
994.234 .0254398
994.836 .0254209
995.438 .0254024
996.039 .0253843
996.640 .0253665
997.240 .0253490
997.840 .0253318
998.440 .0253148
999.040 .0252980
999.639 .0252814
1000.238 .0252651
1000.836 .0252489
1001.435 .0252328
1002.033 .0252170
1002.630 .0252013
1003.228 .0251856
1003.825 .0251701
1004.422 .0251545
1005.018 .0251390
1005.614 .0251236
1006.210 .0251082
1006.806 .0250929
1007.401 .0250776
1007.996 .0250626
1008.591 .0250477
1009.186 .0250330
1009.780 .0250185
1010.374 .0250041
1010.967 .0249900
1011.561 .0249759
1012.154 .0249620
1012.746 .0249481
1013.339 .0249344
1013.931 .0249208
1014.523 .0249074
1015.115 .0248942
1015.706 .0248811
1016.298 .0248683
1016.888 .0248558
1017.479 .0248437
1018.069 .0248320
1018.660 .0248206
1019.250 .0248096
1019.839 .0247990
1020.429 .0247887
1021.018 .0247788
1021.607 .0247692
1022.195 .0247599
1022.784 .0247510
1023.372 .0247423
1023.960 .0247340
1024.547 .0247259
1025.135 .0247180
1025.722 .0247103
1026.309 .0247028
1026.896 .0246955
1027.483 .0246882
1028.069 .0246811
1028.655 .0246741
1029.241 .0246672
1029.827 .0246606
1030.412 .0246542
1030.997 .0246481
1031.582 .0246424
1032.167 .0246371
1032.752 .0246322
1033.336 .0246277
1033.921 .0246235
1034.505 .0246196
1035.089 .0246159
1035.672 .0246124
1036.256 .0246088
1036.839 .0246053
1037.422 .0246017
1038.005 .0245979
1038.588 .0245940
1039.171 .0245898
1039.753 .0245853
1040.335 .0245806
1040.918 .0245755
1041.500 .0245701
1042.081 .0245644
1042.663 .0245586
1043.244 .0245525
1043.826 .0245463
1044.407 .0245401
1044.988 .0245337
1045.569 .0245272
1046.150 .0245206
1046.730 .0245139
1047.311 .0245072
1047.891 .0245003
1048.471 .0244935
1049.052 .0244867
1049.632 .0244799
1050.211 .0244733
1050.791 .0244666
1051.371 .0244600
1051.950 .0244533
1052.530 .0244464
1053.109 .0244393
1053.688 .0244321
1054.268 .0244246
1054.847 .0244172
1055.426 .0244100
1056.005 .0244032
1056.583 .0243970
1057.162 .0243914
1057.741 .0243866
1058.319 .0243825
1058.898 .0243790
1059.476 .0243761
1060.055 .0243737
1060.633 .0243719
1061.211 .0243706
1061.790 .0243700
1062.368 .0243702
1062.946 .0243714
1063.524 .0243735
1064.102 .0243767
1064.680 .0243807
1065.258 .0243856
1065.836 .0243911
1066.414 .0243971
1066.992 .0244036
1067.570 .0244105
1068.148 .0244179
1068.726 .0244259
1069.304 .0244345
1069.882 .0244439
1070.460 .0244539
1071.038 .0244646
1071.616 .0244759
1072.194 .0244874
1072.772 .0244992
1073.350 .0245112
1073.928 .0245233
1074.506 .0245357
1075.084 .0245484
1075.662 .0245614
1076.240 .0245748
1076.819 .0245887
1077.397 .0246031
1077.976 .0246178
1078.554 .0246328
1079.133 .0246479
1079.711 .0246632
1080.290 .0246786
1080.869 .0246942
1081.448 .0247100
1082.027 .0247261
1082.606 .0247425
1083.185 .0247592
1083.764 .0247761
1084.343 .0247934
1084.923 .0248110
1085.502 .0248289
1086.082 .0248472
1086.662 .0248659
1087.242 .0248850
1087.822 .0249046
1088.402 .0249248
1088.983 .0249456
1089.563 .0249668
1090.144 .0249884
1090.725 .0250103
1091.306 .0250326
1091.887 .0250554
1092.469 .0250787
1093.050 .0251026
1093.632 .0251271
1094.214 .0251521
1094.796 .0251776
1095.379 .0252033
1095.961 .0252291
1096.544 .0252550
1097.127 .0252808
1097.710 .0253064
1098.294 .0253321
1098.877 .0253581
1099.461 .0253846
1100.046 .0254116
1100.630 .0254393
1101.215 .0254677
1101.800 .0254966
1102.385 .0255260
1102.970 .0255557
1103.556 .0255858
1104.142 .0256165
1104.728 .0256479
1105.315 .0256803
1105.902 .0257142
1106.489 .0257496
1107.077 .0257868
1107.664 .0258259
1108.253 .0258666
1108.841 .0259089
1109.430 .0259524
1110.019 .0259970
1110.609 .0260425
1111.198 .0260889
1111.789 .0261362
1112.379 .0261844
1112.970 .0262337
1113.561 .0262840
1114.153 .0263352
1114.745 .0263872
1115.338 .0264398
1115.931 .0264924
1116.524 .0265450
1117.117 .0265974
1117.712 .0266494
1118.306 .0267011
1118.901 .0267528
1119.496 .0268046
1120.092 .0268568
1120.689 .0269096
1121.285 .0269631
1121.882 .0270177
1122.480 .0270736
1123.078 .0271306
1123.677 .0271889
1124.276 .0272487
1124.875 .0273097
1125.476 .0273722
1126.076 .0274362
1126.677 .0275019
1127.279 .0275695
1127.881 .0276395
1128.484 .0277120
1129.087 .0277403
1129.691 .0278166
1130.295 .0278964
1130.900 .0279799
1131.505 .0280669
1132.111 .0281580
1132.718 .0282535
1133.325 .0283540
1133.933 .0284606
1134.541 .0285635
1135.150 .0286811
1135.760 .0288139
1136.370 .0289511
1136.981 .0289678
1137.592 .0291139
1138.204 .0292673
1138.817 .0294191
1139.431 .0295702
1140.045 .0297301
1140.660 .0299002
1141.275 .0300795
1141.891 .0302874
1142.508 .0302200
1143.126 .0306646
1143.744 .0311289
1144.363 .0312863
1144.983 .0318044
