Measurement Sequence started on: 15-12-46-377
Integration time: 28
Scans to Average: 2 
>>>>>Begin Spectral Data<<<<<
432.689 .0000100
433.621 .0000100
434.552 .0000100
435.482 .0000100
436.410 .0000100
437.337 .0000100
438.262 .0285990
439.187 .0605142
440.110 .0999992
441.031 .1444865
441.952 .1147119
442.871 .1196615
443.789 .1242533
444.705 .1285634
445.621 .1326469
446.535 .1365449
447.447 .1387839
448.359 .1392108
449.269 .1374466
450.178 .1332422
451.086 .1266829
451.993 .1182702
452.898 .1088298
453.803 .0992930
454.706 .0904513
455.608 .0827914
456.508 .0764730
457.408 .0722277
458.306 .0689873
459.204 .0663646
460.100 .0641717
460.995 .0623002
461.888 .0606762
462.781 .0592471
463.673 .0579747
464.563 .0568297
465.452 .0557923
466.340 .0548458
467.228 .0539785
468.114 .0531823
468.999 .0524501
469.882 .0517770
470.765 .0511594
471.647 .0505934
472.528 .0500768
473.407 .0496064
474.286 .0491800
475.163 .0487953
476.040 .0484498
476.915 .0481413
477.790 .0478684
478.663 .0476294
479.535 .0474233
480.407 .0472481
481.277 .0471026
482.147 .0469850
483.015 .0468934
483.883 .0468253
484.749 .0467782
485.615 .0467501
486.479 .0467396
487.343 .0467453
488.206 .0467674
489.067 .0468051
489.928 .0468596
490.788 .0469311
491.647 .0470202
492.505 .0471268
493.362 .0472510
494.218 .0473922
495.073 .0475503
495.928 .0478482
496.781 .0480478
497.634 .0482645
498.486 .0484997
499.337 .0487552
500.187 .0490326
501.036 .0493344
501.884 .0496624
502.731 .0500195
503.578 .0504080
504.424 .0506661
505.268 .0511124
506.113 .0516005
506.956 .0521347
507.798 .0527215
508.640 .0533686
509.480 .0540855
510.320 .0548835
511.160 .0557761
511.998 .0567775
512.836 .0579035
513.672 .0591705
514.508 .0605968
515.344 .0622022
516.178 .0640071
517.012 .0660321
517.845 .0682960
518.677 .0708181
519.508 .0736123
520.339 .0766866
521.169 .0800456
521.998 .0836709
522.826 .0875337
523.654 .0915904
524.481 .0957827
525.307 .1000429
526.133 .1042947
526.958 .1084558
527.782 .1124427
528.605 .1161766
529.428 .1195855
530.250 .1226027
531.072 .1251820
531.892 .1272821
532.712 .1288720
533.532 .1299336
534.350 .1304557
535.168 .1304366
535.986 .1298801
536.802 .1287927
537.618 .1271840
538.434 .1250656
539.249 .1224704
540.063 .1194385
540.876 .1160219
541.689 .1122849
542.501 .1082988
543.313 .1041417
544.124 .0998957
544.934 .0956407
545.744 .0914499
546.553 .0873901
547.361 .0835187
548.169 .0798713
548.976 .0764765
549.783 .0733486
550.589 .0704879
551.395 .0678855
552.200 .0655249
553.004 .0633822
553.808 .0614355
554.611 .0596648
555.414 .0580508
556.216 .0565759
557.018 .0552244
557.819 .0539823
558.619 .0528378
559.419 .0517802
560.218 .0507993
561.017 .0498858
561.815 .0490327
562.613 .0482325
563.410 .0474770
564.207 .0467598
565.003 .0460748
565.799 .0454169
566.594 .0447825
567.388 .0441686
568.182 .0435734
568.976 .0429958
569.769 .0424354
570.562 .0418919
571.354 .0413658
572.145 .0408578
572.936 .0403681
573.727 .0398968
574.517 .0394440
575.307 .0390101
576.096 .0385947
576.885 .0381981
577.673 .0378200
578.461 .0374603
579.248 .0371185
580.035 .0367948
580.821 .0364889
581.607 .0362004
582.392 .0359292
583.177 .0356747
583.962 .0354362
584.746 .0352130
585.529 .0350040
586.313 .0348083
587.095 .0346252
587.878 .0344540
588.660 .0342939
589.441 .0341443
590.222 .0340049
591.003 .0338753
591.783 .0337551
592.563 .0336438
593.342 .0335408
594.121 .0334454
594.899 .0333570
595.678 .0332748
596.455 .0331981
597.233 .0331263
598.009 .0330586
598.786 .0329946
599.562 .0329336
600.338 .0328756
601.113 .0328201
601.888 .0327447
602.663 .0326946
603.437 .0326464
604.211 .0326000
604.984 .0325554
605.757 .0325122
606.530 .0324705
607.302 .0324300
608.074 .0323906
608.845 .0323524
609.616 .0323153
610.387 .0322989
611.158 .0322633
611.928 .0322287
612.697 .0321950
613.467 .0321624
614.236 .0321306
615.004 .0320996
615.773 .0320694
616.541 .0320400
617.308 .0320111
618.076 .0319827
618.843 .0319548
619.609 .0319272
620.375 .0318998
621.141 .0318724
621.907 .0318451
622.672 .0318178
623.437 .0317904
624.202 .0317630
624.966 .0317357
625.730 .0317083
626.493 .0316809
627.257 .0316535
628.020 .0316261
628.782 .0315986
629.545 .0315712
630.307 .0315437
631.068 .0315163
631.830 .0314891
632.591 .0314620
633.352 .0314351
634.112 .0314085
634.872 .0313822
635.632 .0313562
636.392 .0313306
637.151 .0313055
637.910 .0312808
638.668 .0312567
639.427 .0312333
640.185 .0312105
640.943 .0311883
641.700 .0311669
642.457 .0311460
643.214 .0311258
643.971 .0311060
644.727 .0310867
645.483 .0310678
646.239 .0310491
646.994 .0310306
647.750 .0310121
648.505 .0309935
649.259 .0309748
650.014 .0309558
650.768 .0309364
651.521 .0309166
652.275 .0308964
653.028 .0308757
653.781 .0308547
654.534 .0308333
655.286 .0308114
656.039 .0307891
656.791 .0307664
657.542 .0307433
658.294 .0307198
659.045 .0306958
659.796 .0306715
660.546 .0306470
661.297 .0306222
662.047 .0305974
662.796 .0305725
663.546 .0305476
664.295 .0305228
665.044 .0304982
665.793 .0304736
666.542 .0304494
667.290 .0304254
668.038 .0304018
668.786 .0303786
669.533 .0303559
670.281 .0303335
671.028 .0303116
671.774 .0302899
672.521 .0302686
673.267 .0302476
674.013 .0302269
674.759 .0302064
675.505 .0301862
676.250 .0301662
676.995 .0301465
677.740 .0301270
678.484 .0301076
679.229 .0300882
679.973 .0300688
680.717 .0300493
681.460 .0300297
682.204 .0300099
682.947 .0299900
683.690 .0299700
684.433 .0299499
685.175 .0299297
685.917 .0299094
686.659 .0298891
687.401 .0298688
688.142 .0298483
688.884 .0298277
689.625 .0298070
690.365 .0297862
691.106 .0297651
691.846 .0297439
692.586 .0297225
693.326 .0297010
694.066 .0296792
694.805 .0296572
695.545 .0296351
696.284 .0296128
697.022 .0295906
697.761 .0295685
698.499 .0295465
699.237 .0295247
699.975 .0295031
700.713 .0294818
701.450 .0294607
702.187 .0294398
702.924 .0294191
703.661 .0293985
704.397 .0293780
705.133 .0293576
705.869 .0293374
706.605 .0293173
707.341 .0292974
708.076 .0292777
708.811 .0292581
709.546 .0292385
710.281 .0292190
711.015 .0291995
711.749 .0291800
712.483 .0291604
713.217 .0291409
713.950 .0291212
714.684 .0291014
715.417 .0290816
716.150 .0290616
716.882 .0290416
717.615 .0290215
718.347 .0290014
719.079 .0289814
719.811 .0289614
720.542 .0289416
721.273 .0289219
722.005 .0289024
722.735 .0288830
723.466 .0288638
724.196 .0288449
724.927 .0288263
725.656 .0288081
726.386 .0287903
727.116 .0287732
727.845 .0287567
728.574 .0287407
729.303 .0287254
730.031 .0287106
730.760 .0286963
731.488 .0286826
732.216 .0286694
732.944 .0286567
733.671 .0286447
734.398 .0286332
735.125 .0286222
735.852 .0286118
736.579 .0286019
737.305 .0285924
738.031 .0285833
738.757 .0285746
739.483 .0285663
740.208 .0285582
740.933 .0285506
741.658 .0285432
742.383 .0285360
743.108 .0285290
743.832 .0285221
744.556 .0285153
745.280 .0285084
746.004 .0285014
746.727 .0284944
747.450 .0284872
748.173 .0284799
748.896 .0284725
749.618 .0284648
750.340 .0284568
751.062 .0284484
751.784 .0284397
752.506 .0284305
753.227 .0284209
753.948 .0284109
754.669 .0284006
755.389 .0283901
756.110 .0283794
756.830 .0283684
757.550 .0283574
758.269 .0283461
758.989 .0283347
759.708 .0283231
760.427 .0283112
761.146 .0282991
761.864 .0282868
762.582 .0282744
763.300 .0282619
764.018 .0282494
764.736 .0282367
765.453 .0282241
766.170 .0282115
766.887 .0281988
767.603 .0281862
768.320 .0281736
769.036 .0281610
769.751 .0281483
770.467 .0281357
771.182 .0281231
771.897 .0281105
772.612 .0280979
773.327 .0280854
774.041 .0280729
774.755 .0280605
775.469 .0280482
776.183 .0280360
776.896 .0280241
777.609 .0280124
778.322 .0280009
779.035 .0279896
779.747 .0279786
780.459 .0279679
781.171 .0279573
781.882 .0279468
782.594 .0279365
783.305 .0279262
784.016 .0279159
784.726 .0279055
785.436 .0278950
786.147 .0278786
786.856 .0278676
787.566 .0278565
788.275 .0278452
788.984 .0278337
789.693 .0278219
790.401 .0278099
791.110 .0277975
791.818 .0277846
792.525 .0277713
793.233 .0277575
793.940 .0277432
794.647 .0277349
795.353 .0277202
796.060 .0277053
796.766 .0276902
797.472 .0276749
798.177 .0276593
798.883 .0276435
799.588 .0276273
800.292 .0276109
800.997 .0275940
801.701 .0275768
802.405 .0275593
803.109 .0275414
803.812 .0275233
804.515 .0275049
805.218 .0274863
805.921 .0274673
806.623 .0274482
807.325 .0274287
808.027 .0274091
808.728 .0273893
809.429 .0273694
810.130 .0273494
810.831 .0273293
811.531 .0273092
812.231 .0272890
812.931 .0272687
813.630 .0272484
814.330 .0272282
815.029 .0272081
815.727 .0271883
816.426 .0271688
817.124 .0271498
817.821 .0271313
818.519 .0271135
819.216 .0270963
819.913 .0270799
820.609 .0270642
821.306 .0270493
822.002 .0270353
822.697 .0270222
823.393 .0270100
824.088 .0269988
824.783 .0269886
825.477 .0269793
826.171 .0269709
826.865 .0269634
827.559 .0269568
828.252 .0269509
828.945 .0269459
829.638 .0269416
830.330 .0269380
831.023 .0269350
831.714 .0269326
832.406 .0269305
833.097 .0269288
833.788 .0269273
834.479 .0269259
835.169 .0269246
835.859 .0269234
836.548 .0269224
837.238 .0269215
837.927 .0269207
838.615 .0269199
839.304 .0269190
839.992 .0269179
840.680 .0269165
841.367 .0269148
842.054 .0269127
842.741 .0269103
843.428 .0269076
844.114 .0269048
844.800 .0269018
845.485 .0268986
846.170 .0268953
846.855 .0268918
847.540 .0268881
848.224 .0268841
848.908 .0268798
849.592 .0268753
850.275 .0268705
850.958 .0268655
851.641 .0268604
852.323 .0268551
853.005 .0268498
853.687 .0268443
854.368 .0268387
855.049 .0268329
855.730 .0268269
856.410 .0268208
857.090 .0268146
857.769 .0268082
858.449 .0268018
859.128 .0267953
859.806 .0267888
860.485 .0267822
861.163 .0267756
861.840 .0267690
862.518 .0267624
863.195 .0267558
863.871 .0267493
864.548 .0267430
865.224 .0267368
865.899 .0267307
866.574 .0267248
867.249 .0267191
867.924 .0267134
868.598 .0267080
869.272 .0267027
869.946 .0266975
870.619 .0266926
871.292 .0266880
871.964 .0266836
872.636 .0266796
873.308 .0266759
873.979 .0266724
874.651 .0266692
875.321 .0266662
875.992 .0266634
876.662 .0266606
877.331 .0266580
878.001 .0266553
878.670 .0266527
879.338 .0266500
880.007 .0266473
880.675 .0266446
881.342 .0266417
882.009 .0266388
882.676 .0266357
883.343 .0266326
884.009 .0266293
884.675 .0266259
885.340 .0266225
886.005 .0266190
886.670 .0266154
887.334 .0266116
887.998 .0266077
888.662 .0266037
889.325 .0265994
889.988 .0265949
890.650 .0265902
891.312 .0265853
891.974 .0265802
892.636 .0265749
893.297 .0265694
893.957 .0265636
894.618 .0265576
895.278 .0265511
895.937 .0265443
896.596 .0265369
897.255 .0265290
897.914 .0265204
898.572 .0265112
899.230 .0265013
899.887 .0264906
900.544 .0264792
901.201 .0264669
901.857 .0264446
902.513 .0264303
903.168 .0264151
903.823 .0263992
904.478 .0263825
905.132 .0263650
905.786 .0263468
906.440 .0263279
907.093 .0263083
907.746 .0262881
908.399 .0262674
909.051 .0262461
909.703 .0262245
910.354 .0262130
911.005 .0261911
911.656 .0261689
912.306 .0261466
912.956 .0261241
913.605 .0261015
914.254 .0260787
914.903 .0260558
915.551 .0260327
916.199 .0260095
916.847 .0259860
917.494 .0259624
918.141 .0259387
918.788 .0259149
919.434 .0258909
920.079 .0258667
920.725 .0258423
921.370 .0258176
922.014 .0257925
922.658 .0257671
923.302 .0257413
923.946 .0257151
924.589 .0256886
925.231 .0256618
925.873 .0256348
926.515 .0256076
927.157 .0255803
927.798 .0255528
928.439 .0255252
929.079 .0254975
929.719 .0254697
930.359 .0254418
930.998 .0254141
931.637 .0253865
932.275 .0253592
932.913 .0253323
933.551 .0253059
934.188 .0252801
934.825 .0252549
935.462 .0252303
936.098 .0252064
936.733 .0251831
937.369 .0251605
938.004 .0251387
938.638 .0251177
939.273 .0250975
939.907 .0250782
940.540 .0250598
941.173 .0250424
941.806 .0250258
942.438 .0250102
943.070 .0249955
943.702 .0249816
944.333 .0249684
944.964 .0249559
945.594 .0249441
946.224 .0249328
946.854 .0249219
947.483 .0249113
948.112 .0249010
948.741 .0248910
949.369 .0248811
949.996 .0248714
950.624 .0248617
951.251 .0248520
951.878 .0248424
952.504 .0248327
953.130 .0248231
953.755 .0248134
954.380 .0248037
955.005 .0247940
955.629 .0247844
956.253 .0247748
956.877 .0247652
957.500 .0247556
958.123 .0247461
958.746 .0247366
959.368 .0247273
959.990 .0247181
960.611 .0247091
961.232 .0247004
961.853 .0246921
962.473 .0246842
963.093 .0246767
963.712 .0246696
964.331 .0246630
964.950 .0246568
965.569 .0246512
966.187 .0246460
966.804 .0246412
967.422 .0246370
968.039 .0246332
968.655 .0246299
969.272 .0246270
969.887 .0246244
970.503 .0246221
971.118 .0246200
971.733 .0246180
972.347 .0246161
972.961 .0246142
973.575 .0246124
974.188 .0246107
974.801 .0246089
975.414 .0246072
976.026 .0246055
976.638 .0246037
977.250 .0246018
977.861 .0245997
978.472 .0245975
979.083 .0245952
979.693 .0245927
980.303 .0245901
980.912 .0245863
981.521 .0245840
982.130 .0245819
982.738 .0245801
983.346 .0245785
983.954 .0245771
984.562 .0245762
985.169 .0245755
985.775 .0245753
986.382 .0245755
986.988 .0245762
987.594 .0245776
988.199 .0245795
988.804 .0245822
989.409 .0245856
990.013 .0245893
990.617 .0245936
991.221 .0245984
991.824 .0246039
992.427 .0246097
993.030 .0246161
993.632 .0246228
994.234 .0246299
994.836 .0246374
995.438 .0246453
996.039 .0246535
996.640 .0246620
997.240 .0246710
997.840 .0246803
998.440 .0246899
999.040 .0246998
999.639 .0247100
1000.238 .0247204
1000.836 .0247311
1001.435 .0247420
1002.033 .0247530
1002.630 .0247642
1003.228 .0247754
1003.825 .0247867
1004.422 .0247979
1005.018 .0248090
1005.614 .0248201
1006.210 .0248310
1006.806 .0248419
1007.401 .0248527
1007.996 .0248634
1008.591 .0248741
1009.186 .0248848
1009.780 .0248954
1010.374 .0249061
1010.967 .0249168
1011.561 .0249275
1012.154 .0249384
1012.746 .0249493
1013.339 .0249604
1013.931 .0249715
1014.523 .0249827
1015.115 .0249939
1015.706 .0250050
1016.298 .0250161
1016.888 .0250271
1017.479 .0250382
1018.069 .0250491
1018.660 .0250601
1019.250 .0250712
1019.839 .0250823
1020.429 .0250936
1021.018 .0251050
1021.607 .0251166
1022.195 .0251283
1022.784 .0251403
1023.372 .0251524
1023.960 .0251647
1024.547 .0251773
1025.135 .0251901
1025.722 .0252031
1026.309 .0252163
1026.896 .0252296
1027.483 .0252429
1028.069 .0252562
1028.655 .0252693
1029.241 .0252822
1029.827 .0252947
1030.412 .0253068
1030.997 .0253185
1031.582 .0253297
1032.167 .0253405
1032.752 .0253508
1033.336 .0253606
1033.921 .0253698
1034.505 .0253785
1035.089 .0253865
1035.672 .0253939
1036.256 .0254005
1036.839 .0254063
1037.422 .0254115
1038.005 .0254160
1038.588 .0254198
1039.171 .0254230
1039.753 .0254255
1040.335 .0254274
1040.918 .0254287
1041.500 .0254293
1042.081 .0254292
1042.663 .0254285
1043.244 .0254272
1043.826 .0254253
1044.407 .0254230
1044.988 .0254205
1045.569 .0254178
1046.150 .0254149
1046.730 .0254120
1047.311 .0254091
1047.891 .0254063
1048.471 .0254035
1049.052 .0254009
1049.632 .0253984
1050.211 .0253960
1050.791 .0253937
1051.371 .0253915
1051.950 .0253894
1052.530 .0253873
1053.109 .0253851
1053.688 .0253827
1054.268 .0253799
1054.847 .0253766
1055.426 .0253728
1056.005 .0253684
1056.583 .0253635
1057.162 .0253579
1057.741 .0253516
1058.319 .0253447
1058.898 .0253371
1059.476 .0253289
1060.055 .0253202
1060.633 .0253108
1061.211 .0253009
1061.790 .0252905
1062.368 .0252796
1062.946 .0252681
1063.524 .0252561
1064.102 .0252437
1064.680 .0252307
1065.258 .0252173
1065.836 .0252033
1066.414 .0251890
1066.992 .0251743
1067.570 .0251592
1068.148 .0251439
1068.726 .0251283
1069.304 .0251126
1069.882 .0250969
1070.460 .0250814
1071.038 .0250660
1071.616 .0250511
1072.194 .0250365
1072.772 .0250224
1073.350 .0250089
1073.928 .0249960
1074.506 .0249837
1075.084 .0249721
1075.662 .0249611
1076.240 .0249507
1076.819 .0249410
1077.397 .0249320
1077.976 .0249237
1078.554 .0249160
1079.133 .0249091
1079.711 .0249029
1080.290 .0248975
1080.869 .0248928
1081.448 .0248888
1082.027 .0248857
1082.606 .0248833
1083.185 .0248817
1083.764 .0248809
1084.343 .0248809
1084.923 .0248817
1085.502 .0248834
1086.082 .0248858
1086.662 .0248892
1087.242 .0248934
1087.822 .0248985
1088.402 .0249044
1088.983 .0249112
1089.563 .0249186
1090.144 .0249267
1090.725 .0249352
1091.306 .0249442
1091.887 .0249536
1092.469 .0249632
1093.050 .0249732
1093.632 .0249833
1094.214 .0249935
1094.796 .0250035
1095.379 .0250134
1095.961 .0250229
1096.544 .0250320
1097.127 .0250407
1097.710 .0250489
1098.294 .0250567
1098.877 .0250641
1099.461 .0250712
1100.046 .0250781
1100.630 .0250849
1101.215 .0250915
1101.800 .0250981
1102.385 .0251046
1102.970 .0251113
1103.556 .0251183
1104.142 .0251258
1104.728 .0251339
1105.315 .0251427
1105.902 .0251525
1106.489 .0251632
1107.077 .0251750
1107.664 .0251880
1108.253 .0252021
1108.841 .0252173
1109.430 .0252336
1110.019 .0252512
1110.609 .0252702
1111.198 .0252908
1111.789 .0253132
1112.379 .0253374
1112.970 .0253637
1113.561 .0253918
1114.153 .0254216
1114.745 .0254530
1115.338 .0254859
1115.931 .0255201
1116.524 .0255553
1117.117 .0255913
1117.712 .0256281
1118.306 .0256655
1118.901 .0257035
1119.496 .0257421
1120.092 .0257814
1120.689 .0258210
1121.285 .0258611
1121.882 .0259016
1122.480 .0259426
1123.078 .0259842
1123.677 .0260264
1124.276 .0260695
1124.875 .0261137
1125.476 .0261594
1126.076 .0262069
1126.677 .0262569
1127.279 .0263096
1127.881 .0263652
1128.484 .0264238
1129.087 .0264466
1129.691 .0265085
1130.295 .0265734
1130.900 .0266415
1131.505 .0267128
1132.111 .0267875
1132.718 .0268657
1133.325 .0269475
1133.933 .0270317
1134.541 .0271231
1135.150 .0272224
1135.760 .0273171
1136.370 .0274173
1136.981 .0274334
1137.592 .0275714
1138.204 .0277109
1138.817 .0278474
1139.431 .0279834
1140.045 .0281224
1140.660 .0282567
1141.275 .0283927
1141.891 .0284921
1142.508 .0287241
1143.126 .0289770
1143.744 .0288724
1144.363 .0290588
1144.983 .0281718
