Measurement Sequence started on: 15-12-46-377
Integration time: 28
Scans to Average: 2 
>>>>>Begin Spectral Data<<<<<
432.689 .0000100
433.621 .0000100
434.552 .0000100
435.482 .0000100
436.410 .0000100
437.337 .0000100
438.262 .0270484
439.187 .0574384
440.110 .0952154
441.031 .1378495
441.952 .1108277
442.871 .1157603
443.789 .1203472
444.705 .1246586
445.621 .1287434
446.535 .1326397
447.447 .1349513
448.359 .1355244
449.269 .1339890
450.178 .1301045
451.086 .1239462
451.993 .1159854
452.898 .1070041
453.803 .0978904
454.706 .0894016
455.608 .0820088
456.508 .0758732
457.408 .0716927
458.306 .0684674
459.204 .0658330
460.100 .0636088
460.995 .0616942
461.888 .0600217
462.781 .0585453
463.673 .0572300
464.563 .0560513
465.452 .0549893
466.340 .0540274
467.228 .0531535
468.114 .0523573
468.999 .0516306
469.882 .0509651
470.765 .0503556
471.647 .0497969
472.528 .0492865
473.407 .0488213
474.286 .0483997
475.163 .0480209
476.040 .0476830
476.915 .0473839
477.790 .0471212
478.663 .0468927
479.535 .0466957
480.407 .0465272
481.277 .0463852
482.147 .0462671
483.015 .0461712
483.883 .0460962
484.749 .0460420
485.615 .0460088
486.479 .0459967
487.343 .0460058
488.206 .0460356
489.067 .0460853
489.928 .0461536
490.788 .0462391
491.647 .0463403
492.505 .0464566
493.362 .0465872
494.218 .0467321
495.073 .0468915
495.928 .0471864
496.781 .0473840
497.634 .0475969
498.486 .0478252
499.337 .0480698
500.187 .0483316
501.036 .0486115
501.884 .0489126
502.731 .0492386
503.578 .0495946
504.424 .0498363
505.268 .0502607
506.113 .0507325
506.956 .0512583
507.798 .0518465
508.640 .0525059
509.480 .0532467
510.320 .0540813
511.160 .0550231
511.998 .0560878
512.836 .0572932
513.672 .0586552
514.508 .0601926
515.344 .0619249
516.178 .0638680
517.012 .0660383
517.845 .0684499
518.677 .0711142
519.508 .0740411
520.339 .0772357
521.169 .0806979
521.998 .0844058
522.826 .0883305
523.654 .0924227
524.481 .0966219
525.307 .1008585
526.133 .1050501
526.958 .1091096
527.782 .1129547
528.605 .1165068
529.428 .1196954
530.250 .1224596
531.072 .1247600
531.892 .1265617
532.712 .1278432
533.532 .1285926
534.350 .1288052
535.168 .1284862
535.986 .1276460
536.802 .1262920
537.618 .1244346
538.434 .1220883
539.249 .1192870
540.063 .1160718
540.876 .1124999
541.689 .1086389
542.501 .1045631
543.313 .1003563
544.124 .0961036
544.934 .0918828
545.744 .0877654
546.553 .0838129
547.361 .0800743
548.169 .0765785
548.976 .0733461
549.783 .0703831
550.589 .0676878
551.395 .0652500
552.200 .0630502
553.004 .0610652
553.808 .0592744
554.611 .0576577
555.414 .0561954
556.216 .0548696
557.018 .0536622
557.819 .0525588
558.619 .0515458
559.419 .0506106
560.218 .0497426
561.017 .0489332
561.815 .0481742
562.613 .0474589
563.410 .0467803
564.207 .0461318
565.003 .0455076
565.799 .0449034
566.594 .0443159
567.388 .0437425
568.182 .0431815
568.976 .0426316
569.769 .0420927
570.562 .0415653
571.354 .0410501
572.145 .0405481
572.936 .0400604
573.727 .0395874
574.517 .0391296
575.307 .0386874
576.096 .0382612
576.885 .0378516
577.673 .0374593
578.461 .0370850
579.248 .0367290
580.035 .0363919
580.821 .0360739
581.607 .0357755
582.392 .0354964
583.177 .0352365
583.962 .0349954
584.746 .0347723
585.529 .0345667
586.313 .0343773
587.095 .0342029
587.878 .0340420
588.660 .0338934
589.441 .0337558
590.222 .0336279
591.003 .0335092
591.783 .0333991
592.563 .0332968
593.342 .0332018
594.121 .0331132
594.899 .0330306
595.678 .0329532
596.455 .0328802
597.233 .0328112
598.009 .0327456
598.786 .0326834
599.562 .0326242
600.338 .0325681
601.113 .0325151
601.888 .0324469
602.663 .0324010
603.437 .0323578
604.211 .0323170
604.984 .0322783
605.757 .0322414
606.530 .0322062
607.302 .0321724
608.074 .0321399
608.845 .0321086
609.616 .0320784
610.387 .0320653
611.158 .0320368
611.928 .0320094
612.697 .0319831
613.467 .0319578
614.236 .0319336
615.004 .0319101
615.773 .0318872
616.541 .0318649
617.308 .0318430
618.076 .0318214
618.843 .0318001
619.609 .0317790
620.375 .0317581
621.141 .0317375
621.907 .0317171
622.672 .0316968
623.437 .0316766
624.202 .0316562
624.966 .0316355
625.730 .0316144
626.493 .0315928
627.257 .0315705
628.020 .0315475
628.782 .0315238
629.545 .0314991
630.307 .0314736
631.068 .0314472
631.830 .0314198
632.591 .0313915
633.352 .0313622
634.112 .0313320
634.872 .0313009
635.632 .0312689
636.392 .0312362
637.151 .0312029
637.910 .0311690
638.668 .0311347
639.427 .0311000
640.185 .0310652
640.943 .0310305
641.700 .0309959
642.457 .0309618
643.214 .0309283
643.971 .0308955
644.727 .0308634
645.483 .0308322
646.239 .0308019
646.994 .0307723
647.750 .0307436
648.505 .0307157
649.259 .0306886
650.014 .0306623
650.768 .0306369
651.521 .0306124
652.275 .0305888
653.028 .0305663
653.781 .0305446
654.534 .0305238
655.286 .0305038
656.039 .0304843
656.791 .0304654
657.542 .0304469
658.294 .0304288
659.045 .0304109
659.796 .0303932
660.546 .0303757
661.297 .0303584
662.047 .0303413
662.796 .0303242
663.546 .0303072
664.295 .0302903
665.044 .0302734
665.793 .0302566
666.542 .0302400
667.290 .0302236
668.038 .0302074
668.786 .0301914
669.533 .0301755
670.281 .0301598
671.028 .0301442
671.774 .0301289
672.521 .0301138
673.267 .0300989
674.013 .0300843
674.759 .0300701
675.505 .0300561
676.250 .0300424
676.995 .0300289
677.740 .0300155
678.484 .0300021
679.229 .0299886
679.973 .0299750
680.717 .0299613
681.460 .0299474
682.204 .0299333
682.947 .0299190
683.690 .0299045
684.433 .0298896
685.175 .0298742
685.917 .0298583
686.659 .0298418
687.401 .0298247
688.142 .0298067
688.884 .0297879
689.625 .0297684
690.365 .0297480
691.106 .0297269
691.846 .0297050
692.586 .0296824
693.326 .0296591
694.066 .0296351
694.805 .0296106
695.545 .0295856
696.284 .0295601
697.022 .0295342
697.761 .0295080
698.499 .0294816
699.237 .0294550
699.975 .0294283
700.713 .0294016
701.450 .0293748
702.187 .0293481
702.924 .0293213
703.661 .0292946
704.397 .0292680
705.133 .0292414
705.869 .0292149
706.605 .0291885
707.341 .0291623
708.076 .0291363
708.811 .0291105
709.546 .0290850
710.281 .0290597
711.015 .0290347
711.749 .0290100
712.483 .0289856
713.217 .0289614
713.950 .0289374
714.684 .0289136
715.417 .0288901
716.150 .0288668
716.882 .0288438
717.615 .0288212
718.347 .0287989
719.079 .0287770
719.811 .0287556
720.542 .0287347
721.273 .0287143
722.005 .0286946
722.735 .0286755
723.466 .0286570
724.196 .0286393
724.927 .0286224
725.656 .0286062
726.386 .0285909
727.116 .0285763
727.845 .0285627
728.574 .0285499
729.303 .0285380
730.031 .0285270
730.760 .0285170
731.488 .0285079
732.216 .0284997
732.944 .0284923
733.671 .0284857
734.398 .0284799
735.125 .0284746
735.852 .0284700
736.579 .0284660
737.305 .0284624
738.031 .0284594
738.757 .0284567
739.483 .0284544
740.208 .0284524
740.933 .0284506
741.658 .0284489
742.383 .0284472
743.108 .0284455
743.832 .0284438
744.556 .0284419
745.280 .0284399
746.004 .0284378
746.727 .0284354
747.450 .0284329
748.173 .0284300
748.896 .0284268
749.618 .0284233
750.340 .0284194
751.062 .0284152
751.784 .0284107
752.506 .0284058
753.227 .0284005
753.948 .0283947
754.669 .0283885
755.389 .0283817
756.110 .0283744
756.830 .0283664
757.550 .0283578
758.269 .0283486
758.989 .0283388
759.708 .0283283
760.427 .0283172
761.146 .0283054
761.864 .0282930
762.582 .0282800
763.300 .0282663
764.018 .0282519
764.736 .0282369
765.453 .0282213
766.170 .0282051
766.887 .0281882
767.603 .0281707
768.320 .0281526
769.036 .0281338
769.751 .0281146
770.467 .0280948
771.182 .0280747
771.897 .0280542
772.612 .0280336
773.327 .0280128
774.041 .0279919
774.755 .0279711
775.469 .0279503
776.183 .0279296
776.896 .0279090
777.609 .0278887
778.322 .0278686
779.035 .0278489
779.747 .0278296
780.459 .0278107
781.171 .0277922
781.882 .0277743
782.594 .0277568
783.305 .0277396
784.016 .0277229
784.726 .0277064
785.436 .0276902
786.147 .0276670
786.856 .0276511
787.566 .0276352
788.275 .0276192
788.984 .0276032
789.693 .0275870
790.401 .0275705
791.110 .0275538
791.818 .0275367
792.525 .0275194
793.233 .0275016
793.940 .0274836
794.647 .0274730
795.353 .0274546
796.060 .0274361
796.766 .0274174
797.472 .0273986
798.177 .0273796
798.883 .0273605
799.588 .0273414
800.292 .0273223
800.997 .0273033
801.701 .0272845
802.405 .0272659
803.109 .0272475
803.812 .0272294
804.515 .0272116
805.218 .0271941
805.921 .0271769
806.623 .0271601
807.325 .0271437
808.027 .0271277
808.728 .0271121
809.429 .0270970
810.130 .0270824
810.831 .0270683
811.531 .0270547
812.231 .0270415
812.931 .0270288
813.630 .0270166
814.330 .0270049
815.029 .0269938
815.727 .0269833
816.426 .0269735
817.124 .0269645
817.821 .0269563
818.519 .0269490
819.216 .0269425
819.913 .0269369
820.609 .0269321
821.306 .0269283
822.002 .0269255
822.697 .0269237
823.393 .0269229
824.088 .0269234
824.783 .0269250
825.477 .0269277
826.171 .0269316
826.865 .0269365
827.559 .0269424
828.252 .0269491
828.945 .0269565
829.638 .0269645
830.330 .0269731
831.023 .0269820
831.714 .0269913
832.406 .0270008
833.097 .0270103
833.788 .0270199
834.479 .0270294
835.169 .0270388
835.859 .0270480
836.548 .0270569
837.238 .0270656
837.927 .0270740
838.615 .0270821
839.304 .0270897
839.992 .0270970
840.680 .0271038
841.367 .0271100
842.054 .0271157
842.741 .0271208
843.428 .0271253
844.114 .0271292
844.800 .0271324
845.485 .0271349
846.170 .0271367
846.855 .0271377
847.540 .0271379
848.224 .0271373
848.908 .0271357
849.592 .0271333
850.275 .0271298
850.958 .0271254
851.641 .0271200
852.323 .0271136
853.005 .0271063
853.687 .0270981
854.368 .0270889
855.049 .0270788
855.730 .0270679
856.410 .0270561
857.090 .0270435
857.769 .0270301
858.449 .0270160
859.128 .0270011
859.806 .0269856
860.485 .0269696
861.163 .0269530
861.840 .0269359
862.518 .0269185
863.195 .0269009
863.871 .0268830
864.548 .0268650
865.224 .0268469
865.899 .0268287
866.574 .0268104
867.249 .0267919
867.924 .0267734
868.598 .0267547
869.272 .0267359
869.946 .0267169
870.619 .0266977
871.292 .0266784
871.964 .0266589
872.636 .0266393
873.308 .0266195
873.979 .0265995
874.651 .0265794
875.321 .0265590
875.992 .0265385
876.662 .0265178
877.331 .0264969
878.001 .0264758
878.670 .0264546
879.338 .0264334
880.007 .0264120
880.675 .0263907
881.342 .0263694
882.009 .0263482
882.676 .0263271
883.343 .0263062
884.009 .0262855
884.675 .0262651
885.340 .0262451
886.005 .0262255
886.670 .0262063
887.334 .0261876
887.998 .0261693
888.662 .0261515
889.325 .0261340
889.988 .0261170
890.650 .0261003
891.312 .0260839
891.974 .0260678
892.636 .0260522
893.297 .0260368
893.957 .0260218
894.618 .0260070
895.278 .0259924
895.937 .0259778
896.596 .0259632
897.255 .0259484
897.914 .0259334
898.572 .0259179
899.230 .0259021
899.887 .0258858
900.544 .0258691
901.201 .0258520
901.857 .0258238
902.513 .0258055
903.168 .0257867
903.823 .0257675
904.478 .0257478
905.132 .0257276
905.786 .0257070
906.440 .0256861
907.093 .0256649
907.746 .0256434
908.399 .0256219
909.051 .0256002
909.703 .0255785
910.354 .0255680
911.005 .0255467
911.656 .0255255
912.306 .0255046
912.956 .0254838
913.605 .0254635
914.254 .0254436
914.903 .0254242
915.551 .0254054
916.199 .0253871
916.847 .0253695
917.494 .0253524
918.141 .0253358
918.788 .0253197
919.434 .0253042
920.079 .0252891
920.725 .0252745
921.370 .0252603
922.014 .0252467
922.658 .0252335
923.302 .0252209
923.946 .0252086
924.589 .0251968
925.231 .0251853
925.873 .0251741
926.515 .0251632
927.157 .0251526
927.798 .0251423
928.439 .0251324
929.079 .0251228
929.719 .0251137
930.359 .0251051
930.998 .0250970
931.637 .0250895
932.275 .0250825
932.913 .0250762
933.551 .0250707
934.188 .0250659
934.825 .0250619
935.462 .0250589
936.098 .0250568
936.733 .0250555
937.369 .0250552
938.004 .0250557
938.638 .0250569
939.273 .0250589
939.907 .0250617
940.540 .0250652
941.173 .0250695
941.806 .0250746
942.438 .0250805
943.070 .0250872
943.702 .0250946
944.333 .0251026
944.964 .0251110
945.594 .0251199
946.224 .0251290
946.854 .0251384
947.483 .0251479
948.112 .0251575
948.741 .0251673
949.369 .0251772
949.996 .0251873
950.624 .0251974
951.251 .0252075
951.878 .0252176
952.504 .0252275
953.130 .0252372
953.755 .0252468
954.380 .0252562
955.005 .0252655
955.629 .0252748
956.253 .0252840
956.877 .0252932
957.500 .0253024
958.123 .0253116
958.746 .0253206
959.368 .0253296
959.990 .0253385
960.611 .0253472
961.232 .0253557
961.853 .0253642
962.473 .0253725
963.093 .0253807
963.712 .0253888
964.331 .0253968
964.950 .0254046
965.569 .0254121
966.187 .0254193
966.804 .0254262
967.422 .0254326
968.039 .0254384
968.655 .0254438
969.272 .0254486
969.887 .0254528
970.503 .0254565
971.118 .0254596
971.733 .0254622
972.347 .0254641
972.961 .0254655
973.575 .0254661
974.188 .0254659
974.801 .0254650
975.414 .0254633
976.026 .0254608
976.638 .0254576
977.250 .0254535
977.861 .0254489
978.472 .0254435
979.083 .0254375
979.693 .0254309
980.303 .0254236
980.912 .0254101
981.521 .0254013
982.130 .0253920
982.738 .0253821
983.346 .0253717
983.954 .0253609
984.562 .0253498
985.169 .0253385
985.775 .0253270
986.382 .0253154
986.988 .0253036
987.594 .0252917
988.199 .0252798
988.804 .0252678
989.409 .0252619
990.013 .0252499
990.617 .0252379
991.221 .0252258
991.824 .0252137
992.427 .0252015
993.030 .0251893
993.632 .0251770
994.234 .0251646
994.836 .0251520
995.438 .0251393
996.039 .0251262
996.640 .0251130
997.240 .0250996
997.840 .0250860
998.440 .0250723
999.040 .0250585
999.639 .0250447
1000.238 .0250309
1000.836 .0250171
1001.435 .0250033
1002.033 .0249894
1002.630 .0249756
1003.228 .0249618
1003.825 .0249479
1004.422 .0249340
1005.018 .0249201
1005.614 .0249061
1006.210 .0248920
1006.806 .0248777
1007.401 .0248632
1007.996 .0248486
1008.591 .0248339
1009.186 .0248190
1009.780 .0248042
1010.374 .0247893
1010.967 .0247745
1011.561 .0247598
1012.154 .0247452
1012.746 .0247308
1013.339 .0247166
1013.931 .0247025
1014.523 .0246885
1015.115 .0246748
1015.706 .0246612
1016.298 .0246478
1016.888 .0246345
1017.479 .0246215
1018.069 .0246086
1018.660 .0245958
1019.250 .0245831
1019.839 .0245703
1020.429 .0245576
1021.018 .0245448
1021.607 .0245320
1022.195 .0245192
1022.784 .0245065
1023.372 .0244940
1023.960 .0244818
1024.547 .0244699
1025.135 .0244583
1025.722 .0244472
1026.309 .0244366
1026.896 .0244263
1027.483 .0244165
1028.069 .0244071
1028.655 .0243981
1029.241 .0243894
1029.827 .0243812
1030.412 .0243734
1030.997 .0243660
1031.582 .0243589
1032.167 .0243522
1032.752 .0243457
1033.336 .0243393
1033.921 .0243331
1034.505 .0243268
1035.089 .0243204
1035.672 .0243139
1036.256 .0243071
1036.839 .0243002
1037.422 .0242931
1038.005 .0242858
1038.588 .0242783
1039.171 .0242707
1039.753 .0242629
1040.335 .0242550
1040.918 .0242471
1041.500 .0242389
1042.081 .0242306
1042.663 .0242222
1043.244 .0242134
1043.826 .0242045
1044.407 .0241953
1044.988 .0241859
1045.569 .0241764
1046.150 .0241668
1046.730 .0241571
1047.311 .0241474
1047.891 .0241377
1048.471 .0241280
1049.052 .0241182
1049.632 .0241085
1050.211 .0240988
1050.791 .0240891
1051.371 .0240798
1051.950 .0240707
1052.530 .0240621
1053.109 .0240541
1053.688 .0240466
1054.268 .0240397
1054.847 .0240336
1055.426 .0240283
1056.005 .0240237
1056.583 .0240200
1057.162 .0240172
1057.741 .0240152
1058.319 .0240142
1058.898 .0240140
1059.476 .0240146
1060.055 .0240160
1060.633 .0240180
1061.211 .0240204
1061.790 .0240234
1062.368 .0240268
1062.946 .0240307
1063.524 .0240351
1064.102 .0240401
1064.680 .0240456
1065.258 .0240517
1065.836 .0240583
1066.414 .0240653
1066.992 .0240727
1067.570 .0240803
1068.148 .0240881
1068.726 .0240960
1069.304 .0241041
1069.882 .0241125
1070.460 .0241211
1071.038 .0241301
1071.616 .0241394
1072.194 .0241490
1072.772 .0241586
1073.350 .0241682
1073.928 .0241776
1074.506 .0241867
1075.084 .0241956
1075.662 .0242044
1076.240 .0242133
1076.819 .0242225
1077.397 .0242321
1077.976 .0242424
1078.554 .0242532
1079.133 .0242647
1079.711 .0242767
1080.290 .0242892
1080.869 .0243020
1081.448 .0243153
1082.027 .0243290
1082.606 .0243433
1083.185 .0243584
1083.764 .0243742
1084.343 .0243911
1084.923 .0244088
1085.502 .0244275
1086.082 .0244469
1086.662 .0244671
1087.242 .0244878
1087.822 .0245091
1088.402 .0245308
1088.983 .0245532
1089.563 .0245761
1090.144 .0245997
1090.725 .0246239
1091.306 .0246489
1091.887 .0246745
1092.469 .0247006
1093.050 .0247272
1093.632 .0247541
1094.214 .0247812
1094.796 .0248084
1095.379 .0248359
1095.961 .0248637
1096.544 .0248920
1097.127 .0249208
1097.710 .0249503
1098.294 .0249806
1098.877 .0250117
1099.461 .0250437
1100.046 .0250767
1100.630 .0251106
1101.215 .0251455
1101.800 .0251812
1102.385 .0252180
1102.970 .0252559
1103.556 .0252948
1104.142 .0253349
1104.728 .0253763
1105.315 .0254188
1105.902 .0254624
1106.489 .0255070
1107.077 .0255526
1107.664 .0255989
1108.253 .0256458
1108.841 .0256931
1109.430 .0257410
1110.019 .0257894
1110.609 .0258385
1111.198 .0258885
1111.789 .0259394
1112.379 .0259915
1112.970 .0260447
1113.561 .0260989
1114.153 .0261539
1114.745 .0262094
1115.338 .0262652
1115.931 .0263211
1116.524 .0263769
1117.117 .0264325
1117.712 .0264883
1118.306 .0265444
1118.901 .0266011
1119.496 .0266587
1120.092 .0267175
1120.689 .0267774
1121.285 .0268383
1121.882 .0269004
1122.480 .0269635
1123.078 .0270279
1123.677 .0270940
1124.276 .0271622
1124.875 .0272330
1125.476 .0273071
1126.076 .0273847
1126.677 .0274660
1127.279 .0275511
1127.881 .0276396
1128.484 .0277310
1129.087 .0277685
1129.691 .0278637
1130.295 .0279610
1130.900 .0280604
1131.505 .0281618
1132.111 .0282650
1132.718 .0283700
1133.325 .0284767
1133.933 .0285847
1134.541 .0287006
1135.150 .0288059
1135.760 .0289141
1136.370 .0290243
1136.981 .0292745
1137.592 .0294109
1138.204 .0295370
1138.817 .0296584
1139.431 .0297797
1140.045 .0298898
1140.660 .0299938
1141.275 .0300931
1141.891 .0301784
1142.508 .0304499
1143.126 .0302155
1143.744 .0303623
1144.363 .0304917
1144.983 .0304055
