Measurement Sequence started on: 15-12-46-377
Integration time: 28
Scans to Average: 2 
>>>>>Begin Spectral Data<<<<<
432.689 .0000100
433.621 .0000100
434.552 .0000100
435.482 .0000100
436.410 .0000100
437.337 .0000100
438.262 .0261434
439.187 .0555228
440.110 .0921894
441.031 .1335347
441.952 .1076926
442.871 .1125267
443.789 .1170351
444.705 .1212861
445.621 .1253279
446.535 .1291960
447.447 .1315381
448.359 .1322009
449.269 .1308178
450.178 .1271554
451.086 .1212829
451.993 .1136527
452.898 .1050227
453.803 .0962555
454.706 .0880874
455.608 .0809775
456.508 .0750833
457.408 .0710802
458.306 .0679986
459.204 .0654860
460.100 .0633592
460.995 .0615186
461.888 .0598990
462.781 .0584557
463.673 .0571574
464.563 .0559847
465.452 .0549237
466.340 .0539604
467.228 .0530842
468.114 .0522866
468.999 .0515588
469.882 .0508915
470.765 .0502782
471.647 .0497139
472.528 .0491955
473.407 .0487208
474.286 .0482896
475.163 .0479025
476.040 .0475594
476.915 .0472587
477.790 .0469981
478.663 .0467747
479.535 .0465850
480.407 .0464242
481.277 .0462889
482.147 .0461751
483.015 .0460803
483.883 .0460024
484.749 .0459415
485.615 .0458974
486.479 .0458710
487.343 .0458620
488.206 .0458717
489.067 .0458994
489.928 .0459451
490.788 .0460077
491.647 .0460873
492.505 .0461834
493.362 .0462964
494.218 .0464260
495.073 .0465739
495.928 .0468723
496.781 .0470737
497.634 .0472988
498.486 .0475485
499.337 .0478248
500.187 .0481287
501.036 .0484603
501.884 .0488204
502.731 .0492098
503.578 .0496289
504.424 .0499011
505.268 .0503714
506.113 .0508781
506.956 .0514244
507.798 .0520174
508.640 .0526633
509.480 .0533717
510.320 .0541534
511.160 .0550205
511.998 .0559868
512.836 .0570716
513.672 .0582916
514.508 .0596681
515.344 .0612215
516.178 .0629734
517.012 .0649439
517.845 .0671542
518.677 .0696195
519.508 .0723490
520.339 .0753478
521.169 .0786170
521.998 .0821311
522.826 .0858598
523.654 .0897536
524.481 .0937527
525.307 .0977869
526.133 .1017767
526.958 .1056344
527.782 .1092803
528.605 .1126409
529.428 .1156503
530.250 .1182477
531.072 .1203995
531.892 .1220744
532.712 .1232552
533.532 .1239331
534.350 .1241044
535.168 .1237701
535.986 .1229383
536.802 .1216174
537.618 .1198186
538.434 .1175541
539.249 .1148615
540.063 .1117818
540.876 .1083724
541.689 .1046994
542.501 .1008346
543.313 .0968580
544.124 .0928546
544.934 .0888984
545.744 .0850551
546.553 .0813810
547.361 .0779232
548.169 .0747024
548.976 .0717325
549.783 .0690132
550.589 .0665349
551.395 .0642814
552.200 .0622325
553.004 .0603648
553.808 .0586600
554.611 .0571008
555.414 .0556728
556.216 .0543605
557.018 .0531507
557.819 .0520319
558.619 .0509935
559.419 .0500272
560.218 .0491258
561.017 .0482816
561.815 .0474887
562.613 .0467431
563.410 .0460395
564.207 .0453718
565.003 .0447357
565.799 .0441262
566.594 .0435392
567.388 .0429717
568.182 .0424218
568.976 .0418877
569.769 .0413688
570.562 .0408647
571.354 .0403754
572.145 .0399011
572.936 .0394429
573.727 .0390005
574.517 .0385742
575.307 .0381642
576.096 .0377701
576.885 .0373922
577.673 .0370309
578.461 .0366864
579.248 .0363589
580.035 .0360486
580.821 .0357557
581.607 .0354797
582.392 .0352205
583.177 .0349780
583.962 .0347517
584.746 .0345413
585.529 .0343457
586.313 .0341642
587.095 .0339960
587.878 .0338403
588.660 .0336964
589.441 .0335634
590.222 .0334404
591.003 .0333269
591.783 .0332220
592.563 .0331251
593.342 .0330352
594.121 .0329517
594.899 .0328738
595.678 .0328010
596.455 .0327324
597.233 .0326676
598.009 .0326059
598.786 .0325472
599.562 .0324908
600.338 .0324364
601.113 .0323838
601.888 .0323103
602.663 .0322615
603.437 .0322142
604.211 .0321681
604.984 .0321234
605.757 .0320798
606.530 .0320372
607.302 .0319957
608.074 .0319551
608.845 .0319154
609.616 .0318767
610.387 .0318594
611.158 .0318224
611.928 .0317866
612.697 .0317519
613.467 .0317185
614.236 .0316862
615.004 .0316552
615.773 .0316253
616.541 .0315966
617.308 .0315690
618.076 .0315425
618.843 .0315169
619.609 .0314921
620.375 .0314680
621.141 .0314443
621.907 .0314210
622.672 .0313980
623.437 .0313753
624.202 .0313527
624.966 .0313301
625.730 .0313076
626.493 .0312850
627.257 .0312623
628.020 .0312393
628.782 .0312159
629.545 .0311921
630.307 .0311677
631.068 .0311428
631.830 .0311173
632.591 .0310914
633.352 .0310652
634.112 .0310387
634.872 .0310120
635.632 .0309853
636.392 .0309587
637.151 .0309323
637.910 .0309062
638.668 .0308803
639.427 .0308548
640.185 .0308296
640.943 .0308048
641.700 .0307804
642.457 .0307567
643.214 .0307335
643.971 .0307111
644.727 .0306893
645.483 .0306682
646.239 .0306478
646.994 .0306281
647.750 .0306087
648.505 .0305898
649.259 .0305710
650.014 .0305523
650.768 .0305336
651.521 .0305147
652.275 .0304957
653.028 .0304764
653.781 .0304567
654.534 .0304366
655.286 .0304162
656.039 .0303955
656.791 .0303744
657.542 .0303531
658.294 .0303316
659.045 .0303099
659.796 .0302880
660.546 .0302660
661.297 .0302437
662.047 .0302211
662.796 .0301983
663.546 .0301753
664.295 .0301522
665.044 .0301290
665.793 .0301060
666.542 .0300832
667.290 .0300607
668.038 .0300385
668.786 .0300167
669.533 .0299952
670.281 .0299740
671.028 .0299532
671.774 .0299327
672.521 .0299125
673.267 .0298926
674.013 .0298731
674.759 .0298539
675.505 .0298350
676.250 .0298163
676.995 .0297977
677.740 .0297792
678.484 .0297607
679.229 .0297422
679.973 .0297239
680.717 .0297056
681.460 .0296873
682.204 .0296690
682.947 .0296507
683.690 .0296323
684.433 .0296138
685.175 .0295950
685.917 .0295761
686.659 .0295570
687.401 .0295379
688.142 .0295186
688.884 .0294994
689.625 .0294804
690.365 .0294614
691.106 .0294425
691.846 .0294239
692.586 .0294053
693.326 .0293870
694.066 .0293689
694.805 .0293510
695.545 .0293333
696.284 .0293158
697.022 .0292985
697.761 .0292815
698.499 .0292648
699.237 .0292483
699.975 .0292321
700.713 .0292163
701.450 .0292009
702.187 .0291858
702.924 .0291711
703.661 .0291566
704.397 .0291423
705.133 .0291282
705.869 .0291140
706.605 .0290998
707.341 .0290855
708.076 .0290711
708.811 .0290564
709.546 .0290416
710.281 .0290267
711.015 .0290115
711.749 .0289961
712.483 .0289804
713.217 .0289645
713.950 .0289483
714.684 .0289318
715.417 .0289150
716.150 .0288980
716.882 .0288807
717.615 .0288631
718.347 .0288453
719.079 .0288274
719.811 .0288092
720.542 .0287909
721.273 .0287725
722.005 .0287539
722.735 .0287353
723.466 .0287167
724.196 .0286981
724.927 .0286798
725.656 .0286616
726.386 .0286438
727.116 .0286264
727.845 .0286095
728.574 .0285931
729.303 .0285771
730.031 .0285617
730.760 .0285468
731.488 .0285323
732.216 .0285182
732.944 .0285046
733.671 .0284913
734.398 .0284785
735.125 .0284660
735.852 .0284539
736.579 .0284421
737.305 .0284305
738.031 .0284191
738.757 .0284079
739.483 .0283967
740.208 .0283856
740.933 .0283744
741.658 .0283631
742.383 .0283514
743.108 .0283394
743.832 .0283269
744.556 .0283139
745.280 .0283004
746.004 .0282865
746.727 .0282721
747.450 .0282574
748.173 .0282424
748.896 .0282271
749.618 .0282115
750.340 .0281956
751.062 .0281793
751.784 .0281626
752.506 .0281454
753.227 .0281279
753.948 .0281101
754.669 .0280921
755.389 .0280739
756.110 .0280557
756.830 .0280376
757.550 .0280195
758.269 .0280015
758.989 .0279837
759.708 .0279661
760.427 .0279487
761.146 .0279316
761.864 .0279147
762.582 .0278981
763.300 .0278818
764.018 .0278659
764.736 .0278502
765.453 .0278349
766.170 .0278200
766.887 .0278054
767.603 .0277914
768.320 .0277780
769.036 .0277652
769.751 .0277531
770.467 .0277416
771.182 .0277307
771.897 .0277205
772.612 .0277107
773.327 .0277015
774.041 .0276928
774.755 .0276846
775.469 .0276769
776.183 .0276699
776.896 .0276634
777.609 .0276574
778.322 .0276520
779.035 .0276471
779.747 .0276425
780.459 .0276383
781.171 .0276344
781.882 .0276307
782.594 .0276272
783.305 .0276238
784.016 .0276204
784.726 .0276171
785.436 .0276137
786.147 .0276082
786.856 .0276044
787.566 .0276005
788.275 .0275963
788.984 .0275920
789.693 .0275875
790.401 .0275827
791.110 .0275776
791.818 .0275722
792.525 .0275664
793.233 .0275603
793.940 .0275537
794.647 .0275494
795.353 .0275423
796.060 .0275349
796.766 .0275272
797.472 .0275193
798.177 .0275111
798.883 .0275025
799.588 .0274937
800.292 .0274846
800.997 .0274751
801.701 .0274655
802.405 .0274555
803.109 .0274454
803.812 .0274351
804.515 .0274246
805.218 .0274139
805.921 .0274031
806.623 .0273921
807.325 .0273809
808.027 .0273696
808.728 .0273581
809.429 .0273466
810.130 .0273350
810.831 .0273234
811.531 .0273118
812.231 .0273003
812.931 .0272887
813.630 .0272772
814.330 .0272656
815.029 .0272541
815.727 .0272428
816.426 .0272316
817.124 .0272207
817.821 .0272101
818.519 .0271999
819.216 .0271901
819.913 .0271807
820.609 .0271717
821.306 .0271631
822.002 .0271549
822.697 .0271471
823.393 .0271396
824.088 .0271324
824.783 .0271256
825.477 .0271192
826.171 .0271130
826.865 .0271071
827.559 .0271014
828.252 .0270958
828.945 .0270903
829.638 .0270849
830.330 .0270794
831.023 .0270739
831.714 .0270684
832.406 .0270627
833.097 .0270568
833.788 .0270508
834.479 .0270444
835.169 .0270377
835.859 .0270305
836.548 .0270230
837.238 .0270151
837.927 .0270067
838.615 .0269980
839.304 .0269888
839.992 .0269792
840.680 .0269692
841.367 .0269588
842.054 .0269480
842.741 .0269367
843.428 .0269251
844.114 .0269131
844.800 .0269006
845.485 .0268878
846.170 .0268745
846.855 .0268608
847.540 .0268467
848.224 .0268320
848.908 .0268168
849.592 .0268012
850.275 .0267850
850.958 .0267683
851.641 .0267511
852.323 .0267334
853.005 .0267153
853.687 .0266966
854.368 .0266775
855.049 .0266580
855.730 .0266380
856.410 .0266178
857.090 .0265973
857.769 .0265765
858.449 .0265557
859.128 .0265348
859.806 .0265139
860.485 .0264931
861.163 .0264725
861.840 .0264522
862.518 .0264321
863.195 .0264125
863.871 .0263932
864.548 .0263744
865.224 .0263560
865.899 .0263381
866.574 .0263206
867.249 .0263034
867.924 .0262866
868.598 .0262703
869.272 .0262544
869.946 .0262389
870.619 .0262239
871.292 .0262093
871.964 .0261952
872.636 .0261815
873.308 .0261681
873.979 .0261551
874.651 .0261425
875.321 .0261301
875.992 .0261180
876.662 .0261061
877.331 .0260945
878.001 .0260831
878.670 .0260719
879.338 .0260609
880.007 .0260501
880.675 .0260396
881.342 .0260295
882.009 .0260198
882.676 .0260106
883.343 .0260019
884.009 .0259937
884.675 .0259861
885.340 .0259791
886.005 .0259727
886.670 .0259669
887.334 .0259618
887.998 .0259573
888.662 .0259534
889.325 .0259502
889.988 .0259476
890.650 .0259457
891.312 .0259442
891.974 .0259432
892.636 .0259427
893.297 .0259424
893.957 .0259424
894.618 .0259426
895.278 .0259429
895.937 .0259431
896.596 .0259433
897.255 .0259432
897.914 .0259429
898.572 .0259422
899.230 .0259410
899.887 .0259393
900.544 .0259371
901.201 .0259343
901.857 .0259268
902.513 .0259221
903.168 .0259168
903.823 .0259107
904.478 .0259039
905.132 .0258963
905.786 .0258879
906.440 .0258787
907.093 .0258689
907.746 .0258585
908.399 .0258476
909.051 .0258362
909.703 .0258245
910.354 .0258181
911.005 .0258065
911.656 .0257948
912.306 .0257831
912.956 .0257714
913.605 .0257598
914.254 .0257482
914.903 .0257367
915.551 .0257253
916.199 .0257141
916.847 .0257030
917.494 .0256921
918.141 .0256814
918.788 .0256709
919.434 .0256607
920.079 .0256506
920.725 .0256406
921.370 .0256307
922.014 .0256208
922.658 .0256108
923.302 .0256008
923.946 .0255907
924.589 .0255806
925.231 .0255705
925.873 .0255604
926.515 .0255503
927.157 .0255402
927.798 .0255301
928.439 .0255200
929.079 .0255099
929.719 .0254997
930.359 .0254896
930.998 .0254796
931.637 .0254698
932.275 .0254602
932.913 .0254508
933.551 .0254418
934.188 .0254331
934.825 .0254249
935.462 .0254170
936.098 .0254097
936.733 .0254028
937.369 .0253964
938.004 .0253905
938.638 .0253852
939.273 .0253804
939.907 .0253763
940.540 .0253728
941.173 .0253698
941.806 .0253674
942.438 .0253654
943.070 .0253638
943.702 .0253626
944.333 .0253616
944.964 .0253608
945.594 .0253601
946.224 .0253595
946.854 .0253589
947.483 .0253583
948.112 .0253576
948.741 .0253569
949.369 .0253561
949.996 .0253552
950.624 .0253541
951.251 .0253529
951.878 .0253515
952.504 .0253498
953.130 .0253478
953.755 .0253455
954.380 .0253429
955.005 .0253400
955.629 .0253367
956.253 .0253332
956.877 .0253294
957.500 .0253253
958.123 .0253209
958.746 .0253162
959.368 .0253113
959.990 .0253062
960.611 .0253008
961.232 .0252952
961.853 .0252893
962.473 .0252833
963.093 .0252770
963.712 .0252706
964.331 .0252640
964.950 .0252573
965.569 .0252505
966.187 .0252436
966.804 .0252366
967.422 .0252294
968.039 .0252222
968.655 .0252148
969.272 .0252072
969.887 .0251993
970.503 .0251911
971.118 .0251825
971.733 .0251736
972.347 .0251643
972.961 .0251545
973.575 .0251443
974.188 .0251336
974.801 .0251224
975.414 .0251107
976.026 .0250984
976.638 .0250856
977.250 .0250722
977.861 .0250581
978.472 .0250435
979.083 .0250282
979.693 .0250123
980.303 .0249958
980.912 .0249685
981.521 .0249512
982.130 .0249337
982.738 .0249161
983.346 .0248984
983.954 .0248808
984.562 .0248632
985.169 .0248457
985.775 .0248283
986.382 .0248112
986.988 .0247944
987.594 .0247780
988.199 .0247621
988.804 .0247468
989.409 .0247416
990.013 .0247274
990.617 .0247138
991.221 .0247008
991.824 .0246883
992.427 .0246763
993.030 .0246648
993.632 .0246536
994.234 .0246430
994.836 .0246327
995.438 .0246231
996.039 .0246139
996.640 .0246053
997.240 .0245973
997.840 .0245897
998.440 .0245826
999.040 .0245757
999.639 .0245691
1000.238 .0245626
1000.836 .0245561
1001.435 .0245495
1002.033 .0245429
1002.630 .0245363
1003.228 .0245296
1003.825 .0245228
1004.422 .0245161
1005.018 .0245092
1005.614 .0245023
1006.210 .0244952
1006.806 .0244880
1007.401 .0244805
1007.996 .0244729
1008.591 .0244651
1009.186 .0244573
1009.780 .0244495
1010.374 .0244419
1010.967 .0244346
1011.561 .0244277
1012.154 .0244211
1012.746 .0244148
1013.339 .0244089
1013.931 .0244033
1014.523 .0243978
1015.115 .0243925
1015.706 .0243874
1016.298 .0243825
1016.888 .0243779
1017.479 .0243737
1018.069 .0243700
1018.660 .0243668
1019.250 .0243642
1019.839 .0243621
1020.429 .0243605
1021.018 .0243592
1021.607 .0243581
1022.195 .0243573
1022.784 .0243568
1023.372 .0243566
1023.960 .0243568
1024.547 .0243576
1025.135 .0243589
1025.722 .0243609
1026.309 .0243635
1026.896 .0243664
1027.483 .0243697
1028.069 .0243731
1028.655 .0243764
1029.241 .0243796
1029.827 .0243826
1030.412 .0243854
1030.997 .0243881
1031.582 .0243907
1032.167 .0243932
1032.752 .0243957
1033.336 .0243980
1033.921 .0244001
1034.505 .0244018
1035.089 .0244031
1035.672 .0244040
1036.256 .0244045
1036.839 .0244046
1037.422 .0244045
1038.005 .0244042
1038.588 .0244038
1039.171 .0244034
1039.753 .0244029
1040.335 .0244022
1040.918 .0244014
1041.500 .0244003
1042.081 .0243990
1042.663 .0243974
1043.244 .0243956
1043.826 .0243936
1044.407 .0243916
1044.988 .0243894
1045.569 .0243872
1046.150 .0243850
1046.730 .0243828
1047.311 .0243805
1047.891 .0243783
1048.471 .0243761
1049.052 .0243739
1049.632 .0243719
1050.211 .0243699
1050.791 .0243681
1051.371 .0243664
1051.950 .0243647
1052.530 .0243631
1053.109 .0243614
1053.688 .0243596
1054.268 .0243579
1054.847 .0243561
1055.426 .0243545
1056.005 .0243529
1056.583 .0243515
1057.162 .0243502
1057.741 .0243490
1058.319 .0243478
1058.898 .0243467
1059.476 .0243457
1060.055 .0243448
1060.633 .0243440
1061.211 .0243436
1061.790 .0243436
1062.368 .0243442
1062.946 .0243454
1063.524 .0243473
1064.102 .0243499
1064.680 .0243530
1065.258 .0243568
1065.836 .0243610
1066.414 .0243657
1066.992 .0243710
1067.570 .0243768
1068.148 .0243832
1068.726 .0243903
1069.304 .0243980
1069.882 .0244063
1070.460 .0244150
1071.038 .0244241
1071.616 .0244333
1072.194 .0244425
1072.772 .0244516
1073.350 .0244605
1073.928 .0244691
1074.506 .0244776
1075.084 .0244859
1075.662 .0244940
1076.240 .0245021
1076.819 .0245101
1077.397 .0245181
1077.976 .0245261
1078.554 .0245341
1079.133 .0245421
1079.711 .0245502
1080.290 .0245586
1080.869 .0245673
1081.448 .0245764
1082.027 .0245858
1082.606 .0245956
1083.185 .0246059
1083.764 .0246165
1084.343 .0246275
1084.923 .0246389
1085.502 .0246506
1086.082 .0246627
1086.662 .0246753
1087.242 .0246885
1087.822 .0247024
1088.402 .0247172
1088.983 .0247329
1089.563 .0247494
1090.144 .0247668
1090.725 .0247852
1091.306 .0248044
1091.887 .0248244
1092.469 .0248453
1093.050 .0248671
1093.632 .0248898
1094.214 .0249133
1094.796 .0249377
1095.379 .0249628
1095.961 .0249885
1096.544 .0250145
1097.127 .0250406
1097.710 .0250666
1098.294 .0250924
1098.877 .0251181
1099.461 .0251435
1100.046 .0251689
1100.630 .0251944
1101.215 .0252204
1101.800 .0252470
1102.385 .0252745
1102.970 .0253029
1103.556 .0253324
1104.142 .0253629
1104.728 .0253942
1105.315 .0254261
1105.902 .0254586
1106.489 .0254915
1107.077 .0255249
1107.664 .0255588
1108.253 .0255932
1108.841 .0256281
1109.430 .0256635
1110.019 .0256994
1110.609 .0257354
1111.198 .0257714
1111.789 .0258072
1112.379 .0258426
1112.970 .0258775
1113.561 .0259119
1114.153 .0259460
1114.745 .0259802
1115.338 .0260150
1115.931 .0260506
1116.524 .0260873
1117.117 .0261255
1117.712 .0261649
1118.306 .0262055
1118.901 .0262471
1119.496 .0262894
1120.092 .0263325
1120.689 .0263761
1121.285 .0264203
1121.882 .0264652
1122.480 .0265111
1123.078 .0265582
1123.677 .0266067
1124.276 .0266567
1124.875 .0267085
1125.476 .0267619
1126.076 .0268171
1126.677 .0268742
1127.279 .0269334
1127.881 .0269952
1128.484 .0270600
1129.087 .0270856
1129.691 .0271554
1130.295 .0272293
1130.900 .0273078
1131.505 .0273912
1132.111 .0274796
1132.718 .0275728
1133.325 .0276709
1133.933 .0277728
1134.541 .0278834
1135.150 .0279977
1135.760 .0281075
1136.370 .0282314
1136.981 .0281943
1137.592 .0283186
1138.204 .0284498
1138.817 .0285895
1139.431 .0287413
1140.045 .0289043
1140.660 .0290732
1141.275 .0292511
1141.891 .0294115
1142.508 .0297189
1143.126 .0298906
1143.744 .0298384
1144.363 .0303032
1144.983 .0297726
