Measurement Sequence started on: 15-12-46-377
Integration time: 28
Scans to Average: 2 
>>>>>Begin Spectral Data<<<<<
432.689 .0000100
433.621 .0000100
434.552 .0000100
435.482 .0000100
436.410 .0000100
437.337 .0000100
438.262 .0278167
439.187 .0588363
440.110 .0974096
441.031 .1408387
441.952 .1126180
442.871 .1175921
443.789 .1222154
444.705 .1265604
445.621 .1306768
446.535 .1346028
447.447 .1369041
448.359 .1374352
449.269 .1358169
450.178 .1318075
451.086 .1254857
451.993 .1173354
452.898 .1081580
453.803 .0988589
454.706 .0902069
455.608 .0826801
456.508 .0764376
457.408 .0721946
458.306 .0689163
459.204 .0662359
460.100 .0639692
460.995 .0620163
461.888 .0603075
462.781 .0587956
463.673 .0574454
464.563 .0562303
465.452 .0551304
466.340 .0541308
467.228 .0532208
468.114 .0523931
468.999 .0516419
469.882 .0509615
470.765 .0503463
471.647 .0497921
472.528 .0492936
473.407 .0488458
474.286 .0484452
475.163 .0480880
476.040 .0477709
476.915 .0474918
477.790 .0472476
478.663 .0470363
479.535 .0468555
480.407 .0467030
481.277 .0465765
482.147 .0464730
483.015 .0463899
483.883 .0463248
484.749 .0462755
485.615 .0462399
486.479 .0462163
487.343 .0462034
488.206 .0462006
489.067 .0462065
489.928 .0462219
490.788 .0462475
491.647 .0462848
492.505 .0463354
493.362 .0464013
494.218 .0464842
495.073 .0465856
495.928 .0468063
496.781 .0469575
497.634 .0471281
498.486 .0473181
499.337 .0475289
500.187 .0477623
501.036 .0480212
501.884 .0483100
502.731 .0486338
503.578 .0489966
504.424 .0492628
505.268 .0496995
506.113 .0501874
506.956 .0507294
507.798 .0513303
508.640 .0519948
509.480 .0527301
510.320 .0535450
511.160 .0544511
511.998 .0554618
512.836 .0565967
513.672 .0578752
514.508 .0593197
515.344 .0609535
516.178 .0628001
517.012 .0648819
517.845 .0672212
518.677 .0698349
519.508 .0727359
520.339 .0759289
521.169 .0794183
521.998 .0831822
522.826 .0871884
523.654 .0913872
524.481 .0957168
525.307 .1001029
526.133 .1044609
526.958 .1086973
527.782 .1127229
528.605 .1164561
529.428 .1198234
530.250 .1227571
531.072 .1252122
531.892 .1271528
532.712 .1285538
533.532 .1294002
534.350 .1296863
535.168 .1294117
535.986 .1285851
536.802 .1272155
537.618 .1253154
538.434 .1228992
539.249 .1200034
540.063 .1166754
540.876 .1129750
541.689 .1089744
542.501 .1047533
543.313 .1003999
544.124 .0960077
544.934 .0916628
545.744 .0874405
546.553 .0834062
547.361 .0796127
548.169 .0760886
548.976 .0728515
549.783 .0699050
550.589 .0672426
551.395 .0648477
552.200 .0626980
553.004 .0607656
553.808 .0590256
554.611 .0574561
555.414 .0560346
556.216 .0547424
557.018 .0535597
557.819 .0524710
558.619 .0514614
559.419 .0505194
560.218 .0496354
561.017 .0488008
561.815 .0480086
562.613 .0472535
563.410 .0465302
564.207 .0458349
565.003 .0451648
565.799 .0445171
566.594 .0438903
567.388 .0432828
568.182 .0426935
568.976 .0421213
569.769 .0415654
570.562 .0410259
571.354 .0405026
572.145 .0399964
572.936 .0395072
573.727 .0390358
574.517 .0385833
575.307 .0381507
576.096 .0377387
576.885 .0373477
577.673 .0369778
578.461 .0366287
579.248 .0362998
580.035 .0359901
580.821 .0356985
581.607 .0354242
582.392 .0351663
583.177 .0349241
583.962 .0346970
584.746 .0344846
585.529 .0342863
586.313 .0341015
587.095 .0339298
587.878 .0337703
588.660 .0336224
589.441 .0334856
590.222 .0333593
591.003 .0332428
591.783 .0331355
592.563 .0330368
593.342 .0329458
594.121 .0328619
594.899 .0327843
595.678 .0327126
596.455 .0326459
597.233 .0325839
598.009 .0325262
598.786 .0324723
599.562 .0324219
600.338 .0323748
601.113 .0323305
601.888 .0322732
602.663 .0322353
603.437 .0321998
604.211 .0321664
604.984 .0321352
605.757 .0321060
606.530 .0320787
607.302 .0320532
608.074 .0320292
608.845 .0320066
609.616 .0319850
610.387 .0319768
611.158 .0319561
611.928 .0319360
612.697 .0319166
613.467 .0318977
614.236 .0318792
615.004 .0318611
615.773 .0318430
616.541 .0318249
617.308 .0318066
618.076 .0317879
618.843 .0317688
619.609 .0317490
620.375 .0317288
621.141 .0317080
621.907 .0316867
622.672 .0316651
623.437 .0316431
624.202 .0316208
624.966 .0315983
625.730 .0315755
626.493 .0315526
627.257 .0315297
628.020 .0315068
628.782 .0314839
629.545 .0314612
630.307 .0314385
631.068 .0314159
631.830 .0313933
632.591 .0313707
633.352 .0313481
634.112 .0313255
634.872 .0313029
635.632 .0312802
636.392 .0312575
637.151 .0312346
637.910 .0312116
638.668 .0311885
639.427 .0311651
640.185 .0311414
640.943 .0311175
641.700 .0310932
642.457 .0310686
643.214 .0310438
643.971 .0310186
644.727 .0309932
645.483 .0309676
646.239 .0309419
646.994 .0309161
647.750 .0308904
648.505 .0308647
649.259 .0308393
650.014 .0308140
650.768 .0307888
651.521 .0307637
652.275 .0307388
653.028 .0307139
653.781 .0306892
654.534 .0306647
655.286 .0306405
656.039 .0306166
656.791 .0305930
657.542 .0305699
658.294 .0305473
659.045 .0305252
659.796 .0305036
660.546 .0304824
661.297 .0304617
662.047 .0304415
662.796 .0304217
663.546 .0304023
664.295 .0303833
665.044 .0303648
665.793 .0303468
666.542 .0303294
667.290 .0303126
668.038 .0302965
668.786 .0302812
669.533 .0302665
670.281 .0302526
671.028 .0302393
671.774 .0302265
672.521 .0302141
673.267 .0302020
674.013 .0301902
674.759 .0301784
675.505 .0301669
676.250 .0301554
676.995 .0301440
677.740 .0301328
678.484 .0301216
679.229 .0301106
679.973 .0300995
680.717 .0300884
681.460 .0300772
682.204 .0300657
682.947 .0300538
683.690 .0300415
684.433 .0300287
685.175 .0300152
685.917 .0300010
686.659 .0299863
687.401 .0299709
688.142 .0299550
688.884 .0299386
689.625 .0299217
690.365 .0299045
691.106 .0298867
691.846 .0298686
692.586 .0298500
693.326 .0298311
694.066 .0298119
694.805 .0297923
695.545 .0297727
696.284 .0297528
697.022 .0297330
697.761 .0297132
698.499 .0296935
699.237 .0296738
699.975 .0296542
700.713 .0296347
701.450 .0296154
702.187 .0295962
702.924 .0295770
703.661 .0295578
704.397 .0295385
705.133 .0295191
705.869 .0294994
706.605 .0294793
707.341 .0294589
708.076 .0294380
708.811 .0294168
709.546 .0293952
710.281 .0293733
711.015 .0293510
711.749 .0293285
712.483 .0293058
713.217 .0292828
713.950 .0292596
714.684 .0292362
715.417 .0292127
716.150 .0291890
716.882 .0291653
717.615 .0291416
718.347 .0291178
719.079 .0290942
719.811 .0290708
720.542 .0290477
721.273 .0290249
722.005 .0290027
722.735 .0289809
723.466 .0289597
724.196 .0289392
724.927 .0289193
725.656 .0289000
726.386 .0288812
727.116 .0288631
727.845 .0288454
728.574 .0288284
729.303 .0288118
730.031 .0287957
730.760 .0287802
731.488 .0287652
732.216 .0287507
732.944 .0287369
733.671 .0287236
734.398 .0287109
735.125 .0286988
735.852 .0286873
736.579 .0286764
737.305 .0286660
738.031 .0286562
738.757 .0286469
739.483 .0286380
740.208 .0286297
740.933 .0286218
741.658 .0286145
742.383 .0286077
743.108 .0286014
743.832 .0285955
744.556 .0285902
745.280 .0285852
746.004 .0285806
746.727 .0285763
747.450 .0285723
748.173 .0285685
748.896 .0285649
749.618 .0285614
750.340 .0285582
751.062 .0285551
751.784 .0285522
752.506 .0285493
753.227 .0285465
753.948 .0285436
754.669 .0285407
755.389 .0285378
756.110 .0285346
756.830 .0285313
757.550 .0285277
758.269 .0285239
758.989 .0285198
759.708 .0285154
760.427 .0285107
761.146 .0285057
761.864 .0285003
762.582 .0284946
763.300 .0284885
764.018 .0284819
764.736 .0284749
765.453 .0284673
766.170 .0284591
766.887 .0284503
767.603 .0284409
768.320 .0284309
769.036 .0284203
769.751 .0284092
770.467 .0283975
771.182 .0283853
771.897 .0283727
772.612 .0283597
773.327 .0283463
774.041 .0283325
774.755 .0283184
775.469 .0283040
776.183 .0282894
776.896 .0282745
777.609 .0282593
778.322 .0282440
779.035 .0282283
779.747 .0282125
780.459 .0281964
781.171 .0281800
781.882 .0281635
782.594 .0281467
783.305 .0281295
784.016 .0281121
784.726 .0280942
785.436 .0280759
786.147 .0280467
786.856 .0280269
787.566 .0280067
788.275 .0279860
788.984 .0279649
789.693 .0279434
790.401 .0279217
791.110 .0278996
791.818 .0278772
792.525 .0278545
793.233 .0278315
793.940 .0278083
794.647 .0277960
795.353 .0277727
796.060 .0277494
796.766 .0277260
797.472 .0277026
798.177 .0276793
798.883 .0276560
799.588 .0276327
800.292 .0276096
800.997 .0275865
801.701 .0275637
802.405 .0275410
803.109 .0275187
803.812 .0274967
804.515 .0274751
805.218 .0274539
805.921 .0274329
806.623 .0274123
807.325 .0273919
808.027 .0273717
808.728 .0273517
809.429 .0273319
810.130 .0273124
810.831 .0272930
811.531 .0272740
812.231 .0272551
812.931 .0272365
813.630 .0272182
814.330 .0272003
815.029 .0271827
815.727 .0271656
816.426 .0271491
817.124 .0271332
817.821 .0271180
818.519 .0271035
819.216 .0270896
819.913 .0270765
820.609 .0270641
821.306 .0270525
822.002 .0270417
822.697 .0270317
823.393 .0270226
824.088 .0270144
824.783 .0270069
825.477 .0270002
826.171 .0269942
826.865 .0269889
827.559 .0269840
828.252 .0269797
828.945 .0269758
829.638 .0269724
830.330 .0269695
831.023 .0269670
831.714 .0269649
832.406 .0269632
833.097 .0269619
833.788 .0269610
834.479 .0269604
835.169 .0269601
835.859 .0269601
836.548 .0269605
837.238 .0269613
837.927 .0269625
838.615 .0269640
839.304 .0269659
839.992 .0269682
840.680 .0269708
841.367 .0269737
842.054 .0269770
842.741 .0269807
843.428 .0269847
844.114 .0269892
844.800 .0269941
845.485 .0269994
846.170 .0270050
846.855 .0270108
847.540 .0270167
848.224 .0270225
848.908 .0270283
849.592 .0270339
850.275 .0270391
850.958 .0270441
851.641 .0270487
852.323 .0270530
853.005 .0270569
853.687 .0270604
854.368 .0270634
855.049 .0270661
855.730 .0270682
856.410 .0270698
857.090 .0270708
857.769 .0270713
858.449 .0270712
859.128 .0270707
859.806 .0270696
860.485 .0270681
861.163 .0270662
861.840 .0270639
862.518 .0270611
863.195 .0270579
863.871 .0270542
864.548 .0270500
865.224 .0270454
865.899 .0270403
866.574 .0270347
867.249 .0270286
867.924 .0270219
868.598 .0270147
869.272 .0270069
869.946 .0269984
870.619 .0269892
871.292 .0269792
871.964 .0269686
872.636 .0269572
873.308 .0269452
873.979 .0269324
874.651 .0269190
875.321 .0269049
875.992 .0268900
876.662 .0268744
877.331 .0268579
878.001 .0268406
878.670 .0268225
879.338 .0268037
880.007 .0267842
880.675 .0267641
881.342 .0267435
882.009 .0267225
882.676 .0267011
883.343 .0266794
884.009 .0266574
884.675 .0266352
885.340 .0266127
886.005 .0265900
886.670 .0265671
887.334 .0265442
887.998 .0265211
888.662 .0264981
889.325 .0264750
889.988 .0264519
890.650 .0264288
891.312 .0264057
891.974 .0263826
892.636 .0263595
893.297 .0263365
893.957 .0263135
894.618 .0262905
895.278 .0262676
895.937 .0262447
896.596 .0262218
897.255 .0261988
897.914 .0261758
898.572 .0261527
899.230 .0261293
899.887 .0261058
900.544 .0260821
901.201 .0260581
901.857 .0260210
902.513 .0259964
903.168 .0259717
903.823 .0259467
904.478 .0259216
905.132 .0258964
905.786 .0258709
906.440 .0258453
907.093 .0258194
907.746 .0257935
908.399 .0257676
909.051 .0257416
909.703 .0257158
910.354 .0257033
911.005 .0256780
911.656 .0256530
912.306 .0256284
912.956 .0256041
913.605 .0255803
914.254 .0255568
914.903 .0255337
915.551 .0255111
916.199 .0254888
916.847 .0254671
917.494 .0254459
918.141 .0254251
918.788 .0254049
919.434 .0253851
920.079 .0253658
920.725 .0253469
921.370 .0253282
922.014 .0253099
922.658 .0252917
923.302 .0252738
923.946 .0252562
924.589 .0252387
925.231 .0252215
925.873 .0252046
926.515 .0251878
927.157 .0251712
927.798 .0251547
928.439 .0251383
929.079 .0251220
929.719 .0251059
930.359 .0250899
930.998 .0250742
931.637 .0250587
932.275 .0250437
932.913 .0250291
933.551 .0250150
934.188 .0250015
934.825 .0249885
935.462 .0249761
936.098 .0249644
936.733 .0249534
937.369 .0249431
938.004 .0249336
938.638 .0249250
939.273 .0249173
939.907 .0249104
940.540 .0249045
941.173 .0248995
941.806 .0248953
942.438 .0248920
943.070 .0248894
943.702 .0248875
944.333 .0248863
944.964 .0248858
945.594 .0248858
946.224 .0248864
946.854 .0248874
947.483 .0248890
948.112 .0248910
948.741 .0248934
949.369 .0248962
949.996 .0248993
950.624 .0249029
951.251 .0249067
951.878 .0249109
952.504 .0249153
953.130 .0249200
953.755 .0249250
954.380 .0249302
955.005 .0249357
955.629 .0249415
956.253 .0249476
956.877 .0249540
957.500 .0249607
958.123 .0249677
958.746 .0249751
959.368 .0249827
959.990 .0249907
960.611 .0249990
961.232 .0250076
961.853 .0250166
962.473 .0250259
963.093 .0250356
963.712 .0250456
964.331 .0250560
964.950 .0250666
965.569 .0250775
966.187 .0250886
966.804 .0250998
967.422 .0251111
968.039 .0251224
968.655 .0251336
969.272 .0251448
969.887 .0251557
970.503 .0251665
971.118 .0251771
971.733 .0251873
972.347 .0251973
972.961 .0252068
973.575 .0252158
974.188 .0252242
974.801 .0252320
975.414 .0252391
976.026 .0252456
976.638 .0252514
977.250 .0252565
977.861 .0252610
978.472 .0252648
979.083 .0252679
979.693 .0252703
980.303 .0252719
980.912 .0252710
981.521 .0252709
982.130 .0252702
982.738 .0252689
983.346 .0252672
983.954 .0252652
984.562 .0252629
985.169 .0252605
985.775 .0252580
986.382 .0252555
986.988 .0252529
987.594 .0252504
988.199 .0252478
988.804 .0252453
989.409 .0252450
990.013 .0252428
990.617 .0252408
991.221 .0252390
991.824 .0252374
992.427 .0252360
993.030 .0252348
993.632 .0252337
994.234 .0252325
994.836 .0252313
995.438 .0252299
996.039 .0252284
996.640 .0252266
997.240 .0252248
997.840 .0252228
998.440 .0252207
999.040 .0252185
999.639 .0252161
1000.238 .0252134
1000.836 .0252103
1001.435 .0252066
1002.033 .0252023
1002.630 .0251973
1003.228 .0251917
1003.825 .0251853
1004.422 .0251783
1005.018 .0251707
1005.614 .0251625
1006.210 .0251539
1006.806 .0251447
1007.401 .0251348
1007.996 .0251243
1008.591 .0251131
1009.186 .0251012
1009.780 .0250887
1010.374 .0250757
1010.967 .0250623
1011.561 .0250485
1012.154 .0250346
1012.746 .0250204
1013.339 .0250060
1013.931 .0249914
1014.523 .0249766
1015.115 .0249615
1015.706 .0249461
1016.298 .0249304
1016.888 .0249144
1017.479 .0248984
1018.069 .0248822
1018.660 .0248661
1019.250 .0248502
1019.839 .0248345
1020.429 .0248191
1021.018 .0248039
1021.607 .0247890
1022.195 .0247742
1022.784 .0247597
1023.372 .0247453
1023.960 .0247311
1024.547 .0247172
1025.135 .0247037
1025.722 .0246904
1026.309 .0246774
1026.896 .0246647
1027.483 .0246521
1028.069 .0246396
1028.655 .0246270
1029.241 .0246144
1029.827 .0246016
1030.412 .0245886
1030.997 .0245755
1031.582 .0245623
1032.167 .0245489
1032.752 .0245355
1033.336 .0245220
1033.921 .0245084
1034.505 .0244946
1035.089 .0244805
1035.672 .0244662
1036.256 .0244516
1036.839 .0244367
1037.422 .0244216
1038.005 .0244063
1038.588 .0243907
1039.171 .0243749
1039.753 .0243588
1040.335 .0243424
1040.918 .0243256
1041.500 .0243086
1042.081 .0242912
1042.663 .0242737
1043.244 .0242562
1043.826 .0242388
1044.407 .0242217
1044.988 .0242051
1045.569 .0241889
1046.150 .0241733
1046.730 .0241583
1047.311 .0241438
1047.891 .0241298
1048.471 .0241163
1049.052 .0241033
1049.632 .0240910
1050.211 .0240792
1050.791 .0240683
1051.371 .0240581
1051.950 .0240488
1052.530 .0240402
1053.109 .0240323
1053.688 .0240250
1054.268 .0240180
1054.847 .0240114
1055.426 .0240049
1056.005 .0239986
1056.583 .0239925
1057.162 .0239867
1057.741 .0239811
1058.319 .0239761
1058.898 .0239716
1059.476 .0239676
1060.055 .0239640
1060.633 .0239608
1061.211 .0239578
1061.790 .0239550
1062.368 .0239525
1062.946 .0239502
1063.524 .0239482
1064.102 .0239467
1064.680 .0239457
1065.258 .0239453
1065.836 .0239455
1066.414 .0239464
1066.992 .0239480
1067.570 .0239500
1068.148 .0239525
1068.726 .0239555
1069.304 .0239590
1069.882 .0239630
1070.460 .0239676
1071.038 .0239730
1071.616 .0239792
1072.194 .0239861
1072.772 .0239938
1073.350 .0240022
1073.928 .0240111
1074.506 .0240204
1075.084 .0240301
1075.662 .0240399
1076.240 .0240499
1076.819 .0240602
1077.397 .0240708
1077.976 .0240817
1078.554 .0240930
1079.133 .0241046
1079.711 .0241164
1080.290 .0241284
1080.869 .0241405
1081.448 .0241527
1082.027 .0241652
1082.606 .0241778
1083.185 .0241908
1083.764 .0242043
1084.343 .0242184
1084.923 .0242331
1085.502 .0242485
1086.082 .0242645
1086.662 .0242810
1087.242 .0242979
1087.822 .0243153
1088.402 .0243330
1088.983 .0243512
1089.563 .0243700
1090.144 .0243893
1090.725 .0244093
1091.306 .0244300
1091.887 .0244516
1092.469 .0244739
1093.050 .0244969
1093.632 .0245204
1094.214 .0245444
1094.796 .0245689
1095.379 .0245937
1095.961 .0246190
1096.544 .0246450
1097.127 .0246716
1097.710 .0246991
1098.294 .0247274
1098.877 .0247565
1099.461 .0247862
1100.046 .0248166
1100.630 .0248472
1101.215 .0248779
1101.800 .0249086
1102.385 .0249391
1102.970 .0249697
1103.556 .0250004
1104.142 .0250316
1104.728 .0250633
1105.315 .0250958
1105.902 .0251292
1106.489 .0251634
1107.077 .0251983
1107.664 .0252335
1108.253 .0252690
1108.841 .0253044
1109.430 .0253398
1110.019 .0253751
1110.609 .0254106
1111.198 .0254467
1111.789 .0254836
1112.379 .0255215
1112.970 .0255605
1113.561 .0256004
1114.153 .0256411
1114.745 .0256826
1115.338 .0257247
1115.931 .0257674
1116.524 .0258109
1117.117 .0258556
1117.712 .0259021
1118.306 .0259507
1118.901 .0260020
1119.496 .0260561
1120.092 .0261130
1120.689 .0261723
1121.285 .0262336
1121.882 .0262966
1122.480 .0263607
1123.078 .0264258
1123.677 .0264921
1124.276 .0265597
1124.875 .0266290
1125.476 .0267005
1126.076 .0267742
1126.677 .0268502
1127.279 .0269282
1127.881 .0270081
1128.484 .0270895
1129.087 .0271276
1129.691 .0272113
1130.295 .0272964
1130.900 .0273831
1131.505 .0274719
1132.111 .0275628
1132.718 .0276563
1133.325 .0277525
1133.933 .0278509
1134.541 .0279534
1135.150 .0280505
1135.760 .0281532
1136.370 .0282606
1136.981 .0283364
1137.592 .0284249
1138.204 .0285196
1138.817 .0286210
1139.431 .0287353
1140.045 .0288508
1140.660 .0289747
1141.275 .0291044
1141.891 .0292306
1142.508 .0294159
1143.126 .0293550
1143.744 .0296074
1144.363 .0298466
1144.983 .0298380
