Measurement Sequence started on: 15-12-46-377
Integration time: 28
Scans to Average: 2 
>>>>>Begin Spectral Data<<<<<
432.689 .0000100
433.621 .0000100
434.552 .0000100
435.482 .0000100
436.410 .0000100
437.337 .0000100
438.262 .0280544
439.187 .0592691
440.110 .0981183
441.031 .1418777
441.952 .1129948
442.871 .1179020
443.789 .1224605
444.705 .1267470
445.621 .1308142
446.535 .1347025
447.447 .1369638
448.359 .1374537
449.269 .1357874
450.178 .1317191
451.086 .1253289
451.993 .1171071
452.898 .1078623
453.803 .0985108
454.706 .0898309
455.608 .0823058
456.508 .0760965
457.408 .0719237
458.306 .0687370
459.204 .0661642
460.100 .0640133
460.995 .0621752
461.888 .0605747
462.781 .0591619
463.673 .0578984
464.563 .0567597
465.452 .0557264
466.340 .0547844
467.228 .0539241
468.114 .0531386
468.999 .0524215
469.882 .0517665
470.765 .0511675
471.647 .0506202
472.528 .0501204
473.407 .0496656
474.286 .0492529
475.163 .0488815
476.040 .0485497
476.915 .0482564
477.790 .0479996
478.663 .0477772
479.535 .0475864
480.407 .0474246
481.277 .0472880
482.147 .0471733
483.015 .0470775
483.883 .0469985
484.749 .0469344
485.615 .0468845
486.479 .0468473
487.343 .0468221
488.206 .0468074
489.067 .0468020
489.928 .0468048
490.788 .0468154
491.647 .0468340
492.505 .0468614
493.362 .0468997
494.218 .0469512
495.073 .0470187
495.928 .0471934
496.781 .0473188
497.634 .0474696
498.486 .0476476
499.337 .0478556
500.187 .0480955
501.036 .0483691
501.884 .0486787
502.731 .0490277
503.578 .0494186
504.424 .0497120
505.268 .0501775
506.113 .0506958
506.956 .0512715
507.798 .0519115
508.640 .0526221
509.480 .0534130
510.320 .0542944
511.160 .0552777
511.998 .0563758
512.836 .0576051
513.672 .0589819
514.508 .0605258
515.344 .0622593
516.178 .0642062
517.012 .0663898
517.845 .0688321
518.677 .0715524
519.508 .0745635
520.339 .0778712
521.169 .0814744
521.998 .0853485
522.826 .0894575
523.654 .0937465
524.481 .0981502
525.307 .1025939
526.133 .1069916
526.958 .1112535
527.782 .1152910
528.605 .1190237
529.428 .1223800
530.250 .1252968
531.072 .1277329
531.892 .1296557
532.712 .1310429
533.532 .1318793
534.350 .1321578
535.168 .1318809
535.986 .1310522
536.802 .1296796
537.618 .1277740
538.434 .1253495
539.249 .1224432
540.063 .1191020
540.876 .1153875
541.689 .1113725
542.501 .1071351
543.313 .1027625
544.124 .0983415
544.934 .0939566
545.744 .0896821
546.553 .0855823
547.361 .0817105
548.169 .0780963
548.976 .0747574
549.783 .0716984
550.589 .0689137
551.395 .0663889
552.200 .0641009
553.004 .0620264
553.808 .0601429
554.611 .0584314
555.414 .0568760
556.216 .0554604
557.018 .0541699
557.819 .0529925
558.619 .0519154
559.419 .0509275
560.218 .0500194
561.017 .0491819
561.815 .0484071
562.613 .0476872
563.410 .0470138
564.207 .0463780
565.003 .0457732
565.799 .0451931
566.594 .0446322
567.388 .0440865
568.182 .0435533
568.976 .0430301
569.769 .0425162
570.562 .0420114
571.354 .0415160
572.145 .0410307
572.936 .0405569
573.727 .0400945
574.517 .0396444
575.307 .0392076
576.096 .0387845
576.885 .0383763
577.673 .0379842
578.461 .0376089
579.248 .0372511
580.035 .0369120
580.821 .0365923
581.607 .0362921
582.392 .0360113
583.177 .0357491
583.962 .0355047
584.746 .0352773
585.529 .0350655
586.313 .0348680
587.095 .0346841
587.878 .0345130
588.660 .0343537
589.441 .0342054
590.222 .0340677
591.003 .0339398
591.783 .0338210
592.563 .0337105
593.342 .0336073
594.121 .0335105
594.899 .0334193
595.678 .0333328
596.455 .0332505
597.233 .0331719
598.009 .0330966
598.786 .0330245
599.562 .0329555
600.338 .0328894
601.113 .0328263
601.888 .0327414
602.663 .0326854
603.437 .0326320
604.211 .0325811
604.984 .0325326
605.757 .0324863
606.530 .0324419
607.302 .0323995
608.074 .0323591
608.845 .0323206
609.616 .0322843
610.387 .0322713
611.158 .0322381
611.928 .0322071
612.697 .0321783
613.467 .0321514
614.236 .0321264
615.004 .0321030
615.773 .0320809
616.541 .0320600
617.308 .0320399
618.076 .0320205
618.843 .0320016
619.609 .0319832
620.375 .0319650
621.141 .0319469
621.907 .0319289
622.672 .0319108
623.437 .0318925
624.202 .0318737
624.966 .0318544
625.730 .0318342
626.493 .0318131
627.257 .0317909
628.020 .0317676
628.782 .0317431
629.545 .0317176
630.307 .0316910
631.068 .0316637
631.830 .0316356
632.591 .0316071
633.352 .0315783
634.112 .0315493
634.872 .0315202
635.632 .0314912
636.392 .0314623
637.151 .0314335
637.910 .0314050
638.668 .0313769
639.427 .0313492
640.185 .0313220
640.943 .0312955
641.700 .0312696
642.457 .0312445
643.214 .0312202
643.971 .0311968
644.727 .0311742
645.483 .0311522
646.239 .0311307
646.994 .0311096
647.750 .0310887
648.505 .0310679
649.259 .0310470
650.014 .0310259
650.768 .0310046
651.521 .0309831
652.275 .0309614
653.028 .0309393
653.781 .0309169
654.534 .0308939
655.286 .0308703
656.039 .0308462
656.791 .0308215
657.542 .0307962
658.294 .0307705
659.045 .0307444
659.796 .0307182
660.546 .0306918
661.297 .0306654
662.047 .0306391
662.796 .0306130
663.546 .0305870
664.295 .0305613
665.044 .0305359
665.793 .0305110
666.542 .0304866
667.290 .0304627
668.038 .0304395
668.786 .0304168
669.533 .0303947
670.281 .0303732
671.028 .0303523
671.774 .0303320
672.521 .0303123
673.267 .0302932
674.013 .0302746
674.759 .0302566
675.505 .0302390
676.250 .0302218
676.995 .0302049
677.740 .0301880
678.484 .0301713
679.229 .0301544
679.973 .0301376
680.717 .0301207
681.460 .0301037
682.204 .0300865
682.947 .0300691
683.690 .0300513
684.433 .0300331
685.175 .0300144
685.917 .0299952
686.659 .0299754
687.401 .0299551
688.142 .0299342
688.884 .0299128
689.625 .0298910
690.365 .0298688
691.106 .0298462
691.846 .0298232
692.586 .0297998
693.326 .0297762
694.066 .0297522
694.805 .0297281
695.545 .0297039
696.284 .0296797
697.022 .0296556
697.761 .0296316
698.499 .0296080
699.237 .0295847
699.975 .0295619
700.713 .0295396
701.450 .0295178
702.187 .0294964
702.924 .0294755
703.661 .0294551
704.397 .0294352
705.133 .0294157
705.869 .0293967
706.605 .0293781
707.341 .0293599
708.076 .0293421
708.811 .0293247
709.546 .0293075
710.281 .0292906
711.015 .0292738
711.749 .0292572
712.483 .0292405
713.217 .0292239
713.950 .0292072
714.684 .0291906
715.417 .0291738
716.150 .0291571
716.882 .0291402
717.615 .0291233
718.347 .0291063
719.079 .0290893
719.811 .0290721
720.542 .0290549
721.273 .0290377
722.005 .0290205
722.735 .0290034
723.466 .0289862
724.196 .0289692
724.927 .0289524
725.656 .0289358
726.386 .0289195
727.116 .0289035
727.845 .0288880
728.574 .0288729
729.303 .0288582
730.031 .0288441
730.760 .0288304
731.488 .0288171
732.216 .0288043
732.944 .0287918
733.671 .0287798
734.398 .0287681
735.125 .0287569
735.852 .0287461
736.579 .0287357
737.305 .0287257
738.031 .0287160
738.757 .0287066
739.483 .0286975
740.208 .0286885
740.933 .0286796
741.658 .0286707
742.383 .0286619
743.108 .0286532
743.832 .0286444
744.556 .0286357
745.280 .0286269
746.004 .0286182
746.727 .0286093
747.450 .0286004
748.173 .0285913
748.896 .0285820
749.618 .0285725
750.340 .0285627
751.062 .0285526
751.784 .0285421
752.506 .0285313
753.227 .0285202
753.948 .0285088
754.669 .0284972
755.389 .0284853
756.110 .0284732
756.830 .0284609
757.550 .0284484
758.269 .0284358
758.989 .0284230
759.708 .0284101
760.427 .0283970
761.146 .0283837
761.864 .0283702
762.582 .0283565
763.300 .0283427
764.018 .0283288
764.736 .0283147
765.453 .0283005
766.170 .0282863
766.887 .0282720
767.603 .0282578
768.320 .0282436
769.036 .0282294
769.751 .0282154
770.467 .0282015
771.182 .0281876
771.897 .0281738
772.612 .0281601
773.327 .0281464
774.041 .0281328
774.755 .0281192
775.469 .0281059
776.183 .0280926
776.896 .0280796
777.609 .0280667
778.322 .0280541
779.035 .0280416
779.747 .0280294
780.459 .0280174
781.171 .0280055
781.882 .0279937
782.594 .0279821
783.305 .0279706
784.016 .0279590
784.726 .0279475
785.436 .0279358
786.147 .0279182
786.856 .0279063
787.566 .0278944
788.275 .0278824
788.984 .0278704
789.693 .0278583
790.401 .0278462
791.110 .0278340
791.818 .0278217
792.525 .0278092
793.233 .0277965
793.940 .0277835
794.647 .0277765
795.353 .0277633
796.060 .0277499
796.766 .0277364
797.472 .0277226
798.177 .0277087
798.883 .0276947
799.588 .0276804
800.292 .0276660
800.997 .0276514
801.701 .0276366
802.405 .0276216
803.109 .0276063
803.812 .0275908
804.515 .0275751
805.218 .0275591
805.921 .0275430
806.623 .0275267
807.325 .0275102
808.027 .0274936
808.728 .0274769
809.429 .0274601
810.130 .0274431
810.831 .0274262
811.531 .0274092
812.231 .0273922
812.931 .0273753
813.630 .0273585
814.330 .0273420
815.029 .0273258
815.727 .0273101
816.426 .0272949
817.124 .0272803
817.821 .0272664
818.519 .0272533
819.216 .0272410
819.913 .0272295
820.609 .0272188
821.306 .0272090
822.002 .0272001
822.697 .0271920
823.393 .0271848
824.088 .0271784
824.783 .0271729
825.477 .0271683
826.171 .0271643
826.865 .0271610
827.559 .0271584
828.252 .0271562
828.945 .0271546
829.638 .0271533
830.330 .0271522
831.023 .0271515
831.714 .0271509
832.406 .0271504
833.097 .0271500
833.788 .0271496
834.479 .0271492
835.169 .0271489
835.859 .0271486
836.548 .0271483
837.238 .0271482
837.927 .0271481
838.615 .0271480
839.304 .0271480
839.992 .0271479
840.680 .0271477
841.367 .0271474
842.054 .0271469
842.741 .0271463
843.428 .0271456
844.114 .0271448
844.800 .0271440
845.485 .0271432
846.170 .0271422
846.855 .0271412
847.540 .0271400
848.224 .0271386
848.908 .0271368
849.592 .0271346
850.275 .0271319
850.958 .0271287
851.641 .0271250
852.323 .0271208
853.005 .0271161
853.687 .0271108
854.368 .0271050
855.049 .0270987
855.730 .0270919
856.410 .0270846
857.090 .0270769
857.769 .0270687
858.449 .0270601
859.128 .0270511
859.806 .0270418
860.485 .0270320
861.163 .0270219
861.840 .0270115
862.518 .0270009
863.195 .0269901
863.871 .0269792
864.548 .0269684
865.224 .0269576
865.899 .0269469
866.574 .0269364
867.249 .0269260
867.924 .0269158
868.598 .0269057
869.272 .0268958
869.946 .0268860
870.619 .0268764
871.292 .0268670
871.964 .0268578
872.636 .0268487
873.308 .0268397
873.979 .0268308
874.651 .0268220
875.321 .0268132
875.992 .0268043
876.662 .0267954
877.331 .0267864
878.001 .0267774
878.670 .0267683
879.338 .0267591
880.007 .0267498
880.675 .0267404
881.342 .0267311
882.009 .0267217
882.676 .0267124
883.343 .0267031
884.009 .0266941
884.675 .0266852
885.340 .0266765
886.005 .0266680
886.670 .0266598
887.334 .0266517
887.998 .0266438
888.662 .0266362
889.325 .0266287
889.988 .0266214
890.650 .0266144
891.312 .0266075
891.974 .0266007
892.636 .0265939
893.297 .0265872
893.957 .0265804
894.618 .0265734
895.278 .0265663
895.937 .0265588
896.596 .0265510
897.255 .0265427
897.914 .0265338
898.572 .0265244
899.230 .0265142
899.887 .0265032
900.544 .0264914
901.201 .0264786
901.857 .0264548
902.513 .0264396
903.168 .0264234
903.823 .0264063
904.478 .0263881
905.132 .0263690
905.786 .0263490
906.440 .0263280
907.093 .0263061
907.746 .0262834
908.399 .0262600
909.051 .0262360
909.703 .0262116
910.354 .0261987
911.005 .0261740
911.656 .0261490
912.306 .0261240
912.956 .0260989
913.605 .0260738
914.254 .0260488
914.903 .0260238
915.551 .0259990
916.199 .0259743
916.847 .0259499
917.494 .0259256
918.141 .0259016
918.788 .0258778
919.434 .0258542
920.079 .0258308
920.725 .0258075
921.370 .0257844
922.014 .0257613
922.658 .0257383
923.302 .0257154
923.946 .0256924
924.589 .0256694
925.231 .0256465
925.873 .0256235
926.515 .0256005
927.157 .0255775
927.798 .0255545
928.439 .0255314
929.079 .0255085
929.719 .0254856
930.359 .0254629
930.998 .0254404
931.637 .0254181
932.275 .0253963
932.913 .0253748
933.551 .0253537
934.188 .0253332
934.825 .0253132
935.462 .0252939
936.098 .0252752
936.733 .0252572
937.369 .0252400
938.004 .0252235
938.638 .0252078
939.273 .0251929
939.907 .0251789
940.540 .0251658
941.173 .0251536
941.806 .0251422
942.438 .0251317
943.070 .0251220
943.702 .0251130
944.333 .0251049
944.964 .0250974
945.594 .0250904
946.224 .0250840
946.854 .0250780
947.483 .0250724
948.112 .0250671
948.741 .0250620
949.369 .0250572
949.996 .0250525
950.624 .0250479
951.251 .0250435
951.878 .0250390
952.504 .0250346
953.130 .0250301
953.755 .0250256
954.380 .0250210
955.005 .0250164
955.629 .0250117
956.253 .0250070
956.877 .0250022
957.500 .0249973
958.123 .0249924
958.746 .0249875
959.368 .0249827
959.990 .0249780
960.611 .0249735
961.232 .0249692
961.853 .0249651
962.473 .0249613
963.093 .0249578
963.712 .0249545
964.331 .0249516
964.950 .0249490
965.569 .0249468
966.187 .0249449
966.804 .0249434
967.422 .0249424
968.039 .0249417
968.655 .0249414
969.272 .0249414
969.887 .0249417
970.503 .0249424
971.118 .0249432
971.733 .0249443
972.347 .0249457
972.961 .0249472
973.575 .0249489
974.188 .0249507
974.801 .0249527
975.414 .0249547
976.026 .0249568
976.638 .0249589
977.250 .0249610
977.861 .0249631
978.472 .0249653
979.083 .0249675
979.693 .0249699
980.303 .0249723
980.912 .0249758
981.521 .0249783
982.130 .0249807
982.738 .0249831
983.346 .0249855
983.954 .0249878
984.562 .0249902
985.169 .0249926
985.775 .0249952
986.382 .0249979
986.988 .0250007
987.594 .0250037
988.199 .0250068
988.804 .0250100
989.409 .0250123
990.013 .0250157
990.617 .0250194
991.221 .0250233
991.824 .0250275
992.427 .0250321
993.030 .0250371
993.632 .0250425
994.234 .0250481
994.836 .0250539
995.438 .0250599
996.039 .0250660
996.640 .0250721
997.240 .0250783
997.840 .0250846
998.440 .0250910
999.040 .0250975
999.639 .0251042
1000.238 .0251109
1000.836 .0251177
1001.435 .0251244
1002.033 .0251310
1002.630 .0251375
1003.228 .0251438
1003.825 .0251499
1004.422 .0251558
1005.018 .0251615
1005.614 .0251670
1006.210 .0251724
1006.806 .0251776
1007.401 .0251827
1007.996 .0251877
1008.591 .0251925
1009.186 .0251971
1009.780 .0252016
1010.374 .0252059
1010.967 .0252101
1011.561 .0252142
1012.154 .0252183
1012.746 .0252224
1013.339 .0252267
1013.931 .0252310
1014.523 .0252355
1015.115 .0252403
1015.706 .0252453
1016.298 .0252505
1016.888 .0252561
1017.479 .0252619
1018.069 .0252680
1018.660 .0252743
1019.250 .0252810
1019.839 .0252878
1020.429 .0252950
1021.018 .0253023
1021.607 .0253099
1022.195 .0253177
1022.784 .0253256
1023.372 .0253337
1023.960 .0253417
1024.547 .0253498
1025.135 .0253577
1025.722 .0253656
1026.309 .0253733
1026.896 .0253808
1027.483 .0253881
1028.069 .0253951
1028.655 .0254018
1029.241 .0254080
1029.827 .0254138
1030.412 .0254190
1030.997 .0254236
1031.582 .0254275
1032.167 .0254308
1032.752 .0254334
1033.336 .0254355
1033.921 .0254369
1034.505 .0254378
1035.089 .0254381
1035.672 .0254379
1036.256 .0254372
1036.839 .0254360
1037.422 .0254343
1038.005 .0254323
1038.588 .0254299
1039.171 .0254272
1039.753 .0254243
1040.335 .0254213
1040.918 .0254180
1041.500 .0254146
1042.081 .0254110
1042.663 .0254071
1043.244 .0254030
1043.826 .0253985
1044.407 .0253938
1044.988 .0253888
1045.569 .0253836
1046.150 .0253783
1046.730 .0253728
1047.311 .0253673
1047.891 .0253616
1048.471 .0253557
1049.052 .0253496
1049.632 .0253433
1050.211 .0253367
1050.791 .0253300
1051.371 .0253232
1051.950 .0253163
1052.530 .0253093
1053.109 .0253022
1053.688 .0252949
1054.268 .0252874
1054.847 .0252797
1055.426 .0252716
1056.005 .0252632
1056.583 .0252545
1057.162 .0252454
1057.741 .0252360
1058.319 .0252264
1058.898 .0252165
1059.476 .0252064
1060.055 .0251962
1060.633 .0251857
1061.211 .0251751
1061.790 .0251644
1062.368 .0251538
1062.946 .0251432
1063.524 .0251329
1064.102 .0251228
1064.680 .0251129
1065.258 .0251031
1065.836 .0250934
1066.414 .0250837
1066.992 .0250739
1067.570 .0250639
1068.148 .0250538
1068.726 .0250436
1069.304 .0250334
1069.882 .0250234
1070.460 .0250137
1071.038 .0250041
1071.616 .0249947
1072.194 .0249855
1072.772 .0249763
1073.350 .0249671
1073.928 .0249580
1074.506 .0249489
1075.084 .0249402
1075.662 .0249319
1076.240 .0249242
1076.819 .0249174
1077.397 .0249114
1077.976 .0249061
1078.554 .0249016
1079.133 .0248976
1079.711 .0248939
1080.290 .0248904
1080.869 .0248871
1081.448 .0248841
1082.027 .0248814
1082.606 .0248793
1083.185 .0248776
1083.764 .0248766
1084.343 .0248761
1084.923 .0248760
1085.502 .0248763
1086.082 .0248766
1086.662 .0248769
1087.242 .0248772
1087.822 .0248773
1088.402 .0248775
1088.983 .0248777
1089.563 .0248781
1090.144 .0248788
1090.725 .0248799
1091.306 .0248814
1091.887 .0248833
1092.469 .0248856
1093.050 .0248882
1093.632 .0248911
1094.214 .0248944
1094.796 .0248980
1095.379 .0249018
1095.961 .0249059
1096.544 .0249103
1097.127 .0249150
1097.710 .0249202
1098.294 .0249260
1098.877 .0249323
1099.461 .0249392
1100.046 .0249467
1100.630 .0249549
1101.215 .0249637
1101.800 .0249731
1102.385 .0249830
1102.970 .0249935
1103.556 .0250044
1104.142 .0250161
1104.728 .0250286
1105.315 .0250423
1105.902 .0250572
1106.489 .0250735
1107.077 .0250913
1107.664 .0251102
1108.253 .0251302
1108.841 .0251511
1109.430 .0251726
1110.019 .0251946
1110.609 .0252167
1111.198 .0252391
1111.789 .0252618
1112.379 .0252850
1112.970 .0253087
1113.561 .0253331
1114.153 .0253584
1114.745 .0253844
1115.338 .0254110
1115.931 .0254384
1116.524 .0254666
1117.117 .0254958
1117.712 .0255261
1118.306 .0255578
1118.901 .0255911
1119.496 .0256263
1120.092 .0256638
1120.689 .0257037
1121.285 .0257459
1121.882 .0257905
1122.480 .0258373
1123.078 .0258860
1123.677 .0259365
1124.276 .0259882
1124.875 .0260413
1125.476 .0260954
1126.076 .0261504
1126.677 .0262063
1127.279 .0262634
1127.881 .0263218
1128.484 .0263817
1129.087 .0264086
1129.691 .0264715
1130.295 .0265365
1130.900 .0266036
1131.505 .0266729
1132.111 .0267447
1132.718 .0268192
1133.325 .0268969
1133.933 .0269776
1134.541 .0270557
1135.150 .0271466
1135.760 .0272384
1136.370 .0273393
1136.981 .0273409
1137.592 .0274223
1138.204 .0275102
1138.817 .0276023
1139.431 .0276986
1140.045 .0278039
1140.660 .0279168
1141.275 .0280420
1141.891 .0281744
1142.508 .0281499
1143.126 .0285605
1143.744 .0286515
1144.363 .0289692
1144.983 .0289361
