Measurement Sequence started on: 15-12-46-377
Integration time: 28
Scans to Average: 2 
>>>>>Begin Spectral Data<<<<<
432.689 .0000100
433.621 .0000100
434.552 .0000100
435.482 .0000100
436.410 .0000100
437.337 .0000100
438.262 .0261910
439.187 .0556474
440.110 .0923064
441.031 .1336564
441.952 .1074212
442.871 .1122011
443.789 .1166538
444.705 .1208504
445.621 .1248377
446.535 .1286512
447.447 .1309371
448.359 .1315420
449.269 .1301019
450.178 .1263820
451.086 .1204526
451.993 .1127706
452.898 .1040959
453.803 .0952921
454.706 .0870966
455.608 .0799696
456.508 .0740675
457.408 .0700660
458.306 .0669946
459.204 .0644971
460.100 .0623925
460.995 .0605803
461.888 .0589914
462.781 .0575812
463.673 .0563166
464.563 .0551759
465.452 .0541428
466.340 .0532043
467.228 .0523513
468.114 .0515758
468.999 .0508711
469.882 .0502284
470.765 .0496409
471.647 .0491022
472.528 .0486073
473.407 .0481521
474.286 .0477351
475.163 .0473564
476.040 .0470157
476.915 .0467130
477.790 .0464478
478.663 .0462196
479.535 .0460277
480.407 .0458698
481.277 .0457438
482.147 .0456463
483.015 .0455753
483.883 .0455274
484.749 .0455007
485.615 .0454931
486.479 .0455036
487.343 .0455311
488.206 .0455752
489.067 .0456342
489.928 .0457068
490.788 .0457921
491.647 .0458887
492.505 .0459956
493.362 .0461120
494.218 .0462376
495.073 .0463733
495.928 .0466172
496.781 .0467870
497.634 .0469720
498.486 .0471740
499.337 .0473950
500.187 .0476386
501.036 .0479072
501.884 .0482049
502.731 .0485369
503.578 .0489071
504.424 .0491810
505.268 .0496259
506.113 .0501223
506.956 .0506750
507.798 .0512894
508.640 .0519707
509.480 .0527268
510.320 .0535690
511.160 .0545096
511.998 .0555622
512.836 .0567464
513.672 .0580819
514.508 .0595904
515.344 .0612937
516.178 .0632136
517.012 .0653716
517.845 .0677897
518.677 .0704839
519.508 .0734672
520.339 .0767472
521.169 .0803266
521.998 .0841840
522.826 .0882887
523.654 .0925908
524.481 .0970264
525.307 .1015190
526.133 .1059813
526.958 .1103182
527.782 .1144385
528.605 .1182562
529.428 .1216968
530.250 .1246944
531.072 .1272042
531.892 .1291886
532.712 .1306261
533.532 .1315030
534.350 .1318126
535.168 .1315544
535.986 .1307353
536.802 .1293626
537.618 .1274462
538.434 .1250007
539.249 .1220631
540.063 .1186796
540.876 .1149110
541.689 .1108296
542.501 .1065187
543.313 .1020702
544.124 .0975787
544.934 .0931314
545.744 .0888070
546.553 .0846715
547.361 .0807759
548.169 .0771486
548.976 .0738085
549.783 .0707581
550.589 .0679910
551.395 .0654927
552.200 .0632412
553.004 .0612125
553.808 .0593830
554.611 .0577305
555.414 .0562342
556.216 .0548742
557.018 .0536302
557.819 .0524867
558.619 .0514298
559.419 .0504472
560.218 .0495287
561.017 .0486661
561.815 .0478519
562.613 .0470808
563.410 .0463473
564.207 .0456462
565.003 .0449740
565.799 .0443278
566.594 .0437040
567.388 .0431006
568.182 .0425157
568.976 .0419479
569.769 .0413962
570.562 .0408608
571.354 .0403419
572.145 .0398400
572.936 .0393559
573.727 .0388898
574.517 .0384423
575.307 .0380146
576.096 .0376070
576.885 .0372203
577.673 .0368550
578.461 .0365111
579.248 .0361882
580.035 .0358855
580.821 .0356023
581.607 .0353374
582.392 .0350901
583.177 .0348596
583.962 .0346451
584.746 .0344461
585.529 .0342622
586.313 .0340928
587.095 .0339373
587.878 .0337950
588.660 .0336650
589.441 .0335463
590.222 .0334380
591.003 .0333392
591.783 .0332488
592.563 .0331659
593.342 .0330894
594.121 .0330186
594.899 .0329525
595.678 .0328903
596.455 .0328313
597.233 .0327749
598.009 .0327207
598.786 .0326684
599.562 .0326178
600.338 .0325689
601.113 .0325215
601.888 .0324552
602.663 .0324114
603.437 .0323687
604.211 .0323271
604.984 .0322865
605.757 .0322468
606.530 .0322080
607.302 .0321700
608.074 .0321331
608.845 .0320972
609.616 .0320624
610.387 .0320477
611.158 .0320146
611.928 .0319827
612.697 .0319519
613.467 .0319220
614.236 .0318930
615.004 .0318646
615.773 .0318367
616.541 .0318092
617.308 .0317819
618.076 .0317548
618.843 .0317278
619.609 .0317008
620.375 .0316739
621.141 .0316471
621.907 .0316203
622.672 .0315935
623.437 .0315666
624.202 .0315395
624.966 .0315121
625.730 .0314843
626.493 .0314561
627.257 .0314273
628.020 .0313979
628.782 .0313679
629.545 .0313374
630.307 .0313065
631.068 .0312753
631.830 .0312438
632.591 .0312121
633.352 .0311803
634.112 .0311485
634.872 .0311166
635.632 .0310845
636.392 .0310524
637.151 .0310202
637.910 .0309880
638.668 .0309558
639.427 .0309238
640.185 .0308921
640.943 .0308608
641.700 .0308299
642.457 .0307997
643.214 .0307700
643.971 .0307410
644.727 .0307126
645.483 .0306848
646.239 .0306576
646.994 .0306310
647.750 .0306049
648.505 .0305793
649.259 .0305541
650.014 .0305294
650.768 .0305050
651.521 .0304810
652.275 .0304574
653.028 .0304342
653.781 .0304114
654.534 .0303890
655.286 .0303669
656.039 .0303453
656.791 .0303239
657.542 .0303028
658.294 .0302820
659.045 .0302614
659.796 .0302411
660.546 .0302211
661.297 .0302014
662.047 .0301821
662.796 .0301633
663.546 .0301449
664.295 .0301270
665.044 .0301097
665.793 .0300929
666.542 .0300767
667.290 .0300610
668.038 .0300458
668.786 .0300310
669.533 .0300168
670.281 .0300031
671.028 .0299898
671.774 .0299770
672.521 .0299645
673.267 .0299524
674.013 .0299406
674.759 .0299291
675.505 .0299177
676.250 .0299064
676.995 .0298951
677.740 .0298837
678.484 .0298722
679.229 .0298605
679.973 .0298487
680.717 .0298366
681.460 .0298242
682.204 .0298114
682.947 .0297983
683.690 .0297846
684.433 .0297705
685.175 .0297559
685.917 .0297407
686.659 .0297249
687.401 .0297086
688.142 .0296918
688.884 .0296744
689.625 .0296566
690.365 .0296384
691.106 .0296198
691.846 .0296008
692.586 .0295815
693.326 .0295621
694.066 .0295425
694.805 .0295229
695.545 .0295033
696.284 .0294838
697.022 .0294643
697.761 .0294449
698.499 .0294256
699.237 .0294065
699.975 .0293874
700.713 .0293685
701.450 .0293498
702.187 .0293313
702.924 .0293129
703.661 .0292947
704.397 .0292765
705.133 .0292582
705.869 .0292399
706.605 .0292214
707.341 .0292026
708.076 .0291836
708.811 .0291642
709.546 .0291446
710.281 .0291247
711.015 .0291045
711.749 .0290841
712.483 .0290634
713.217 .0290424
713.950 .0290211
714.684 .0289996
715.417 .0289778
716.150 .0289559
716.882 .0289338
717.615 .0289117
718.347 .0288894
719.079 .0288672
719.811 .0288449
720.542 .0288227
721.273 .0288006
722.005 .0287786
722.735 .0287567
723.466 .0287351
724.196 .0287137
724.927 .0286926
725.656 .0286719
726.386 .0286515
727.116 .0286316
727.845 .0286120
728.574 .0285928
729.303 .0285740
730.031 .0285555
730.760 .0285373
731.488 .0285193
732.216 .0285017
732.944 .0284844
733.671 .0284673
734.398 .0284506
735.125 .0284341
735.852 .0284181
736.579 .0284023
737.305 .0283869
738.031 .0283718
738.757 .0283570
739.483 .0283424
740.208 .0283280
740.933 .0283138
741.658 .0282998
742.383 .0282859
743.108 .0282721
743.832 .0282584
744.556 .0282448
745.280 .0282313
746.004 .0282178
746.727 .0282044
747.450 .0281910
748.173 .0281776
748.896 .0281641
749.618 .0281506
750.340 .0281370
751.062 .0281233
751.784 .0281094
752.506 .0280954
753.227 .0280813
753.948 .0280670
754.669 .0280526
755.389 .0280382
756.110 .0280238
756.830 .0280095
757.550 .0279952
758.269 .0279810
758.989 .0279669
759.708 .0279530
760.427 .0279392
761.146 .0279255
761.864 .0279120
762.582 .0278987
763.300 .0278857
764.018 .0278729
764.736 .0278604
765.453 .0278483
766.170 .0278365
766.887 .0278251
767.603 .0278141
768.320 .0278035
769.036 .0277932
769.751 .0277833
770.467 .0277737
771.182 .0277645
771.897 .0277557
772.612 .0277472
773.327 .0277390
774.041 .0277312
774.755 .0277238
775.469 .0277168
776.183 .0277102
776.896 .0277040
777.609 .0276982
778.322 .0276929
779.035 .0276879
779.747 .0276834
780.459 .0276794
781.171 .0276757
781.882 .0276726
782.594 .0276698
783.305 .0276674
784.016 .0276655
784.726 .0276638
785.436 .0276624
786.147 .0276616
786.856 .0276607
787.566 .0276600
788.275 .0276593
788.984 .0276586
789.693 .0276578
790.401 .0276568
791.110 .0276556
791.818 .0276541
792.525 .0276522
793.233 .0276499
793.940 .0276471
794.647 .0276440
795.353 .0276404
796.060 .0276364
796.766 .0276320
797.472 .0276270
798.177 .0276217
798.883 .0276158
799.588 .0276095
800.292 .0276027
800.997 .0275955
801.701 .0275879
802.405 .0275799
803.109 .0275715
803.812 .0275626
804.515 .0275533
805.218 .0275436
805.921 .0275334
806.623 .0275228
807.325 .0275119
808.027 .0275006
808.728 .0274892
809.429 .0274776
810.130 .0274659
810.831 .0274540
811.531 .0274421
812.231 .0274300
812.931 .0274179
813.630 .0274058
814.330 .0273937
815.029 .0273816
815.727 .0273698
816.426 .0273582
817.124 .0273469
817.821 .0273358
818.519 .0273251
819.216 .0273146
819.913 .0273044
820.609 .0272946
821.306 .0272850
822.002 .0272757
822.697 .0272669
823.393 .0272584
824.088 .0272503
824.783 .0272425
825.477 .0272351
826.171 .0272280
826.865 .0272210
827.559 .0272142
828.252 .0272075
828.945 .0272009
829.638 .0271943
830.330 .0271877
831.023 .0271810
831.714 .0271742
832.406 .0271670
833.097 .0271595
833.788 .0271515
834.479 .0271430
835.169 .0271339
835.859 .0271243
836.548 .0271141
837.238 .0271035
837.927 .0270925
838.615 .0270811
839.304 .0270693
839.992 .0270571
840.680 .0270446
841.367 .0270318
842.054 .0270185
842.741 .0270050
843.428 .0269911
844.114 .0269769
844.800 .0269625
845.485 .0269478
846.170 .0269329
846.855 .0269177
847.540 .0269023
848.224 .0268865
848.908 .0268704
849.592 .0268539
850.275 .0268370
850.958 .0268198
851.641 .0268021
852.323 .0267841
853.005 .0267657
853.687 .0267470
854.368 .0267279
855.049 .0267085
855.730 .0266888
856.410 .0266688
857.090 .0266485
857.769 .0266280
858.449 .0266072
859.128 .0265863
859.806 .0265654
860.485 .0265444
861.163 .0265234
861.840 .0265026
862.518 .0264819
863.195 .0264615
863.871 .0264414
864.548 .0264216
865.224 .0264023
865.899 .0263833
866.574 .0263649
867.249 .0263471
867.924 .0263298
868.598 .0263132
869.272 .0262972
869.946 .0262818
870.619 .0262670
871.292 .0262527
871.964 .0262388
872.636 .0262253
873.308 .0262122
873.979 .0261994
874.651 .0261871
875.321 .0261750
875.992 .0261634
876.662 .0261522
877.331 .0261413
878.001 .0261308
878.670 .0261205
879.338 .0261104
880.007 .0261006
880.675 .0260909
881.342 .0260814
882.009 .0260721
882.676 .0260632
883.343 .0260545
884.009 .0260462
884.675 .0260383
885.340 .0260307
886.005 .0260235
886.670 .0260167
887.334 .0260102
887.998 .0260041
888.662 .0259984
889.325 .0259932
889.988 .0259884
890.650 .0259840
891.312 .0259801
891.974 .0259765
892.636 .0259733
893.297 .0259703
893.957 .0259675
894.618 .0259649
895.278 .0259624
895.937 .0259599
896.596 .0259575
897.255 .0259549
897.914 .0259521
898.572 .0259491
899.230 .0259456
899.887 .0259416
900.544 .0259371
901.201 .0259320
901.857 .0259212
902.513 .0259142
903.168 .0259065
903.823 .0258981
904.478 .0258890
905.132 .0258791
905.786 .0258685
906.440 .0258573
907.093 .0258454
907.746 .0258330
908.399 .0258200
909.051 .0258067
909.703 .0257931
910.354 .0257855
911.005 .0257718
911.656 .0257579
912.306 .0257439
912.956 .0257298
913.605 .0257158
914.254 .0257019
914.903 .0256882
915.551 .0256746
916.199 .0256613
916.847 .0256483
917.494 .0256356
918.141 .0256231
918.788 .0256111
919.434 .0255993
920.079 .0255878
920.725 .0255766
921.370 .0255657
922.014 .0255550
922.658 .0255445
923.302 .0255342
923.946 .0255241
924.589 .0255141
925.231 .0255043
925.873 .0254946
926.515 .0254850
927.157 .0254754
927.798 .0254659
928.439 .0254565
929.079 .0254471
929.719 .0254378
930.359 .0254286
930.998 .0254194
931.637 .0254103
932.275 .0254013
932.913 .0253924
933.551 .0253837
934.188 .0253753
934.825 .0253671
935.462 .0253593
936.098 .0253519
936.733 .0253449
937.369 .0253384
938.004 .0253324
938.638 .0253268
939.273 .0253219
939.907 .0253175
940.540 .0253137
941.173 .0253105
941.806 .0253080
942.438 .0253060
943.070 .0253046
943.702 .0253038
944.333 .0253034
944.964 .0253034
945.594 .0253037
946.224 .0253043
946.854 .0253050
947.483 .0253059
948.112 .0253069
948.741 .0253079
949.369 .0253090
949.996 .0253102
950.624 .0253113
951.251 .0253125
951.878 .0253136
952.504 .0253146
953.130 .0253154
953.755 .0253160
954.380 .0253164
955.005 .0253167
955.629 .0253169
956.253 .0253169
956.877 .0253169
957.500 .0253168
958.123 .0253167
958.746 .0253166
959.368 .0253165
959.990 .0253164
960.611 .0253163
961.232 .0253162
961.853 .0253161
962.473 .0253159
963.093 .0253158
963.712 .0253156
964.331 .0253155
964.950 .0253153
965.569 .0253151
966.187 .0253149
966.804 .0253145
967.422 .0253139
968.039 .0253131
968.655 .0253119
969.272 .0253103
969.887 .0253084
970.503 .0253060
971.118 .0253033
971.733 .0253002
972.347 .0252967
972.961 .0252930
973.575 .0252889
974.188 .0252844
974.801 .0252795
975.414 .0252740
976.026 .0252681
976.638 .0252617
977.250 .0252550
977.861 .0252478
978.472 .0252404
979.083 .0252328
979.693 .0252250
980.303 .0252171
980.912 .0252050
981.521 .0251967
982.130 .0251882
982.738 .0251795
983.346 .0251707
983.954 .0251619
984.562 .0251531
985.169 .0251446
985.775 .0251363
986.382 .0251284
986.988 .0251208
987.594 .0251134
988.199 .0251064
988.804 .0250995
989.409 .0250965
990.013 .0250898
990.617 .0250833
991.221 .0250770
991.824 .0250708
992.427 .0250648
993.030 .0250588
993.632 .0250529
994.234 .0250469
994.836 .0250409
995.438 .0250348
996.039 .0250286
996.640 .0250225
997.240 .0250164
997.840 .0250106
998.440 .0250051
999.040 .0250000
999.639 .0249953
1000.238 .0249911
1000.836 .0249874
1001.435 .0249840
1002.033 .0249809
1002.630 .0249779
1003.228 .0249751
1003.825 .0249723
1004.422 .0249696
1005.018 .0249668
1005.614 .0249640
1006.210 .0249611
1006.806 .0249581
1007.401 .0249549
1007.996 .0249516
1008.591 .0249482
1009.186 .0249445
1009.780 .0249408
1010.374 .0249369
1010.967 .0249330
1011.561 .0249292
1012.154 .0249254
1012.746 .0249218
1013.339 .0249184
1013.931 .0249152
1014.523 .0249121
1015.115 .0249092
1015.706 .0249063
1016.298 .0249035
1016.888 .0249006
1017.479 .0248976
1018.069 .0248947
1018.660 .0248917
1019.250 .0248887
1019.839 .0248858
1020.429 .0248829
1021.018 .0248802
1021.607 .0248776
1022.195 .0248752
1022.784 .0248730
1023.372 .0248710
1023.960 .0248693
1024.547 .0248679
1025.135 .0248668
1025.722 .0248662
1026.309 .0248660
1026.896 .0248663
1027.483 .0248671
1028.069 .0248682
1028.655 .0248696
1029.241 .0248712
1029.827 .0248730
1030.412 .0248748
1030.997 .0248766
1031.582 .0248784
1032.167 .0248802
1032.752 .0248820
1033.336 .0248837
1033.921 .0248853
1034.505 .0248868
1035.089 .0248881
1035.672 .0248891
1036.256 .0248897
1036.839 .0248898
1037.422 .0248894
1038.005 .0248886
1038.588 .0248871
1039.171 .0248852
1039.753 .0248827
1040.335 .0248797
1040.918 .0248763
1041.500 .0248723
1042.081 .0248678
1042.663 .0248628
1043.244 .0248572
1043.826 .0248511
1044.407 .0248445
1044.988 .0248376
1045.569 .0248303
1046.150 .0248227
1046.730 .0248149
1047.311 .0248069
1047.891 .0247987
1048.471 .0247902
1049.052 .0247814
1049.632 .0247723
1050.211 .0247628
1050.791 .0247530
1051.371 .0247430
1051.950 .0247329
1052.530 .0247228
1053.109 .0247127
1053.688 .0247028
1054.268 .0246932
1054.847 .0246839
1055.426 .0246752
1056.005 .0246670
1056.583 .0246595
1057.162 .0246525
1057.741 .0246461
1058.319 .0246401
1058.898 .0246344
1059.476 .0246291
1060.055 .0246241
1060.633 .0246192
1061.211 .0246144
1061.790 .0246096
1062.368 .0246048
1062.946 .0246001
1063.524 .0245952
1064.102 .0245903
1064.680 .0245853
1065.258 .0245801
1065.836 .0245748
1066.414 .0245695
1066.992 .0245642
1067.570 .0245590
1068.148 .0245541
1068.726 .0245493
1069.304 .0245447
1069.882 .0245403
1070.460 .0245360
1071.038 .0245319
1071.616 .0245280
1072.194 .0245243
1072.772 .0245206
1073.350 .0245171
1073.928 .0245136
1074.506 .0245103
1075.084 .0245072
1075.662 .0245043
1076.240 .0245016
1076.819 .0244992
1077.397 .0244970
1077.976 .0244952
1078.554 .0244938
1079.133 .0244928
1079.711 .0244922
1080.290 .0244920
1080.869 .0244922
1081.448 .0244927
1082.027 .0244936
1082.606 .0244948
1083.185 .0244962
1083.764 .0244978
1084.343 .0244994
1084.923 .0245009
1085.502 .0245022
1086.082 .0245032
1086.662 .0245040
1087.242 .0245046
1087.822 .0245052
1088.402 .0245057
1088.983 .0245063
1089.563 .0245072
1090.144 .0245082
1090.725 .0245095
1091.306 .0245111
1091.887 .0245130
1092.469 .0245152
1093.050 .0245178
1093.632 .0245209
1094.214 .0245245
1094.796 .0245288
1095.379 .0245336
1095.961 .0245390
1096.544 .0245450
1097.127 .0245515
1097.710 .0245584
1098.294 .0245659
1098.877 .0245737
1099.461 .0245822
1100.046 .0245912
1100.630 .0246011
1101.215 .0246120
1101.800 .0246240
1102.385 .0246373
1102.970 .0246519
1103.556 .0246679
1104.142 .0246852
1104.728 .0247040
1105.315 .0247242
1105.902 .0247456
1106.489 .0247685
1107.077 .0247929
1107.664 .0248187
1108.253 .0248461
1108.841 .0248751
1109.430 .0249056
1110.019 .0249377
1110.609 .0249710
1111.198 .0250055
1111.789 .0250410
1112.379 .0250776
1112.970 .0251151
1113.561 .0251536
1114.153 .0251931
1114.745 .0252336
1115.338 .0252753
1115.931 .0253182
1116.524 .0253627
1117.117 .0254085
1117.712 .0254556
1118.306 .0255043
1118.901 .0255545
1119.496 .0256063
1120.092 .0256597
1120.689 .0257147
1121.285 .0257713
1121.882 .0258294
1122.480 .0258890
1123.078 .0259502
1123.677 .0260131
1124.276 .0260777
1124.875 .0261440
1125.476 .0262118
1126.076 .0262809
1126.677 .0263510
1127.279 .0264219
1127.881 .0264936
1128.484 .0265658
1129.087 .0265980
1129.691 .0266719
1130.295 .0267470
1130.900 .0268234
1131.505 .0269016
1132.111 .0269815
1132.718 .0270634
1133.325 .0271478
1133.933 .0272349
1134.541 .0273216
1135.150 .0274065
1135.760 .0274960
1136.370 .0276068
1136.981 .0277096
1137.592 .0277839
1138.204 .0278664
1138.817 .0279546
1139.431 .0280487
1140.045 .0281451
1140.660 .0282467
1141.275 .0283695
1141.891 .0285000
1142.508 .0285475
1143.126 .0285559
1143.744 .0287521
1144.363 .0294228
1144.983 .0294005
