Measurement Sequence started on: 15-12-46-377
Integration time: 28
Scans to Average: 2 
>>>>>Begin Spectral Data<<<<<
432.689 .0000100
433.621 .0000100
434.552 .0000100
435.482 .0000100
436.410 .0000100
437.337 .0000100
438.262 .0269763
439.187 .0570581
440.110 .0944576
441.031 .1366563
441.952 .1098517
442.871 .1147670
443.789 .1193420
444.705 .1236466
445.621 .1277303
446.535 .1316297
447.447 .1339520
448.359 .1345544
449.269 .1330706
450.178 .1292614
451.086 .1232024
451.993 .1153613
452.898 .1065149
453.803 .0975424
454.706 .0891913
455.608 .0819264
456.508 .0759059
457.408 .0718253
458.306 .0686824
459.204 .0661219
460.100 .0639668
460.995 .0621179
461.888 .0605076
462.781 .0590889
463.673 .0578277
464.563 .0566997
465.452 .0556860
466.340 .0547701
467.228 .0539402
468.114 .0531857
468.999 .0524981
469.882 .0518692
470.765 .0512926
471.647 .0507637
472.528 .0502786
473.407 .0498347
474.286 .0494302
475.163 .0490634
476.040 .0487323
476.915 .0484355
477.790 .0481711
478.663 .0479371
479.535 .0477321
480.407 .0475539
481.277 .0474009
482.147 .0472713
483.015 .0471637
483.883 .0470766
484.749 .0470088
485.615 .0469589
486.479 .0469253
487.343 .0469071
488.206 .0469030
489.067 .0469121
489.928 .0469344
490.788 .0469701
491.647 .0470208
492.505 .0470875
493.362 .0471724
494.218 .0472776
495.073 .0474052
495.928 .0476855
496.781 .0478800
497.634 .0481009
498.486 .0483484
499.337 .0486226
500.187 .0489244
501.036 .0492552
501.884 .0496168
502.731 .0500129
503.578 .0504477
504.424 .0507483
505.268 .0512546
506.113 .0518137
506.956 .0524298
507.798 .0531084
508.640 .0538550
509.480 .0546764
510.320 .0555815
511.160 .0565816
511.998 .0576888
512.836 .0589194
513.672 .0602913
514.508 .0618265
515.344 .0635480
516.178 .0654820
517.012 .0676542
517.845 .0700884
518.677 .0728069
519.508 .0758250
520.339 .0791485
521.169 .0827749
521.998 .0866778
522.826 .0908182
523.654 .0951397
524.481 .0995742
525.307 .1040463
526.133 .1084717
526.958 .1127618
527.782 .1168304
528.605 .1205954
529.428 .1239849
530.250 .1269314
531.072 .1293884
531.892 .1313152
532.712 .1326840
533.532 .1334771
534.350 .1336858
535.168 .1333135
535.986 .1323659
536.802 .1308516
537.618 .1287875
538.434 .1261930
539.249 .1231108
540.063 .1195935
540.876 .1157084
541.689 .1115325
542.501 .1071472
543.313 .1026393
544.124 .0980981
544.934 .0936065
545.744 .0892390
546.553 .0850585
547.361 .0811192
548.169 .0774529
548.976 .0740818
549.783 .0710141
550.589 .0682452
551.395 .0657601
552.200 .0635327
553.004 .0615342
553.808 .0597385
554.611 .0581184
555.414 .0566511
556.216 .0553150
557.018 .0540912
557.819 .0529625
558.619 .0519147
559.419 .0509371
560.218 .0500211
561.017 .0491590
561.815 .0483442
562.613 .0475727
563.410 .0468395
564.207 .0461398
565.003 .0454693
565.799 .0448243
566.594 .0442007
567.388 .0435956
568.182 .0430066
568.976 .0424331
569.769 .0418752
570.562 .0413339
571.354 .0408111
572.145 .0403091
572.936 .0398292
573.727 .0393720
574.517 .0389376
575.307 .0385260
576.096 .0381357
576.885 .0377658
577.673 .0374153
578.461 .0370834
579.248 .0367691
580.035 .0364723
580.821 .0361926
581.607 .0359301
582.392 .0356842
583.177 .0354550
583.962 .0352417
584.746 .0350439
585.529 .0348607
586.313 .0346910
587.095 .0345342
587.878 .0343891
588.660 .0342544
589.441 .0341291
590.222 .0340125
591.003 .0339038
591.783 .0338022
592.563 .0337071
593.342 .0336179
594.121 .0335342
594.899 .0334553
595.678 .0333809
596.455 .0333103
597.233 .0332431
598.009 .0331790
598.786 .0331173
599.562 .0330575
600.338 .0329993
601.113 .0329423
601.888 .0328604
602.663 .0328064
603.437 .0327536
604.211 .0327020
604.984 .0326518
605.757 .0326032
606.530 .0325562
607.302 .0325108
608.074 .0324671
608.845 .0324250
609.616 .0323844
610.387 .0323681
611.158 .0323295
611.928 .0322923
612.697 .0322564
613.467 .0322219
614.236 .0321887
615.004 .0321569
615.773 .0321264
616.541 .0320971
617.308 .0320689
618.076 .0320416
618.843 .0320150
619.609 .0319890
620.375 .0319634
621.141 .0319380
621.907 .0319128
622.672 .0318876
623.437 .0318624
624.202 .0318371
624.966 .0318116
625.730 .0317860
626.493 .0317602
627.257 .0317341
628.020 .0317078
628.782 .0316813
629.545 .0316545
630.307 .0316275
631.068 .0316002
631.830 .0315728
632.591 .0315452
633.352 .0315176
634.112 .0314900
634.872 .0314626
635.632 .0314355
636.392 .0314087
637.151 .0313823
637.910 .0313563
638.668 .0313305
639.427 .0313049
640.185 .0312797
640.943 .0312546
641.700 .0312298
642.457 .0312053
643.214 .0311810
643.971 .0311570
644.727 .0311333
645.483 .0311100
646.239 .0310870
646.994 .0310643
647.750 .0310416
648.505 .0310191
649.259 .0309965
650.014 .0309740
650.768 .0309514
651.521 .0309287
652.275 .0309059
653.028 .0308829
653.781 .0308597
654.534 .0308364
655.286 .0308130
656.039 .0307894
656.791 .0307656
657.542 .0307416
658.294 .0307174
659.045 .0306930
659.796 .0306684
660.546 .0306435
661.297 .0306186
662.047 .0305935
662.796 .0305684
663.546 .0305435
664.295 .0305187
665.044 .0304944
665.793 .0304705
666.542 .0304471
667.290 .0304242
668.038 .0304017
668.786 .0303796
669.533 .0303579
670.281 .0303365
671.028 .0303155
671.774 .0302949
672.521 .0302748
673.267 .0302552
674.013 .0302362
674.759 .0302178
675.505 .0301999
676.250 .0301826
676.995 .0301656
677.740 .0301489
678.484 .0301323
679.229 .0301158
679.973 .0300993
680.717 .0300827
681.460 .0300661
682.204 .0300494
682.947 .0300326
683.690 .0300156
684.433 .0299985
685.175 .0299814
685.917 .0299641
686.659 .0299467
687.401 .0299291
688.142 .0299113
688.884 .0298931
689.625 .0298746
690.365 .0298558
691.106 .0298367
691.846 .0298173
692.586 .0297978
693.326 .0297782
694.066 .0297588
694.805 .0297396
695.545 .0297207
696.284 .0297022
697.022 .0296839
697.761 .0296659
698.499 .0296481
699.237 .0296304
699.975 .0296130
700.713 .0295956
701.450 .0295784
702.187 .0295613
702.924 .0295444
703.661 .0295276
704.397 .0295108
705.133 .0294942
705.869 .0294776
706.605 .0294609
707.341 .0294442
708.076 .0294273
708.811 .0294102
709.546 .0293929
710.281 .0293754
711.015 .0293576
711.749 .0293395
712.483 .0293212
713.217 .0293027
713.950 .0292840
714.684 .0292652
715.417 .0292463
716.150 .0292272
716.882 .0292080
717.615 .0291886
718.347 .0291691
719.079 .0291494
719.811 .0291295
720.542 .0291094
721.273 .0290891
722.005 .0290686
722.735 .0290481
723.466 .0290275
724.196 .0290070
724.927 .0289865
725.656 .0289661
726.386 .0289459
727.116 .0289259
727.845 .0289061
728.574 .0288866
729.303 .0288674
730.031 .0288485
730.760 .0288300
731.488 .0288118
732.216 .0287941
732.944 .0287767
733.671 .0287599
734.398 .0287435
735.125 .0287275
735.852 .0287120
736.579 .0286970
737.305 .0286825
738.031 .0286685
738.757 .0286550
739.483 .0286420
740.208 .0286295
740.933 .0286176
741.658 .0286061
742.383 .0285951
743.108 .0285844
743.832 .0285741
744.556 .0285641
745.280 .0285544
746.004 .0285449
746.727 .0285355
747.450 .0285262
748.173 .0285171
748.896 .0285079
749.618 .0284986
750.340 .0284893
751.062 .0284799
751.784 .0284703
752.506 .0284604
753.227 .0284504
753.948 .0284401
754.669 .0284296
755.389 .0284187
756.110 .0284076
756.830 .0283962
757.550 .0283845
758.269 .0283726
758.989 .0283605
759.708 .0283483
760.427 .0283360
761.146 .0283237
761.864 .0283112
762.582 .0282987
763.300 .0282861
764.018 .0282734
764.736 .0282606
765.453 .0282477
766.170 .0282346
766.887 .0282216
767.603 .0282085
768.320 .0281956
769.036 .0281829
769.751 .0281705
770.467 .0281583
771.182 .0281466
771.897 .0281352
772.612 .0281242
773.327 .0281137
774.041 .0281037
774.755 .0280942
775.469 .0280853
776.183 .0280769
776.896 .0280690
777.609 .0280616
778.322 .0280547
779.035 .0280482
779.747 .0280420
780.459 .0280362
781.171 .0280307
781.882 .0280254
782.594 .0280205
783.305 .0280159
784.016 .0280114
784.726 .0280072
785.436 .0280030
786.147 .0279964
786.856 .0279918
787.566 .0279870
788.275 .0279820
788.984 .0279767
789.693 .0279712
790.401 .0279654
791.110 .0279593
791.818 .0279529
792.525 .0279462
793.233 .0279391
793.940 .0279317
794.647 .0279270
795.353 .0279190
796.060 .0279105
796.766 .0279017
797.472 .0278925
798.177 .0278829
798.883 .0278731
799.588 .0278630
800.292 .0278525
800.997 .0278416
801.701 .0278305
802.405 .0278189
803.109 .0278070
803.812 .0277948
804.515 .0277823
805.218 .0277694
805.921 .0277563
806.623 .0277428
807.325 .0277289
808.027 .0277145
808.728 .0276996
809.429 .0276843
810.130 .0276684
810.831 .0276521
811.531 .0276354
812.231 .0276185
812.931 .0276013
813.630 .0275840
814.330 .0275666
815.029 .0275492
815.727 .0275318
816.426 .0275144
817.124 .0274971
817.821 .0274800
818.519 .0274630
819.216 .0274462
819.913 .0274297
820.609 .0274135
821.306 .0273976
822.002 .0273821
822.697 .0273670
823.393 .0273523
824.088 .0273379
824.783 .0273240
825.477 .0273104
826.171 .0272972
826.865 .0272843
827.559 .0272719
828.252 .0272598
828.945 .0272481
829.638 .0272368
830.330 .0272257
831.023 .0272149
831.714 .0272042
832.406 .0271937
833.097 .0271832
833.788 .0271727
834.479 .0271623
835.169 .0271519
835.859 .0271416
836.548 .0271315
837.238 .0271214
837.927 .0271115
838.615 .0271016
839.304 .0270917
839.992 .0270819
840.680 .0270720
841.367 .0270622
842.054 .0270523
842.741 .0270425
843.428 .0270328
844.114 .0270232
844.800 .0270135
845.485 .0270038
846.170 .0269939
846.855 .0269838
847.540 .0269733
848.224 .0269625
848.908 .0269513
849.592 .0269397
850.275 .0269276
850.958 .0269151
851.641 .0269022
852.323 .0268888
853.005 .0268751
853.687 .0268609
854.368 .0268462
855.049 .0268313
855.730 .0268160
856.410 .0268006
857.090 .0267851
857.769 .0267696
858.449 .0267541
859.128 .0267388
859.806 .0267236
860.485 .0267087
861.163 .0266941
861.840 .0266797
862.518 .0266658
863.195 .0266524
863.871 .0266396
864.548 .0266274
865.224 .0266159
865.899 .0266050
866.574 .0265949
867.249 .0265855
867.924 .0265768
868.598 .0265688
869.272 .0265615
869.946 .0265549
870.619 .0265490
871.292 .0265437
871.964 .0265390
872.636 .0265348
873.308 .0265313
873.979 .0265283
874.651 .0265257
875.321 .0265237
875.992 .0265221
876.662 .0265208
877.331 .0265198
878.001 .0265191
878.670 .0265185
879.338 .0265181
880.007 .0265177
880.675 .0265174
881.342 .0265174
882.009 .0265175
882.676 .0265179
883.343 .0265186
884.009 .0265198
884.675 .0265215
885.340 .0265235
886.005 .0265259
886.670 .0265287
887.334 .0265319
887.998 .0265353
888.662 .0265390
889.325 .0265429
889.988 .0265471
890.650 .0265514
891.312 .0265560
891.974 .0265606
892.636 .0265654
893.297 .0265700
893.957 .0265745
894.618 .0265788
895.278 .0265827
895.937 .0265863
896.596 .0265893
897.255 .0265919
897.914 .0265939
898.572 .0265953
899.230 .0265959
899.887 .0265959
900.544 .0265949
901.201 .0265931
901.857 .0265862
902.513 .0265821
903.168 .0265771
903.823 .0265714
904.478 .0265648
905.132 .0265576
905.786 .0265496
906.440 .0265407
907.093 .0265311
907.746 .0265207
908.399 .0265094
909.051 .0264974
909.703 .0264847
910.354 .0264775
911.005 .0264642
911.656 .0264506
912.306 .0264368
912.956 .0264228
913.605 .0264087
914.254 .0263945
914.903 .0263802
915.551 .0263658
916.199 .0263512
916.847 .0263365
917.494 .0263216
918.141 .0263066
918.788 .0262915
919.434 .0262761
920.079 .0262606
920.725 .0262448
921.370 .0262287
922.014 .0262122
922.658 .0261952
923.302 .0261779
923.946 .0261601
924.589 .0261419
925.231 .0261234
925.873 .0261045
926.515 .0260853
927.157 .0260658
927.798 .0260460
928.439 .0260259
929.079 .0260055
929.719 .0259849
930.359 .0259640
930.998 .0259429
931.637 .0259216
932.275 .0259003
932.913 .0258790
933.551 .0258577
934.188 .0258366
934.825 .0258157
935.462 .0257952
936.098 .0257749
936.733 .0257551
937.369 .0257356
938.004 .0257167
938.638 .0256983
939.273 .0256804
939.907 .0256632
940.540 .0256466
941.173 .0256306
941.806 .0256153
942.438 .0256006
943.070 .0255865
943.702 .0255728
944.333 .0255595
944.964 .0255464
945.594 .0255334
946.224 .0255204
946.854 .0255074
947.483 .0254942
948.112 .0254810
948.741 .0254676
949.369 .0254541
949.996 .0254404
950.624 .0254264
951.251 .0254121
951.878 .0253974
952.504 .0253823
953.130 .0253667
953.755 .0253507
954.380 .0253344
955.005 .0253178
955.629 .0253010
956.253 .0252840
956.877 .0252669
957.500 .0252497
958.123 .0252322
958.746 .0252147
959.368 .0251969
959.990 .0251790
960.611 .0251612
961.232 .0251433
961.853 .0251257
962.473 .0251083
963.093 .0250913
963.712 .0250747
964.331 .0250584
964.950 .0250424
965.569 .0250267
966.187 .0250113
966.804 .0249960
967.422 .0249810
968.039 .0249660
968.655 .0249512
969.272 .0249364
969.887 .0249217
970.503 .0249071
971.118 .0248924
971.733 .0248776
972.347 .0248626
972.961 .0248473
973.575 .0248318
974.188 .0248160
974.801 .0248000
975.414 .0247837
976.026 .0247674
976.638 .0247510
977.250 .0247346
977.861 .0247182
978.472 .0247020
979.083 .0246859
979.693 .0246699
980.303 .0246540
980.912 .0246313
981.521 .0246160
982.130 .0246010
982.738 .0245864
983.346 .0245722
983.954 .0245585
984.562 .0245453
985.169 .0245328
985.775 .0245209
986.382 .0245098
986.988 .0244993
987.594 .0244895
988.199 .0244805
988.804 .0244722
989.409 .0244704
990.013 .0244635
990.617 .0244574
991.221 .0244522
991.824 .0244478
992.427 .0244443
993.030 .0244415
993.632 .0244393
994.234 .0244378
994.836 .0244369
995.438 .0244364
996.039 .0244365
996.640 .0244370
997.240 .0244381
997.840 .0244398
998.440 .0244421
999.040 .0244449
999.639 .0244482
1000.238 .0244521
1000.836 .0244565
1001.435 .0244615
1002.033 .0244669
1002.630 .0244728
1003.228 .0244791
1003.825 .0244858
1004.422 .0244930
1005.018 .0245004
1005.614 .0245080
1006.210 .0245158
1006.806 .0245237
1007.401 .0245316
1007.996 .0245394
1008.591 .0245471
1009.186 .0245549
1009.780 .0245626
1010.374 .0245704
1010.967 .0245782
1011.561 .0245861
1012.154 .0245942
1012.746 .0246024
1013.339 .0246108
1013.931 .0246194
1014.523 .0246282
1015.115 .0246373
1015.706 .0246466
1016.298 .0246563
1016.888 .0246664
1017.479 .0246768
1018.069 .0246877
1018.660 .0246989
1019.250 .0247105
1019.839 .0247224
1020.429 .0247348
1021.018 .0247475
1021.607 .0247605
1022.195 .0247740
1022.784 .0247879
1023.372 .0248022
1023.960 .0248171
1024.547 .0248325
1025.135 .0248485
1025.722 .0248651
1026.309 .0248821
1026.896 .0248996
1027.483 .0249173
1028.069 .0249353
1028.655 .0249534
1029.241 .0249715
1029.827 .0249896
1030.412 .0250076
1030.997 .0250255
1031.582 .0250432
1032.167 .0250607
1032.752 .0250779
1033.336 .0250949
1033.921 .0251116
1034.505 .0251280
1035.089 .0251441
1035.672 .0251600
1036.256 .0251757
1036.839 .0251912
1037.422 .0252065
1038.005 .0252216
1038.588 .0252365
1039.171 .0252513
1039.753 .0252659
1040.335 .0252803
1040.918 .0252945
1041.500 .0253085
1042.081 .0253222
1042.663 .0253357
1043.244 .0253489
1043.826 .0253619
1044.407 .0253747
1044.988 .0253872
1045.569 .0253996
1046.150 .0254117
1046.730 .0254237
1047.311 .0254355
1047.891 .0254472
1048.471 .0254587
1049.052 .0254700
1049.632 .0254812
1050.211 .0254921
1050.791 .0255027
1051.371 .0255129
1051.950 .0255226
1052.530 .0255318
1053.109 .0255404
1053.688 .0255485
1054.268 .0255560
1054.847 .0255629
1055.426 .0255694
1056.005 .0255755
1056.583 .0255811
1057.162 .0255864
1057.741 .0255914
1058.319 .0255961
1058.898 .0256004
1059.476 .0256045
1060.055 .0256083
1060.633 .0256119
1061.211 .0256152
1061.790 .0256185
1062.368 .0256217
1062.946 .0256249
1063.524 .0256280
1064.102 .0256311
1064.680 .0256340
1065.258 .0256368
1065.836 .0256392
1066.414 .0256414
1066.992 .0256432
1067.570 .0256447
1068.148 .0256459
1068.726 .0256468
1069.304 .0256474
1069.882 .0256479
1070.460 .0256482
1071.038 .0256483
1071.616 .0256482
1072.194 .0256480
1072.772 .0256475
1073.350 .0256469
1073.928 .0256460
1074.506 .0256449
1075.084 .0256436
1075.662 .0256423
1076.240 .0256408
1076.819 .0256393
1077.397 .0256377
1077.976 .0256361
1078.554 .0256346
1079.133 .0256333
1079.711 .0256323
1080.290 .0256316
1080.869 .0256313
1081.448 .0256315
1082.027 .0256322
1082.606 .0256334
1083.185 .0256352
1083.764 .0256374
1084.343 .0256401
1084.923 .0256433
1085.502 .0256472
1086.082 .0256519
1086.662 .0256573
1087.242 .0256635
1087.822 .0256703
1088.402 .0256777
1088.983 .0256855
1089.563 .0256936
1090.144 .0257019
1090.725 .0257104
1091.306 .0257190
1091.887 .0257279
1092.469 .0257370
1093.050 .0257466
1093.632 .0257566
1094.214 .0257671
1094.796 .0257779
1095.379 .0257890
1095.961 .0258001
1096.544 .0258112
1097.127 .0258222
1097.710 .0258328
1098.294 .0258433
1098.877 .0258535
1099.461 .0258635
1100.046 .0258734
1100.630 .0258831
1101.215 .0258927
1101.800 .0259020
1102.385 .0259109
1102.970 .0259192
1103.556 .0259268
1104.142 .0259337
1104.728 .0259401
1105.315 .0259461
1105.902 .0259518
1106.489 .0259577
1107.077 .0259641
1107.664 .0259710
1108.253 .0259786
1108.841 .0259869
1109.430 .0259959
1110.019 .0260057
1110.609 .0260163
1111.198 .0260279
1111.789 .0260406
1112.379 .0260546
1112.970 .0260699
1113.561 .0260867
1114.153 .0261048
1114.745 .0261241
1115.338 .0261445
1115.931 .0261658
1116.524 .0261880
1117.117 .0262109
1117.712 .0262346
1118.306 .0262592
1118.901 .0262852
1119.496 .0263128
1120.092 .0263423
1120.689 .0263741
1121.285 .0264082
1121.882 .0264449
1122.480 .0264842
1123.078 .0265260
1123.677 .0265704
1124.276 .0266173
1124.875 .0266666
1125.476 .0267183
1126.076 .0267725
1126.677 .0268292
1127.279 .0268885
1127.881 .0269504
1128.484 .0270147
1129.087 .0270403
1129.691 .0271075
1130.295 .0271768
1130.900 .0272479
1131.505 .0273209
1132.111 .0273957
1132.718 .0274724
1133.325 .0275515
1133.933 .0276335
1134.541 .0277196
1135.150 .0278049
1135.760 .0278950
1136.370 .0279935
1136.981 .0281180
1137.592 .0282321
1138.204 .0283394
1138.817 .0284395
1139.431 .0285391
1140.045 .0286317
1140.660 .0287247
1141.275 .0288223
1141.891 .0289358
1142.508 .0290782
1143.126 .0290801
1143.744 .0292494
1144.363 .0295225
1144.983 .0298412
