Measurement Sequence started on: 15-12-46-377
Integration time: 28
Scans to Average: 2 
>>>>>Begin Spectral Data<<<<<
432.689 .0000100
433.621 .0000100
434.552 .0000100
435.482 .0000100
436.410 .0000100
437.337 .0000100
438.262 .0293721
439.187 .0621625
440.110 .1029189
441.031 .1488333
441.952 .1186515
442.871 .1238640
443.789 .1287194
444.705 .1332895
445.621 .1376241
446.535 .1417595
447.447 .1441760
448.359 .1447140
449.269 .1429735
450.178 .1386983
451.086 .1319774
451.993 .1233261
452.898 .1135948
453.803 .1037461
454.706 .0945956
455.608 .0866466
456.508 .0800640
457.408 .0755985
458.306 .0721514
459.204 .0693287
460.100 .0669333
460.995 .0648564
461.888 .0630288
462.781 .0614044
463.673 .0599499
464.563 .0586427
465.452 .0574652
466.340 .0564018
467.228 .0554404
468.114 .0545710
468.999 .0537853
469.882 .0530752
470.765 .0524340
471.647 .0518561
472.528 .0513370
473.407 .0508724
474.286 .0504582
475.163 .0500918
476.040 .0497699
476.915 .0494891
477.790 .0492467
478.663 .0490395
479.535 .0488646
480.407 .0487184
481.277 .0485974
482.147 .0484979
483.015 .0484158
483.883 .0483476
484.749 .0482902
485.615 .0482411
486.479 .0481988
487.343 .0481621
488.206 .0481313
489.067 .0481062
489.928 .0480878
490.788 .0480773
491.647 .0480761
492.505 .0480859
493.362 .0481088
494.218 .0481466
495.073 .0482019
495.928 .0483663
496.781 .0484848
497.634 .0486313
498.486 .0488090
499.337 .0490209
500.187 .0492705
501.036 .0495612
501.884 .0498969
502.731 .0502822
503.578 .0507214
504.424 .0510608
505.268 .0515961
506.113 .0521977
506.956 .0528695
507.798 .0536167
508.640 .0544440
509.480 .0553578
510.320 .0563662
511.160 .0574797
511.998 .0587099
512.836 .0600742
513.672 .0615896
514.508 .0632763
515.344 .0651551
516.178 .0672451
517.012 .0695665
517.845 .0721379
518.677 .0749754
519.508 .0780924
520.339 .0814938
521.169 .0851840
521.998 .0891404
522.826 .0933354
523.654 .0977186
524.481 .1022277
525.307 .1067889
526.133 .1113174
526.958 .1157186
527.782 .1199016
528.605 .1237774
529.428 .1272696
530.250 .1303038
531.072 .1328319
531.892 .1348118
532.712 .1362194
533.532 .1370429
534.350 .1372810
535.168 .1369393
535.986 .1360323
536.802 .1345680
537.618 .1325629
538.434 .1300285
539.249 .1270017
540.063 .1235225
540.876 .1196506
541.689 .1154585
542.501 .1110273
543.313 .1064460
544.124 .1018117
544.934 .0972142
545.744 .0927378
546.553 .0884506
547.361 .0844123
548.169 .0806554
548.976 .0772033
549.783 .0740597
550.589 .0712173
551.395 .0686571
552.200 .0663544
553.004 .0642771
553.808 .0624007
554.611 .0607001
555.414 .0591548
556.216 .0577459
557.018 .0564552
557.819 .0552684
558.619 .0541703
559.419 .0531481
560.218 .0521917
561.017 .0512917
561.815 .0504399
562.613 .0496298
563.410 .0488563
564.207 .0481150
565.003 .0474023
565.799 .0467153
566.594 .0460514
567.388 .0454086
568.182 .0447859
568.976 .0441815
569.769 .0435948
570.562 .0430263
571.354 .0424761
572.145 .0419449
572.936 .0414333
573.727 .0409416
574.517 .0404694
575.307 .0400170
576.096 .0395834
576.885 .0391683
577.673 .0387710
578.461 .0383913
579.248 .0380287
580.035 .0376830
580.821 .0373544
581.607 .0370428
582.392 .0367482
583.177 .0364706
583.962 .0362097
584.746 .0359652
585.529 .0357367
586.313 .0355234
587.095 .0353245
587.878 .0351391
588.660 .0349663
589.441 .0348053
590.222 .0346556
591.003 .0345167
591.783 .0343881
592.563 .0342695
593.342 .0341603
594.121 .0340598
594.899 .0339673
595.678 .0338818
596.455 .0338027
597.233 .0337292
598.009 .0336604
598.786 .0335957
599.562 .0335346
600.338 .0334764
601.113 .0334208
601.888 .0333436
602.663 .0332929
603.437 .0332440
604.211 .0331967
604.984 .0331511
605.757 .0331071
606.530 .0330647
607.302 .0330239
608.074 .0329848
608.845 .0329474
609.616 .0329118
610.387 .0328986
611.158 .0328663
611.928 .0328361
612.697 .0328079
613.467 .0327819
614.236 .0327581
615.004 .0327363
615.773 .0327166
616.541 .0326988
617.308 .0326829
618.076 .0326686
618.843 .0326557
619.609 .0326439
620.375 .0326331
621.141 .0326228
621.907 .0326129
622.672 .0326031
623.437 .0325931
624.202 .0325826
624.966 .0325712
625.730 .0325586
626.493 .0325446
627.257 .0325290
628.020 .0325116
628.782 .0324922
629.545 .0324708
630.307 .0324473
631.068 .0324219
631.830 .0323947
632.591 .0323659
633.352 .0323355
634.112 .0323039
634.872 .0322710
635.632 .0322370
636.392 .0322021
637.151 .0321663
637.910 .0321300
638.668 .0320932
639.427 .0320562
640.185 .0320191
640.943 .0319823
641.700 .0319459
642.457 .0319100
643.214 .0318749
643.971 .0318404
644.727 .0318066
645.483 .0317735
646.239 .0317410
646.994 .0317088
647.750 .0316771
648.505 .0316455
649.259 .0316140
650.014 .0315825
650.768 .0315508
651.521 .0315191
652.275 .0314872
653.028 .0314553
653.781 .0314232
654.534 .0313910
655.286 .0313587
656.039 .0313262
656.791 .0312936
657.542 .0312609
658.294 .0312280
659.045 .0311950
659.796 .0311621
660.546 .0311291
661.297 .0310962
662.047 .0310635
662.796 .0310310
663.546 .0309989
664.295 .0309671
665.044 .0309357
665.793 .0309048
666.542 .0308745
667.290 .0308447
668.038 .0308155
668.786 .0307871
669.533 .0307592
670.281 .0307320
671.028 .0307053
671.774 .0306793
672.521 .0306539
673.267 .0306291
674.013 .0306050
674.759 .0305814
675.505 .0305585
676.250 .0305362
676.995 .0305146
677.740 .0304936
678.484 .0304734
679.229 .0304539
679.973 .0304352
680.717 .0304171
681.460 .0303998
682.204 .0303832
682.947 .0303673
683.690 .0303519
684.433 .0303371
685.175 .0303228
685.917 .0303090
686.659 .0302957
687.401 .0302829
688.142 .0302706
688.884 .0302587
689.625 .0302471
690.365 .0302358
691.106 .0302247
691.846 .0302137
692.586 .0302029
693.326 .0301921
694.066 .0301815
694.805 .0301709
695.545 .0301605
696.284 .0301502
697.022 .0301400
697.761 .0301300
698.499 .0301201
699.237 .0301103
699.975 .0301006
700.713 .0300910
701.450 .0300815
702.187 .0300721
702.924 .0300628
703.661 .0300534
704.397 .0300441
705.133 .0300346
705.869 .0300250
706.605 .0300152
707.341 .0300051
708.076 .0299945
708.811 .0299836
709.546 .0299721
710.281 .0299601
711.015 .0299475
711.749 .0299343
712.483 .0299204
713.217 .0299059
713.950 .0298906
714.684 .0298746
715.417 .0298580
716.150 .0298406
716.882 .0298225
717.615 .0298036
718.347 .0297841
719.079 .0297639
719.811 .0297430
720.542 .0297216
721.273 .0296997
722.005 .0296775
722.735 .0296549
723.466 .0296322
724.196 .0296095
724.927 .0295867
725.656 .0295641
726.386 .0295416
727.116 .0295192
727.845 .0294969
728.574 .0294748
729.303 .0294529
730.031 .0294313
730.760 .0294098
731.488 .0293886
732.216 .0293677
732.944 .0293470
733.671 .0293264
734.398 .0293061
735.125 .0292859
735.852 .0292657
736.579 .0292456
737.305 .0292256
738.031 .0292055
738.757 .0291853
739.483 .0291651
740.208 .0291447
740.933 .0291242
741.658 .0291034
742.383 .0290825
743.108 .0290613
743.832 .0290400
744.556 .0290186
745.280 .0289969
746.004 .0289751
746.727 .0289530
747.450 .0289307
748.173 .0289081
748.896 .0288853
749.618 .0288622
750.340 .0288390
751.062 .0288156
751.784 .0287921
752.506 .0287686
753.227 .0287450
753.948 .0287215
754.669 .0286979
755.389 .0286742
756.110 .0286506
756.830 .0286269
757.550 .0286033
758.269 .0285798
758.989 .0285565
759.708 .0285334
760.427 .0285106
761.146 .0284881
761.864 .0284661
762.582 .0284443
763.300 .0284230
764.018 .0284022
764.736 .0283819
765.453 .0283621
766.170 .0283429
766.887 .0283245
767.603 .0283067
768.320 .0282897
769.036 .0282735
769.751 .0282582
770.467 .0282437
771.182 .0282300
771.897 .0282173
772.612 .0282055
773.327 .0281946
774.041 .0281847
774.755 .0281758
775.469 .0281678
776.183 .0281609
776.896 .0281550
777.609 .0281500
778.322 .0281460
779.035 .0281429
779.747 .0281406
780.459 .0281392
781.171 .0281385
781.882 .0281384
782.594 .0281390
783.305 .0281401
784.016 .0281417
784.726 .0281437
785.436 .0281459
786.147 .0281500
786.856 .0281525
787.566 .0281550
788.275 .0281576
788.984 .0281601
789.693 .0281626
790.401 .0281651
791.110 .0281674
791.818 .0281695
792.525 .0281715
793.233 .0281732
793.940 .0281745
794.647 .0281743
795.353 .0281753
796.060 .0281759
796.766 .0281762
797.472 .0281762
798.177 .0281758
798.883 .0281749
799.588 .0281737
800.292 .0281720
800.997 .0281698
801.701 .0281671
802.405 .0281640
803.109 .0281604
803.812 .0281564
804.515 .0281519
805.218 .0281470
805.921 .0281418
806.623 .0281362
807.325 .0281302
808.027 .0281239
808.728 .0281173
809.429 .0281104
810.130 .0281031
810.831 .0280956
811.531 .0280878
812.231 .0280798
812.931 .0280715
813.630 .0280631
814.330 .0280544
815.029 .0280457
815.727 .0280369
816.426 .0280283
817.124 .0280197
817.821 .0280113
818.519 .0280030
819.216 .0279951
819.913 .0279874
820.609 .0279800
821.306 .0279730
822.002 .0279663
822.697 .0279600
823.393 .0279540
824.088 .0279483
824.783 .0279429
825.477 .0279378
826.171 .0279328
826.865 .0279279
827.559 .0279231
828.252 .0279182
828.945 .0279132
829.638 .0279082
830.330 .0279029
831.023 .0278975
831.714 .0278917
832.406 .0278857
833.097 .0278793
833.788 .0278725
834.479 .0278652
835.169 .0278575
835.859 .0278492
836.548 .0278404
837.238 .0278311
837.927 .0278212
838.615 .0278107
839.304 .0277995
839.992 .0277875
840.680 .0277749
841.367 .0277614
842.054 .0277471
842.741 .0277321
843.428 .0277163
844.114 .0276997
844.800 .0276824
845.485 .0276643
846.170 .0276455
846.855 .0276258
847.540 .0276054
848.224 .0275841
848.908 .0275620
849.592 .0275391
850.275 .0275154
850.958 .0274910
851.641 .0274658
852.323 .0274400
853.005 .0274135
853.687 .0273863
854.368 .0273586
855.049 .0273303
855.730 .0273016
856.410 .0272724
857.090 .0272428
857.769 .0272129
858.449 .0271828
859.128 .0271526
859.806 .0271222
860.485 .0270918
861.163 .0270615
861.840 .0270313
862.518 .0270011
863.195 .0269712
863.871 .0269416
864.548 .0269122
865.224 .0268832
865.899 .0268546
866.574 .0268265
867.249 .0267988
867.924 .0267715
868.598 .0267448
869.272 .0267186
869.946 .0266928
870.619 .0266676
871.292 .0266428
871.964 .0266185
872.636 .0265947
873.308 .0265715
873.979 .0265490
874.651 .0265270
875.321 .0265058
875.992 .0264852
876.662 .0264652
877.331 .0264460
878.001 .0264274
878.670 .0264094
879.338 .0263921
880.007 .0263756
880.675 .0263599
881.342 .0263450
882.009 .0263310
882.676 .0263179
883.343 .0263057
884.009 .0262944
884.675 .0262840
885.340 .0262744
886.005 .0262656
886.670 .0262576
887.334 .0262504
887.998 .0262441
888.662 .0262386
889.325 .0262338
889.988 .0262299
890.650 .0262265
891.312 .0262238
891.974 .0262216
892.636 .0262198
893.297 .0262183
893.957 .0262172
894.618 .0262164
895.278 .0262158
895.937 .0262153
896.596 .0262149
897.255 .0262145
897.914 .0262140
898.572 .0262131
899.230 .0262119
899.887 .0262102
900.544 .0262079
901.201 .0262050
901.857 .0261978
902.513 .0261931
903.168 .0261878
903.823 .0261819
904.478 .0261753
905.132 .0261681
905.786 .0261603
906.440 .0261520
907.093 .0261432
907.746 .0261339
908.399 .0261244
909.051 .0261145
909.703 .0261046
910.354 .0260992
911.005 .0260896
911.656 .0260802
912.306 .0260709
912.956 .0260618
913.605 .0260531
914.254 .0260446
914.903 .0260365
915.551 .0260289
916.199 .0260216
916.847 .0260149
917.494 .0260088
918.141 .0260033
918.788 .0259984
919.434 .0259942
920.079 .0259904
920.725 .0259872
921.370 .0259844
922.014 .0259820
922.658 .0259798
923.302 .0259778
923.946 .0259761
924.589 .0259746
925.231 .0259733
925.873 .0259722
926.515 .0259713
927.157 .0259705
927.798 .0259698
928.439 .0259690
929.079 .0259681
929.719 .0259671
930.359 .0259660
930.998 .0259647
931.637 .0259635
932.275 .0259622
932.913 .0259610
933.551 .0259598
934.188 .0259589
934.825 .0259581
935.462 .0259576
936.098 .0259572
936.733 .0259571
937.369 .0259572
938.004 .0259577
938.638 .0259585
939.273 .0259598
939.907 .0259615
940.540 .0259638
941.173 .0259665
941.806 .0259698
942.438 .0259734
943.070 .0259775
943.702 .0259818
944.333 .0259864
944.964 .0259911
945.594 .0259960
946.224 .0260010
946.854 .0260061
947.483 .0260112
948.112 .0260164
948.741 .0260216
949.369 .0260267
949.996 .0260317
950.624 .0260365
951.251 .0260411
951.878 .0260454
952.504 .0260494
953.130 .0260529
953.755 .0260561
954.380 .0260589
955.005 .0260614
955.629 .0260634
956.253 .0260650
956.877 .0260660
957.500 .0260664
958.123 .0260662
958.746 .0260653
959.368 .0260639
959.990 .0260618
960.611 .0260593
961.232 .0260563
961.853 .0260530
962.473 .0260492
963.093 .0260452
963.712 .0260408
964.331 .0260360
964.950 .0260310
965.569 .0260257
966.187 .0260202
966.804 .0260144
967.422 .0260083
968.039 .0260020
968.655 .0259954
969.272 .0259885
969.887 .0259813
970.503 .0259738
971.118 .0259658
971.733 .0259576
972.347 .0259489
972.961 .0259399
973.575 .0259306
974.188 .0259210
974.801 .0259110
975.414 .0259006
976.026 .0258899
976.638 .0258787
977.250 .0258671
977.861 .0258550
978.472 .0258425
979.083 .0258294
979.693 .0258159
980.303 .0258018
980.912 .0257781
981.521 .0257625
982.130 .0257464
982.738 .0257296
983.346 .0257123
983.954 .0256944
984.562 .0256759
985.169 .0256570
985.775 .0256378
986.382 .0256182
986.988 .0255983
987.594 .0255781
988.199 .0255578
988.804 .0255373
989.409 .0255268
990.013 .0255062
990.617 .0254856
991.221 .0254651
991.824 .0254445
992.427 .0254240
993.030 .0254035
993.632 .0253830
994.234 .0253627
994.836 .0253424
995.438 .0253221
996.039 .0253020
996.640 .0252821
997.240 .0252624
997.840 .0252430
998.440 .0252240
999.040 .0252053
999.639 .0251871
1000.238 .0251693
1000.836 .0251518
1001.435 .0251348
1002.033 .0251182
1002.630 .0251019
1003.228 .0250859
1003.825 .0250703
1004.422 .0250550
1005.018 .0250399
1005.614 .0250252
1006.210 .0250107
1006.806 .0249964
1007.401 .0249823
1007.996 .0249683
1008.591 .0249544
1009.186 .0249406
1009.780 .0249269
1010.374 .0249134
1010.967 .0249000
1011.561 .0248869
1012.154 .0248739
1012.746 .0248612
1013.339 .0248488
1013.931 .0248367
1014.523 .0248248
1015.115 .0248131
1015.706 .0248016
1016.298 .0247904
1016.888 .0247794
1017.479 .0247686
1018.069 .0247580
1018.660 .0247478
1019.250 .0247378
1019.839 .0247282
1020.429 .0247189
1021.018 .0247100
1021.607 .0247014
1022.195 .0246933
1022.784 .0246855
1023.372 .0246781
1023.960 .0246712
1024.547 .0246647
1025.135 .0246587
1025.722 .0246532
1026.309 .0246481
1026.896 .0246433
1027.483 .0246389
1028.069 .0246348
1028.655 .0246308
1029.241 .0246268
1029.827 .0246227
1030.412 .0246186
1030.997 .0246144
1031.582 .0246102
1032.167 .0246058
1032.752 .0246013
1033.336 .0245967
1033.921 .0245919
1034.505 .0245869
1035.089 .0245817
1035.672 .0245763
1036.256 .0245708
1036.839 .0245651
1037.422 .0245593
1038.005 .0245535
1038.588 .0245477
1039.171 .0245419
1039.753 .0245361
1040.335 .0245301
1040.918 .0245240
1041.500 .0245178
1042.081 .0245114
1042.663 .0245048
1043.244 .0244982
1043.826 .0244914
1044.407 .0244847
1044.988 .0244780
1045.569 .0244713
1046.150 .0244647
1046.730 .0244582
1047.311 .0244518
1047.891 .0244455
1048.471 .0244393
1049.052 .0244333
1049.632 .0244276
1050.211 .0244221
1050.791 .0244170
1051.371 .0244123
1051.950 .0244080
1052.530 .0244041
1053.109 .0244005
1053.688 .0243973
1054.268 .0243943
1054.847 .0243917
1055.426 .0243894
1056.005 .0243873
1056.583 .0243857
1057.162 .0243843
1057.741 .0243833
1058.319 .0243826
1058.898 .0243822
1059.476 .0243822
1060.055 .0243824
1060.633 .0243829
1061.211 .0243836
1061.790 .0243846
1062.368 .0243857
1062.946 .0243869
1063.524 .0243882
1064.102 .0243896
1064.680 .0243911
1065.258 .0243928
1065.836 .0243946
1066.414 .0243966
1066.992 .0243990
1067.570 .0244018
1068.148 .0244049
1068.726 .0244085
1069.304 .0244124
1069.882 .0244166
1070.460 .0244210
1071.038 .0244256
1071.616 .0244305
1072.194 .0244356
1072.772 .0244409
1073.350 .0244466
1073.928 .0244527
1074.506 .0244590
1075.084 .0244657
1075.662 .0244727
1076.240 .0244798
1076.819 .0244872
1077.397 .0244947
1077.976 .0245027
1078.554 .0245112
1079.133 .0245204
1079.711 .0245306
1080.290 .0245419
1080.869 .0245544
1081.448 .0245681
1082.027 .0245828
1082.606 .0245985
1083.185 .0246150
1083.764 .0246320
1084.343 .0246495
1084.923 .0246675
1085.502 .0246861
1086.082 .0247053
1086.662 .0247253
1087.242 .0247461
1087.822 .0247676
1088.402 .0247898
1088.983 .0248125
1089.563 .0248356
1090.144 .0248589
1090.725 .0248826
1091.306 .0249067
1091.887 .0249313
1092.469 .0249566
1093.050 .0249830
1093.632 .0250105
1094.214 .0250392
1094.796 .0250689
1095.379 .0250994
1095.961 .0251304
1096.544 .0251616
1097.127 .0251929
1097.710 .0252240
1098.294 .0252551
1098.877 .0252861
1099.461 .0253171
1100.046 .0253484
1100.630 .0253802
1101.215 .0254123
1101.800 .0254450
1102.385 .0254780
1102.970 .0255111
1103.556 .0255443
1104.142 .0255776
1104.728 .0256109
1105.315 .0256444
1105.902 .0256782
1106.489 .0257125
1107.077 .0257473
1107.664 .0257828
1108.253 .0258190
1108.841 .0258558
1109.430 .0258933
1110.019 .0259311
1110.609 .0259693
1111.198 .0260079
1111.789 .0260469
1112.379 .0260864
1112.970 .0261265
1113.561 .0261675
1114.153 .0262097
1114.745 .0262531
1115.338 .0262980
1115.931 .0263445
1116.524 .0263928
1117.117 .0264427
1117.712 .0264944
1118.306 .0265478
1118.901 .0266029
1119.496 .0266596
1120.092 .0267181
1120.689 .0267784
1121.285 .0268405
1121.882 .0269045
1122.480 .0269707
1123.078 .0270391
1123.677 .0271097
1124.276 .0271826
1124.875 .0272578
1125.476 .0273352
1126.076 .0274148
1126.677 .0274963
1127.279 .0275798
1127.881 .0276650
1128.484 .0277519
1129.087 .0277913
1129.691 .0278809
1130.295 .0279718
1130.900 .0280636
1131.505 .0281564
1132.111 .0282498
1132.718 .0283436
1133.325 .0284372
1133.933 .0285292
1134.541 .0286277
1135.150 .0287267
1135.760 .0288160
1136.370 .0288991
1136.981 .0291161
1137.592 .0292107
1138.204 .0292996
1138.817 .0293833
1139.431 .0294668
1140.045 .0295514
1140.660 .0296313
1141.275 .0297018
1141.891 .0297344
1142.508 .0300031
1143.126 .0301050
1143.744 .0299220
1144.363 .0298406
1144.983 .0289789
