Measurement Sequence started on: 15-12-46-377
Integration time: 28
Scans to Average: 2 
>>>>>Begin Spectral Data<<<<<
432.689 .0000100
433.621 .0000100
434.552 .0000100
435.482 .0000100
436.410 .0000100
437.337 .0000100
438.262 .0282050
439.187 .0598400
440.110 .0991835
441.031 .1436235
441.952 .1154936
442.871 .1206204
443.789 .1253848
444.705 .1298625
445.621 .1341076
446.535 .1381617
447.447 .1405713
448.359 .1411786
449.269 .1395963
450.178 .1355684
451.086 .1291725
451.993 .1208970
452.898 .1115551
453.803 .1020708
454.706 .0932343
455.608 .0855398
456.508 .0791579
457.408 .0748187
458.306 .0714794
459.204 .0687626
460.100 .0664799
460.995 .0645203
461.888 .0628105
462.781 .0612990
463.673 .0599468
464.563 .0587260
465.452 .0576167
466.340 .0566037
467.228 .0556769
468.114 .0548286
468.999 .0540516
469.882 .0533388
470.765 .0526848
471.647 .0520838
472.528 .0515315
473.407 .0510244
474.286 .0505607
475.163 .0501394
476.040 .0497600
476.915 .0494223
477.790 .0491256
478.663 .0488687
479.535 .0486502
480.407 .0484678
481.277 .0483190
482.147 .0482003
483.015 .0481087
483.883 .0480419
484.749 .0479981
485.615 .0479756
486.479 .0479741
487.343 .0479930
488.206 .0480322
489.067 .0480907
489.928 .0481677
490.788 .0482618
491.647 .0483717
492.505 .0484960
493.362 .0486336
494.218 .0487834
495.073 .0489459
495.928 .0492418
496.781 .0494453
497.634 .0496687
498.486 .0499145
499.337 .0501859
500.187 .0504851
501.036 .0508143
501.884 .0511750
502.731 .0515686
503.578 .0519972
504.424 .0522912
505.268 .0527816
506.113 .0533149
506.956 .0538960
507.798 .0545320
508.640 .0552306
509.480 .0560015
510.320 .0568558
511.160 .0578062
511.998 .0588666
512.836 .0600516
513.672 .0613761
514.508 .0628593
515.344 .0645206
516.178 .0663825
517.012 .0684709
517.845 .0708113
518.677 .0734283
519.508 .0763435
520.339 .0795702
521.169 .0831153
521.998 .0869567
522.826 .0910629
523.654 .0953784
524.481 .0998346
525.307 .1043485
526.133 .1088274
526.958 .1131765
527.782 .1173037
528.605 .1211236
529.428 .1245620
530.250 .1275549
531.072 .1300627
531.892 .1320485
532.712 .1334921
533.532 .1343799
534.350 .1347036
535.168 .1344613
535.986 .1336557
536.802 .1322884
537.618 .1303677
538.434 .1279063
539.249 .1249428
540.063 .1215240
540.876 .1177160
541.689 .1135960
542.501 .1092514
543.313 .1047764
544.124 .1002649
544.934 .0958038
545.744 .0914710
546.553 .0873315
547.361 .0834381
548.169 .0798180
548.976 .0764918
549.783 .0734613
550.589 .0707189
551.395 .0682475
552.200 .0660240
553.004 .0640203
553.808 .0622119
554.611 .0605760
555.414 .0590902
556.216 .0577349
557.018 .0564913
557.819 .0553435
558.619 .0542775
559.419 .0532815
560.218 .0523467
561.017 .0514652
561.815 .0506317
562.613 .0498419
563.410 .0490913
564.207 .0483754
565.003 .0476902
565.799 .0470309
566.594 .0463942
567.388 .0457764
568.182 .0451745
568.976 .0445863
569.769 .0440108
570.562 .0434484
571.354 .0428994
572.145 .0423650
572.936 .0418464
573.727 .0413445
574.517 .0408602
575.307 .0403942
576.096 .0399462
576.885 .0395162
577.673 .0391042
578.461 .0387099
579.248 .0383329
580.035 .0379730
580.821 .0376305
581.607 .0373056
582.392 .0369986
583.177 .0367100
583.962 .0364399
584.746 .0361883
585.529 .0359549
586.313 .0357389
587.095 .0355394
587.878 .0353555
588.660 .0351859
589.441 .0350296
590.222 .0348857
591.003 .0347536
591.783 .0346324
592.563 .0345215
593.342 .0344200
594.121 .0343271
594.899 .0342415
595.678 .0341623
596.455 .0340883
597.233 .0340184
598.009 .0339518
598.786 .0338876
599.562 .0338256
600.338 .0337654
601.113 .0337068
601.888 .0336238
602.663 .0335691
603.437 .0335161
604.211 .0334645
604.984 .0334144
605.757 .0333656
606.530 .0333182
607.302 .0332721
608.074 .0332274
608.845 .0331843
609.616 .0331430
610.387 .0331272
611.158 .0330891
611.928 .0330529
612.697 .0330188
613.467 .0329868
614.236 .0329568
615.004 .0329286
615.773 .0329022
616.541 .0328774
617.308 .0328539
618.076 .0328317
618.843 .0328106
619.609 .0327904
620.375 .0327710
621.141 .0327522
621.907 .0327339
622.672 .0327159
623.437 .0326981
624.202 .0326802
624.966 .0326623
625.730 .0326439
626.493 .0326248
627.257 .0326050
628.020 .0325843
628.782 .0325626
629.545 .0325398
630.307 .0325160
631.068 .0324912
631.830 .0324654
632.591 .0324388
633.352 .0324114
634.112 .0323833
634.872 .0323545
635.632 .0323250
636.392 .0322949
637.151 .0322642
637.910 .0322330
638.668 .0322013
639.427 .0321693
640.185 .0321369
640.943 .0321045
641.700 .0320720
642.457 .0320396
643.214 .0320074
643.971 .0319755
644.727 .0319439
645.483 .0319126
646.239 .0318815
646.994 .0318507
647.750 .0318198
648.505 .0317889
649.259 .0317579
650.014 .0317267
650.768 .0316953
651.521 .0316638
652.275 .0316322
653.028 .0316005
653.781 .0315689
654.534 .0315374
655.286 .0315060
656.039 .0314747
656.791 .0314434
657.542 .0314121
658.294 .0313808
659.045 .0313495
659.796 .0313182
660.546 .0312869
661.297 .0312558
662.047 .0312248
662.796 .0311941
663.546 .0311638
664.295 .0311338
665.044 .0311044
665.793 .0310755
666.542 .0310473
667.290 .0310197
668.038 .0309927
668.786 .0309663
669.533 .0309405
670.281 .0309153
671.028 .0308905
671.774 .0308663
672.521 .0308426
673.267 .0308194
674.013 .0307967
674.759 .0307745
675.505 .0307528
676.250 .0307316
676.995 .0307108
677.740 .0306902
678.484 .0306700
679.229 .0306500
679.973 .0306303
680.717 .0306108
681.460 .0305916
682.204 .0305727
682.947 .0305542
683.690 .0305360
684.433 .0305182
685.175 .0305007
685.917 .0304836
686.659 .0304669
687.401 .0304505
688.142 .0304344
688.884 .0304187
689.625 .0304032
690.365 .0303881
691.106 .0303732
691.846 .0303585
692.586 .0303439
693.326 .0303296
694.066 .0303153
694.805 .0303012
695.545 .0302871
696.284 .0302731
697.022 .0302591
697.761 .0302451
698.499 .0302311
699.237 .0302170
699.975 .0302029
700.713 .0301888
701.450 .0301747
702.187 .0301605
702.924 .0301462
703.661 .0301318
704.397 .0301172
705.133 .0301024
705.869 .0300874
706.605 .0300721
707.341 .0300566
708.076 .0300407
708.811 .0300246
709.546 .0300082
710.281 .0299915
711.015 .0299745
711.749 .0299573
712.483 .0299397
713.217 .0299219
713.950 .0299038
714.684 .0298853
715.417 .0298665
716.150 .0298474
716.882 .0298278
717.615 .0298077
718.347 .0297872
719.079 .0297662
719.811 .0297448
720.542 .0297229
721.273 .0297008
722.005 .0296783
722.735 .0296557
723.466 .0296330
724.196 .0296102
724.927 .0295873
725.656 .0295644
726.386 .0295415
727.116 .0295187
727.845 .0294961
728.574 .0294736
729.303 .0294513
730.031 .0294294
730.760 .0294077
731.488 .0293864
732.216 .0293654
732.944 .0293448
733.671 .0293244
734.398 .0293043
735.125 .0292845
735.852 .0292650
736.579 .0292456
737.305 .0292265
738.031 .0292075
738.757 .0291886
739.483 .0291699
740.208 .0291513
740.933 .0291328
741.658 .0291145
742.383 .0290963
743.108 .0290782
743.832 .0290602
744.556 .0290424
745.280 .0290248
746.004 .0290073
746.727 .0289899
747.450 .0289726
748.173 .0289554
748.896 .0289382
749.618 .0289211
750.340 .0289041
751.062 .0288871
751.784 .0288703
752.506 .0288537
753.227 .0288373
753.948 .0288211
754.669 .0288051
755.389 .0287892
756.110 .0287735
756.830 .0287578
757.550 .0287422
758.269 .0287265
758.989 .0287110
759.708 .0286955
760.427 .0286801
761.146 .0286649
761.864 .0286497
762.582 .0286346
763.300 .0286196
764.018 .0286046
764.736 .0285898
765.453 .0285750
766.170 .0285604
766.887 .0285461
767.603 .0285321
768.320 .0285186
769.036 .0285055
769.751 .0284930
770.467 .0284812
771.182 .0284700
771.897 .0284595
772.612 .0284497
773.327 .0284407
774.041 .0284325
774.755 .0284251
775.469 .0284184
776.183 .0284126
776.896 .0284075
777.609 .0284031
778.322 .0283995
779.035 .0283965
779.747 .0283941
780.459 .0283924
781.171 .0283912
781.882 .0283907
782.594 .0283907
783.305 .0283913
784.016 .0283922
784.726 .0283936
785.436 .0283952
786.147 .0283982
786.856 .0284001
787.566 .0284020
788.275 .0284038
788.984 .0284055
789.693 .0284071
790.401 .0284085
791.110 .0284096
791.818 .0284104
792.525 .0284108
793.233 .0284108
793.940 .0284102
794.647 .0284085
795.353 .0284070
796.060 .0284049
796.766 .0284021
797.472 .0283987
798.177 .0283946
798.883 .0283899
799.588 .0283844
800.292 .0283781
800.997 .0283711
801.701 .0283633
802.405 .0283547
803.109 .0283452
803.812 .0283349
804.515 .0283237
805.218 .0283117
805.921 .0282988
806.623 .0282852
807.325 .0282709
808.027 .0282559
808.728 .0282404
809.429 .0282243
810.130 .0282077
810.831 .0281908
811.531 .0281735
812.231 .0281559
812.931 .0281381
813.630 .0281201
814.330 .0281021
815.029 .0280842
815.727 .0280662
816.426 .0280484
817.124 .0280306
817.821 .0280129
818.519 .0279952
819.216 .0279776
819.913 .0279601
820.609 .0279426
821.306 .0279253
822.002 .0279083
822.697 .0278916
823.393 .0278753
824.088 .0278594
824.783 .0278439
825.477 .0278288
826.171 .0278139
826.865 .0277992
827.559 .0277846
828.252 .0277702
828.945 .0277559
829.638 .0277417
830.330 .0277277
831.023 .0277137
831.714 .0276998
832.406 .0276860
833.097 .0276721
833.788 .0276582
834.479 .0276441
835.169 .0276299
835.859 .0276156
836.548 .0276012
837.238 .0275866
837.927 .0275720
838.615 .0275573
839.304 .0275424
839.992 .0275272
840.680 .0275116
841.367 .0274957
842.054 .0274794
842.741 .0274627
843.428 .0274458
844.114 .0274285
844.800 .0274109
845.485 .0273929
846.170 .0273746
846.855 .0273558
847.540 .0273365
848.224 .0273166
848.908 .0272963
849.592 .0272754
850.275 .0272541
850.958 .0272325
851.641 .0272107
852.323 .0271889
853.005 .0271669
853.687 .0271450
854.368 .0271230
855.049 .0271011
855.730 .0270792
856.410 .0270574
857.090 .0270358
857.769 .0270144
858.449 .0269933
859.128 .0269726
859.806 .0269523
860.485 .0269325
861.163 .0269132
861.840 .0268945
862.518 .0268764
863.195 .0268590
863.871 .0268422
864.548 .0268261
865.224 .0268106
865.899 .0267959
866.574 .0267817
867.249 .0267682
867.924 .0267551
868.598 .0267427
869.272 .0267307
869.946 .0267191
870.619 .0267081
871.292 .0266975
871.964 .0266875
872.636 .0266780
873.308 .0266690
873.979 .0266607
874.651 .0266530
875.321 .0266460
875.992 .0266397
876.662 .0266341
877.331 .0266292
878.001 .0266250
878.670 .0266214
879.338 .0266186
880.007 .0266165
880.675 .0266152
881.342 .0266146
882.009 .0266148
882.676 .0266157
883.343 .0266175
884.009 .0266201
884.675 .0266234
885.340 .0266274
886.005 .0266321
886.670 .0266375
887.334 .0266436
887.998 .0266503
888.662 .0266576
889.325 .0266654
889.988 .0266737
890.650 .0266824
891.312 .0266914
891.974 .0267006
892.636 .0267099
893.297 .0267192
893.957 .0267285
894.618 .0267377
895.278 .0267466
895.937 .0267553
896.596 .0267636
897.255 .0267714
897.914 .0267787
898.572 .0267854
899.230 .0267914
899.887 .0267967
900.544 .0268013
901.201 .0268052
901.857 .0268080
902.513 .0268101
903.168 .0268116
903.823 .0268123
904.478 .0268123
905.132 .0268116
905.786 .0268101
906.440 .0268080
907.093 .0268051
907.746 .0268015
908.399 .0267973
909.051 .0267924
909.703 .0267869
910.354 .0267829
911.005 .0267769
911.656 .0267705
912.306 .0267637
912.956 .0267567
913.605 .0267494
914.254 .0267419
914.903 .0267343
915.551 .0267265
916.199 .0267185
916.847 .0267102
917.494 .0267017
918.141 .0266928
918.788 .0266836
919.434 .0266740
920.079 .0266641
920.725 .0266536
921.370 .0266428
922.014 .0266314
922.658 .0266195
923.302 .0266071
923.946 .0265941
924.589 .0265805
925.231 .0265664
925.873 .0265517
926.515 .0265365
927.157 .0265209
927.798 .0265048
928.439 .0264882
929.079 .0264713
929.719 .0264539
930.359 .0264363
930.998 .0264182
931.637 .0264000
932.275 .0263816
932.913 .0263631
933.551 .0263446
934.188 .0263263
934.825 .0263082
935.462 .0262904
936.098 .0262729
936.733 .0262557
937.369 .0262388
938.004 .0262224
938.638 .0262063
939.273 .0261906
939.907 .0261754
940.540 .0261607
941.173 .0261464
941.806 .0261324
942.438 .0261188
943.070 .0261054
943.702 .0260921
944.333 .0260789
944.964 .0260656
945.594 .0260523
946.224 .0260389
946.854 .0260254
947.483 .0260117
948.112 .0259979
948.741 .0259839
949.369 .0259697
949.996 .0259550
950.624 .0259400
951.251 .0259244
951.878 .0259083
952.504 .0258917
953.130 .0258746
953.755 .0258570
954.380 .0258389
955.005 .0258204
955.629 .0258014
956.253 .0257820
956.877 .0257620
957.500 .0257415
958.123 .0257205
958.746 .0256991
959.368 .0256774
959.990 .0256554
960.611 .0256334
961.232 .0256115
961.853 .0255895
962.473 .0255677
963.093 .0255460
963.712 .0255243
964.331 .0255026
964.950 .0254808
965.569 .0254589
966.187 .0254369
966.804 .0254149
967.422 .0253929
968.039 .0253709
968.655 .0253489
969.272 .0253268
969.887 .0253048
970.503 .0252827
971.118 .0252606
971.733 .0252384
972.347 .0252161
972.961 .0251938
973.575 .0251715
974.188 .0251492
974.801 .0251270
975.414 .0251048
976.026 .0250826
976.638 .0250603
977.250 .0250381
977.861 .0250157
978.472 .0249932
979.083 .0249706
979.693 .0249479
980.303 .0249251
980.912 .0248910
981.521 .0248683
982.130 .0248458
982.738 .0248236
983.346 .0248016
983.954 .0247800
984.562 .0247587
985.169 .0247379
985.775 .0247176
986.382 .0246979
986.988 .0246786
987.594 .0246600
988.199 .0246419
988.804 .0246245
989.409 .0246181
990.013 .0246018
990.617 .0245862
991.221 .0245714
991.824 .0245574
992.427 .0245441
993.030 .0245315
993.632 .0245195
994.234 .0245082
994.836 .0244976
995.438 .0244877
996.039 .0244785
996.640 .0244702
997.240 .0244627
997.840 .0244561
998.440 .0244505
999.040 .0244459
999.639 .0244420
1000.238 .0244390
1000.836 .0244367
1001.435 .0244350
1002.033 .0244339
1002.630 .0244333
1003.228 .0244333
1003.825 .0244337
1004.422 .0244346
1005.018 .0244360
1005.614 .0244377
1006.210 .0244399
1006.806 .0244424
1007.401 .0244452
1007.996 .0244483
1008.591 .0244516
1009.186 .0244553
1009.780 .0244592
1010.374 .0244635
1010.967 .0244683
1011.561 .0244735
1012.154 .0244791
1012.746 .0244853
1013.339 .0244920
1013.931 .0244993
1014.523 .0245070
1015.115 .0245153
1015.706 .0245239
1016.298 .0245330
1016.888 .0245424
1017.479 .0245522
1018.069 .0245624
1018.660 .0245729
1019.250 .0245839
1019.839 .0245954
1020.429 .0246073
1021.018 .0246197
1021.607 .0246325
1022.195 .0246457
1022.784 .0246593
1023.372 .0246733
1023.960 .0246875
1024.547 .0247020
1025.135 .0247168
1025.722 .0247320
1026.309 .0247475
1026.896 .0247634
1027.483 .0247795
1028.069 .0247959
1028.655 .0248126
1029.241 .0248294
1029.827 .0248462
1030.412 .0248631
1030.997 .0248800
1031.582 .0248970
1032.167 .0249140
1032.752 .0249311
1033.336 .0249484
1033.921 .0249657
1034.505 .0249832
1035.089 .0250006
1035.672 .0250182
1036.256 .0250356
1036.839 .0250531
1037.422 .0250705
1038.005 .0250879
1038.588 .0251053
1039.171 .0251228
1039.753 .0251404
1040.335 .0251581
1040.918 .0251758
1041.500 .0251937
1042.081 .0252116
1042.663 .0252295
1043.244 .0252476
1043.826 .0252658
1044.407 .0252842
1044.988 .0253028
1045.569 .0253216
1046.150 .0253405
1046.730 .0253595
1047.311 .0253783
1047.891 .0253969
1048.471 .0254152
1049.052 .0254330
1049.632 .0254505
1050.211 .0254675
1050.791 .0254840
1051.371 .0255001
1051.950 .0255158
1052.530 .0255311
1053.109 .0255459
1053.688 .0255601
1054.268 .0255737
1054.847 .0255869
1055.426 .0255996
1056.005 .0256120
1056.583 .0256241
1057.162 .0256362
1057.741 .0256481
1058.319 .0256600
1058.898 .0256717
1059.476 .0256832
1060.055 .0256943
1060.633 .0257048
1061.211 .0257147
1061.790 .0257239
1062.368 .0257326
1062.946 .0257408
1063.524 .0257486
1064.102 .0257560
1064.680 .0257630
1065.258 .0257697
1065.836 .0257761
1066.414 .0257820
1066.992 .0257876
1067.570 .0257929
1068.148 .0257980
1068.726 .0258032
1069.304 .0258085
1069.882 .0258142
1070.460 .0258204
1071.038 .0258270
1071.616 .0258340
1072.194 .0258412
1072.772 .0258483
1073.350 .0258553
1073.928 .0258621
1074.506 .0258685
1075.084 .0258747
1075.662 .0258808
1076.240 .0258870
1076.819 .0258935
1077.397 .0259003
1077.976 .0259073
1078.554 .0259147
1079.133 .0259223
1079.711 .0259301
1080.290 .0259380
1080.869 .0259462
1081.448 .0259548
1082.027 .0259640
1082.606 .0259738
1083.185 .0259845
1083.764 .0259957
1084.343 .0260076
1084.923 .0260197
1085.502 .0260319
1086.082 .0260439
1086.662 .0260555
1087.242 .0260666
1087.822 .0260772
1088.402 .0260874
1088.983 .0260973
1089.563 .0261070
1090.144 .0261167
1090.725 .0261263
1091.306 .0261359
1091.887 .0261453
1092.469 .0261546
1093.050 .0261636
1093.632 .0261723
1094.214 .0261807
1094.796 .0261888
1095.379 .0261967
1095.961 .0262043
1096.544 .0262117
1097.127 .0262188
1097.710 .0262256
1098.294 .0262319
1098.877 .0262379
1099.461 .0262433
1100.046 .0262485
1100.630 .0262534
1101.215 .0262582
1101.800 .0262630
1102.385 .0262681
1102.970 .0262736
1103.556 .0262796
1104.142 .0262863
1104.728 .0262939
1105.315 .0263025
1105.902 .0263121
1106.489 .0263227
1107.077 .0263342
1107.664 .0263467
1108.253 .0263599
1108.841 .0263736
1109.430 .0263880
1110.019 .0264028
1110.609 .0264183
1111.198 .0264344
1111.789 .0264513
1112.379 .0264690
1112.970 .0264879
1113.561 .0265079
1114.153 .0265292
1114.745 .0265521
1115.338 .0265768
1115.931 .0266037
1116.524 .0266329
1117.117 .0266648
1117.712 .0266996
1118.306 .0267373
1118.901 .0267779
1119.496 .0268209
1120.092 .0268660
1120.689 .0269126
1121.285 .0269604
1121.882 .0270091
1122.480 .0270585
1123.078 .0271086
1123.677 .0271593
1124.276 .0272107
1124.875 .0272627
1125.476 .0273152
1126.076 .0273682
1126.677 .0274216
1127.279 .0274752
1127.881 .0275293
1128.484 .0275844
1129.087 .0276141
1129.691 .0276718
1130.295 .0277318
1130.900 .0277947
1131.505 .0278614
1132.111 .0279325
1132.718 .0280088
1133.325 .0280912
1133.933 .0281813
1134.541 .0282703
1135.150 .0283697
1135.760 .0284893
1136.370 .0286122
1136.981 .0283276
1137.592 .0284007
1138.204 .0284985
1138.817 .0286179
1139.431 .0287631
1140.045 .0289353
1140.660 .0291398
1141.275 .0293717
1141.891 .0296664
1142.508 .0297217
1143.126 .0301113
1143.744 .0307767
1144.363 .0309624
1144.983 .0321855
