Measurement Sequence started on: 15-12-46-377
Integration time: 28
Scans to Average: 2 
>>>>>Begin Spectral Data<<<<<
432.689 .0000100
433.621 .0000100
434.552 .0000100
435.482 .0000100
436.410 .0000100
437.337 .0000100
438.262 .0286408
439.187 .0606823
440.110 .1004774
441.031 .1453412
441.952 .1163780
442.871 .1215090
443.789 .1262763
444.705 .1307577
445.621 .1350069
446.535 .1390673
447.447 .1414629
448.359 .1420367
449.269 .1403992
450.178 .1362962
451.086 .1298059
451.993 .1214258
452.898 .1119779
453.803 .1023983
454.706 .0934838
455.608 .0857295
456.508 .0793036
457.408 .0749448
458.306 .0715907
459.204 .0688592
460.100 .0665596
460.995 .0645850
461.888 .0628600
462.781 .0613340
463.673 .0599668
464.563 .0587310
465.452 .0576077
466.340 .0565816
467.228 .0556432
468.114 .0547862
468.999 .0540050
469.882 .0532949
470.765 .0526509
471.647 .0520681
472.528 .0515411
473.407 .0510647
474.286 .0506349
475.163 .0502487
476.040 .0499037
476.915 .0495977
477.790 .0493287
478.663 .0490951
479.535 .0488947
480.407 .0487251
481.277 .0485839
482.147 .0484673
483.015 .0483728
483.883 .0482977
484.749 .0482398
485.615 .0481977
486.479 .0481704
487.343 .0481573
488.206 .0481588
489.067 .0481744
489.928 .0482041
490.788 .0482477
491.647 .0483051
492.505 .0483753
493.362 .0484583
494.218 .0485534
495.073 .0486604
495.928 .0488660
496.781 .0490086
497.634 .0491678
498.486 .0493456
499.337 .0495447
500.187 .0497683
501.036 .0500192
501.884 .0503006
502.731 .0506174
503.578 .0509738
504.424 .0512412
505.268 .0516756
506.113 .0521641
506.956 .0527124
507.798 .0533284
508.640 .0540209
509.480 .0548002
510.320 .0556787
511.160 .0566697
511.998 .0577883
512.836 .0590518
513.672 .0604777
514.508 .0620872
515.344 .0639021
516.178 .0659428
517.012 .0682320
517.845 .0707902
518.677 .0736391
519.508 .0767935
520.339 .0802627
521.169 .0840494
521.998 .0881310
522.826 .0924714
523.654 .0970135
524.481 .1016844
525.307 .1064028
526.133 .1110716
526.958 .1155920
527.782 .1198658
528.605 .1238053
529.428 .1273319
530.250 .1303790
531.072 .1329023
531.892 .1348639
532.712 .1362406
533.532 .1370242
534.350 .1372111
535.168 .1368081
535.986 .1358232
536.802 .1342675
537.618 .1321535
538.434 .1294981
539.249 .1263392
540.063 .1227267
540.876 .1187275
541.689 .1144222
542.501 .1098957
543.313 .1052440
544.124 .1005642
544.934 .0959484
545.744 .0914764
546.553 .0872175
547.361 .0832250
548.169 .0795290
548.976 .0761495
549.783 .0730894
550.589 .0703370
551.395 .0678724
552.200 .0656669
553.004 .0636888
553.808 .0619091
554.611 .0603020
555.414 .0588435
556.216 .0575137
557.018 .0562932
557.819 .0551656
558.619 .0541162
559.419 .0531337
560.218 .0522095
561.017 .0513357
561.815 .0505060
562.613 .0497153
563.410 .0489583
564.207 .0482305
565.003 .0475281
565.799 .0468470
566.594 .0461844
567.388 .0455390
568.182 .0449095
568.976 .0442955
569.769 .0436970
570.562 .0431148
571.354 .0425493
572.145 .0420019
572.936 .0414736
573.727 .0409647
574.517 .0404761
575.307 .0400087
576.096 .0395626
576.885 .0391384
577.673 .0387363
578.461 .0383560
579.248 .0379975
580.035 .0376602
580.821 .0373437
581.607 .0370469
582.392 .0367694
583.177 .0365104
583.962 .0362690
584.746 .0360446
585.529 .0358362
586.313 .0356426
587.095 .0354628
587.878 .0352956
588.660 .0351399
589.441 .0349945
590.222 .0348586
591.003 .0347312
591.783 .0346118
592.563 .0344996
593.342 .0343939
594.121 .0342943
594.899 .0342001
595.678 .0341108
596.455 .0340258
597.233 .0339448
598.009 .0338671
598.786 .0337926
599.562 .0337209
600.338 .0336515
601.113 .0335843
601.888 .0334885
602.663 .0334255
603.437 .0333641
604.211 .0333041
604.984 .0332455
605.757 .0331882
606.530 .0331323
607.302 .0330777
608.074 .0330246
608.845 .0329729
609.616 .0329227
610.387 .0329018
611.158 .0328542
611.928 .0328082
612.697 .0327638
613.467 .0327210
614.236 .0326799
615.004 .0326405
615.773 .0326029
616.541 .0325670
617.308 .0325327
618.076 .0325000
618.843 .0324687
619.609 .0324387
620.375 .0324100
621.141 .0323823
621.907 .0323558
622.672 .0323301
623.437 .0323054
624.202 .0322814
624.966 .0322581
625.730 .0322353
626.493 .0322130
627.257 .0321909
628.020 .0321689
628.782 .0321468
629.545 .0321246
630.307 .0321022
631.068 .0320796
631.830 .0320568
632.591 .0320337
633.352 .0320106
634.112 .0319873
634.872 .0319640
635.632 .0319407
636.392 .0319173
637.151 .0318940
637.910 .0318707
638.668 .0318475
639.427 .0318244
640.185 .0318014
640.943 .0317785
641.700 .0317559
642.457 .0317334
643.214 .0317113
643.971 .0316894
644.727 .0316680
645.483 .0316469
646.239 .0316261
646.994 .0316058
647.750 .0315858
648.505 .0315660
649.259 .0315464
650.014 .0315269
650.768 .0315074
651.521 .0314877
652.275 .0314678
653.028 .0314476
653.781 .0314271
654.534 .0314062
655.286 .0313848
656.039 .0313630
656.791 .0313406
657.542 .0313178
658.294 .0312944
659.045 .0312706
659.796 .0312462
660.546 .0312214
661.297 .0311960
662.047 .0311700
662.796 .0311436
663.546 .0311166
664.295 .0310891
665.044 .0310611
665.793 .0310327
666.542 .0310040
667.290 .0309751
668.038 .0309460
668.786 .0309169
669.533 .0308877
670.281 .0308586
671.028 .0308295
671.774 .0308004
672.521 .0307713
673.267 .0307421
674.013 .0307128
674.759 .0306834
675.505 .0306540
676.250 .0306244
676.995 .0305948
677.740 .0305651
678.484 .0305355
679.229 .0305059
679.973 .0304764
680.717 .0304470
681.460 .0304177
682.204 .0303885
682.947 .0303595
683.690 .0303304
684.433 .0303015
685.175 .0302725
685.917 .0302435
686.659 .0302146
687.401 .0301857
688.142 .0301570
688.884 .0301284
689.625 .0301001
690.365 .0300720
691.106 .0300443
691.846 .0300169
692.586 .0299900
693.326 .0299635
694.066 .0299375
694.805 .0299121
695.545 .0298873
696.284 .0298631
697.022 .0298396
697.761 .0298168
698.499 .0297946
699.237 .0297732
699.975 .0297525
700.713 .0297326
701.450 .0297135
702.187 .0296953
702.924 .0296780
703.661 .0296615
704.397 .0296457
705.133 .0296307
705.869 .0296163
706.605 .0296023
707.341 .0295886
708.076 .0295753
708.811 .0295623
709.546 .0295495
710.281 .0295370
711.015 .0295247
711.749 .0295126
712.483 .0295007
713.217 .0294889
713.950 .0294773
714.684 .0294658
715.417 .0294544
716.150 .0294431
716.882 .0294318
717.615 .0294206
718.347 .0294095
719.079 .0293983
719.811 .0293872
720.542 .0293759
721.273 .0293647
722.005 .0293535
722.735 .0293424
723.466 .0293314
724.196 .0293207
724.927 .0293101
725.656 .0292998
726.386 .0292896
727.116 .0292794
727.845 .0292692
728.574 .0292590
729.303 .0292487
730.031 .0292384
730.760 .0292281
731.488 .0292179
732.216 .0292079
732.944 .0291980
733.671 .0291882
734.398 .0291785
735.125 .0291689
735.852 .0291594
736.579 .0291498
737.305 .0291404
738.031 .0291310
738.757 .0291216
739.483 .0291124
740.208 .0291033
740.933 .0290942
741.658 .0290851
742.383 .0290760
743.108 .0290667
743.832 .0290574
744.556 .0290478
745.280 .0290381
746.004 .0290281
746.727 .0290178
747.450 .0290070
748.173 .0289958
748.896 .0289841
749.618 .0289718
750.340 .0289588
751.062 .0289452
751.784 .0289309
752.506 .0289158
753.227 .0289000
753.948 .0288835
754.669 .0288662
755.389 .0288480
756.110 .0288291
756.830 .0288093
757.550 .0287887
758.269 .0287674
758.989 .0287453
759.708 .0287227
760.427 .0286995
761.146 .0286757
761.864 .0286515
762.582 .0286270
763.300 .0286021
764.018 .0285770
764.736 .0285517
765.453 .0285262
766.170 .0285007
766.887 .0284753
767.603 .0284499
768.320 .0284247
769.036 .0283997
769.751 .0283749
770.467 .0283505
771.182 .0283264
771.897 .0283027
772.612 .0282794
773.327 .0282567
774.041 .0282345
774.755 .0282127
775.469 .0281916
776.183 .0281710
776.896 .0281510
777.609 .0281316
778.322 .0281128
779.035 .0280945
779.747 .0280767
780.459 .0280595
781.171 .0280428
781.882 .0280266
782.594 .0280109
783.305 .0279956
784.016 .0279806
784.726 .0279660
785.436 .0279516
786.147 .0279309
786.856 .0279169
787.566 .0279030
788.275 .0278893
788.984 .0278757
789.693 .0278622
790.401 .0278488
791.110 .0278356
791.818 .0278225
792.525 .0278094
793.233 .0277965
793.940 .0277838
794.647 .0277775
795.353 .0277650
796.060 .0277527
796.766 .0277405
797.472 .0277284
798.177 .0277163
798.883 .0277044
799.588 .0276925
800.292 .0276806
800.997 .0276689
801.701 .0276573
802.405 .0276459
803.109 .0276347
803.812 .0276236
804.515 .0276127
805.218 .0276019
805.921 .0275913
806.623 .0275807
807.325 .0275703
808.027 .0275599
808.728 .0275497
809.429 .0275395
810.130 .0275296
810.831 .0275198
811.531 .0275102
812.231 .0275008
812.931 .0274916
813.630 .0274825
814.330 .0274736
815.029 .0274651
815.727 .0274569
816.426 .0274493
817.124 .0274421
817.821 .0274356
818.519 .0274297
819.216 .0274245
819.913 .0274200
820.609 .0274161
821.306 .0274131
822.002 .0274108
822.697 .0274092
823.393 .0274085
824.088 .0274087
824.783 .0274097
825.477 .0274114
826.171 .0274139
826.865 .0274169
827.559 .0274204
828.252 .0274243
828.945 .0274287
829.638 .0274335
830.330 .0274388
831.023 .0274445
831.714 .0274505
832.406 .0274569
833.097 .0274635
833.788 .0274703
834.479 .0274770
835.169 .0274837
835.859 .0274903
836.548 .0274968
837.238 .0275032
837.927 .0275094
838.615 .0275155
839.304 .0275213
839.992 .0275269
840.680 .0275321
841.367 .0275369
842.054 .0275411
842.741 .0275448
843.428 .0275479
844.114 .0275504
844.800 .0275523
845.485 .0275536
846.170 .0275543
846.855 .0275542
847.540 .0275533
848.224 .0275514
848.908 .0275487
849.592 .0275449
850.275 .0275401
850.958 .0275342
851.641 .0275271
852.323 .0275191
853.005 .0275098
853.687 .0274995
854.368 .0274880
855.049 .0274753
855.730 .0274614
856.410 .0274464
857.090 .0274303
857.769 .0274132
858.449 .0273952
859.128 .0273764
859.806 .0273570
860.485 .0273369
861.163 .0273163
861.840 .0272952
862.518 .0272738
863.195 .0272519
863.871 .0272297
864.548 .0272073
865.224 .0271847
865.899 .0271620
866.574 .0271392
867.249 .0271166
867.924 .0270941
868.598 .0270719
869.272 .0270500
869.946 .0270284
870.619 .0270072
871.292 .0269863
871.964 .0269657
872.636 .0269455
873.308 .0269257
873.979 .0269062
874.651 .0268870
875.321 .0268683
875.992 .0268498
876.662 .0268317
877.331 .0268139
878.001 .0267962
878.670 .0267787
879.338 .0267613
880.007 .0267441
880.675 .0267269
881.342 .0267100
882.009 .0266932
882.676 .0266766
883.343 .0266603
884.009 .0266441
884.675 .0266282
885.340 .0266126
886.005 .0265971
886.670 .0265819
887.334 .0265670
887.998 .0265523
888.662 .0265381
889.325 .0265242
889.988 .0265106
890.650 .0264974
891.312 .0264844
891.974 .0264716
892.636 .0264590
893.297 .0264463
893.957 .0264336
894.618 .0264208
895.278 .0264079
895.937 .0263947
896.596 .0263812
897.255 .0263674
897.914 .0263530
898.572 .0263380
899.230 .0263223
899.887 .0263059
900.544 .0262885
901.201 .0262702
901.857 .0262384
902.513 .0262179
903.168 .0261966
903.823 .0261745
904.478 .0261516
905.132 .0261280
905.786 .0261036
906.440 .0260786
907.093 .0260530
907.746 .0260268
908.399 .0260003
909.051 .0259735
909.703 .0259466
910.354 .0259336
911.005 .0259072
911.656 .0258809
912.306 .0258549
912.956 .0258291
913.605 .0258037
914.254 .0257787
914.903 .0257541
915.551 .0257301
916.199 .0257065
916.847 .0256835
917.494 .0256610
918.141 .0256390
918.788 .0256173
919.434 .0255960
920.079 .0255751
920.725 .0255545
921.370 .0255341
922.014 .0255141
922.658 .0254943
923.302 .0254748
923.946 .0254555
924.589 .0254364
925.231 .0254175
925.873 .0253987
926.515 .0253801
927.157 .0253616
927.798 .0253433
928.439 .0253252
929.079 .0253074
929.719 .0252900
930.359 .0252730
930.998 .0252565
931.637 .0252405
932.275 .0252252
932.913 .0252105
933.551 .0251966
934.188 .0251835
934.825 .0251714
935.462 .0251601
936.098 .0251500
936.733 .0251408
937.369 .0251329
938.004 .0251260
938.638 .0251204
939.273 .0251159
939.907 .0251125
940.540 .0251103
941.173 .0251091
941.806 .0251090
942.438 .0251099
943.070 .0251116
943.702 .0251142
944.333 .0251175
944.964 .0251214
945.594 .0251259
946.224 .0251307
946.854 .0251359
947.483 .0251413
948.112 .0251469
948.741 .0251526
949.369 .0251584
949.996 .0251642
950.624 .0251700
951.251 .0251759
951.878 .0251817
952.504 .0251875
953.130 .0251933
953.755 .0251990
954.380 .0252046
955.005 .0252101
955.629 .0252156
956.253 .0252211
956.877 .0252265
957.500 .0252319
958.123 .0252373
958.746 .0252427
959.368 .0252483
959.990 .0252539
960.611 .0252598
961.232 .0252659
961.853 .0252722
962.473 .0252788
963.093 .0252856
963.712 .0252926
964.331 .0252998
964.950 .0253072
965.569 .0253147
966.187 .0253223
966.804 .0253300
967.422 .0253378
968.039 .0253456
968.655 .0253535
969.272 .0253613
969.887 .0253691
970.503 .0253767
971.118 .0253842
971.733 .0253914
972.347 .0253982
972.961 .0254047
973.575 .0254108
974.188 .0254165
974.801 .0254218
975.414 .0254266
976.026 .0254308
976.638 .0254345
977.250 .0254376
977.861 .0254399
978.472 .0254416
979.083 .0254426
979.693 .0254430
980.303 .0254428
980.912 .0254403
981.521 .0254390
982.130 .0254373
982.738 .0254352
983.346 .0254328
983.954 .0254302
984.562 .0254274
985.169 .0254245
985.775 .0254216
986.382 .0254189
986.988 .0254163
987.594 .0254140
988.199 .0254120
988.804 .0254104
989.409 .0254109
990.013 .0254099
990.617 .0254093
991.221 .0254089
991.824 .0254089
992.427 .0254090
993.030 .0254095
993.632 .0254102
994.234 .0254111
994.836 .0254124
995.438 .0254138
996.039 .0254155
996.640 .0254173
997.240 .0254192
997.840 .0254212
998.440 .0254232
999.040 .0254252
999.639 .0254271
1000.238 .0254289
1000.836 .0254307
1001.435 .0254325
1002.033 .0254341
1002.630 .0254355
1003.228 .0254366
1003.825 .0254374
1004.422 .0254377
1005.018 .0254376
1005.614 .0254369
1006.210 .0254357
1006.806 .0254341
1007.401 .0254320
1007.996 .0254296
1008.591 .0254269
1009.186 .0254238
1009.780 .0254204
1010.374 .0254167
1010.967 .0254128
1011.561 .0254086
1012.154 .0254041
1012.746 .0253995
1013.339 .0253948
1013.931 .0253901
1014.523 .0253853
1015.115 .0253806
1015.706 .0253760
1016.298 .0253715
1016.888 .0253671
1017.479 .0253628
1018.069 .0253586
1018.660 .0253545
1019.250 .0253506
1019.839 .0253469
1020.429 .0253433
1021.018 .0253400
1021.607 .0253369
1022.195 .0253340
1022.784 .0253314
1023.372 .0253289
1023.960 .0253265
1024.547 .0253243
1025.135 .0253222
1025.722 .0253202
1026.309 .0253183
1026.896 .0253166
1027.483 .0253149
1028.069 .0253132
1028.655 .0253115
1029.241 .0253095
1029.827 .0253074
1030.412 .0253049
1030.997 .0253020
1031.582 .0252987
1032.167 .0252951
1032.752 .0252910
1033.336 .0252865
1033.921 .0252817
1034.505 .0252763
1035.089 .0252706
1035.672 .0252642
1036.256 .0252572
1036.839 .0252494
1037.422 .0252410
1038.005 .0252318
1038.588 .0252219
1039.171 .0252114
1039.753 .0252004
1040.335 .0251890
1040.918 .0251771
1041.500 .0251649
1042.081 .0251522
1042.663 .0251392
1043.244 .0251256
1043.826 .0251115
1044.407 .0250970
1044.988 .0250820
1045.569 .0250666
1046.150 .0250509
1046.730 .0250350
1047.311 .0250189
1047.891 .0250027
1048.471 .0249863
1049.052 .0249697
1049.632 .0249528
1050.211 .0249358
1050.791 .0249186
1051.371 .0249012
1051.950 .0248837
1052.530 .0248663
1053.109 .0248490
1053.688 .0248320
1054.268 .0248153
1054.847 .0247992
1055.426 .0247835
1056.005 .0247683
1056.583 .0247536
1057.162 .0247392
1057.741 .0247252
1058.319 .0247115
1058.898 .0246981
1059.476 .0246850
1060.055 .0246722
1060.633 .0246597
1061.211 .0246475
1061.790 .0246356
1062.368 .0246240
1062.946 .0246126
1063.524 .0246013
1064.102 .0245901
1064.680 .0245788
1065.258 .0245675
1065.836 .0245562
1066.414 .0245448
1066.992 .0245336
1067.570 .0245225
1068.148 .0245116
1068.726 .0245011
1069.304 .0244909
1069.882 .0244810
1070.460 .0244712
1071.038 .0244615
1071.616 .0244517
1072.194 .0244418
1072.772 .0244316
1073.350 .0244214
1073.928 .0244111
1074.506 .0244006
1075.084 .0243902
1075.662 .0243798
1076.240 .0243693
1076.819 .0243589
1077.397 .0243483
1077.976 .0243377
1078.554 .0243269
1079.133 .0243160
1079.711 .0243051
1080.290 .0242945
1080.869 .0242845
1081.448 .0242752
1082.027 .0242668
1082.606 .0242594
1083.185 .0242530
1083.764 .0242475
1084.343 .0242429
1084.923 .0242390
1085.502 .0242357
1086.082 .0242331
1086.662 .0242311
1087.242 .0242300
1087.822 .0242299
1088.402 .0242308
1088.983 .0242328
1089.563 .0242359
1090.144 .0242400
1090.725 .0242449
1091.306 .0242506
1091.887 .0242570
1092.469 .0242641
1093.050 .0242719
1093.632 .0242805
1094.214 .0242902
1094.796 .0243009
1095.379 .0243129
1095.961 .0243262
1096.544 .0243407
1097.127 .0243563
1097.710 .0243730
1098.294 .0243906
1098.877 .0244089
1099.461 .0244281
1100.046 .0244479
1100.630 .0244682
1101.215 .0244890
1101.800 .0245102
1102.385 .0245316
1102.970 .0245531
1103.556 .0245745
1104.142 .0245959
1104.728 .0246170
1105.315 .0246380
1105.902 .0246589
1106.489 .0246800
1107.077 .0247013
1107.664 .0247230
1108.253 .0247453
1108.841 .0247685
1109.430 .0247925
1110.019 .0248178
1110.609 .0248443
1111.198 .0248724
1111.789 .0249020
1112.379 .0249336
1112.970 .0249672
1113.561 .0250031
1114.153 .0250412
1114.745 .0250817
1115.338 .0251244
1115.931 .0251693
1116.524 .0252161
1117.117 .0252646
1117.712 .0253147
1118.306 .0253662
1118.901 .0254188
1119.496 .0254726
1120.092 .0255277
1120.689 .0255842
1121.285 .0256423
1121.882 .0257024
1122.480 .0257646
1123.078 .0258291
1123.677 .0258957
1124.276 .0259645
1124.875 .0260352
1125.476 .0261077
1126.076 .0261819
1126.677 .0262581
1127.279 .0263363
1127.881 .0264168
1128.484 .0265001
1129.087 .0265397
1129.691 .0266262
1130.295 .0267158
1130.900 .0268083
1131.505 .0269039
1132.111 .0270027
1132.718 .0271053
1133.325 .0272120
1133.933 .0273241
1134.541 .0274338
1135.150 .0275573
1135.760 .0276965
1136.370 .0278348
1136.981 .0277377
1137.592 .0278946
1138.204 .0280627
1138.817 .0282352
1139.431 .0284103
1140.045 .0285958
1140.660 .0287970
1141.275 .0290026
1141.891 .0292397
1142.508 .0292477
1143.126 .0297083
1143.744 .0302058
1144.363 .0302355
1144.983 .0309526
