Measurement Sequence started on: 15-12-46-377
Integration time: 28
Scans to Average: 2 
>>>>>Begin Spectral Data<<<<<
432.689 .0000100
433.621 .0000100
434.552 .0000100
435.482 .0000100
436.410 .0000100
437.337 .0000100
438.262 .0292471
439.187 .0616929
440.110 .1020766
441.031 .1475193
441.952 .1174019
442.871 .1225144
443.789 .1272652
444.705 .1317316
445.621 .1359662
446.535 .1400093
447.447 .1423506
448.359 .1428435
449.269 .1410889
450.178 .1368349
451.086 .1301674
451.993 .1215986
452.898 .1119699
453.803 .1022333
454.706 .0931965
455.608 .0853580
456.508 .0788819
457.408 .0745168
458.306 .0711657
459.204 .0684459
460.100 .0661604
460.995 .0642015
461.888 .0624949
462.781 .0609920
463.673 .0596552
464.563 .0584588
465.452 .0573824
466.340 .0564091
467.228 .0555256
468.114 .0547213
468.999 .0539876
469.882 .0533178
470.765 .0527061
471.647 .0521484
472.528 .0516411
473.407 .0511814
474.286 .0507663
475.163 .0503941
476.040 .0500617
476.915 .0497662
477.790 .0495043
478.663 .0492729
479.535 .0490687
480.407 .0488899
481.277 .0487345
482.147 .0486015
483.015 .0484908
483.883 .0484024
484.749 .0483358
485.615 .0482909
486.479 .0482669
487.343 .0482629
488.206 .0482781
489.067 .0483112
489.928 .0483615
490.788 .0484287
491.647 .0485131
492.505 .0486151
493.362 .0487358
494.218 .0488762
495.073 .0490368
495.928 .0493531
496.781 .0495684
497.634 .0498064
498.486 .0500678
499.337 .0503530
500.187 .0506626
501.036 .0509987
501.884 .0513621
502.731 .0517555
503.578 .0521818
504.424 .0524672
505.268 .0529550
506.113 .0534883
506.956 .0540728
507.798 .0547171
508.640 .0554302
509.480 .0562228
510.320 .0571073
511.160 .0580958
511.998 .0592030
512.836 .0604459
513.672 .0618443
514.508 .0634200
515.344 .0651967
516.178 .0672010
517.012 .0694617
517.845 .0720065
518.677 .0748578
519.508 .0780340
520.339 .0815403
521.169 .0853771
521.998 .0895144
522.826 .0939101
523.654 .0985054
524.481 .1032275
525.307 .1079930
526.133 .1127077
526.958 .1172758
527.782 .1216039
528.605 .1256046
529.428 .1292035
530.250 .1323279
531.072 .1349287
531.892 .1369637
532.712 .1384054
533.532 .1392356
534.350 .1394457
535.168 .1390364
535.986 .1380163
536.802 .1363954
537.618 .1341923
538.434 .1314266
539.249 .1281459
540.063 .1244076
540.876 .1202803
541.689 .1158442
542.501 .1111873
543.313 .1064042
544.124 .1015906
544.934 .0968349
545.744 .0922184
546.553 .0878060
547.361 .0836583
548.169 .0798072
548.976 .0762758
549.783 .0730704
550.589 .0701848
551.395 .0675997
552.200 .0652877
553.004 .0632167
553.808 .0613570
554.611 .0596818
555.414 .0581680
556.216 .0567928
557.018 .0555356
557.819 .0543796
558.619 .0533106
559.419 .0523153
560.218 .0513843
561.017 .0505077
561.815 .0496784
562.613 .0488916
563.410 .0481429
564.207 .0474273
565.003 .0467417
565.799 .0460829
566.594 .0454476
567.388 .0448325
568.182 .0442358
568.976 .0436561
569.769 .0430930
570.562 .0425473
571.354 .0420197
572.145 .0415117
572.936 .0410251
573.727 .0405614
574.517 .0401215
575.307 .0397059
576.096 .0393137
576.885 .0389439
577.673 .0385953
578.461 .0382664
579.248 .0379555
580.035 .0376616
580.821 .0373843
581.607 .0371230
582.392 .0368777
583.177 .0366483
583.962 .0364345
584.746 .0362360
585.529 .0360517
586.313 .0358809
587.095 .0357222
587.878 .0355746
588.660 .0354367
589.441 .0353079
590.222 .0351873
591.003 .0350742
591.783 .0349683
592.563 .0348691
593.342 .0347761
594.121 .0346888
594.899 .0346066
595.678 .0345290
596.455 .0344554
597.233 .0343852
598.009 .0343180
598.786 .0342534
599.562 .0341907
600.338 .0341297
601.113 .0340699
601.888 .0339821
602.663 .0339239
603.437 .0338660
604.211 .0338085
604.984 .0337513
605.757 .0336944
606.530 .0336382
607.302 .0335825
608.074 .0335277
608.845 .0334737
609.616 .0334207
610.387 .0333964
611.158 .0333452
611.928 .0332952
612.697 .0332463
613.467 .0331988
614.236 .0331526
615.004 .0331079
615.773 .0330646
616.541 .0330228
617.308 .0329826
618.076 .0329439
618.843 .0329066
619.609 .0328707
620.375 .0328360
621.141 .0328026
621.907 .0327702
622.672 .0327388
623.437 .0327083
624.202 .0326785
624.966 .0326494
625.730 .0326207
626.493 .0325924
627.257 .0325643
628.020 .0325365
628.782 .0325088
629.545 .0324813
630.307 .0324540
631.068 .0324270
631.830 .0324003
632.591 .0323739
633.352 .0323478
634.112 .0323222
634.872 .0322969
635.632 .0322720
636.392 .0322477
637.151 .0322238
637.910 .0322005
638.668 .0321779
639.427 .0321558
640.185 .0321344
640.943 .0321138
641.700 .0320940
642.457 .0320749
643.214 .0320567
643.971 .0320394
644.727 .0320227
645.483 .0320067
646.239 .0319910
646.994 .0319755
647.750 .0319600
648.505 .0319441
649.259 .0319277
650.014 .0319108
650.768 .0318932
651.521 .0318750
652.275 .0318560
653.028 .0318364
653.781 .0318161
654.534 .0317949
655.286 .0317728
656.039 .0317499
656.791 .0317259
657.542 .0317011
658.294 .0316755
659.045 .0316491
659.796 .0316221
660.546 .0315946
661.297 .0315668
662.047 .0315386
662.796 .0315101
663.546 .0314813
664.295 .0314524
665.044 .0314233
665.793 .0313941
666.542 .0313648
667.290 .0313355
668.038 .0313061
668.786 .0312767
669.533 .0312471
670.281 .0312174
671.028 .0311876
671.774 .0311576
672.521 .0311276
673.267 .0310976
674.013 .0310676
674.759 .0310375
675.505 .0310075
676.250 .0309773
676.995 .0309469
677.740 .0309163
678.484 .0308854
679.229 .0308544
679.973 .0308233
680.717 .0307922
681.460 .0307614
682.204 .0307308
682.947 .0307005
683.690 .0306706
684.433 .0306410
685.175 .0306116
685.917 .0305825
686.659 .0305535
687.401 .0305248
688.142 .0304964
688.884 .0304684
689.625 .0304408
690.365 .0304136
691.106 .0303869
691.846 .0303605
692.586 .0303345
693.326 .0303089
694.066 .0302835
694.805 .0302585
695.545 .0302338
696.284 .0302096
697.022 .0301857
697.761 .0301624
698.499 .0301395
699.237 .0301170
699.975 .0300952
700.713 .0300738
701.450 .0300530
702.187 .0300328
702.924 .0300133
703.661 .0299944
704.397 .0299762
705.133 .0299587
705.869 .0299418
706.605 .0299254
707.341 .0299094
708.076 .0298939
708.811 .0298788
709.546 .0298641
710.281 .0298497
711.015 .0298356
711.749 .0298218
712.483 .0298082
713.217 .0297948
713.950 .0297814
714.684 .0297681
715.417 .0297548
716.150 .0297415
716.882 .0297283
717.615 .0297152
718.347 .0297022
719.079 .0296894
719.811 .0296767
720.542 .0296643
721.273 .0296522
722.005 .0296402
722.735 .0296287
723.466 .0296174
724.196 .0296065
724.927 .0295961
725.656 .0295861
726.386 .0295766
727.116 .0295676
727.845 .0295590
728.574 .0295508
729.303 .0295429
730.031 .0295354
730.760 .0295283
731.488 .0295216
732.216 .0295151
732.944 .0295090
733.671 .0295030
734.398 .0294973
735.125 .0294917
735.852 .0294861
736.579 .0294804
737.305 .0294747
738.031 .0294688
738.757 .0294627
739.483 .0294564
740.208 .0294499
740.933 .0294431
741.658 .0294360
742.383 .0294287
743.108 .0294209
743.832 .0294128
744.556 .0294042
745.280 .0293951
746.004 .0293855
746.727 .0293752
747.450 .0293642
748.173 .0293524
748.896 .0293400
749.618 .0293268
750.340 .0293130
751.062 .0292984
751.784 .0292833
752.506 .0292676
753.227 .0292513
753.948 .0292345
754.669 .0292172
755.389 .0291993
756.110 .0291809
756.830 .0291619
757.550 .0291424
758.269 .0291223
758.989 .0291019
759.708 .0290812
760.427 .0290601
761.146 .0290388
761.864 .0290173
762.582 .0289957
763.300 .0289740
764.018 .0289522
764.736 .0289303
765.453 .0289084
766.170 .0288864
766.887 .0288644
767.603 .0288424
768.320 .0288204
769.036 .0287983
769.751 .0287764
770.467 .0287545
771.182 .0287328
771.897 .0287113
772.612 .0286901
773.327 .0286693
774.041 .0286489
774.755 .0286289
775.469 .0286093
776.183 .0285901
776.896 .0285714
777.609 .0285530
778.322 .0285351
779.035 .0285176
779.747 .0285004
780.459 .0284836
781.171 .0284672
781.882 .0284512
782.594 .0284355
783.305 .0284201
784.016 .0284049
784.726 .0283900
785.436 .0283752
786.147 .0283534
786.856 .0283388
787.566 .0283243
788.275 .0283099
788.984 .0282955
789.693 .0282810
790.401 .0282663
791.110 .0282515
791.818 .0282366
792.525 .0282215
793.233 .0282064
793.940 .0281913
794.647 .0281837
795.353 .0281688
796.060 .0281540
796.766 .0281393
797.472 .0281248
798.177 .0281105
798.883 .0280962
799.588 .0280819
800.292 .0280677
800.997 .0280536
801.701 .0280395
802.405 .0280256
803.109 .0280119
803.812 .0279983
804.515 .0279849
805.218 .0279717
805.921 .0279586
806.623 .0279456
807.325 .0279327
808.027 .0279199
808.728 .0279073
809.429 .0278949
810.130 .0278827
810.831 .0278708
811.531 .0278593
812.231 .0278482
812.931 .0278374
813.630 .0278271
814.330 .0278172
815.029 .0278079
815.727 .0277992
816.426 .0277912
817.124 .0277840
817.821 .0277777
818.519 .0277722
819.216 .0277675
819.913 .0277637
820.609 .0277608
821.306 .0277586
822.002 .0277572
822.697 .0277566
823.393 .0277569
824.088 .0277581
824.783 .0277603
825.477 .0277634
826.171 .0277675
826.865 .0277724
827.559 .0277780
828.252 .0277842
828.945 .0277908
829.638 .0277978
830.330 .0278050
831.023 .0278125
831.714 .0278203
832.406 .0278282
833.097 .0278362
833.788 .0278444
834.479 .0278526
835.169 .0278607
835.859 .0278687
836.548 .0278765
837.238 .0278840
837.927 .0278912
838.615 .0278981
839.304 .0279048
839.992 .0279111
840.680 .0279171
841.367 .0279227
842.054 .0279277
842.741 .0279322
843.428 .0279360
844.114 .0279392
844.800 .0279416
845.485 .0279434
846.170 .0279444
846.855 .0279447
847.540 .0279442
848.224 .0279430
848.908 .0279409
849.592 .0279379
850.275 .0279339
850.958 .0279288
851.641 .0279226
852.323 .0279154
853.005 .0279072
853.687 .0278980
854.368 .0278879
855.049 .0278770
855.730 .0278652
856.410 .0278526
857.090 .0278392
857.769 .0278249
858.449 .0278099
859.128 .0277941
859.806 .0277777
860.485 .0277606
861.163 .0277431
861.840 .0277251
862.518 .0277068
863.195 .0276882
863.871 .0276694
864.548 .0276505
865.224 .0276315
865.899 .0276125
866.574 .0275935
867.249 .0275747
867.924 .0275560
868.598 .0275374
869.272 .0275190
869.946 .0275008
870.619 .0274827
871.292 .0274647
871.964 .0274467
872.636 .0274289
873.308 .0274111
873.979 .0273933
874.651 .0273757
875.321 .0273583
875.992 .0273410
876.662 .0273238
877.331 .0273069
878.001 .0272902
878.670 .0272736
879.338 .0272572
880.007 .0272409
880.675 .0272248
881.342 .0272087
882.009 .0271928
882.676 .0271770
883.343 .0271615
884.009 .0271462
884.675 .0271313
885.340 .0271167
886.005 .0271024
886.670 .0270884
887.334 .0270748
887.998 .0270613
888.662 .0270481
889.325 .0270351
889.988 .0270223
890.650 .0270097
891.312 .0269973
891.974 .0269851
892.636 .0269730
893.297 .0269609
893.957 .0269487
894.618 .0269364
895.278 .0269238
895.937 .0269109
896.596 .0268976
897.255 .0268837
897.914 .0268693
898.572 .0268542
899.230 .0268384
899.887 .0268218
900.544 .0268044
901.201 .0267860
901.857 .0267539
902.513 .0267328
903.168 .0267107
903.823 .0266876
904.478 .0266637
905.132 .0266390
905.786 .0266137
906.440 .0265877
907.093 .0265610
907.746 .0265338
908.399 .0265061
909.051 .0264779
909.703 .0264493
910.354 .0264346
911.005 .0264061
911.656 .0263776
912.306 .0263491
912.956 .0263208
913.605 .0262927
914.254 .0262649
914.903 .0262375
915.551 .0262103
916.199 .0261834
916.847 .0261569
917.494 .0261308
918.141 .0261051
918.788 .0260799
919.434 .0260552
920.079 .0260309
920.725 .0260071
921.370 .0259837
922.014 .0259607
922.658 .0259379
923.302 .0259154
923.946 .0258932
924.589 .0258712
925.231 .0258495
925.873 .0258281
926.515 .0258069
927.157 .0257861
927.798 .0257655
928.439 .0257451
929.079 .0257251
929.719 .0257053
930.359 .0256858
930.998 .0256668
931.637 .0256481
932.275 .0256300
932.913 .0256125
933.551 .0255956
934.188 .0255795
934.825 .0255641
935.462 .0255496
936.098 .0255359
936.733 .0255232
937.369 .0255113
938.004 .0255005
938.638 .0254906
939.273 .0254819
939.907 .0254743
940.540 .0254678
941.173 .0254624
941.806 .0254581
942.438 .0254549
943.070 .0254526
943.702 .0254512
944.333 .0254506
944.964 .0254508
945.594 .0254518
946.224 .0254534
946.854 .0254557
947.483 .0254586
948.112 .0254621
948.741 .0254661
949.369 .0254706
949.996 .0254756
950.624 .0254809
951.251 .0254866
951.878 .0254926
952.504 .0254987
953.130 .0255051
953.755 .0255117
954.380 .0255185
955.005 .0255254
955.629 .0255325
956.253 .0255397
956.877 .0255469
957.500 .0255541
958.123 .0255614
958.746 .0255685
959.368 .0255757
959.990 .0255828
960.611 .0255899
961.232 .0255970
961.853 .0256042
962.473 .0256114
963.093 .0256187
963.712 .0256261
964.331 .0256335
964.950 .0256409
965.569 .0256484
966.187 .0256560
966.804 .0256637
967.422 .0256714
968.039 .0256793
968.655 .0256872
969.272 .0256951
969.887 .0257032
970.503 .0257112
971.118 .0257192
971.733 .0257271
972.347 .0257348
972.961 .0257423
973.575 .0257496
974.188 .0257567
974.801 .0257635
975.414 .0257700
976.026 .0257762
976.638 .0257821
977.250 .0257876
977.861 .0257928
978.472 .0257976
979.083 .0258019
979.693 .0258059
980.303 .0258093
980.912 .0258119
981.521 .0258143
982.130 .0258163
982.738 .0258180
983.346 .0258194
983.954 .0258205
984.562 .0258215
985.169 .0258222
985.775 .0258229
986.382 .0258234
986.988 .0258239
987.594 .0258243
988.199 .0258246
988.804 .0258251
989.409 .0258261
990.013 .0258269
990.617 .0258278
991.221 .0258290
991.824 .0258304
992.427 .0258320
993.030 .0258339
993.632 .0258359
994.234 .0258381
994.836 .0258404
995.438 .0258428
996.039 .0258453
996.640 .0258479
997.240 .0258507
997.840 .0258536
998.440 .0258567
999.040 .0258599
999.639 .0258632
1000.238 .0258666
1000.836 .0258698
1001.435 .0258728
1002.033 .0258756
1002.630 .0258781
1003.228 .0258803
1003.825 .0258822
1004.422 .0258838
1005.018 .0258852
1005.614 .0258864
1006.210 .0258873
1006.806 .0258881
1007.401 .0258887
1007.996 .0258891
1008.591 .0258892
1009.186 .0258891
1009.780 .0258887
1010.374 .0258881
1010.967 .0258874
1011.561 .0258866
1012.154 .0258857
1012.746 .0258848
1013.339 .0258838
1013.931 .0258829
1014.523 .0258819
1015.115 .0258807
1015.706 .0258794
1016.298 .0258778
1016.888 .0258761
1017.479 .0258741
1018.069 .0258720
1018.660 .0258697
1019.250 .0258674
1019.839 .0258651
1020.429 .0258628
1021.018 .0258606
1021.607 .0258585
1022.195 .0258565
1022.784 .0258546
1023.372 .0258527
1023.960 .0258508
1024.547 .0258489
1025.135 .0258470
1025.722 .0258450
1026.309 .0258430
1026.896 .0258409
1027.483 .0258388
1028.069 .0258366
1028.655 .0258343
1029.241 .0258319
1029.827 .0258294
1030.412 .0258268
1030.997 .0258240
1031.582 .0258211
1032.167 .0258180
1032.752 .0258148
1033.336 .0258115
1033.921 .0258080
1034.505 .0258043
1035.089 .0258004
1035.672 .0257962
1036.256 .0257917
1036.839 .0257867
1037.422 .0257812
1038.005 .0257750
1038.588 .0257680
1039.171 .0257601
1039.753 .0257512
1040.335 .0257413
1040.918 .0257303
1041.500 .0257182
1042.081 .0257052
1042.663 .0256912
1043.244 .0256765
1043.826 .0256611
1044.407 .0256453
1044.988 .0256291
1045.569 .0256126
1046.150 .0255960
1046.730 .0255793
1047.311 .0255626
1047.891 .0255459
1048.471 .0255293
1049.052 .0255128
1049.632 .0254964
1050.211 .0254801
1050.791 .0254640
1051.371 .0254481
1051.950 .0254324
1052.530 .0254169
1053.109 .0254014
1053.688 .0253861
1054.268 .0253708
1054.847 .0253555
1055.426 .0253403
1056.005 .0253252
1056.583 .0253102
1057.162 .0252955
1057.741 .0252811
1058.319 .0252672
1058.898 .0252537
1059.476 .0252407
1060.055 .0252282
1060.633 .0252161
1061.211 .0252044
1061.790 .0251928
1062.368 .0251814
1062.946 .0251701
1063.524 .0251588
1064.102 .0251473
1064.680 .0251358
1065.258 .0251240
1065.836 .0251121
1066.414 .0251001
1066.992 .0250881
1067.570 .0250761
1068.148 .0250640
1068.726 .0250520
1069.304 .0250400
1069.882 .0250281
1070.460 .0250163
1071.038 .0250045
1071.616 .0249930
1072.194 .0249815
1072.772 .0249703
1073.350 .0249595
1073.928 .0249490
1074.506 .0249389
1075.084 .0249292
1075.662 .0249199
1076.240 .0249109
1076.819 .0249022
1077.397 .0248937
1077.976 .0248855
1078.554 .0248775
1079.133 .0248697
1079.711 .0248620
1080.290 .0248545
1080.869 .0248471
1081.448 .0248401
1082.027 .0248334
1082.606 .0248271
1083.185 .0248214
1083.764 .0248162
1084.343 .0248116
1084.923 .0248076
1085.502 .0248042
1086.082 .0248012
1086.662 .0247987
1087.242 .0247965
1087.822 .0247946
1088.402 .0247932
1088.983 .0247923
1089.563 .0247921
1090.144 .0247925
1090.725 .0247938
1091.306 .0247957
1091.887 .0247983
1092.469 .0248013
1093.050 .0248046
1093.632 .0248081
1094.214 .0248117
1094.796 .0248155
1095.379 .0248196
1095.961 .0248241
1096.544 .0248291
1097.127 .0248348
1097.710 .0248412
1098.294 .0248482
1098.877 .0248558
1099.461 .0248638
1100.046 .0248723
1100.630 .0248811
1101.215 .0248901
1101.800 .0248993
1102.385 .0249089
1102.970 .0249189
1103.556 .0249293
1104.142 .0249403
1104.728 .0249519
1105.315 .0249642
1105.902 .0249773
1106.489 .0249912
1107.077 .0250061
1107.664 .0250221
1108.253 .0250392
1108.841 .0250574
1109.430 .0250769
1110.019 .0250979
1110.609 .0251203
1111.198 .0251445
1111.789 .0251706
1112.379 .0251987
1112.970 .0252291
1113.561 .0252620
1114.153 .0252975
1114.745 .0253355
1115.338 .0253761
1115.931 .0254191
1116.524 .0254645
1117.117 .0255122
1117.712 .0255621
1118.306 .0256143
1118.901 .0256688
1119.496 .0257257
1120.092 .0257850
1120.689 .0258469
1121.285 .0259114
1121.882 .0259786
1122.480 .0260484
1123.078 .0261205
1123.677 .0261950
1124.276 .0262717
1124.875 .0263501
1125.476 .0264300
1126.076 .0265113
1126.677 .0265936
1127.279 .0266771
1127.881 .0267617
1128.484 .0268477
1129.087 .0268907
1129.691 .0269791
1130.295 .0270690
1130.900 .0271608
1131.505 .0272547
1132.111 .0273509
1132.718 .0274501
1133.325 .0275539
1133.933 .0276629
1134.541 .0277685
1135.150 .0278802
1135.760 .0280061
1136.370 .0281654
1136.981 .0280777
1137.592 .0281832
1138.204 .0283032
1138.817 .0284383
1139.431 .0285857
1140.045 .0287420
1140.660 .0289174
1141.275 .0291329
1141.891 .0293640
1142.508 .0293556
1143.126 .0296094
1143.744 .0300962
1144.363 .0311157
1144.983 .0308844
