Measurement Sequence started on: 15-12-46-377
Integration time: 28
Scans to Average: 2 
>>>>>Begin Spectral Data<<<<<
432.689 .0000100
433.621 .0000100
434.552 .0000100
435.482 .0000100
436.410 .0000100
437.337 .0000100
438.262 .0292779
439.187 .0619563
440.110 .1024822
441.031 .1481252
441.952 .1176119
442.871 .1226937
443.789 .1274095
444.705 .1318356
445.621 .1360239
446.535 .1400145
447.447 .1422964
448.359 .1427142
449.269 .1408749
450.178 .1365235
451.086 .1297495
451.993 .1210688
452.898 .1113282
453.803 .1014862
454.706 .0923546
455.608 .0844359
456.508 .0778960
457.408 .0734835
458.306 .0701051
459.204 .0673681
460.100 .0650778
460.995 .0631249
461.888 .0614354
462.781 .0599595
463.673 .0586590
464.563 .0575063
465.452 .0564792
466.340 .0555598
467.228 .0547358
468.114 .0539972
468.999 .0533347
469.882 .0527416
470.765 .0522104
471.647 .0517348
472.528 .0513092
473.407 .0509273
474.286 .0505842
475.163 .0502762
476.040 .0499994
476.915 .0497512
477.790 .0495295
478.663 .0493329
479.535 .0491602
480.407 .0490104
481.277 .0488825
482.147 .0487751
483.015 .0486866
483.883 .0486157
484.749 .0485605
485.615 .0485205
486.479 .0484945
487.343 .0484822
488.206 .0484841
489.067 .0484998
489.928 .0485304
490.788 .0485764
491.647 .0486392
492.505 .0487199
493.362 .0488200
494.218 .0489403
495.073 .0490826
495.928 .0493792
496.781 .0495843
497.634 .0498149
498.486 .0500719
499.337 .0503563
500.187 .0506696
501.036 .0510134
501.884 .0513899
502.731 .0518023
503.578 .0522536
504.424 .0525650
505.268 .0530861
506.113 .0536568
506.956 .0542810
507.798 .0549643
508.640 .0557130
509.480 .0565352
510.320 .0574411
511.160 .0584425
511.998 .0595542
512.836 .0607954
513.672 .0621862
514.508 .0637495
515.344 .0655119
516.178 .0675001
517.012 .0697419
517.845 .0722640
518.677 .0750871
519.508 .0782291
520.339 .0816966
521.169 .0854897
521.998 .0895788
522.826 .0939249
523.654 .0984699
524.481 .1031374
525.307 .1078444
526.133 .1124967
526.958 .1169948
527.782 .1212459
528.605 .1251623
529.428 .1286683
530.250 .1316963
531.072 .1342042
531.892 .1361541
532.712 .1375215
533.532 .1382927
534.350 .1384596
535.168 .1380220
535.986 .1369901
536.802 .1353700
537.618 .1331766
538.434 .1304296
539.249 .1271746
540.063 .1234664
540.876 .1193750
541.689 .1149854
542.501 .1103871
543.313 .1056753
544.124 .1009480
544.934 .0962919
545.744 .0917867
546.553 .0874962
547.361 .0834723
548.169 .0797401
548.976 .0763188
549.783 .0732099
550.589 .0704036
551.395 .0678822
552.200 .0656205
553.004 .0635875
553.808 .0617563
554.611 .0601021
555.414 .0586013
556.216 .0572328
557.018 .0559775
557.819 .0548188
558.619 .0537436
559.419 .0527408
560.218 .0518024
561.017 .0509206
561.815 .0500898
562.613 .0493046
563.410 .0485598
564.207 .0478503
565.003 .0471709
565.799 .0465164
566.594 .0458824
567.388 .0452658
568.182 .0446646
568.976 .0440773
569.769 .0435040
570.562 .0429458
571.354 .0424040
572.145 .0418799
572.936 .0413740
573.727 .0408865
574.517 .0404175
575.307 .0399668
576.096 .0395331
576.885 .0391162
577.673 .0387168
578.461 .0383353
579.248 .0379724
580.035 .0376292
580.821 .0373063
581.607 .0370044
582.392 .0367234
583.177 .0364630
583.962 .0362220
584.746 .0359992
585.529 .0357932
586.313 .0356026
587.095 .0354263
587.878 .0352635
588.660 .0351134
589.441 .0349758
590.222 .0348501
591.003 .0347354
591.783 .0346310
592.563 .0345362
593.342 .0344497
594.121 .0343705
594.899 .0342975
595.678 .0342298
596.455 .0341664
597.233 .0341066
598.009 .0340497
598.786 .0339956
599.562 .0339437
600.338 .0338938
601.113 .0338457
601.888 .0337774
602.663 .0337327
603.437 .0336891
604.211 .0336465
604.984 .0336048
605.757 .0335637
606.530 .0335235
607.302 .0334839
608.074 .0334451
608.845 .0334073
609.616 .0333704
610.387 .0333550
611.158 .0333199
611.928 .0332859
612.697 .0332530
613.467 .0332212
614.236 .0331902
615.004 .0331602
615.773 .0331309
616.541 .0331022
617.308 .0330741
618.076 .0330463
618.843 .0330188
619.609 .0329915
620.375 .0329641
621.141 .0329367
621.907 .0329090
622.672 .0328808
623.437 .0328521
624.202 .0328226
624.966 .0327921
625.730 .0327605
626.493 .0327278
627.257 .0326938
628.020 .0326584
628.782 .0326219
629.545 .0325842
630.307 .0325454
631.068 .0325058
631.830 .0324654
632.591 .0324245
633.352 .0323830
634.112 .0323413
634.872 .0322994
635.632 .0322576
636.392 .0322159
637.151 .0321745
637.910 .0321337
638.668 .0320935
639.427 .0320540
640.185 .0320156
640.943 .0319782
641.700 .0319419
642.457 .0319069
643.214 .0318733
643.971 .0318409
644.727 .0318100
645.483 .0317804
646.239 .0317520
646.994 .0317246
647.750 .0316982
648.505 .0316724
649.259 .0316473
650.014 .0316227
650.768 .0315986
651.521 .0315749
652.275 .0315517
653.028 .0315289
653.781 .0315065
654.534 .0314846
655.286 .0314629
656.039 .0314414
656.791 .0314200
657.542 .0313985
658.294 .0313771
659.045 .0313555
659.796 .0313340
660.546 .0313125
661.297 .0312910
662.047 .0312697
662.796 .0312485
663.546 .0312275
664.295 .0312067
665.044 .0311862
665.793 .0311661
666.542 .0311463
667.290 .0311270
668.038 .0311081
668.786 .0310896
669.533 .0310715
670.281 .0310537
671.028 .0310363
671.774 .0310191
672.521 .0310022
673.267 .0309856
674.013 .0309694
674.759 .0309535
675.505 .0309380
676.250 .0309230
676.995 .0309083
677.740 .0308939
678.484 .0308798
679.229 .0308658
679.973 .0308519
680.717 .0308380
681.460 .0308241
682.204 .0308101
682.947 .0307961
683.690 .0307819
684.433 .0307677
685.175 .0307532
685.917 .0307386
686.659 .0307237
687.401 .0307084
688.142 .0306926
688.884 .0306762
689.625 .0306592
690.365 .0306414
691.106 .0306229
691.846 .0306036
692.586 .0305835
693.326 .0305626
694.066 .0305410
694.805 .0305189
695.545 .0304962
696.284 .0304731
697.022 .0304497
697.761 .0304259
698.499 .0304018
699.237 .0303775
699.975 .0303530
700.713 .0303284
701.450 .0303037
702.187 .0302789
702.924 .0302540
703.661 .0302290
704.397 .0302040
705.133 .0301789
705.869 .0301537
706.605 .0301284
707.341 .0301030
708.076 .0300775
708.811 .0300518
709.546 .0300261
710.281 .0300001
711.015 .0299740
711.749 .0299476
712.483 .0299209
713.217 .0298939
713.950 .0298665
714.684 .0298387
715.417 .0298107
716.150 .0297825
716.882 .0297541
717.615 .0297257
718.347 .0296973
719.079 .0296688
719.811 .0296405
720.542 .0296122
721.273 .0295840
722.005 .0295560
722.735 .0295282
723.466 .0295006
724.196 .0294736
724.927 .0294470
725.656 .0294211
726.386 .0293958
727.116 .0293713
727.845 .0293477
728.574 .0293248
729.303 .0293028
730.031 .0292817
730.760 .0292616
731.488 .0292424
732.216 .0292240
732.944 .0292065
733.671 .0291898
734.398 .0291739
735.125 .0291586
735.852 .0291440
736.579 .0291301
737.305 .0291168
738.031 .0291041
738.757 .0290921
739.483 .0290808
740.208 .0290701
740.933 .0290599
741.658 .0290502
742.383 .0290410
743.108 .0290322
743.832 .0290237
744.556 .0290154
745.280 .0290075
746.004 .0289997
746.727 .0289920
747.450 .0289845
748.173 .0289771
748.896 .0289698
749.618 .0289626
750.340 .0289556
751.062 .0289486
751.784 .0289418
752.506 .0289351
753.227 .0289284
753.948 .0289217
754.669 .0289150
755.389 .0289080
756.110 .0289010
756.830 .0288938
757.550 .0288866
758.269 .0288794
758.989 .0288722
759.708 .0288651
760.427 .0288582
761.146 .0288513
761.864 .0288445
762.582 .0288377
763.300 .0288310
764.018 .0288243
764.736 .0288177
765.453 .0288111
766.170 .0288045
766.887 .0287980
767.603 .0287914
768.320 .0287849
769.036 .0287782
769.751 .0287715
770.467 .0287648
771.182 .0287581
771.897 .0287515
772.612 .0287450
773.327 .0287386
774.041 .0287324
774.755 .0287264
775.469 .0287204
776.183 .0287144
776.896 .0287084
777.609 .0287025
778.322 .0286967
779.035 .0286910
779.747 .0286855
780.459 .0286803
781.171 .0286753
781.882 .0286704
782.594 .0286656
783.305 .0286608
784.016 .0286558
784.726 .0286507
785.436 .0286453
786.147 .0286361
786.856 .0286296
787.566 .0286228
788.275 .0286156
788.984 .0286078
789.693 .0285994
790.401 .0285903
791.110 .0285803
791.818 .0285694
792.525 .0285576
793.233 .0285449
793.940 .0285312
794.647 .0285215
795.353 .0285065
796.060 .0284906
796.766 .0284738
797.472 .0284561
798.177 .0284374
798.883 .0284177
799.588 .0283972
800.292 .0283758
800.997 .0283536
801.701 .0283308
802.405 .0283073
803.109 .0282833
803.812 .0282586
804.515 .0282333
805.218 .0282074
805.921 .0281809
806.623 .0281539
807.325 .0281264
808.027 .0280984
808.728 .0280701
809.429 .0280416
810.130 .0280127
810.831 .0279838
811.531 .0279546
812.231 .0279254
812.931 .0278960
813.630 .0278667
814.330 .0278375
815.029 .0278085
815.727 .0277800
816.426 .0277520
817.124 .0277247
817.821 .0276981
818.519 .0276723
819.216 .0276473
819.913 .0276232
820.609 .0276001
821.306 .0275780
822.002 .0275569
822.697 .0275369
823.393 .0275180
824.088 .0275004
824.783 .0274839
825.477 .0274686
826.171 .0274544
826.865 .0274412
827.559 .0274290
828.252 .0274178
828.945 .0274076
829.638 .0273981
830.330 .0273895
831.023 .0273815
831.714 .0273742
832.406 .0273672
833.097 .0273606
833.788 .0273543
834.479 .0273481
835.169 .0273421
835.859 .0273362
836.548 .0273305
837.238 .0273248
837.927 .0273193
838.615 .0273139
839.304 .0273084
839.992 .0273029
840.680 .0272973
841.367 .0272915
842.054 .0272855
842.741 .0272794
843.428 .0272733
844.114 .0272671
844.800 .0272610
845.485 .0272549
846.170 .0272488
846.855 .0272426
847.540 .0272364
848.224 .0272299
848.908 .0272233
849.592 .0272165
850.275 .0272095
850.958 .0272023
851.641 .0271950
852.323 .0271875
853.005 .0271799
853.687 .0271723
854.368 .0271645
855.049 .0271568
855.730 .0271489
856.410 .0271411
857.090 .0271334
857.769 .0271258
858.449 .0271183
859.128 .0271109
859.806 .0271038
860.485 .0270970
861.163 .0270906
861.840 .0270845
862.518 .0270789
863.195 .0270738
863.871 .0270693
864.548 .0270654
865.224 .0270622
865.899 .0270597
866.574 .0270579
867.249 .0270568
867.924 .0270565
868.598 .0270568
869.272 .0270579
869.946 .0270595
870.619 .0270617
871.292 .0270644
871.964 .0270675
872.636 .0270710
873.308 .0270748
873.979 .0270790
874.651 .0270835
875.321 .0270882
875.992 .0270930
876.662 .0270980
877.331 .0271030
878.001 .0271079
878.670 .0271127
879.338 .0271173
880.007 .0271216
880.675 .0271258
881.342 .0271298
882.009 .0271336
882.676 .0271373
883.343 .0271409
884.009 .0271443
884.675 .0271476
885.340 .0271508
886.005 .0271538
886.670 .0271568
887.334 .0271596
887.998 .0271625
888.662 .0271654
889.325 .0271684
889.988 .0271714
890.650 .0271745
891.312 .0271776
891.974 .0271807
892.636 .0271838
893.297 .0271868
893.957 .0271897
894.618 .0271924
895.278 .0271949
895.937 .0271970
896.596 .0271988
897.255 .0272000
897.914 .0272006
898.572 .0272004
899.230 .0271993
899.887 .0271972
900.544 .0271940
901.201 .0271896
901.857 .0271773
902.513 .0271696
903.168 .0271604
903.823 .0271500
904.478 .0271382
905.132 .0271250
905.786 .0271105
906.440 .0270947
907.093 .0270776
907.746 .0270593
908.399 .0270399
909.051 .0270193
909.703 .0269978
910.354 .0269845
911.005 .0269618
911.656 .0269382
912.306 .0269137
912.956 .0268886
913.605 .0268628
914.254 .0268365
914.903 .0268097
915.551 .0267824
916.199 .0267549
916.847 .0267270
917.494 .0266989
918.141 .0266705
918.788 .0266420
919.434 .0266133
920.079 .0265843
920.725 .0265551
921.370 .0265258
922.014 .0264962
922.658 .0264663
923.302 .0264362
923.946 .0264058
924.589 .0263750
925.231 .0263439
925.873 .0263123
926.515 .0262803
927.157 .0262479
927.798 .0262152
928.439 .0261820
929.079 .0261486
929.719 .0261149
930.359 .0260812
930.998 .0260474
931.637 .0260136
932.275 .0259799
932.913 .0259465
933.551 .0259134
934.188 .0258808
934.825 .0258488
935.462 .0258174
936.098 .0257866
936.733 .0257566
937.369 .0257273
938.004 .0256989
938.638 .0256712
939.273 .0256444
939.907 .0256184
940.540 .0255933
941.173 .0255691
941.806 .0255458
942.438 .0255235
943.070 .0255020
943.702 .0254814
944.333 .0254616
944.964 .0254426
945.594 .0254242
946.224 .0254063
946.854 .0253889
947.483 .0253719
948.112 .0253552
948.741 .0253387
949.369 .0253224
949.996 .0253062
950.624 .0252901
951.251 .0252740
951.878 .0252578
952.504 .0252414
953.130 .0252250
953.755 .0252084
954.380 .0251917
955.005 .0251749
955.629 .0251580
956.253 .0251411
956.877 .0251242
957.500 .0251075
958.123 .0250908
958.746 .0250743
959.368 .0250581
959.990 .0250422
960.611 .0250267
961.232 .0250118
961.853 .0249974
962.473 .0249836
963.093 .0249704
963.712 .0249579
964.331 .0249459
964.950 .0249345
965.569 .0249237
966.187 .0249134
966.804 .0249036
967.422 .0248943
968.039 .0248856
968.655 .0248774
969.272 .0248697
969.887 .0248625
970.503 .0248558
971.118 .0248494
971.733 .0248433
972.347 .0248375
972.961 .0248318
973.575 .0248263
974.188 .0248208
974.801 .0248153
975.414 .0248099
976.026 .0248043
976.638 .0247986
977.250 .0247929
977.861 .0247870
978.472 .0247811
979.083 .0247750
979.693 .0247690
980.303 .0247630
980.912 .0247544
981.521 .0247489
982.130 .0247436
982.738 .0247384
983.346 .0247336
983.954 .0247290
984.562 .0247248
985.169 .0247209
985.775 .0247175
986.382 .0247147
986.988 .0247125
987.594 .0247109
988.199 .0247101
988.804 .0247099
989.409 .0247123
990.013 .0247131
990.617 .0247146
991.221 .0247166
991.824 .0247194
992.427 .0247228
993.030 .0247270
993.632 .0247319
994.234 .0247375
994.836 .0247437
995.438 .0247507
996.039 .0247582
996.640 .0247663
997.240 .0247749
997.840 .0247840
998.440 .0247936
999.040 .0248036
999.639 .0248142
1000.238 .0248253
1000.836 .0248369
1001.435 .0248489
1002.033 .0248613
1002.630 .0248740
1003.228 .0248870
1003.825 .0249002
1004.422 .0249137
1005.018 .0249274
1005.614 .0249413
1006.210 .0249554
1006.806 .0249698
1007.401 .0249843
1007.996 .0249989
1008.591 .0250137
1009.186 .0250285
1009.780 .0250434
1010.374 .0250583
1010.967 .0250732
1011.561 .0250882
1012.154 .0251033
1012.746 .0251184
1013.339 .0251337
1013.931 .0251491
1014.523 .0251645
1015.115 .0251801
1015.706 .0251957
1016.298 .0252115
1016.888 .0252275
1017.479 .0252437
1018.069 .0252602
1018.660 .0252769
1019.250 .0252940
1019.839 .0253114
1020.429 .0253291
1021.018 .0253469
1021.607 .0253649
1022.195 .0253829
1022.784 .0254010
1023.372 .0254191
1023.960 .0254372
1024.547 .0254555
1025.135 .0254740
1025.722 .0254927
1026.309 .0255117
1026.896 .0255308
1027.483 .0255500
1028.069 .0255691
1028.655 .0255881
1029.241 .0256069
1029.827 .0256252
1030.412 .0256432
1030.997 .0256608
1031.582 .0256780
1032.167 .0256949
1032.752 .0257115
1033.336 .0257277
1033.921 .0257436
1034.505 .0257590
1035.089 .0257739
1035.672 .0257882
1036.256 .0258018
1036.839 .0258146
1037.422 .0258267
1038.005 .0258382
1038.588 .0258491
1039.171 .0258594
1039.753 .0258693
1040.335 .0258787
1040.918 .0258878
1041.500 .0258963
1042.081 .0259043
1042.663 .0259117
1043.244 .0259184
1043.826 .0259243
1044.407 .0259294
1044.988 .0259336
1045.569 .0259372
1046.150 .0259401
1046.730 .0259424
1047.311 .0259442
1047.891 .0259456
1048.471 .0259465
1049.052 .0259470
1049.632 .0259471
1050.211 .0259467
1050.791 .0259458
1051.371 .0259444
1051.950 .0259427
1052.530 .0259406
1053.109 .0259383
1053.688 .0259359
1054.268 .0259336
1054.847 .0259314
1055.426 .0259293
1056.005 .0259273
1056.583 .0259253
1057.162 .0259233
1057.741 .0259212
1058.319 .0259189
1058.898 .0259165
1059.476 .0259138
1060.055 .0259110
1060.633 .0259080
1061.211 .0259050
1061.790 .0259020
1062.368 .0258991
1062.946 .0258963
1063.524 .0258935
1064.102 .0258907
1064.680 .0258878
1065.258 .0258846
1065.836 .0258813
1066.414 .0258777
1066.992 .0258740
1067.570 .0258702
1068.148 .0258663
1068.726 .0258623
1069.304 .0258582
1069.882 .0258541
1070.460 .0258497
1071.038 .0258452
1071.616 .0258403
1072.194 .0258352
1072.772 .0258297
1073.350 .0258241
1073.928 .0258183
1074.506 .0258123
1075.084 .0258063
1075.662 .0258003
1076.240 .0257942
1076.819 .0257882
1077.397 .0257822
1077.976 .0257763
1078.554 .0257703
1079.133 .0257642
1079.711 .0257579
1080.290 .0257513
1080.869 .0257444
1081.448 .0257371
1082.027 .0257293
1082.606 .0257209
1083.185 .0257121
1083.764 .0257027
1084.343 .0256930
1084.923 .0256831
1085.502 .0256728
1086.082 .0256624
1086.662 .0256518
1087.242 .0256411
1087.822 .0256302
1088.402 .0256195
1088.983 .0256090
1089.563 .0255990
1090.144 .0255897
1090.725 .0255811
1091.306 .0255736
1091.887 .0255671
1092.469 .0255616
1093.050 .0255569
1093.632 .0255528
1094.214 .0255492
1094.796 .0255459
1095.379 .0255428
1095.961 .0255400
1096.544 .0255375
1097.127 .0255354
1097.710 .0255340
1098.294 .0255332
1098.877 .0255333
1099.461 .0255344
1100.046 .0255363
1100.630 .0255391
1101.215 .0255426
1101.800 .0255466
1102.385 .0255511
1102.970 .0255560
1103.556 .0255612
1104.142 .0255667
1104.728 .0255726
1105.315 .0255788
1105.902 .0255853
1106.489 .0255923
1107.077 .0255996
1107.664 .0256073
1108.253 .0256152
1108.841 .0256234
1109.430 .0256317
1110.019 .0256403
1110.609 .0256494
1111.198 .0256592
1111.789 .0256701
1112.379 .0256824
1112.970 .0256963
1113.561 .0257121
1114.153 .0257301
1114.745 .0257504
1115.338 .0257730
1115.931 .0257978
1116.524 .0258248
1117.117 .0258537
1117.712 .0258843
1118.306 .0259166
1118.901 .0259504
1119.496 .0259855
1120.092 .0260222
1120.689 .0260604
1121.285 .0261003
1121.882 .0261421
1122.480 .0261858
1123.078 .0262316
1123.677 .0262793
1124.276 .0263287
1124.875 .0263801
1125.476 .0264337
1126.076 .0264895
1126.677 .0265476
1127.279 .0266085
1127.881 .0266724
1128.484 .0267395
1129.087 .0267682
1129.691 .0268399
1130.295 .0269145
1130.900 .0269920
1131.505 .0270722
1132.111 .0271550
1132.718 .0272404
1133.325 .0273286
1133.933 .0274198
1134.541 .0275146
1135.150 .0276171
1135.760 .0277120
1136.370 .0278199
1136.981 .0278494
1137.592 .0279762
1138.204 .0281028
1138.817 .0282344
1139.431 .0283684
1140.045 .0285064
1140.660 .0286386
1141.275 .0287800
1141.891 .0289249
1142.508 .0290819
1143.126 .0293519
1143.744 .0291854
1144.363 .0295938
1144.983 .0297238
