Measurement Sequence started on: 15-12-46-377
Integration time: 28
Scans to Average: 2 
>>>>>Begin Spectral Data<<<<<
432.689 .0000100
433.621 .0000100
434.552 .0000100
435.482 .0000100
436.410 .0000100
437.337 .0000100
438.262 .0283871
439.187 .0601659
440.110 .0996395
441.031 .1441629
441.952 .1155573
442.871 .1207056
443.789 .1255053
444.705 .1300290
445.621 .1343260
446.535 .1384348
447.447 .1408896
448.359 .1415327
449.269 .1399775
450.178 .1359722
451.086 .1295971
451.993 .1213467
452.898 .1120393
453.803 .1026024
454.706 .0938258
455.608 .0861983
456.508 .0798832
457.408 .0756091
458.306 .0723197
459.204 .0696341
460.100 .0673629
460.995 .0654003
461.888 .0636754
462.781 .0621413
463.673 .0607628
464.563 .0595150
465.452 .0583795
466.340 .0573414
467.228 .0563898
468.114 .0555168
468.999 .0547153
469.882 .0539792
470.765 .0533035
471.647 .0526833
472.528 .0521143
473.407 .0515922
474.286 .0511135
475.163 .0506763
476.040 .0502779
476.915 .0499172
477.790 .0495926
478.663 .0493027
479.535 .0490459
480.407 .0488197
481.277 .0486216
482.147 .0484488
483.015 .0482984
483.883 .0481680
484.749 .0480553
485.615 .0479592
486.479 .0478787
487.343 .0478138
488.206 .0477650
489.067 .0477328
489.928 .0477188
490.788 .0477242
491.647 .0477500
492.505 .0477974
493.362 .0478668
494.218 .0479594
495.073 .0480762
495.928 .0483449
496.781 .0485270
497.634 .0487354
498.486 .0489714
499.337 .0492369
500.187 .0495336
501.036 .0498638
501.884 .0502301
502.731 .0506365
503.578 .0510859
504.424 .0513997
505.268 .0519277
506.113 .0525113
506.956 .0531549
507.798 .0538642
508.640 .0546465
509.480 .0555101
510.320 .0564653
511.160 .0575231
511.998 .0586969
512.836 .0600045
513.672 .0614667
514.508 .0631051
515.344 .0649444
516.178 .0670093
517.012 .0693241
517.845 .0719129
518.677 .0747979
519.508 .0779960
520.339 .0815160
521.169 .0853617
521.998 .0895094
522.826 .0939212
523.654 .0985417
524.481 .1032996
525.307 .1081109
526.133 .1128806
526.958 .1175069
527.782 .1218931
528.605 .1259516
529.428 .1296071
530.250 .1327904
531.072 .1354553
531.892 .1375643
532.712 .1390913
533.532 .1400185
534.350 .1403393
535.168 .1400504
535.986 .1391551
536.802 .1376573
537.618 .1355674
538.434 .1329000
539.249 .1296970
540.063 .1260123
540.876 .1219152
541.689 .1174875
542.501 .1128219
543.313 .1080155
544.124 .1031705
544.934 .0983791
545.744 .0937224
546.553 .0892675
547.361 .0850706
548.169 .0811613
548.976 .0775593
549.783 .0742690
550.589 .0712861
551.395 .0685938
552.200 .0661717
553.004 .0639942
553.808 .0620384
554.611 .0602814
555.414 .0587015
556.216 .0572745
557.018 .0559787
557.819 .0547939
558.619 .0537024
559.419 .0526887
560.218 .0517416
561.017 .0508514
561.815 .0500120
562.613 .0492185
563.410 .0484657
564.207 .0477487
565.003 .0470636
565.799 .0464060
566.594 .0457721
567.388 .0451586
568.182 .0445632
568.976 .0439837
569.769 .0434184
570.562 .0428672
571.354 .0423305
572.145 .0418091
572.936 .0413043
573.727 .0408173
574.517 .0403489
575.307 .0399000
576.096 .0394707
576.885 .0390617
577.673 .0386729
578.461 .0383038
579.248 .0379539
580.035 .0376225
580.821 .0373091
581.607 .0370131
582.392 .0367344
583.177 .0364730
583.962 .0362285
584.746 .0360003
585.529 .0357882
586.313 .0355913
587.095 .0354089
587.878 .0352400
588.660 .0350836
589.441 .0349389
590.222 .0348050
591.003 .0346814
591.783 .0345672
592.563 .0344617
593.342 .0343642
594.121 .0342737
594.899 .0341894
595.678 .0341106
596.455 .0340364
597.233 .0339663
598.009 .0338997
598.786 .0338364
599.562 .0337760
600.338 .0337183
601.113 .0336632
601.888 .0335876
602.663 .0335379
603.437 .0334903
604.211 .0334447
604.984 .0334008
605.757 .0333587
606.530 .0333182
607.302 .0332794
608.074 .0332424
608.845 .0332073
609.616 .0331742
610.387 .0331631
611.158 .0331330
611.928 .0331049
612.697 .0330787
613.467 .0330543
614.236 .0330315
615.004 .0330103
615.773 .0329904
616.541 .0329717
617.308 .0329540
618.076 .0329372
618.843 .0329212
619.609 .0329057
620.375 .0328906
621.141 .0328757
621.907 .0328606
622.672 .0328451
623.437 .0328291
624.202 .0328123
624.966 .0327946
625.730 .0327760
626.493 .0327562
627.257 .0327353
628.020 .0327131
628.782 .0326897
629.545 .0326649
630.307 .0326389
631.068 .0326114
631.830 .0325827
632.591 .0325528
633.352 .0325217
634.112 .0324898
634.872 .0324569
635.632 .0324233
636.392 .0323891
637.151 .0323544
637.910 .0323194
638.668 .0322842
639.427 .0322489
640.185 .0322137
640.943 .0321786
641.700 .0321439
642.457 .0321094
643.214 .0320752
643.971 .0320413
644.727 .0320078
645.483 .0319746
646.239 .0319418
646.994 .0319095
647.750 .0318776
648.505 .0318462
649.259 .0318154
650.014 .0317849
650.768 .0317547
651.521 .0317247
652.275 .0316947
653.028 .0316645
653.781 .0316342
654.534 .0316037
655.286 .0315729
656.039 .0315421
656.791 .0315112
657.542 .0314802
658.294 .0314493
659.045 .0314184
659.796 .0313876
660.546 .0313568
661.297 .0313260
662.047 .0312955
662.796 .0312650
663.546 .0312349
664.295 .0312050
665.044 .0311755
665.793 .0311465
666.542 .0311180
667.290 .0310901
668.038 .0310628
668.786 .0310362
669.533 .0310103
670.281 .0309852
671.028 .0309609
671.774 .0309374
672.521 .0309147
673.267 .0308926
674.013 .0308711
674.759 .0308503
675.505 .0308300
676.250 .0308103
676.995 .0307911
677.740 .0307724
678.484 .0307542
679.229 .0307365
679.973 .0307191
680.717 .0307021
681.460 .0306855
682.204 .0306691
682.947 .0306529
683.690 .0306368
684.433 .0306207
685.175 .0306047
685.917 .0305888
686.659 .0305729
687.401 .0305571
688.142 .0305414
688.884 .0305257
689.625 .0305102
690.365 .0304947
691.106 .0304793
691.846 .0304640
692.586 .0304486
693.326 .0304332
694.066 .0304177
694.805 .0304022
695.545 .0303867
696.284 .0303713
697.022 .0303559
697.761 .0303406
698.499 .0303253
699.237 .0303102
699.975 .0302950
700.713 .0302799
701.450 .0302647
702.187 .0302496
702.924 .0302344
703.661 .0302191
704.397 .0302038
705.133 .0301885
705.869 .0301730
706.605 .0301574
707.341 .0301415
708.076 .0301254
708.811 .0301089
709.546 .0300921
710.281 .0300747
711.015 .0300570
711.749 .0300387
712.483 .0300199
713.217 .0300007
713.950 .0299811
714.684 .0299609
715.417 .0299404
716.150 .0299194
716.882 .0298979
717.615 .0298760
718.347 .0298536
719.079 .0298308
719.811 .0298074
720.542 .0297835
721.273 .0297590
722.005 .0297341
722.735 .0297087
723.466 .0296829
724.196 .0296569
724.927 .0296307
725.656 .0296044
726.386 .0295781
727.116 .0295519
727.845 .0295257
728.574 .0294997
729.303 .0294738
730.031 .0294481
730.760 .0294226
731.488 .0293975
732.216 .0293728
732.944 .0293485
733.671 .0293248
734.398 .0293016
735.125 .0292790
735.852 .0292570
736.579 .0292356
737.305 .0292149
738.031 .0291947
738.757 .0291751
739.483 .0291561
740.208 .0291376
740.933 .0291195
741.658 .0291019
742.383 .0290845
743.108 .0290674
743.832 .0290506
744.556 .0290340
745.280 .0290176
746.004 .0290015
746.727 .0289856
747.450 .0289698
748.173 .0289540
748.896 .0289382
749.618 .0289223
750.340 .0289062
751.062 .0288900
751.784 .0288735
752.506 .0288570
753.227 .0288403
753.948 .0288237
754.669 .0288071
755.389 .0287906
756.110 .0287741
756.830 .0287577
757.550 .0287416
758.269 .0287256
758.989 .0287099
759.708 .0286946
760.427 .0286798
761.146 .0286655
761.864 .0286516
762.582 .0286383
763.300 .0286256
764.018 .0286133
764.736 .0286016
765.453 .0285904
766.170 .0285799
766.887 .0285701
767.603 .0285610
768.320 .0285526
769.036 .0285449
769.751 .0285379
770.467 .0285315
771.182 .0285258
771.897 .0285205
772.612 .0285158
773.327 .0285117
774.041 .0285081
774.755 .0285051
775.469 .0285027
776.183 .0285009
776.896 .0284997
777.609 .0284989
778.322 .0284987
779.035 .0284989
779.747 .0284995
780.459 .0285005
781.171 .0285018
781.882 .0285034
782.594 .0285052
783.305 .0285071
784.016 .0285091
784.726 .0285110
785.436 .0285127
786.147 .0285146
786.856 .0285156
787.566 .0285162
788.275 .0285166
788.984 .0285165
789.693 .0285160
790.401 .0285150
791.110 .0285133
791.818 .0285109
792.525 .0285077
793.233 .0285036
793.940 .0284986
794.647 .0284938
795.353 .0284878
796.060 .0284810
796.766 .0284734
797.472 .0284651
798.177 .0284560
798.883 .0284461
799.588 .0284353
800.292 .0284238
800.997 .0284114
801.701 .0283982
802.405 .0283843
803.109 .0283698
803.812 .0283548
804.515 .0283394
805.218 .0283234
805.921 .0283069
806.623 .0282900
807.325 .0282725
808.027 .0282546
808.728 .0282362
809.429 .0282175
810.130 .0281983
810.831 .0281789
811.531 .0281591
812.231 .0281390
812.931 .0281186
813.630 .0280978
814.330 .0280768
815.029 .0280556
815.727 .0280343
816.426 .0280129
817.124 .0279915
817.821 .0279703
818.519 .0279493
819.216 .0279285
819.913 .0279079
820.609 .0278875
821.306 .0278673
822.002 .0278474
822.697 .0278278
823.393 .0278086
824.088 .0277899
824.783 .0277716
825.477 .0277539
826.171 .0277366
826.865 .0277197
827.559 .0277032
828.252 .0276870
828.945 .0276711
829.638 .0276554
830.330 .0276399
831.023 .0276247
831.714 .0276096
832.406 .0275946
833.097 .0275798
833.788 .0275651
834.479 .0275504
835.169 .0275358
835.859 .0275212
836.548 .0275067
837.238 .0274922
837.927 .0274776
838.615 .0274630
839.304 .0274483
839.992 .0274334
840.680 .0274184
841.367 .0274031
842.054 .0273877
842.741 .0273721
843.428 .0273564
844.114 .0273406
844.800 .0273248
845.485 .0273089
846.170 .0272929
846.855 .0272767
847.540 .0272603
848.224 .0272438
848.908 .0272270
849.592 .0272100
850.275 .0271928
850.958 .0271754
851.641 .0271580
852.323 .0271404
853.005 .0271228
853.687 .0271051
854.368 .0270873
855.049 .0270695
855.730 .0270515
856.410 .0270336
857.090 .0270157
857.769 .0269979
858.449 .0269801
859.128 .0269624
859.806 .0269448
860.485 .0269274
861.163 .0269102
861.840 .0268932
862.518 .0268766
863.195 .0268604
863.871 .0268449
864.548 .0268300
865.224 .0268159
865.899 .0268027
866.574 .0267904
867.249 .0267789
867.924 .0267683
868.598 .0267586
869.272 .0267498
869.946 .0267420
870.619 .0267350
871.292 .0267290
871.964 .0267239
872.636 .0267198
873.308 .0267165
873.979 .0267141
874.651 .0267124
875.321 .0267115
875.992 .0267114
876.662 .0267121
877.331 .0267135
878.001 .0267156
878.670 .0267184
879.338 .0267219
880.007 .0267261
880.675 .0267308
881.342 .0267361
882.009 .0267419
882.676 .0267481
883.343 .0267549
884.009 .0267620
884.675 .0267697
885.340 .0267778
886.005 .0267863
886.670 .0267951
887.334 .0268043
887.998 .0268138
888.662 .0268236
889.325 .0268335
889.988 .0268437
890.650 .0268540
891.312 .0268645
891.974 .0268750
892.636 .0268855
893.297 .0268959
893.957 .0269062
894.618 .0269162
895.278 .0269259
895.937 .0269352
896.596 .0269440
897.255 .0269523
897.914 .0269600
898.572 .0269670
899.230 .0269731
899.887 .0269784
900.544 .0269827
901.201 .0269860
901.857 .0269863
902.513 .0269870
903.168 .0269868
903.823 .0269857
904.478 .0269837
905.132 .0269808
905.786 .0269771
906.440 .0269725
907.093 .0269671
907.746 .0269610
908.399 .0269542
909.051 .0269468
909.703 .0269388
910.354 .0269337
911.005 .0269252
911.656 .0269162
912.306 .0269068
912.956 .0268970
913.605 .0268867
914.254 .0268761
914.903 .0268650
915.551 .0268535
916.199 .0268417
916.847 .0268295
917.494 .0268170
918.141 .0268041
918.788 .0267908
919.434 .0267771
920.079 .0267628
920.725 .0267481
921.370 .0267327
922.014 .0267167
922.658 .0267001
923.302 .0266828
923.946 .0266648
924.589 .0266461
925.231 .0266267
925.873 .0266065
926.515 .0265857
927.157 .0265643
927.798 .0265422
928.439 .0265195
929.079 .0264963
929.719 .0264726
930.359 .0264485
930.998 .0264240
931.637 .0263992
932.275 .0263742
932.913 .0263489
933.551 .0263235
934.188 .0262981
934.825 .0262728
935.462 .0262478
936.098 .0262232
936.733 .0261989
937.369 .0261750
938.004 .0261515
938.638 .0261283
939.273 .0261055
939.907 .0260830
940.540 .0260609
941.173 .0260391
941.806 .0260177
942.438 .0259968
943.070 .0259763
943.702 .0259562
944.333 .0259364
944.964 .0259168
945.594 .0258974
946.224 .0258781
946.854 .0258587
947.483 .0258395
948.112 .0258202
948.741 .0258011
949.369 .0257821
949.996 .0257632
950.624 .0257444
951.251 .0257257
951.878 .0257070
952.504 .0256883
953.130 .0256694
953.755 .0256504
954.380 .0256312
955.005 .0256119
955.629 .0255925
956.253 .0255729
956.877 .0255532
957.500 .0255333
958.123 .0255132
958.746 .0254930
959.368 .0254725
959.990 .0254519
960.611 .0254312
961.232 .0254105
961.853 .0253898
962.473 .0253691
963.093 .0253484
963.712 .0253277
964.331 .0253071
964.950 .0252864
965.569 .0252658
966.187 .0252451
966.804 .0252244
967.422 .0252037
968.039 .0251828
968.655 .0251618
969.272 .0251407
969.887 .0251193
970.503 .0250977
971.118 .0250760
971.733 .0250541
972.347 .0250321
972.961 .0250101
973.575 .0249881
974.188 .0249664
974.801 .0249449
975.414 .0249236
976.026 .0249026
976.638 .0248819
977.250 .0248615
977.861 .0248414
978.472 .0248217
979.083 .0248023
979.693 .0247834
980.303 .0247649
980.912 .0247390
981.521 .0247215
982.130 .0247043
982.738 .0246874
983.346 .0246708
983.954 .0246544
984.562 .0246384
985.169 .0246228
985.775 .0246076
986.382 .0245929
986.988 .0245789
987.594 .0245655
988.199 .0245529
988.804 .0245409
989.409 .0245365
990.013 .0245258
990.617 .0245159
991.221 .0245069
991.824 .0244987
992.427 .0244913
993.030 .0244847
993.632 .0244789
994.234 .0244738
994.836 .0244692
995.438 .0244653
996.039 .0244619
996.640 .0244590
997.240 .0244566
997.840 .0244547
998.440 .0244535
999.040 .0244529
999.639 .0244529
1000.238 .0244536
1000.836 .0244550
1001.435 .0244570
1002.033 .0244597
1002.630 .0244629
1003.228 .0244668
1003.825 .0244713
1004.422 .0244763
1005.018 .0244818
1005.614 .0244879
1006.210 .0244944
1006.806 .0245013
1007.401 .0245084
1007.996 .0245159
1008.591 .0245236
1009.186 .0245314
1009.780 .0245393
1010.374 .0245474
1010.967 .0245557
1011.561 .0245643
1012.154 .0245731
1012.746 .0245823
1013.339 .0245919
1013.931 .0246019
1014.523 .0246122
1015.115 .0246231
1015.706 .0246344
1016.298 .0246462
1016.888 .0246585
1017.479 .0246714
1018.069 .0246848
1018.660 .0246987
1019.250 .0247133
1019.839 .0247284
1020.429 .0247441
1021.018 .0247603
1021.607 .0247770
1022.195 .0247943
1022.784 .0248120
1023.372 .0248301
1023.960 .0248487
1024.547 .0248677
1025.135 .0248871
1025.722 .0249069
1026.309 .0249271
1026.896 .0249476
1027.483 .0249683
1028.069 .0249892
1028.655 .0250102
1029.241 .0250314
1029.827 .0250526
1030.412 .0250740
1030.997 .0250954
1031.582 .0251168
1032.167 .0251383
1032.752 .0251597
1033.336 .0251810
1033.921 .0252021
1034.505 .0252232
1035.089 .0252441
1035.672 .0252648
1036.256 .0252854
1036.839 .0253059
1037.422 .0253262
1038.005 .0253463
1038.588 .0253661
1039.171 .0253856
1039.753 .0254046
1040.335 .0254231
1040.918 .0254411
1041.500 .0254586
1042.081 .0254756
1042.663 .0254922
1043.244 .0255084
1043.826 .0255243
1044.407 .0255398
1044.988 .0255551
1045.569 .0255700
1046.150 .0255845
1046.730 .0255986
1047.311 .0256121
1047.891 .0256252
1048.471 .0256379
1049.052 .0256501
1049.632 .0256619
1050.211 .0256735
1050.791 .0256848
1051.371 .0256957
1051.950 .0257063
1052.530 .0257164
1053.109 .0257259
1053.688 .0257347
1054.268 .0257427
1054.847 .0257502
1055.426 .0257570
1056.005 .0257634
1056.583 .0257696
1057.162 .0257756
1057.741 .0257817
1058.319 .0257878
1058.898 .0257940
1059.476 .0258002
1060.055 .0258063
1060.633 .0258122
1061.211 .0258181
1061.790 .0258239
1062.368 .0258298
1062.946 .0258359
1063.524 .0258424
1064.102 .0258494
1064.680 .0258570
1065.258 .0258651
1065.836 .0258736
1066.414 .0258825
1066.992 .0258915
1067.570 .0259006
1068.148 .0259097
1068.726 .0259187
1069.304 .0259276
1069.882 .0259364
1070.460 .0259452
1071.038 .0259539
1071.616 .0259625
1072.194 .0259708
1072.772 .0259786
1073.350 .0259858
1073.928 .0259922
1074.506 .0259976
1075.084 .0260020
1075.662 .0260054
1076.240 .0260078
1076.819 .0260094
1077.397 .0260103
1077.976 .0260108
1078.554 .0260109
1079.133 .0260106
1079.711 .0260100
1080.290 .0260089
1080.869 .0260073
1081.448 .0260054
1082.027 .0260031
1082.606 .0260006
1083.185 .0259981
1083.764 .0259958
1084.343 .0259939
1084.923 .0259926
1085.502 .0259920
1086.082 .0259920
1086.662 .0259927
1087.242 .0259939
1087.822 .0259958
1088.402 .0259983
1088.983 .0260015
1089.563 .0260055
1090.144 .0260105
1090.725 .0260167
1091.306 .0260240
1091.887 .0260326
1092.469 .0260424
1093.050 .0260533
1093.632 .0260651
1094.214 .0260778
1094.796 .0260909
1095.379 .0261046
1095.961 .0261185
1096.544 .0261326
1097.127 .0261467
1097.710 .0261607
1098.294 .0261744
1098.877 .0261878
1099.461 .0262009
1100.046 .0262136
1100.630 .0262259
1101.215 .0262380
1101.800 .0262496
1102.385 .0262608
1102.970 .0262716
1103.556 .0262819
1104.142 .0262917
1104.728 .0263011
1105.315 .0263100
1105.902 .0263187
1106.489 .0263275
1107.077 .0263364
1107.664 .0263458
1108.253 .0263560
1108.841 .0263670
1109.430 .0263789
1110.019 .0263916
1110.609 .0264049
1111.198 .0264189
1111.789 .0264338
1112.379 .0264494
1112.970 .0264659
1113.561 .0264836
1114.153 .0265026
1114.745 .0265232
1115.338 .0265453
1115.931 .0265688
1116.524 .0265936
1117.117 .0266194
1117.712 .0266461
1118.306 .0266735
1118.901 .0267018
1119.496 .0267310
1120.092 .0267616
1120.689 .0267935
1121.285 .0268270
1121.882 .0268620
1122.480 .0268987
1123.078 .0269367
1123.677 .0269760
1124.276 .0270164
1124.875 .0270579
1125.476 .0271006
1126.076 .0271449
1126.677 .0271910
1127.279 .0272392
1127.881 .0272900
1128.484 .0273434
1129.087 .0273653
1129.691 .0274221
1130.295 .0274815
1130.900 .0275433
1131.505 .0276076
1132.111 .0276744
1132.718 .0277439
1133.325 .0278168
1133.933 .0278935
1134.541 .0279771
1135.150 .0280628
1135.760 .0281454
1136.370 .0282447
1136.981 .0282469
1137.592 .0283524
1138.204 .0284598
1138.817 .0285640
1139.431 .0286775
1140.045 .0287956
1140.660 .0289142
1141.275 .0290520
1141.891 .0292000
1142.508 .0294280
1143.126 .0295210
1143.744 .0294699
1144.363 .0299766
1144.983 .0301059
