Measurement Sequence started on: 15-12-46-377
Integration time: 28
Scans to Average: 2 
>>>>>Begin Spectral Data<<<<<
432.689 .0000100
433.621 .0000100
434.552 .0000100
435.482 .0000100
436.410 .0000100
437.337 .0000100
438.262 .0271518
439.187 .0574769
440.110 .0952129
441.031 .1377736
441.952 .1105850
442.871 .1154969
443.789 .1200646
444.705 .1243603
445.621 .1284342
446.535 .1323264
447.447 .1346377
448.359 .1352228
449.269 .1337102
450.178 .1298608
451.086 .1237490
451.993 .1158452
452.898 .1069290
453.803 .0978862
454.706 .0894710
455.608 .0821526
456.508 .0760894
457.408 .0719826
458.306 .0688244
459.204 .0662562
460.100 .0640964
460.995 .0622438
461.888 .0606281
462.781 .0592007
463.673 .0579239
464.563 .0567708
465.452 .0557213
466.340 .0547591
467.228 .0538719
468.114 .0530523
468.999 .0522943
469.882 .0515931
470.765 .0509449
471.647 .0503465
472.528 .0497948
473.407 .0492864
474.286 .0488192
475.163 .0483912
476.040 .0480009
476.915 .0476472
477.790 .0473284
478.663 .0470437
479.535 .0467925
480.407 .0465732
481.277 .0463844
482.147 .0462243
483.015 .0460911
483.883 .0459830
484.749 .0458983
485.615 .0458359
486.479 .0457947
487.343 .0457742
488.206 .0457741
489.067 .0457932
489.928 .0458310
490.788 .0458869
491.647 .0459600
492.505 .0460494
493.362 .0461547
494.218 .0462753
495.073 .0464113
495.928 .0466728
496.781 .0468526
497.634 .0470516
498.486 .0472709
499.337 .0475123
500.187 .0477778
501.036 .0480704
501.884 .0483933
502.731 .0487514
503.578 .0491498
504.424 .0494382
505.268 .0499203
506.113 .0504617
506.956 .0510683
507.798 .0517466
508.640 .0525040
509.480 .0533486
510.320 .0542905
511.160 .0553414
511.998 .0565158
512.836 .0578311
513.672 .0593039
514.508 .0609534
515.344 .0627978
516.178 .0648546
517.012 .0671440
517.845 .0696821
518.677 .0724833
519.508 .0755589
520.339 .0789148
521.169 .0825543
521.998 .0864574
522.826 .0905939
523.654 .0949145
524.481 .0993577
525.307 .1038498
526.133 .1083000
526.958 .1126156
527.782 .1167056
528.605 .1204833
529.428 .1238712
530.250 .1268014
531.072 .1292312
531.892 .1311258
532.712 .1324655
533.532 .1332421
534.350 .1334528
535.168 .1331046
535.986 .1322069
536.802 .1307683
537.618 .1288002
538.434 .1263150
539.249 .1233456
540.063 .1199345
540.876 .1161399
541.689 .1120310
542.501 .1076866
543.313 .1031994
544.124 .0986634
544.934 .0941669
545.744 .0897907
546.553 .0856038
547.361 .0816623
548.169 .0779956
548.976 .0746232
549.783 .0715492
550.589 .0687669
551.395 .0662595
552.200 .0640032
553.004 .0619719
553.808 .0601420
554.611 .0584904
555.414 .0569961
556.216 .0556394
557.018 .0544017
557.819 .0532664
558.619 .0522198
559.419 .0512503
560.218 .0503484
561.017 .0495049
561.815 .0487123
562.613 .0479644
563.410 .0472546
564.207 .0465764
565.003 .0459249
565.799 .0452955
566.594 .0446848
567.388 .0440900
568.182 .0435097
568.976 .0429431
569.769 .0423905
570.562 .0418524
571.354 .0413298
572.145 .0408235
572.936 .0403339
573.727 .0398607
574.517 .0394040
575.307 .0389637
576.096 .0385395
576.885 .0381318
577.673 .0377412
578.461 .0373680
579.248 .0370127
580.035 .0366757
580.821 .0363572
581.607 .0360570
582.392 .0357749
583.177 .0355105
583.962 .0352628
584.746 .0350311
585.529 .0348145
586.313 .0346120
587.095 .0344231
587.878 .0342469
588.660 .0340829
589.441 .0339306
590.222 .0337896
591.003 .0336591
591.783 .0335384
592.563 .0334269
593.342 .0333236
594.121 .0332277
594.899 .0331384
595.678 .0330551
596.455 .0329770
597.233 .0329037
598.009 .0328347
598.786 .0327695
599.562 .0327077
600.338 .0326489
601.113 .0325928
601.888 .0325157
602.663 .0324647
603.437 .0324154
604.211 .0323680
604.984 .0323223
605.757 .0322782
606.530 .0322357
607.302 .0321949
608.074 .0321556
608.845 .0321179
609.616 .0320817
610.387 .0320674
611.158 .0320337
611.928 .0320017
612.697 .0319714
613.467 .0319427
614.236 .0319158
615.004 .0318904
615.773 .0318664
616.541 .0318438
617.308 .0318223
618.076 .0318020
618.843 .0317827
619.609 .0317643
620.375 .0317469
621.141 .0317303
621.907 .0317144
622.672 .0316991
623.437 .0316840
624.202 .0316690
624.966 .0316539
625.730 .0316385
626.493 .0316228
627.257 .0316065
628.020 .0315898
628.782 .0315724
629.545 .0315544
630.307 .0315358
631.068 .0315164
631.830 .0314963
632.591 .0314755
633.352 .0314540
634.112 .0314319
634.872 .0314093
635.632 .0313862
636.392 .0313627
637.151 .0313388
637.910 .0313146
638.668 .0312901
639.427 .0312652
640.185 .0312402
640.943 .0312150
641.700 .0311898
642.457 .0311647
643.214 .0311398
643.971 .0311150
644.727 .0310904
645.483 .0310658
646.239 .0310411
646.994 .0310165
647.750 .0309917
648.505 .0309668
649.259 .0309418
650.014 .0309167
650.768 .0308916
651.521 .0308665
652.275 .0308412
653.028 .0308157
653.781 .0307899
654.534 .0307637
655.286 .0307370
656.039 .0307099
656.791 .0306823
657.542 .0306543
658.294 .0306259
659.045 .0305973
659.796 .0305685
660.546 .0305396
661.297 .0305106
662.047 .0304816
662.796 .0304526
663.546 .0304236
664.295 .0303947
665.044 .0303659
665.793 .0303373
666.542 .0303090
667.290 .0302812
668.038 .0302538
668.786 .0302270
669.533 .0302009
670.281 .0301754
671.028 .0301505
671.774 .0301262
672.521 .0301026
673.267 .0300796
674.013 .0300572
674.759 .0300354
675.505 .0300141
676.250 .0299934
676.995 .0299732
677.740 .0299535
678.484 .0299342
679.229 .0299153
679.973 .0298967
680.717 .0298785
681.460 .0298606
682.204 .0298429
682.947 .0298255
683.690 .0298083
684.433 .0297912
685.175 .0297742
685.917 .0297570
686.659 .0297397
687.401 .0297224
688.142 .0297049
688.884 .0296873
689.625 .0296698
690.365 .0296523
691.106 .0296350
691.846 .0296178
692.586 .0296009
693.326 .0295841
694.066 .0295676
694.805 .0295514
695.545 .0295354
696.284 .0295199
697.022 .0295047
697.761 .0294900
698.499 .0294759
699.237 .0294623
699.975 .0294493
700.713 .0294369
701.450 .0294250
702.187 .0294137
702.924 .0294028
703.661 .0293924
704.397 .0293823
705.133 .0293726
705.869 .0293633
706.605 .0293541
707.341 .0293451
708.076 .0293362
708.811 .0293272
709.546 .0293181
710.281 .0293088
711.015 .0292992
711.749 .0292894
712.483 .0292793
713.217 .0292688
713.950 .0292581
714.684 .0292470
715.417 .0292355
716.150 .0292236
716.882 .0292113
717.615 .0291985
718.347 .0291852
719.079 .0291715
719.811 .0291573
720.542 .0291427
721.273 .0291278
722.005 .0291125
722.735 .0290970
723.466 .0290812
724.196 .0290652
724.927 .0290491
725.656 .0290329
726.386 .0290167
727.116 .0290005
727.845 .0289844
728.574 .0289685
729.303 .0289526
730.031 .0289369
730.760 .0289214
731.488 .0289059
732.216 .0288907
732.944 .0288756
733.671 .0288607
734.398 .0288460
735.125 .0288315
735.852 .0288173
736.579 .0288034
737.305 .0287897
738.031 .0287764
738.757 .0287632
739.483 .0287503
740.208 .0287375
740.933 .0287249
741.658 .0287124
742.383 .0286999
743.108 .0286875
743.832 .0286752
744.556 .0286629
745.280 .0286507
746.004 .0286385
746.727 .0286264
747.450 .0286142
748.173 .0286019
748.896 .0285895
749.618 .0285768
750.340 .0285639
751.062 .0285506
751.784 .0285369
752.506 .0285227
753.227 .0285081
753.948 .0284930
754.669 .0284775
755.389 .0284617
756.110 .0284455
756.830 .0284289
757.550 .0284120
758.269 .0283947
758.989 .0283770
759.708 .0283589
760.427 .0283403
761.146 .0283213
761.864 .0283018
762.582 .0282818
763.300 .0282613
764.018 .0282405
764.736 .0282193
765.453 .0281979
766.170 .0281764
766.887 .0281549
767.603 .0281334
768.320 .0281120
769.036 .0280908
769.751 .0280699
770.467 .0280493
771.182 .0280291
771.897 .0280094
772.612 .0279903
773.327 .0279718
774.041 .0279540
774.755 .0279369
775.469 .0279206
776.183 .0279050
776.896 .0278901
777.609 .0278759
778.322 .0278624
779.035 .0278496
779.747 .0278374
780.459 .0278258
781.171 .0278147
781.882 .0278040
782.594 .0277937
783.305 .0277838
784.016 .0277742
784.726 .0277649
785.436 .0277558
786.147 .0277422
786.856 .0277333
787.566 .0277244
788.275 .0277154
788.984 .0277062
789.693 .0276969
790.401 .0276873
791.110 .0276774
791.818 .0276672
792.525 .0276567
793.233 .0276459
793.940 .0276348
794.647 .0276287
795.353 .0276175
796.060 .0276061
796.766 .0275946
797.472 .0275830
798.177 .0275715
798.883 .0275599
799.588 .0275484
800.292 .0275370
800.997 .0275256
801.701 .0275143
802.405 .0275031
803.109 .0274920
803.812 .0274809
804.515 .0274700
805.218 .0274593
805.921 .0274487
806.623 .0274382
807.325 .0274280
808.027 .0274179
808.728 .0274079
809.429 .0273980
810.130 .0273883
810.831 .0273787
811.531 .0273692
812.231 .0273600
812.931 .0273510
813.630 .0273424
814.330 .0273343
815.029 .0273267
815.727 .0273196
816.426 .0273131
817.124 .0273072
817.821 .0273018
818.519 .0272970
819.216 .0272928
819.913 .0272891
820.609 .0272861
821.306 .0272837
822.002 .0272820
822.697 .0272809
823.393 .0272806
824.088 .0272809
824.783 .0272819
825.477 .0272833
826.171 .0272853
826.865 .0272878
827.559 .0272906
828.252 .0272940
828.945 .0272976
829.638 .0273016
830.330 .0273058
831.023 .0273101
831.714 .0273144
832.406 .0273187
833.097 .0273228
833.788 .0273267
834.479 .0273304
835.169 .0273340
835.859 .0273374
836.548 .0273407
837.238 .0273439
837.927 .0273469
838.615 .0273497
839.304 .0273522
839.992 .0273542
840.680 .0273558
841.367 .0273568
842.054 .0273575
842.741 .0273577
843.428 .0273575
844.114 .0273570
844.800 .0273562
845.485 .0273551
846.170 .0273537
846.855 .0273518
847.540 .0273495
848.224 .0273467
848.908 .0273433
849.592 .0273394
850.275 .0273348
850.958 .0273297
851.641 .0273240
852.323 .0273176
853.005 .0273106
853.687 .0273028
854.368 .0272944
855.049 .0272852
855.730 .0272755
856.410 .0272652
857.090 .0272543
857.769 .0272430
858.449 .0272312
859.128 .0272190
859.806 .0272063
860.485 .0271932
861.163 .0271797
861.840 .0271657
862.518 .0271515
863.195 .0271370
863.871 .0271223
864.548 .0271075
865.224 .0270926
865.899 .0270776
866.574 .0270626
867.249 .0270474
867.924 .0270322
868.598 .0270169
869.272 .0270016
869.946 .0269862
870.619 .0269708
871.292 .0269554
871.964 .0269401
872.636 .0269248
873.308 .0269096
873.979 .0268944
874.651 .0268793
875.321 .0268643
875.992 .0268495
876.662 .0268348
877.331 .0268204
878.001 .0268062
878.670 .0267922
879.338 .0267783
880.007 .0267646
880.675 .0267510
881.342 .0267374
882.009 .0267241
882.676 .0267109
883.343 .0266979
884.009 .0266852
884.675 .0266728
885.340 .0266607
886.005 .0266489
886.670 .0266374
887.334 .0266261
887.998 .0266151
888.662 .0266042
889.325 .0265935
889.988 .0265830
890.650 .0265727
891.312 .0265625
891.974 .0265525
892.636 .0265426
893.297 .0265327
893.957 .0265229
894.618 .0265131
895.278 .0265032
895.937 .0264932
896.596 .0264829
897.255 .0264723
897.914 .0264612
898.572 .0264496
899.230 .0264373
899.887 .0264243
900.544 .0264105
901.201 .0263959
901.857 .0263696
902.513 .0263523
903.168 .0263342
903.823 .0263150
904.478 .0262949
905.132 .0262739
905.786 .0262519
906.440 .0262291
907.093 .0262055
907.746 .0261812
908.399 .0261562
909.051 .0261306
909.703 .0261046
910.354 .0260906
911.005 .0260645
911.656 .0260382
912.306 .0260117
912.956 .0259851
913.605 .0259586
914.254 .0259322
914.903 .0259060
915.551 .0258800
916.199 .0258543
916.847 .0258290
917.494 .0258040
918.141 .0257793
918.788 .0257550
919.434 .0257310
920.079 .0257072
920.725 .0256837
921.370 .0256604
922.014 .0256372
922.658 .0256142
923.302 .0255913
923.946 .0255685
924.589 .0255458
925.231 .0255230
925.873 .0255002
926.515 .0254773
927.157 .0254543
927.798 .0254312
928.439 .0254081
929.079 .0253850
929.719 .0253621
930.359 .0253392
930.998 .0253167
931.637 .0252944
932.275 .0252725
932.913 .0252509
933.551 .0252299
934.188 .0252094
934.825 .0251896
935.462 .0251706
936.098 .0251524
936.733 .0251351
937.369 .0251187
938.004 .0251033
938.638 .0250889
939.273 .0250754
939.907 .0250629
940.540 .0250513
941.173 .0250406
941.806 .0250308
942.438 .0250219
943.070 .0250138
943.702 .0250065
944.333 .0250000
944.964 .0249943
945.594 .0249891
946.224 .0249845
946.854 .0249802
947.483 .0249761
948.112 .0249722
948.741 .0249683
949.369 .0249644
949.996 .0249604
950.624 .0249563
951.251 .0249521
951.878 .0249476
952.504 .0249431
953.130 .0249383
953.755 .0249334
954.380 .0249283
955.005 .0249232
955.629 .0249179
956.253 .0249126
956.877 .0249074
957.500 .0249022
958.123 .0248972
958.746 .0248923
959.368 .0248877
959.990 .0248833
960.611 .0248793
961.232 .0248756
961.853 .0248721
962.473 .0248691
963.093 .0248663
963.712 .0248639
964.331 .0248618
964.950 .0248601
965.569 .0248588
966.187 .0248578
966.804 .0248572
967.422 .0248569
968.039 .0248569
968.655 .0248571
969.272 .0248575
969.887 .0248581
970.503 .0248589
971.118 .0248599
971.733 .0248609
972.347 .0248621
972.961 .0248634
973.575 .0248647
974.188 .0248660
974.801 .0248673
975.414 .0248684
976.026 .0248694
976.638 .0248702
977.250 .0248707
977.861 .0248710
978.472 .0248710
979.083 .0248709
979.693 .0248705
980.303 .0248700
980.912 .0248688
981.521 .0248682
982.130 .0248676
982.738 .0248670
983.346 .0248665
983.954 .0248662
984.562 .0248661
985.169 .0248662
985.775 .0248667
986.382 .0248676
986.988 .0248690
987.594 .0248710
988.199 .0248737
988.804 .0248772
989.409 .0248812
990.013 .0248862
990.617 .0248919
991.221 .0248984
991.824 .0249056
992.427 .0249135
993.030 .0249221
993.632 .0249312
994.234 .0249409
994.836 .0249512
995.438 .0249620
996.039 .0249733
996.640 .0249850
997.240 .0249971
997.840 .0250095
998.440 .0250222
999.040 .0250352
999.639 .0250483
1000.238 .0250615
1000.836 .0250748
1001.435 .0250883
1002.033 .0251018
1002.630 .0251153
1003.228 .0251288
1003.825 .0251423
1004.422 .0251556
1005.018 .0251686
1005.614 .0251812
1006.210 .0251934
1006.806 .0252052
1007.401 .0252164
1007.996 .0252271
1008.591 .0252374
1009.186 .0252472
1009.780 .0252567
1010.374 .0252658
1010.967 .0252746
1011.561 .0252831
1012.154 .0252913
1012.746 .0252993
1013.339 .0253071
1013.931 .0253149
1014.523 .0253228
1015.115 .0253308
1015.706 .0253391
1016.298 .0253478
1016.888 .0253569
1017.479 .0253663
1018.069 .0253762
1018.660 .0253863
1019.250 .0253967
1019.839 .0254072
1020.429 .0254178
1021.018 .0254285
1021.607 .0254393
1022.195 .0254502
1022.784 .0254614
1023.372 .0254728
1023.960 .0254845
1024.547 .0254964
1025.135 .0255086
1025.722 .0255209
1026.309 .0255334
1026.896 .0255460
1027.483 .0255587
1028.069 .0255714
1028.655 .0255842
1029.241 .0255972
1029.827 .0256104
1030.412 .0256237
1030.997 .0256371
1031.582 .0256505
1032.167 .0256639
1032.752 .0256770
1033.336 .0256897
1033.921 .0257019
1034.505 .0257133
1035.089 .0257241
1035.672 .0257340
1036.256 .0257431
1036.839 .0257514
1037.422 .0257589
1038.005 .0257656
1038.588 .0257714
1039.171 .0257762
1039.753 .0257799
1040.335 .0257826
1040.918 .0257842
1041.500 .0257846
1042.081 .0257839
1042.663 .0257822
1043.244 .0257795
1043.826 .0257760
1044.407 .0257718
1044.988 .0257670
1045.569 .0257617
1046.150 .0257559
1046.730 .0257496
1047.311 .0257429
1047.891 .0257357
1048.471 .0257281
1049.052 .0257201
1049.632 .0257117
1050.211 .0257030
1050.791 .0256941
1051.371 .0256851
1051.950 .0256760
1052.530 .0256670
1053.109 .0256581
1053.688 .0256494
1054.268 .0256408
1054.847 .0256324
1055.426 .0256241
1056.005 .0256159
1056.583 .0256078
1057.162 .0255998
1057.741 .0255921
1058.319 .0255847
1058.898 .0255777
1059.476 .0255712
1060.055 .0255653
1060.633 .0255598
1061.211 .0255549
1061.790 .0255505
1062.368 .0255463
1062.946 .0255425
1063.524 .0255388
1064.102 .0255353
1064.680 .0255318
1065.258 .0255283
1065.836 .0255249
1066.414 .0255215
1066.992 .0255180
1067.570 .0255143
1068.148 .0255105
1068.726 .0255063
1069.304 .0255018
1069.882 .0254969
1070.460 .0254916
1071.038 .0254861
1071.616 .0254805
1072.194 .0254749
1072.772 .0254696
1073.350 .0254647
1073.928 .0254600
1074.506 .0254556
1075.084 .0254514
1075.662 .0254473
1076.240 .0254431
1076.819 .0254389
1077.397 .0254346
1077.976 .0254304
1078.554 .0254262
1079.133 .0254223
1079.711 .0254186
1080.290 .0254151
1080.869 .0254117
1081.448 .0254085
1082.027 .0254052
1082.606 .0254021
1083.185 .0253992
1083.764 .0253966
1084.343 .0253945
1084.923 .0253932
1085.502 .0253926
1086.082 .0253931
1086.662 .0253945
1087.242 .0253969
1087.822 .0254000
1088.402 .0254038
1088.983 .0254082
1089.563 .0254130
1090.144 .0254184
1090.725 .0254241
1091.306 .0254304
1091.887 .0254371
1092.469 .0254442
1093.050 .0254516
1093.632 .0254591
1094.214 .0254668
1094.796 .0254744
1095.379 .0254818
1095.961 .0254890
1096.544 .0254961
1097.127 .0255032
1097.710 .0255106
1098.294 .0255183
1098.877 .0255266
1099.461 .0255354
1100.046 .0255448
1100.630 .0255546
1101.215 .0255649
1101.800 .0255756
1102.385 .0255866
1102.970 .0255977
1103.556 .0256089
1104.142 .0256201
1104.728 .0256315
1105.315 .0256432
1105.902 .0256552
1106.489 .0256676
1107.077 .0256804
1107.664 .0256937
1108.253 .0257076
1108.841 .0257221
1109.430 .0257375
1110.019 .0257539
1110.609 .0257715
1111.198 .0257901
1111.789 .0258100
1112.379 .0258312
1112.970 .0258537
1113.561 .0258775
1114.153 .0259025
1114.745 .0259287
1115.338 .0259560
1115.931 .0259843
1116.524 .0260136
1117.117 .0260438
1117.712 .0260749
1118.306 .0261066
1118.901 .0261385
1119.496 .0261706
1120.092 .0262029
1120.689 .0262353
1121.285 .0262680
1121.882 .0263013
1122.480 .0263352
1123.078 .0263702
1123.677 .0264067
1124.276 .0264449
1124.875 .0264851
1125.476 .0265272
1126.076 .0265711
1126.677 .0266167
1127.279 .0266639
1127.881 .0267127
1128.484 .0267631
1129.087 .0267849
1129.691 .0268378
1130.295 .0268926
1130.900 .0269495
1131.505 .0270087
1132.111 .0270698
1132.718 .0271332
1133.325 .0271988
1133.933 .0272672
1134.541 .0273351
1135.150 .0274010
1135.760 .0274759
1136.370 .0275595
1136.981 .0275811
1137.592 .0276738
1138.204 .0277713
1138.817 .0278742
1139.431 .0279826
1140.045 .0280873
1140.660 .0281947
1141.275 .0283065
1141.891 .0284333
1142.508 .0284676
1143.126 .0284545
1143.744 .0287427
1144.363 .0290161
1144.983 .0295292
