Measurement Sequence started on: 15-12-46-377
Integration time: 28
Scans to Average: 2 
>>>>>Begin Spectral Data<<<<<
432.689 .0000100
433.621 .0000100
434.552 .0000100
435.482 .0000100
436.410 .0000100
437.337 .0000100
438.262 .0262823
439.187 .0556510
440.110 .0921395
441.031 .1332928
441.952 .1068434
442.871 .1116581
443.789 .1161670
444.705 .1204341
445.621 .1245017
446.535 .1284011
447.447 .1307721
448.359 .1314693
449.269 .1301336
450.178 .1265316
451.086 .1207410
451.993 .1132199
452.898 .1047260
453.803 .0961169
454.706 .0881200
455.608 .0811840
456.508 .0754550
457.408 .0716020
458.306 .0686429
459.204 .0662238
460.100 .0641703
460.995 .0623852
461.888 .0608074
462.781 .0593980
463.673 .0581290
464.563 .0569808
465.452 .0559392
466.340 .0549911
467.228 .0541273
468.114 .0533387
468.999 .0526182
469.882 .0519590
470.765 .0513549
471.647 .0508019
472.528 .0502963
473.407 .0498355
474.286 .0494179
475.163 .0490424
476.040 .0487074
476.915 .0484115
477.790 .0481523
478.663 .0479277
479.535 .0477352
480.407 .0475724
481.277 .0474370
482.147 .0473259
483.015 .0472372
483.883 .0471680
484.749 .0471165
485.615 .0470822
486.479 .0470640
487.343 .0470616
488.206 .0470756
489.067 .0471058
489.928 .0471536
490.788 .0472193
491.647 .0473036
492.505 .0474067
493.362 .0475296
494.218 .0476722
495.073 .0478347
495.928 .0481575
496.781 .0483773
497.634 .0486214
498.486 .0488915
499.337 .0491888
500.187 .0495151
501.036 .0498726
501.884 .0502624
502.731 .0506869
503.578 .0511482
504.424 .0514564
505.268 .0519819
506.113 .0525542
506.956 .0531775
507.798 .0538575
508.640 .0546019
509.480 .0554195
510.320 .0563197
511.160 .0573157
511.998 .0584231
512.836 .0596599
513.672 .0610446
514.508 .0626003
515.344 .0643507
516.178 .0663215
517.012 .0685375
517.845 .0710231
518.677 .0737978
519.508 .0768781
520.339 .0802696
521.169 .0839721
521.998 .0879625
522.826 .0922055
523.654 .0966446
524.481 .1012121
525.307 .1058288
526.133 .1104049
526.958 .1148450
527.782 .1190584
528.605 .1229572
529.428 .1264658
530.250 .1295143
531.072 .1320575
531.892 .1340571
532.712 .1354896
533.532 .1363383
534.350 .1365983
535.168 .1362705
535.986 .1353622
536.802 .1338802
537.618 .1318405
538.434 .1292614
539.249 .1261835
540.063 .1226551
540.876 .1187439
541.689 .1145263
542.501 .1100874
543.313 .1055174
544.124 .1009104
544.934 .0963509
545.744 .0919175
546.553 .0876742
547.361 .0836769
548.169 .0799547
548.976 .0765274
549.783 .0733970
550.589 .0705568
551.395 .0679878
552.200 .0656660
553.004 .0635637
553.808 .0616560
554.611 .0599199
555.414 .0583349
556.216 .0568805
557.018 .0555401
557.819 .0542982
558.619 .0531415
559.419 .0520586
560.218 .0510413
561.017 .0500818
561.815 .0491762
562.613 .0483211
563.410 .0475125
564.207 .0467463
565.003 .0460189
565.799 .0453261
566.594 .0446635
567.388 .0440280
568.182 .0434170
568.976 .0428285
569.769 .0422615
570.562 .0417160
571.354 .0411914
572.145 .0406884
572.936 .0402069
573.727 .0397467
574.517 .0393073
575.307 .0388882
576.096 .0384884
576.885 .0381076
577.673 .0377458
578.461 .0374025
579.248 .0370770
580.035 .0367695
580.821 .0364791
581.607 .0362053
582.392 .0359476
583.177 .0357058
583.962 .0354797
584.746 .0352693
585.529 .0350744
586.313 .0348947
587.095 .0347298
587.878 .0345791
588.660 .0344416
589.441 .0343164
590.222 .0342023
591.003 .0340982
591.783 .0340031
592.563 .0339160
593.342 .0338359
594.121 .0337620
594.899 .0336934
595.678 .0336295
596.455 .0335694
597.233 .0335123
598.009 .0334576
598.786 .0334049
599.562 .0333534
600.338 .0333028
601.113 .0332527
601.888 .0331786
602.663 .0331292
603.437 .0330801
604.211 .0330313
604.984 .0329829
605.757 .0329349
606.530 .0328875
607.302 .0328406
608.074 .0327944
608.845 .0327488
609.616 .0327039
610.387 .0326832
611.158 .0326396
611.928 .0325967
612.697 .0325547
613.467 .0325138
614.236 .0324740
615.004 .0324355
615.773 .0323981
616.541 .0323620
617.308 .0323270
618.076 .0322931
618.843 .0322601
619.609 .0322279
620.375 .0321964
621.141 .0321655
621.907 .0321351
622.672 .0321051
623.437 .0320755
624.202 .0320460
624.966 .0320166
625.730 .0319873
626.493 .0319578
627.257 .0319282
628.020 .0318984
628.782 .0318683
629.545 .0318379
630.307 .0318072
631.068 .0317762
631.830 .0317448
632.591 .0317132
633.352 .0316813
634.112 .0316492
634.872 .0316172
635.632 .0315852
636.392 .0315534
637.151 .0315221
637.910 .0314912
638.668 .0314610
639.427 .0314315
640.185 .0314029
640.943 .0313750
641.700 .0313480
642.457 .0313218
643.214 .0312967
643.971 .0312726
644.727 .0312495
645.483 .0312275
646.239 .0312065
646.994 .0311866
647.750 .0311676
648.505 .0311494
649.259 .0311320
650.014 .0311152
650.768 .0310989
651.521 .0310829
652.275 .0310672
653.028 .0310516
653.781 .0310361
654.534 .0310205
655.286 .0310048
656.039 .0309888
656.791 .0309725
657.542 .0309558
658.294 .0309388
659.045 .0309214
659.796 .0309035
660.546 .0308852
661.297 .0308664
662.047 .0308472
662.796 .0308274
663.546 .0308071
664.295 .0307864
665.044 .0307653
665.793 .0307437
666.542 .0307220
667.290 .0307000
668.038 .0306779
668.786 .0306556
669.533 .0306332
670.281 .0306108
671.028 .0305883
671.774 .0305657
672.521 .0305430
673.267 .0305204
674.013 .0304977
674.759 .0304750
675.505 .0304523
676.250 .0304297
676.995 .0304070
677.740 .0303844
678.484 .0303617
679.229 .0303390
679.973 .0303162
680.717 .0302934
681.460 .0302705
682.204 .0302476
682.947 .0302245
683.690 .0302012
684.433 .0301776
685.175 .0301538
685.917 .0301296
686.659 .0301050
687.401 .0300802
688.142 .0300550
688.884 .0300296
689.625 .0300040
690.365 .0299782
691.106 .0299523
691.846 .0299262
692.586 .0299000
693.326 .0298736
694.066 .0298471
694.805 .0298206
695.545 .0297941
696.284 .0297677
697.022 .0297415
697.761 .0297155
698.499 .0296898
699.237 .0296643
699.975 .0296392
700.713 .0296144
701.450 .0295899
702.187 .0295657
702.924 .0295419
703.661 .0295185
704.397 .0294953
705.133 .0294725
705.869 .0294500
706.605 .0294277
707.341 .0294057
708.076 .0293839
708.811 .0293623
709.546 .0293408
710.281 .0293195
711.015 .0292983
711.749 .0292773
712.483 .0292564
713.217 .0292357
713.950 .0292150
714.684 .0291944
715.417 .0291739
716.150 .0291535
716.882 .0291332
717.615 .0291128
718.347 .0290924
719.079 .0290720
719.811 .0290516
720.542 .0290312
721.273 .0290109
722.005 .0289908
722.735 .0289710
723.466 .0289516
724.196 .0289328
724.927 .0289146
725.656 .0288971
726.386 .0288804
727.116 .0288646
727.845 .0288495
728.574 .0288352
729.303 .0288218
730.031 .0288092
730.760 .0287975
731.488 .0287867
732.216 .0287768
732.944 .0287678
733.671 .0287598
734.398 .0287527
735.125 .0287465
735.852 .0287411
736.579 .0287365
737.305 .0287325
738.031 .0287290
738.757 .0287259
739.483 .0287232
740.208 .0287206
740.933 .0287182
741.658 .0287158
742.383 .0287134
743.108 .0287110
743.832 .0287085
744.556 .0287059
745.280 .0287032
746.004 .0287002
746.727 .0286970
747.450 .0286934
748.173 .0286894
748.896 .0286849
749.618 .0286797
750.340 .0286739
751.062 .0286675
751.784 .0286604
752.506 .0286526
753.227 .0286442
753.948 .0286351
754.669 .0286254
755.389 .0286151
756.110 .0286041
756.830 .0285925
757.550 .0285802
758.269 .0285672
758.989 .0285536
759.708 .0285392
760.427 .0285242
761.146 .0285086
761.864 .0284923
762.582 .0284756
763.300 .0284583
764.018 .0284406
764.736 .0284225
765.453 .0284041
766.170 .0283854
766.887 .0283664
767.603 .0283473
768.320 .0283280
769.036 .0283087
769.751 .0282894
770.467 .0282702
771.182 .0282513
771.897 .0282325
772.612 .0282140
773.327 .0281958
774.041 .0281778
774.755 .0281601
775.469 .0281426
776.183 .0281254
776.896 .0281085
777.609 .0280918
778.322 .0280754
779.035 .0280591
779.747 .0280430
780.459 .0280270
781.171 .0280110
781.882 .0279950
782.594 .0279789
783.305 .0279629
784.016 .0279468
784.726 .0279306
785.436 .0279144
786.147 .0278895
786.856 .0278727
787.566 .0278557
788.275 .0278385
788.984 .0278210
789.693 .0278033
790.401 .0277852
791.110 .0277670
791.818 .0277484
792.525 .0277296
793.233 .0277104
793.940 .0276910
794.647 .0276803
795.353 .0276605
796.060 .0276404
796.766 .0276200
797.472 .0275994
798.177 .0275787
798.883 .0275577
799.588 .0275367
800.292 .0275155
800.997 .0274942
801.701 .0274728
802.405 .0274514
803.109 .0274299
803.812 .0274084
804.515 .0273869
805.218 .0273654
805.921 .0273439
806.623 .0273225
807.325 .0273011
808.027 .0272798
808.728 .0272585
809.429 .0272374
810.130 .0272164
810.831 .0271955
811.531 .0271749
812.231 .0271546
812.931 .0271346
813.630 .0271150
814.330 .0270959
815.029 .0270773
815.727 .0270595
816.426 .0270424
817.124 .0270261
817.821 .0270106
818.519 .0269959
819.216 .0269822
819.913 .0269694
820.609 .0269577
821.306 .0269469
822.002 .0269374
822.697 .0269290
823.393 .0269218
824.088 .0269159
824.783 .0269111
825.477 .0269074
826.171 .0269047
826.865 .0269029
827.559 .0269020
828.252 .0269018
828.945 .0269025
829.638 .0269039
830.330 .0269059
831.023 .0269084
831.714 .0269114
832.406 .0269146
833.097 .0269180
833.788 .0269215
834.479 .0269250
835.169 .0269285
835.859 .0269320
836.548 .0269356
837.238 .0269391
837.927 .0269426
838.615 .0269461
839.304 .0269495
839.992 .0269526
840.680 .0269555
841.367 .0269583
842.054 .0269608
842.741 .0269631
843.428 .0269653
844.114 .0269674
844.800 .0269694
845.485 .0269713
846.170 .0269731
846.855 .0269745
847.540 .0269756
848.224 .0269763
848.908 .0269765
849.592 .0269764
850.275 .0269757
850.958 .0269747
851.641 .0269732
852.323 .0269713
853.005 .0269689
853.687 .0269659
854.368 .0269624
855.049 .0269583
855.730 .0269534
856.410 .0269480
857.090 .0269419
857.769 .0269352
858.449 .0269280
859.128 .0269203
859.806 .0269122
860.485 .0269036
861.163 .0268948
861.840 .0268857
862.518 .0268763
863.195 .0268668
863.871 .0268572
864.548 .0268475
865.224 .0268379
865.899 .0268283
866.574 .0268188
867.249 .0268095
867.924 .0268002
868.598 .0267910
869.272 .0267819
869.946 .0267729
870.619 .0267640
871.292 .0267553
871.964 .0267467
872.636 .0267383
873.308 .0267300
873.979 .0267219
874.651 .0267137
875.321 .0267056
875.992 .0266975
876.662 .0266894
877.331 .0266811
878.001 .0266729
878.670 .0266645
879.338 .0266562
880.007 .0266477
880.675 .0266393
881.342 .0266308
882.009 .0266221
882.676 .0266135
883.343 .0266047
884.009 .0265959
884.675 .0265871
885.340 .0265782
886.005 .0265692
886.670 .0265603
887.334 .0265513
887.998 .0265422
888.662 .0265331
889.325 .0265239
889.988 .0265147
890.650 .0265055
891.312 .0264963
891.974 .0264870
892.636 .0264777
893.297 .0264683
893.957 .0264587
894.618 .0264489
895.278 .0264387
895.937 .0264281
896.596 .0264169
897.255 .0264050
897.914 .0263925
898.572 .0263791
899.230 .0263650
899.887 .0263499
900.544 .0263340
901.201 .0263171
901.857 .0262871
902.513 .0262676
903.168 .0262469
903.823 .0262252
904.478 .0262023
905.132 .0261784
905.786 .0261534
906.440 .0261274
907.093 .0261004
907.746 .0260727
908.399 .0260441
909.051 .0260149
909.703 .0259851
910.354 .0259690
911.005 .0259388
911.656 .0259082
912.306 .0258772
912.956 .0258460
913.605 .0258145
914.254 .0257831
914.903 .0257517
915.551 .0257205
916.199 .0256895
916.847 .0256589
917.494 .0256285
918.141 .0255984
918.788 .0255686
919.434 .0255390
920.079 .0255096
920.725 .0254805
921.370 .0254515
922.014 .0254228
922.658 .0253943
923.302 .0253660
923.946 .0253380
924.589 .0253101
925.231 .0252822
925.873 .0252545
926.515 .0252267
927.157 .0251989
927.798 .0251712
928.439 .0251435
929.079 .0251160
929.719 .0250887
930.359 .0250618
930.998 .0250352
931.637 .0250091
932.275 .0249833
932.913 .0249581
933.551 .0249333
934.188 .0249090
934.825 .0248854
935.462 .0248625
936.098 .0248404
936.733 .0248192
937.369 .0247989
938.004 .0247795
938.638 .0247612
939.273 .0247441
939.907 .0247280
940.540 .0247130
941.173 .0246992
941.806 .0246865
942.438 .0246749
943.070 .0246644
943.702 .0246549
944.333 .0246464
944.964 .0246388
945.594 .0246320
946.224 .0246260
946.854 .0246207
947.483 .0246161
948.112 .0246120
948.741 .0246085
949.369 .0246053
949.996 .0246026
950.624 .0246002
951.251 .0245979
951.878 .0245959
952.504 .0245939
953.130 .0245921
953.755 .0245904
954.380 .0245888
955.005 .0245873
955.629 .0245860
956.253 .0245848
956.877 .0245837
957.500 .0245826
958.123 .0245816
958.746 .0245807
959.368 .0245798
959.990 .0245791
960.611 .0245786
961.232 .0245784
961.853 .0245786
962.473 .0245791
963.093 .0245800
963.712 .0245812
964.331 .0245827
964.950 .0245845
965.569 .0245866
966.187 .0245890
966.804 .0245916
967.422 .0245946
968.039 .0245978
968.655 .0246013
969.272 .0246049
969.887 .0246088
970.503 .0246127
971.118 .0246166
971.733 .0246205
972.347 .0246243
972.961 .0246282
973.575 .0246321
974.188 .0246362
974.801 .0246403
975.414 .0246447
976.026 .0246492
976.638 .0246538
977.250 .0246585
977.861 .0246632
978.472 .0246679
979.083 .0246726
979.693 .0246771
980.303 .0246816
980.912 .0246884
981.521 .0246927
982.130 .0246969
982.738 .0247010
983.346 .0247049
983.954 .0247088
984.562 .0247126
985.169 .0247164
985.775 .0247203
986.382 .0247243
986.988 .0247286
987.594 .0247331
988.199 .0247379
988.804 .0247430
989.409 .0247457
990.013 .0247512
990.617 .0247570
991.221 .0247630
991.824 .0247691
992.427 .0247754
993.030 .0247817
993.632 .0247880
994.234 .0247944
994.836 .0248007
995.438 .0248070
996.039 .0248133
996.640 .0248196
997.240 .0248260
997.840 .0248326
998.440 .0248393
999.040 .0248463
999.639 .0248535
1000.238 .0248609
1000.836 .0248686
1001.435 .0248766
1002.033 .0248848
1002.630 .0248932
1003.228 .0249019
1003.825 .0249108
1004.422 .0249198
1005.018 .0249290
1005.614 .0249381
1006.210 .0249473
1006.806 .0249564
1007.401 .0249654
1007.996 .0249741
1008.591 .0249827
1009.186 .0249912
1009.780 .0249995
1010.374 .0250077
1010.967 .0250159
1011.561 .0250240
1012.154 .0250320
1012.746 .0250400
1013.339 .0250480
1013.931 .0250558
1014.523 .0250635
1015.115 .0250710
1015.706 .0250782
1016.298 .0250851
1016.888 .0250919
1017.479 .0250985
1018.069 .0251049
1018.660 .0251113
1019.250 .0251176
1019.839 .0251238
1020.429 .0251301
1021.018 .0251362
1021.607 .0251424
1022.195 .0251485
1022.784 .0251545
1023.372 .0251604
1023.960 .0251664
1024.547 .0251723
1025.135 .0251783
1025.722 .0251842
1026.309 .0251902
1026.896 .0251961
1027.483 .0252018
1028.069 .0252074
1028.655 .0252127
1029.241 .0252176
1029.827 .0252221
1030.412 .0252263
1030.997 .0252301
1031.582 .0252336
1032.167 .0252367
1032.752 .0252396
1033.336 .0252423
1033.921 .0252446
1034.505 .0252466
1035.089 .0252482
1035.672 .0252493
1036.256 .0252499
1036.839 .0252498
1037.422 .0252491
1038.005 .0252478
1038.588 .0252458
1039.171 .0252432
1039.753 .0252400
1040.335 .0252361
1040.918 .0252317
1041.500 .0252266
1042.081 .0252210
1042.663 .0252149
1043.244 .0252083
1043.826 .0252014
1044.407 .0251943
1044.988 .0251869
1045.569 .0251794
1046.150 .0251718
1046.730 .0251641
1047.311 .0251562
1047.891 .0251481
1048.471 .0251399
1049.052 .0251314
1049.632 .0251226
1050.211 .0251135
1050.791 .0251040
1051.371 .0250940
1051.950 .0250833
1052.530 .0250718
1053.109 .0250596
1053.688 .0250464
1054.268 .0250324
1054.847 .0250174
1055.426 .0250017
1056.005 .0249853
1056.583 .0249682
1057.162 .0249506
1057.741 .0249325
1058.319 .0249138
1058.898 .0248946
1059.476 .0248748
1060.055 .0248545
1060.633 .0248337
1061.211 .0248125
1061.790 .0247912
1062.368 .0247698
1062.946 .0247485
1063.524 .0247274
1064.102 .0247066
1064.680 .0246861
1065.258 .0246659
1065.836 .0246459
1066.414 .0246261
1066.992 .0246065
1067.570 .0245873
1068.148 .0245688
1068.726 .0245511
1069.304 .0245344
1069.882 .0245191
1070.460 .0245050
1071.038 .0244924
1071.616 .0244810
1072.194 .0244708
1072.772 .0244617
1073.350 .0244535
1073.928 .0244462
1074.506 .0244398
1075.084 .0244343
1075.662 .0244297
1076.240 .0244258
1076.819 .0244225
1077.397 .0244196
1077.976 .0244167
1078.554 .0244136
1079.133 .0244100
1079.711 .0244059
1080.290 .0244012
1080.869 .0243959
1081.448 .0243900
1082.027 .0243838
1082.606 .0243772
1083.185 .0243705
1083.764 .0243636
1084.343 .0243564
1084.923 .0243488
1085.502 .0243409
1086.082 .0243326
1086.662 .0243240
1087.242 .0243152
1087.822 .0243064
1088.402 .0242979
1088.983 .0242896
1089.563 .0242817
1090.144 .0242744
1090.725 .0242677
1091.306 .0242615
1091.887 .0242558
1092.469 .0242506
1093.050 .0242460
1093.632 .0242420
1094.214 .0242388
1094.796 .0242366
1095.379 .0242355
1095.961 .0242356
1096.544 .0242371
1097.127 .0242402
1097.710 .0242447
1098.294 .0242508
1098.877 .0242583
1099.461 .0242671
1100.046 .0242773
1100.630 .0242886
1101.215 .0243010
1101.800 .0243144
1102.385 .0243288
1102.970 .0243439
1103.556 .0243597
1104.142 .0243763
1104.728 .0243936
1105.315 .0244115
1105.902 .0244303
1106.489 .0244500
1107.077 .0244707
1107.664 .0244925
1108.253 .0245154
1108.841 .0245393
1109.430 .0245643
1110.019 .0245902
1110.609 .0246171
1111.198 .0246451
1111.789 .0246743
1112.379 .0247049
1112.970 .0247368
1113.561 .0247700
1114.153 .0248045
1114.745 .0248400
1115.338 .0248764
1115.931 .0249137
1116.524 .0249517
1117.117 .0249904
1117.712 .0250300
1118.306 .0250708
1118.901 .0251129
1119.496 .0251569
1120.092 .0252029
1120.689 .0252512
1121.285 .0253017
1121.882 .0253542
1122.480 .0254089
1123.078 .0254654
1123.677 .0255236
1124.276 .0255832
1124.875 .0256443
1125.476 .0257067
1126.076 .0257706
1126.677 .0258361
1127.279 .0259034
1127.881 .0259726
1128.484 .0260439
1129.087 .0260753
1129.691 .0261492
1130.295 .0262251
1130.900 .0263032
1131.505 .0263837
1132.111 .0264676
1132.718 .0265554
1133.325 .0266478
1133.933 .0267459
1134.541 .0268468
1135.150 .0269623
1135.760 .0270806
1136.370 .0272073
1136.981 .0271813
1137.592 .0272875
1138.204 .0273990
1138.817 .0275153
1139.431 .0276429
1140.045 .0277900
1140.660 .0279515
1141.275 .0281326
1141.891 .0283366
1142.508 .0284571
1143.126 .0289158
1143.744 .0290471
1144.363 .0293376
1144.983 .0295628
