Measurement Sequence started on: 15-12-46-377
Integration time: 28
Scans to Average: 2 
>>>>>Begin Spectral Data<<<<<
432.689 .0000100
433.621 .0000100
434.552 .0000100
435.482 .0000100
436.410 .0000100
437.337 .0000100
438.262 .0280227
439.187 .0593807
440.110 .0984611
441.031 .1426124
441.952 .1156004
442.871 .1208914
443.789 .1258246
444.705 .1304701
445.621 .1348772
446.535 .1390852
447.447 .1416495
448.359 .1424175
449.269 .1410031
450.178 .1371547
451.086 .1309465
451.993 .1228596
452.898 .1136950
453.803 .1043650
454.706 .0956483
455.608 .0880315
456.508 .0816827
457.408 .0773305
458.306 .0739430
459.204 .0711564
460.100 .0687895
460.995 .0667423
461.888 .0649470
462.781 .0633563
463.673 .0619330
464.563 .0606493
465.452 .0594840
466.340 .0584190
467.228 .0574412
468.114 .0565415
468.999 .0557132
469.882 .0549509
470.765 .0542506
471.647 .0536090
472.528 .0530230
473.407 .0524886
474.286 .0520020
475.163 .0515599
476.040 .0511591
476.915 .0507970
477.790 .0504713
478.663 .0501809
479.535 .0499247
480.407 .0497014
481.277 .0495095
482.147 .0493473
483.015 .0492126
483.883 .0491038
484.749 .0490189
485.615 .0489561
486.479 .0489142
487.343 .0488926
488.206 .0488915
489.067 .0489101
489.928 .0489494
490.788 .0490097
491.647 .0490910
492.505 .0491938
493.362 .0493178
494.218 .0494634
495.073 .0496309
495.928 .0499665
496.781 .0501938
497.634 .0504450
498.486 .0507206
499.337 .0510222
500.187 .0513513
501.036 .0517094
501.884 .0520987
502.731 .0525224
503.578 .0529833
504.424 .0532902
505.268 .0538187
506.113 .0543954
506.956 .0550241
507.798 .0557095
508.640 .0564585
509.480 .0572786
510.320 .0581804
511.160 .0591757
511.998 .0602791
512.836 .0615076
513.672 .0628787
514.508 .0644137
515.344 .0661344
516.178 .0680645
517.012 .0702285
517.845 .0726478
518.677 .0753426
519.508 .0783290
520.339 .0816152
521.169 .0852073
521.998 .0890882
522.826 .0932298
523.654 .0975858
524.481 .1020955
525.307 .1066867
526.133 .1112719
526.958 .1157572
527.782 .1200480
528.605 .1240515
529.428 .1276865
530.250 .1308767
531.072 .1335713
531.892 .1357280
532.712 .1373196
533.532 .1383305
534.350 .1387519
535.168 .1385862
535.986 .1378408
536.802 .1365233
537.618 .1346476
538.434 .1322254
539.249 .1292917
540.063 .1258901
540.876 .1220778
541.689 .1179246
542.501 .1135097
543.313 .1089225
544.124 .1042564
544.934 .0996012
545.744 .0950423
546.553 .0906514
547.361 .0864919
548.169 .0826020
548.976 .0790075
549.783 .0757185
550.589 .0727306
551.395 .0700303
552.200 .0675954
553.004 .0653981
553.808 .0634132
554.611 .0616162
555.414 .0599861
556.216 .0585017
557.018 .0571433
557.819 .0558958
558.619 .0547451
559.419 .0536794
560.218 .0526891
561.017 .0517659
561.815 .0509030
562.613 .0500948
563.410 .0493349
564.207 .0486179
565.003 .0479377
565.799 .0472890
566.594 .0466666
567.388 .0460672
568.182 .0454875
568.976 .0449249
569.769 .0443782
570.562 .0438466
571.354 .0433296
572.145 .0428272
572.936 .0423394
573.727 .0418659
574.517 .0414067
575.307 .0409617
576.096 .0405305
576.885 .0401138
577.673 .0397121
578.461 .0393260
579.248 .0389561
580.035 .0386031
580.821 .0382672
581.607 .0379489
582.392 .0376482
583.177 .0373652
583.962 .0370993
584.746 .0368503
585.529 .0366176
586.313 .0364008
587.095 .0361995
587.878 .0360130
588.660 .0358408
589.441 .0356820
590.222 .0355356
591.003 .0354009
591.783 .0352769
592.563 .0351628
593.342 .0350576
594.121 .0349605
594.899 .0348708
595.678 .0347878
596.455 .0347107
597.233 .0346391
598.009 .0345724
598.786 .0345101
599.562 .0344514
600.338 .0343960
601.113 .0343435
601.888 .0342727
602.663 .0342257
603.437 .0341806
604.211 .0341374
604.984 .0340959
605.757 .0340560
606.530 .0340175
607.302 .0339804
608.074 .0339446
608.845 .0339099
609.616 .0338764
610.387 .0338620
611.158 .0338300
611.928 .0337989
612.697 .0337686
613.467 .0337390
614.236 .0337101
615.004 .0336817
615.773 .0336537
616.541 .0336260
617.308 .0335985
618.076 .0335710
618.843 .0335436
619.609 .0335160
620.375 .0334881
621.141 .0334600
621.907 .0334314
622.672 .0334024
623.437 .0333729
624.202 .0333429
624.966 .0333123
625.730 .0332811
626.493 .0332494
627.257 .0332171
628.020 .0331841
628.782 .0331506
629.545 .0331164
630.307 .0330816
631.068 .0330462
631.830 .0330102
632.591 .0329738
633.352 .0329371
634.112 .0329002
634.872 .0328632
635.632 .0328262
636.392 .0327893
637.151 .0327527
637.910 .0327164
638.668 .0326805
639.427 .0326449
640.185 .0326099
640.943 .0325755
641.700 .0325417
642.457 .0325087
643.214 .0324765
643.971 .0324452
644.727 .0324148
645.483 .0323852
646.239 .0323566
646.994 .0323289
647.750 .0323021
648.505 .0322762
649.259 .0322512
650.014 .0322271
650.768 .0322040
651.521 .0321818
652.275 .0321605
653.028 .0321401
653.781 .0321204
654.534 .0321015
655.286 .0320831
656.039 .0320653
656.791 .0320478
657.542 .0320307
658.294 .0320138
659.045 .0319970
659.796 .0319802
660.546 .0319633
661.297 .0319461
662.047 .0319286
662.796 .0319106
663.546 .0318922
664.295 .0318733
665.044 .0318540
665.793 .0318342
666.542 .0318142
667.290 .0317938
668.038 .0317731
668.786 .0317521
669.533 .0317308
670.281 .0317091
671.028 .0316871
671.774 .0316647
672.521 .0316420
673.267 .0316190
674.013 .0315959
674.759 .0315726
675.505 .0315493
676.250 .0315259
676.995 .0315026
677.740 .0314793
678.484 .0314560
679.229 .0314327
679.973 .0314094
680.717 .0313862
681.460 .0313630
682.204 .0313398
682.947 .0313165
683.690 .0312931
684.433 .0312697
685.175 .0312460
685.917 .0312220
686.659 .0311979
687.401 .0311735
688.142 .0311489
688.884 .0311240
689.625 .0310988
690.365 .0310733
691.106 .0310475
691.846 .0310213
692.586 .0309946
693.326 .0309675
694.066 .0309400
694.805 .0309121
695.545 .0308838
696.284 .0308552
697.022 .0308265
697.761 .0307976
698.499 .0307686
699.237 .0307396
699.975 .0307105
700.713 .0306815
701.450 .0306525
702.187 .0306235
702.924 .0305946
703.661 .0305657
704.397 .0305369
705.133 .0305082
705.869 .0304798
706.605 .0304516
707.341 .0304237
708.076 .0303963
708.811 .0303693
709.546 .0303427
710.281 .0303166
711.015 .0302909
711.749 .0302657
712.483 .0302409
713.217 .0302166
713.950 .0301929
714.684 .0301697
715.417 .0301471
716.150 .0301251
716.882 .0301039
717.615 .0300832
718.347 .0300632
719.079 .0300438
719.811 .0300251
720.542 .0300070
721.273 .0299896
722.005 .0299730
722.735 .0299572
723.466 .0299422
724.196 .0299281
724.927 .0299149
725.656 .0299025
726.386 .0298911
727.116 .0298805
727.845 .0298709
728.574 .0298622
729.303 .0298544
730.031 .0298475
730.760 .0298415
731.488 .0298364
732.216 .0298321
732.944 .0298285
733.671 .0298257
734.398 .0298236
735.125 .0298221
735.852 .0298211
736.579 .0298206
737.305 .0298204
738.031 .0298205
738.757 .0298208
739.483 .0298211
740.208 .0298214
740.933 .0298216
741.658 .0298217
742.383 .0298216
743.108 .0298212
743.832 .0298204
744.556 .0298192
745.280 .0298174
746.004 .0298149
746.727 .0298117
747.450 .0298076
748.173 .0298028
748.896 .0297972
749.618 .0297908
750.340 .0297838
751.062 .0297760
751.784 .0297674
752.506 .0297582
753.227 .0297482
753.948 .0297375
754.669 .0297261
755.389 .0297139
756.110 .0297010
756.830 .0296873
757.550 .0296729
758.269 .0296578
758.989 .0296420
759.708 .0296257
760.427 .0296088
761.146 .0295914
761.864 .0295736
762.582 .0295553
763.300 .0295366
764.018 .0295175
764.736 .0294978
765.453 .0294775
766.170 .0294567
766.887 .0294352
767.603 .0294132
768.320 .0293907
769.036 .0293677
769.751 .0293445
770.467 .0293211
771.182 .0292975
771.897 .0292738
772.612 .0292500
773.327 .0292262
774.041 .0292022
774.755 .0291781
775.469 .0291539
776.183 .0291297
776.896 .0291056
777.609 .0290816
778.322 .0290577
779.035 .0290341
779.747 .0290108
780.459 .0289878
781.171 .0289652
781.882 .0289428
782.594 .0289208
783.305 .0288991
784.016 .0288775
784.726 .0288562
785.436 .0288350
786.147 .0288038
786.856 .0287829
787.566 .0287622
788.275 .0287416
788.984 .0287212
789.693 .0287011
790.401 .0286812
791.110 .0286616
791.818 .0286422
792.525 .0286230
793.233 .0286041
793.940 .0285855
794.647 .0285768
795.353 .0285589
796.060 .0285413
796.766 .0285242
797.472 .0285076
798.177 .0284913
798.883 .0284756
799.588 .0284603
800.292 .0284456
800.997 .0284316
801.701 .0284182
802.405 .0284055
803.109 .0283936
803.812 .0283824
804.515 .0283719
805.218 .0283622
805.921 .0283531
806.623 .0283448
807.325 .0283370
808.027 .0283299
808.728 .0283233
809.429 .0283173
810.130 .0283118
810.831 .0283068
811.531 .0283021
812.231 .0282978
812.931 .0282939
813.630 .0282904
814.330 .0282871
815.029 .0282843
815.727 .0282820
816.426 .0282801
817.124 .0282788
817.821 .0282780
818.519 .0282778
819.216 .0282781
819.913 .0282791
820.609 .0282805
821.306 .0282824
822.002 .0282848
822.697 .0282877
823.393 .0282911
824.088 .0282949
824.783 .0282993
825.477 .0283040
826.171 .0283092
826.865 .0283148
827.559 .0283206
828.252 .0283267
828.945 .0283330
829.638 .0283395
830.330 .0283462
831.023 .0283529
831.714 .0283597
832.406 .0283665
833.097 .0283734
833.788 .0283802
834.479 .0283870
835.169 .0283937
835.859 .0284004
836.548 .0284070
837.238 .0284134
837.927 .0284197
838.615 .0284258
839.304 .0284316
839.992 .0284371
840.680 .0284422
841.367 .0284469
842.054 .0284510
842.741 .0284546
843.428 .0284576
844.114 .0284598
844.800 .0284614
845.485 .0284622
846.170 .0284621
846.855 .0284611
847.540 .0284590
848.224 .0284559
848.908 .0284518
849.592 .0284465
850.275 .0284401
850.958 .0284327
851.641 .0284241
852.323 .0284145
853.005 .0284038
853.687 .0283921
854.368 .0283794
855.049 .0283658
855.730 .0283512
856.410 .0283357
857.090 .0283195
857.769 .0283026
858.449 .0282849
859.128 .0282667
859.806 .0282479
860.485 .0282286
861.163 .0282087
861.840 .0281884
862.518 .0281675
863.195 .0281463
863.871 .0281245
864.548 .0281024
865.224 .0280798
865.899 .0280568
866.574 .0280333
867.249 .0280094
867.924 .0279849
868.598 .0279600
869.272 .0279345
869.946 .0279085
870.619 .0278820
871.292 .0278550
871.964 .0278275
872.636 .0277996
873.308 .0277712
873.979 .0277425
874.651 .0277134
875.321 .0276841
875.992 .0276546
876.662 .0276250
877.331 .0275954
878.001 .0275657
878.670 .0275362
879.338 .0275068
880.007 .0274776
880.675 .0274486
881.342 .0274201
882.009 .0273919
882.676 .0273643
883.343 .0273371
884.009 .0273105
884.675 .0272845
885.340 .0272590
886.005 .0272341
886.670 .0272098
887.334 .0271860
887.998 .0271628
888.662 .0271402
889.325 .0271181
889.988 .0270966
890.650 .0270756
891.312 .0270552
891.974 .0270352
892.636 .0270156
893.297 .0269965
893.957 .0269778
894.618 .0269594
895.278 .0269415
895.937 .0269238
896.596 .0269065
897.255 .0268894
897.914 .0268724
898.572 .0268556
899.230 .0268388
899.887 .0268220
900.544 .0268052
901.201 .0267884
901.857 .0267625
902.513 .0267455
903.168 .0267286
903.823 .0267117
904.478 .0266948
905.132 .0266780
905.786 .0266612
906.440 .0266445
907.093 .0266279
907.746 .0266114
908.399 .0265951
909.051 .0265790
909.703 .0265632
910.354 .0265563
911.005 .0265412
911.656 .0265264
912.306 .0265121
912.956 .0264982
913.605 .0264848
914.254 .0264719
914.903 .0264596
915.551 .0264478
916.199 .0264366
916.847 .0264259
917.494 .0264157
918.141 .0264060
918.788 .0263968
919.434 .0263881
920.079 .0263799
920.725 .0263722
921.370 .0263650
922.014 .0263584
922.658 .0263523
923.302 .0263466
923.946 .0263413
924.589 .0263364
925.231 .0263317
925.873 .0263272
926.515 .0263230
927.157 .0263191
927.798 .0263155
928.439 .0263123
929.079 .0263095
929.719 .0263071
930.359 .0263051
930.998 .0263035
931.637 .0263024
932.275 .0263016
932.913 .0263011
933.551 .0263012
934.188 .0263017
934.825 .0263029
935.462 .0263047
936.098 .0263072
936.733 .0263105
937.369 .0263144
938.004 .0263189
938.638 .0263240
939.273 .0263295
939.907 .0263356
940.540 .0263422
941.173 .0263492
941.806 .0263569
942.438 .0263651
943.070 .0263740
943.702 .0263835
944.333 .0263935
944.964 .0264039
945.594 .0264146
946.224 .0264256
946.854 .0264366
947.483 .0264478
948.112 .0264590
948.741 .0264702
949.369 .0264815
949.996 .0264928
950.624 .0265041
951.251 .0265152
951.878 .0265261
952.504 .0265366
953.130 .0265466
953.755 .0265561
954.380 .0265650
955.005 .0265733
955.629 .0265812
956.253 .0265885
956.877 .0265953
957.500 .0266017
958.123 .0266077
958.746 .0266132
959.368 .0266182
959.990 .0266227
960.611 .0266267
961.232 .0266303
961.853 .0266335
962.473 .0266362
963.093 .0266386
963.712 .0266407
964.331 .0266425
964.950 .0266441
965.569 .0266456
966.187 .0266470
966.804 .0266482
967.422 .0266493
968.039 .0266504
968.655 .0266513
969.272 .0266520
969.887 .0266525
970.503 .0266526
971.118 .0266523
971.733 .0266516
972.347 .0266503
972.961 .0266485
973.575 .0266459
974.188 .0266427
974.801 .0266387
975.414 .0266339
976.026 .0266280
976.638 .0266212
977.250 .0266132
977.861 .0266041
978.472 .0265938
979.083 .0265824
979.693 .0265699
980.303 .0265563
980.912 .0265311
981.521 .0265154
982.130 .0264989
982.738 .0264815
983.346 .0264632
983.954 .0264443
984.562 .0264247
985.169 .0264045
985.775 .0263840
986.382 .0263633
986.988 .0263424
987.594 .0263216
988.199 .0263007
988.804 .0262799
989.409 .0262706
990.013 .0262501
990.617 .0262297
991.221 .0262095
991.824 .0261896
992.427 .0261698
993.030 .0261504
993.632 .0261313
994.234 .0261125
994.836 .0260940
995.438 .0260758
996.039 .0260577
996.640 .0260398
997.240 .0260221
997.840 .0260043
998.440 .0259866
999.040 .0259688
999.639 .0259509
1000.238 .0259329
1000.836 .0259147
1001.435 .0258963
1002.033 .0258777
1002.630 .0258590
1003.228 .0258401
1003.825 .0258210
1004.422 .0258017
1005.018 .0257822
1005.614 .0257624
1006.210 .0257424
1006.806 .0257221
1007.401 .0257014
1007.996 .0256805
1008.591 .0256594
1009.186 .0256381
1009.780 .0256167
1010.374 .0255954
1010.967 .0255741
1011.561 .0255529
1012.154 .0255319
1012.746 .0255111
1013.339 .0254904
1013.931 .0254699
1014.523 .0254496
1015.115 .0254295
1015.706 .0254098
1016.298 .0253905
1016.888 .0253717
1017.479 .0253535
1018.069 .0253360
1018.660 .0253191
1019.250 .0253028
1019.839 .0252871
1020.429 .0252719
1021.018 .0252571
1021.607 .0252428
1022.195 .0252289
1022.784 .0252155
1023.372 .0252026
1023.960 .0251902
1024.547 .0251784
1025.135 .0251671
1025.722 .0251563
1026.309 .0251457
1026.896 .0251355
1027.483 .0251254
1028.069 .0251153
1028.655 .0251053
1029.241 .0250952
1029.827 .0250851
1030.412 .0250751
1030.997 .0250650
1031.582 .0250549
1032.167 .0250448
1032.752 .0250346
1033.336 .0250243
1033.921 .0250138
1034.505 .0250031
1035.089 .0249922
1035.672 .0249810
1036.256 .0249696
1036.839 .0249579
1037.422 .0249460
1038.005 .0249340
1038.588 .0249219
1039.171 .0249096
1039.753 .0248974
1040.335 .0248852
1040.918 .0248732
1041.500 .0248614
1042.081 .0248499
1042.663 .0248389
1043.244 .0248285
1043.826 .0248187
1044.407 .0248096
1044.988 .0248012
1045.569 .0247935
1046.150 .0247867
1046.730 .0247808
1047.311 .0247757
1047.891 .0247716
1048.471 .0247684
1049.052 .0247662
1049.632 .0247649
1050.211 .0247645
1050.791 .0247650
1051.371 .0247663
1051.950 .0247683
1052.530 .0247711
1053.109 .0247745
1053.688 .0247787
1054.268 .0247837
1054.847 .0247895
1055.426 .0247962
1056.005 .0248037
1056.583 .0248121
1057.162 .0248211
1057.741 .0248309
1058.319 .0248412
1058.898 .0248521
1059.476 .0248633
1060.055 .0248750
1060.633 .0248870
1061.211 .0248995
1061.790 .0249123
1062.368 .0249254
1062.946 .0249389
1063.524 .0249526
1064.102 .0249666
1064.680 .0249808
1065.258 .0249951
1065.836 .0250095
1066.414 .0250242
1066.992 .0250391
1067.570 .0250543
1068.148 .0250698
1068.726 .0250857
1069.304 .0251018
1069.882 .0251182
1070.460 .0251348
1071.038 .0251515
1071.616 .0251685
1072.194 .0251855
1072.772 .0252027
1073.350 .0252201
1073.928 .0252376
1074.506 .0252552
1075.084 .0252730
1075.662 .0252907
1076.240 .0253083
1076.819 .0253259
1077.397 .0253434
1077.976 .0253609
1078.554 .0253787
1079.133 .0253968
1079.711 .0254155
1080.290 .0254346
1080.869 .0254543
1081.448 .0254744
1082.027 .0254951
1082.606 .0255161
1083.185 .0255376
1083.764 .0255595
1084.343 .0255820
1084.923 .0256053
1085.502 .0256297
1086.082 .0256554
1086.662 .0256824
1087.242 .0257107
1087.822 .0257401
1088.402 .0257706
1088.983 .0258018
1089.563 .0258336
1090.144 .0258659
1090.725 .0258985
1091.306 .0259317
1091.887 .0259652
1092.469 .0259993
1093.050 .0260341
1093.632 .0260696
1094.214 .0261056
1094.796 .0261420
1095.379 .0261785
1095.961 .0262150
1096.544 .0262513
1097.127 .0262874
1097.710 .0263235
1098.294 .0263596
1098.877 .0263959
1099.461 .0264325
1100.046 .0264694
1100.630 .0265068
1101.215 .0265444
1101.800 .0265822
1102.385 .0266198
1102.970 .0266571
1103.556 .0266939
1104.142 .0267303
1104.728 .0267663
1105.315 .0268021
1105.902 .0268378
1106.489 .0268734
1107.077 .0269092
1107.664 .0269451
1108.253 .0269812
1108.841 .0270173
1109.430 .0270534
1110.019 .0270893
1110.609 .0271249
1111.198 .0271602
1111.789 .0271952
1112.379 .0272298
1112.970 .0272642
1113.561 .0272983
1114.153 .0273323
1114.745 .0273662
1115.338 .0274002
1115.931 .0274344
1116.524 .0274692
1117.117 .0275047
1117.712 .0275412
1118.306 .0275788
1118.901 .0276177
1119.496 .0276580
1120.092 .0277000
1120.689 .0277435
1121.285 .0277885
1121.882 .0278351
1122.480 .0278831
1123.078 .0279325
1123.677 .0279832
1124.276 .0280352
1124.875 .0280886
1125.476 .0281433
1126.076 .0281994
1126.677 .0282570
1127.279 .0283165
1127.881 .0283779
1128.484 .0284417
1129.087 .0284690
1129.691 .0285369
1130.295 .0286078
1130.900 .0286819
1131.505 .0287599
1132.111 .0288422
1132.718 .0289293
1133.325 .0290220
1133.933 .0291196
1134.541 .0292264
1135.150 .0293329
1135.760 .0294556
1136.370 .0295851
1136.981 .0295079
1137.592 .0296023
1138.204 .0297024
1138.817 .0298125
1139.431 .0299436
1140.045 .0300867
1140.660 .0302560
1141.275 .0304540
1141.891 .0306473
1142.508 .0309657
1143.126 .0310273
1143.744 .0315600
1144.363 .0318348
1144.983 .0312346
