Measurement Sequence started on: 15-12-46-377
Integration time: 28
Scans to Average: 2 
>>>>>Begin Spectral Data<<<<<
432.689 .0000100
433.621 .0000100
434.552 .0000100
435.482 .0000100
436.410 .0000100
437.337 .0000100
438.262 .0287500
439.187 .0608542
440.110 .1007436
441.031 .1456605
441.952 .1163730
442.871 .1215179
443.789 .1263078
444.705 .1308145
445.621 .1350881
446.535 .1391686
447.447 .1415723
448.359 .1421457
449.269 .1404986
450.178 .1363818
451.086 .1298794
451.993 .1214935
452.898 .1120508
453.803 .1024891
454.706 .0936032
455.608 .0858845
456.508 .0794949
457.408 .0751709
458.306 .0718413
459.204 .0691249
460.100 .0668303
460.995 .0648541
461.888 .0631267
462.781 .0616004
463.673 .0602377
464.563 .0590119
465.452 .0579016
466.340 .0568898
467.228 .0559638
468.114 .0551151
468.999 .0543363
469.882 .0536229
470.765 .0529704
471.647 .0523754
472.528 .0518345
473.407 .0513432
474.286 .0508977
475.163 .0504955
476.040 .0501329
476.915 .0498075
477.790 .0495168
478.663 .0492591
479.535 .0490327
480.407 .0488363
481.277 .0486678
482.147 .0485254
483.015 .0484072
483.883 .0483109
484.749 .0482346
485.615 .0481770
486.479 .0481366
487.343 .0481128
488.206 .0481054
489.067 .0481135
489.928 .0481371
490.788 .0481766
491.647 .0482319
492.505 .0483033
493.362 .0483914
494.218 .0484964
495.073 .0486189
495.928 .0488693
496.781 .0490402
497.634 .0492312
498.486 .0494431
499.337 .0496770
500.187 .0499346
501.036 .0502175
501.884 .0505285
502.731 .0508715
503.578 .0512503
504.424 .0515172
505.268 .0519664
506.113 .0524664
506.956 .0530236
507.798 .0536449
508.640 .0543384
509.480 .0551134
510.320 .0559808
511.160 .0569533
511.998 .0580443
512.836 .0592709
513.672 .0606503
514.508 .0622026
515.344 .0639498
516.178 .0659155
517.012 .0681271
517.845 .0706098
518.677 .0733886
519.508 .0764862
520.339 .0799138
521.169 .0836787
521.998 .0877643
522.826 .0921384
523.654 .0967483
524.481 .1015233
525.307 .1063799
526.133 .1112232
526.958 .1159523
527.782 .1204692
528.605 .1246811
529.428 .1285125
530.250 .1318929
531.072 .1347712
531.892 .1371084
532.712 .1388765
533.532 .1400552
534.350 .1406291
535.168 .1405895
535.986 .1399354
536.802 .1386656
537.618 .1367903
538.434 .1343227
539.249 .1312996
540.063 .1277722
540.876 .1238063
541.689 .1194823
542.501 .1148910
543.313 .1101285
544.124 .1052946
544.934 .1004823
545.744 .0957771
546.553 .0912474
547.361 .0869523
548.169 .0829312
548.976 .0792094
549.783 .0757969
550.589 .0726942
551.395 .0698905
552.200 .0673694
553.004 .0651056
553.808 .0630742
554.611 .0612500
555.414 .0596082
556.216 .0581236
557.018 .0567720
557.819 .0555337
558.619 .0543921
559.419 .0533328
560.218 .0523451
561.017 .0514196
561.815 .0505488
562.613 .0497265
563.410 .0489464
564.207 .0482017
565.003 .0474867
565.799 .0467955
566.594 .0461244
567.388 .0454704
568.182 .0448317
568.976 .0442079
569.769 .0435993
570.562 .0430069
571.354 .0424311
572.145 .0418728
572.936 .0413330
573.727 .0408118
574.517 .0403100
575.307 .0398280
576.096 .0393663
576.885 .0389259
577.673 .0385079
578.461 .0381132
579.248 .0377422
580.035 .0373949
580.821 .0370711
581.607 .0367703
582.392 .0364917
583.177 .0362340
583.962 .0359960
584.746 .0357770
585.529 .0355756
586.313 .0353904
587.095 .0352204
587.878 .0350647
588.660 .0349222
589.441 .0347916
590.222 .0346720
591.003 .0345623
591.783 .0344617
592.563 .0343692
593.342 .0342838
594.121 .0342047
594.899 .0341311
595.678 .0340622
596.455 .0339971
597.233 .0339354
598.009 .0338764
598.786 .0338197
599.562 .0337648
600.338 .0337114
601.113 .0336592
601.888 .0335843
602.663 .0335347
603.437 .0334859
604.211 .0334382
604.984 .0333915
605.757 .0333457
606.530 .0333010
607.302 .0332573
608.074 .0332147
608.845 .0331729
609.616 .0331320
610.387 .0331139
611.158 .0330743
611.928 .0330354
612.697 .0329974
613.467 .0329601
614.236 .0329238
615.004 .0328882
615.773 .0328532
616.541 .0328188
617.308 .0327848
618.076 .0327511
618.843 .0327176
619.609 .0326842
620.375 .0326509
621.141 .0326176
621.907 .0325844
622.672 .0325511
623.437 .0325178
624.202 .0324844
624.966 .0324508
625.730 .0324169
626.493 .0323827
627.257 .0323483
628.020 .0323136
628.782 .0322787
629.545 .0322437
630.307 .0322085
631.068 .0321732
631.830 .0321380
632.591 .0321028
633.352 .0320679
634.112 .0320332
634.872 .0319988
635.632 .0319648
636.392 .0319311
637.151 .0318980
637.910 .0318652
638.668 .0318330
639.427 .0318012
640.185 .0317701
640.943 .0317398
641.700 .0317104
642.457 .0316822
643.214 .0316551
643.971 .0316293
644.727 .0316047
645.483 .0315813
646.239 .0315591
646.994 .0315379
647.750 .0315177
648.505 .0314984
649.259 .0314799
650.014 .0314622
650.768 .0314452
651.521 .0314289
652.275 .0314131
653.028 .0313978
653.781 .0313828
654.534 .0313682
655.286 .0313538
656.039 .0313395
656.791 .0313252
657.542 .0313107
658.294 .0312960
659.045 .0312807
659.796 .0312649
660.546 .0312482
661.297 .0312307
662.047 .0312125
662.796 .0311934
663.546 .0311737
664.295 .0311534
665.044 .0311326
665.793 .0311115
666.542 .0310902
667.290 .0310688
668.038 .0310471
668.786 .0310253
669.533 .0310033
670.281 .0309812
671.028 .0309591
671.774 .0309370
672.521 .0309151
673.267 .0308935
674.013 .0308722
674.759 .0308512
675.505 .0308307
676.250 .0308105
676.995 .0307906
677.740 .0307710
678.484 .0307515
679.229 .0307321
679.973 .0307126
680.717 .0306931
681.460 .0306734
682.204 .0306535
682.947 .0306332
683.690 .0306123
684.433 .0305910
685.175 .0305689
685.917 .0305462
686.659 .0305229
687.401 .0304988
688.142 .0304741
688.884 .0304486
689.625 .0304225
690.365 .0303957
691.106 .0303682
691.846 .0303400
692.586 .0303111
693.326 .0302815
694.066 .0302515
694.805 .0302209
695.545 .0301901
696.284 .0301590
697.022 .0301278
697.761 .0300966
698.499 .0300655
699.237 .0300345
699.975 .0300037
700.713 .0299733
701.450 .0299432
702.187 .0299136
702.924 .0298845
703.661 .0298559
704.397 .0298278
705.133 .0298001
705.869 .0297730
706.605 .0297462
707.341 .0297199
708.076 .0296941
708.811 .0296687
709.546 .0296437
710.281 .0296193
711.015 .0295953
711.749 .0295717
712.483 .0295485
713.217 .0295257
713.950 .0295031
714.684 .0294808
715.417 .0294587
716.150 .0294368
716.882 .0294151
717.615 .0293935
718.347 .0293720
719.079 .0293508
719.811 .0293297
720.542 .0293089
721.273 .0292883
722.005 .0292681
722.735 .0292481
723.466 .0292284
724.196 .0292091
724.927 .0291902
725.656 .0291718
726.386 .0291539
727.116 .0291365
727.845 .0291199
728.574 .0291041
729.303 .0290892
730.031 .0290751
730.760 .0290621
731.488 .0290500
732.216 .0290388
732.944 .0290286
733.671 .0290194
734.398 .0290110
735.125 .0290036
735.852 .0289970
736.579 .0289913
737.305 .0289864
738.031 .0289822
738.757 .0289788
739.483 .0289760
740.208 .0289736
740.933 .0289718
741.658 .0289702
742.383 .0289689
743.108 .0289676
743.832 .0289664
744.556 .0289652
745.280 .0289638
746.004 .0289621
746.727 .0289602
747.450 .0289579
748.173 .0289552
748.896 .0289521
749.618 .0289485
750.340 .0289444
751.062 .0289397
751.784 .0289343
752.506 .0289283
753.227 .0289216
753.948 .0289143
754.669 .0289063
755.389 .0288977
756.110 .0288885
756.830 .0288789
757.550 .0288687
758.269 .0288581
758.989 .0288472
759.708 .0288359
760.427 .0288242
761.146 .0288122
761.864 .0287998
762.582 .0287870
763.300 .0287739
764.018 .0287604
764.736 .0287465
765.453 .0287324
766.170 .0287180
766.887 .0287033
767.603 .0286886
768.320 .0286736
769.036 .0286586
769.751 .0286436
770.467 .0286286
771.182 .0286136
771.897 .0285987
772.612 .0285839
773.327 .0285692
774.041 .0285546
774.755 .0285402
775.469 .0285259
776.183 .0285117
776.896 .0284978
777.609 .0284840
778.322 .0284703
779.035 .0284568
779.747 .0284433
780.459 .0284298
781.171 .0284163
781.882 .0284027
782.594 .0283889
783.305 .0283749
784.016 .0283606
784.726 .0283460
785.436 .0283311
786.147 .0283071
786.856 .0282911
787.566 .0282747
788.275 .0282578
788.984 .0282404
789.693 .0282224
790.401 .0282039
791.110 .0281848
791.818 .0281651
792.525 .0281448
793.233 .0281239
793.940 .0281024
794.647 .0280903
795.353 .0280681
796.060 .0280454
796.766 .0280222
797.472 .0279987
798.177 .0279748
798.883 .0279505
799.588 .0279260
800.292 .0279012
800.997 .0278762
801.701 .0278510
802.405 .0278256
803.109 .0278001
803.812 .0277746
804.515 .0277490
805.218 .0277236
805.921 .0276982
806.623 .0276730
807.325 .0276479
808.027 .0276229
808.728 .0275981
809.429 .0275735
810.130 .0275491
810.831 .0275249
811.531 .0275011
812.231 .0274778
812.931 .0274550
813.630 .0274327
814.330 .0274111
815.029 .0273902
815.727 .0273701
816.426 .0273508
817.124 .0273324
817.821 .0273148
818.519 .0272982
819.216 .0272827
819.913 .0272682
820.609 .0272548
821.306 .0272425
822.002 .0272314
822.697 .0272213
823.393 .0272124
824.088 .0272045
824.783 .0271978
825.477 .0271922
826.171 .0271876
826.865 .0271841
827.559 .0271816
828.252 .0271799
828.945 .0271791
829.638 .0271790
830.330 .0271797
831.023 .0271810
831.714 .0271828
832.406 .0271853
833.097 .0271882
833.788 .0271916
834.479 .0271954
835.169 .0271996
835.859 .0272040
836.548 .0272085
837.238 .0272132
837.927 .0272180
838.615 .0272228
839.304 .0272276
839.992 .0272323
840.680 .0272370
841.367 .0272416
842.054 .0272460
842.741 .0272501
843.428 .0272541
844.114 .0272578
844.800 .0272612
845.485 .0272643
846.170 .0272670
846.855 .0272694
847.540 .0272715
848.224 .0272730
848.908 .0272741
849.592 .0272745
850.275 .0272744
850.958 .0272736
851.641 .0272722
852.323 .0272701
853.005 .0272674
853.687 .0272641
854.368 .0272601
855.049 .0272556
855.730 .0272506
856.410 .0272450
857.090 .0272389
857.769 .0272324
858.449 .0272256
859.128 .0272184
859.806 .0272112
860.485 .0272039
861.163 .0271968
861.840 .0271898
862.518 .0271832
863.195 .0271769
863.871 .0271709
864.548 .0271651
865.224 .0271597
865.899 .0271544
866.574 .0271494
867.249 .0271445
867.924 .0271398
868.598 .0271354
869.272 .0271313
869.946 .0271274
870.619 .0271239
871.292 .0271206
871.964 .0271175
872.636 .0271144
873.308 .0271114
873.979 .0271084
874.651 .0271053
875.321 .0271021
875.992 .0270989
876.662 .0270955
877.331 .0270920
878.001 .0270884
878.670 .0270845
879.338 .0270804
880.007 .0270760
880.675 .0270712
881.342 .0270660
882.009 .0270605
882.676 .0270546
883.343 .0270486
884.009 .0270423
884.675 .0270358
885.340 .0270292
886.005 .0270223
886.670 .0270153
887.334 .0270081
887.998 .0270006
888.662 .0269931
889.325 .0269854
889.988 .0269777
890.650 .0269700
891.312 .0269622
891.974 .0269542
892.636 .0269460
893.297 .0269376
893.957 .0269287
894.618 .0269193
895.278 .0269093
895.937 .0268987
896.596 .0268875
897.255 .0268756
897.914 .0268631
898.572 .0268499
899.230 .0268360
899.887 .0268212
900.544 .0268056
901.201 .0267890
901.857 .0267595
902.513 .0267400
903.168 .0267196
903.823 .0266981
904.478 .0266756
905.132 .0266522
905.786 .0266278
906.440 .0266026
907.093 .0265765
907.746 .0265496
908.399 .0265220
909.051 .0264936
909.703 .0264646
910.354 .0264487
911.005 .0264191
911.656 .0263891
912.306 .0263587
912.956 .0263281
913.605 .0262972
914.254 .0262661
914.903 .0262350
915.551 .0262038
916.199 .0261725
916.847 .0261413
917.494 .0261100
918.141 .0260789
918.788 .0260479
919.434 .0260170
920.079 .0259863
920.725 .0259559
921.370 .0259256
922.014 .0258955
922.658 .0258656
923.302 .0258357
923.946 .0258059
924.589 .0257761
925.231 .0257462
925.873 .0257162
926.515 .0256861
927.157 .0256560
927.798 .0256258
928.439 .0255956
929.079 .0255653
929.719 .0255351
930.359 .0255049
930.998 .0254748
931.637 .0254449
932.275 .0254152
932.913 .0253859
933.551 .0253571
934.188 .0253290
934.825 .0253016
935.462 .0252750
936.098 .0252493
936.733 .0252244
937.369 .0252005
938.004 .0251775
938.638 .0251553
939.273 .0251341
939.907 .0251138
940.540 .0250945
941.173 .0250763
941.806 .0250591
942.438 .0250430
943.070 .0250280
943.702 .0250140
944.333 .0250011
944.964 .0249891
945.594 .0249780
946.224 .0249676
946.854 .0249581
947.483 .0249493
948.112 .0249412
948.741 .0249337
949.369 .0249270
949.996 .0249208
950.624 .0249152
951.251 .0249100
951.878 .0249052
952.504 .0249005
953.130 .0248960
953.755 .0248916
954.380 .0248872
955.005 .0248828
955.629 .0248785
956.253 .0248743
956.877 .0248702
957.500 .0248661
958.123 .0248622
958.746 .0248584
959.368 .0248547
959.990 .0248513
960.611 .0248480
961.232 .0248451
961.853 .0248424
962.473 .0248401
963.093 .0248381
963.712 .0248364
964.331 .0248350
964.950 .0248339
965.569 .0248329
966.187 .0248321
966.804 .0248314
967.422 .0248309
968.039 .0248304
968.655 .0248302
969.272 .0248301
969.887 .0248302
970.503 .0248306
971.118 .0248312
971.733 .0248320
972.347 .0248330
972.961 .0248341
973.575 .0248354
974.188 .0248369
974.801 .0248385
975.414 .0248403
976.026 .0248424
976.638 .0248447
977.250 .0248474
977.861 .0248503
978.472 .0248535
979.083 .0248571
979.693 .0248609
980.303 .0248650
980.912 .0248727
981.521 .0248775
982.130 .0248826
982.738 .0248880
983.346 .0248936
983.954 .0248995
984.562 .0249058
985.169 .0249123
985.775 .0249193
986.382 .0249267
986.988 .0249345
987.594 .0249428
988.199 .0249515
988.804 .0249606
989.409 .0249659
990.013 .0249754
990.617 .0249852
991.221 .0249952
991.824 .0250055
992.427 .0250159
993.030 .0250265
993.632 .0250372
994.234 .0250478
994.836 .0250584
995.438 .0250689
996.039 .0250793
996.640 .0250895
997.240 .0250996
997.840 .0251097
998.440 .0251198
999.040 .0251299
999.639 .0251400
1000.238 .0251502
1000.836 .0251604
1001.435 .0251706
1002.033 .0251808
1002.630 .0251909
1003.228 .0252010
1003.825 .0252110
1004.422 .0252210
1005.018 .0252309
1005.614 .0252409
1006.210 .0252508
1006.806 .0252607
1007.401 .0252704
1007.996 .0252800
1008.591 .0252893
1009.186 .0252985
1009.780 .0253074
1010.374 .0253162
1010.967 .0253248
1011.561 .0253334
1012.154 .0253419
1012.746 .0253505
1013.339 .0253591
1013.931 .0253678
1014.523 .0253766
1015.115 .0253854
1015.706 .0253942
1016.298 .0254032
1016.888 .0254122
1017.479 .0254214
1018.069 .0254308
1018.660 .0254404
1019.250 .0254503
1019.839 .0254603
1020.429 .0254705
1021.018 .0254807
1021.607 .0254908
1022.195 .0255010
1022.784 .0255110
1023.372 .0255211
1023.960 .0255311
1024.547 .0255413
1025.135 .0255515
1025.722 .0255619
1026.309 .0255723
1026.896 .0255827
1027.483 .0255929
1028.069 .0256028
1028.655 .0256125
1029.241 .0256218
1029.827 .0256307
1030.412 .0256393
1030.997 .0256476
1031.582 .0256556
1032.167 .0256633
1032.752 .0256707
1033.336 .0256777
1033.921 .0256842
1034.505 .0256901
1035.089 .0256953
1035.672 .0256998
1036.256 .0257034
1036.839 .0257064
1037.422 .0257086
1038.005 .0257101
1038.588 .0257109
1039.171 .0257110
1039.753 .0257105
1040.335 .0257093
1040.918 .0257072
1041.500 .0257044
1042.081 .0257008
1042.663 .0256965
1043.244 .0256915
1043.826 .0256858
1044.407 .0256796
1044.988 .0256729
1045.569 .0256656
1046.150 .0256577
1046.730 .0256491
1047.311 .0256399
1047.891 .0256299
1048.471 .0256192
1049.052 .0256077
1049.632 .0255955
1050.211 .0255827
1050.791 .0255693
1051.371 .0255554
1051.950 .0255408
1052.530 .0255258
1053.109 .0255101
1053.688 .0254939
1054.268 .0254772
1054.847 .0254601
1055.426 .0254429
1056.005 .0254256
1056.583 .0254084
1057.162 .0253913
1057.741 .0253746
1058.319 .0253580
1058.898 .0253417
1059.476 .0253256
1060.055 .0253095
1060.633 .0252935
1061.211 .0252777
1061.790 .0252621
1062.368 .0252468
1062.946 .0252321
1063.524 .0252180
1064.102 .0252045
1064.680 .0251917
1065.258 .0251793
1065.836 .0251672
1066.414 .0251554
1066.992 .0251434
1067.570 .0251313
1068.148 .0251191
1068.726 .0251068
1069.304 .0250946
1069.882 .0250827
1070.460 .0250712
1071.038 .0250601
1071.616 .0250495
1072.194 .0250392
1072.772 .0250290
1073.350 .0250189
1073.928 .0250088
1074.506 .0249987
1075.084 .0249887
1075.662 .0249790
1076.240 .0249698
1076.819 .0249612
1077.397 .0249533
1077.976 .0249462
1078.554 .0249397
1079.133 .0249336
1079.711 .0249280
1080.290 .0249225
1080.869 .0249171
1081.448 .0249118
1082.027 .0249065
1082.606 .0249013
1083.185 .0248962
1083.764 .0248913
1084.343 .0248866
1084.923 .0248822
1085.502 .0248782
1086.082 .0248747
1086.662 .0248717
1087.242 .0248692
1087.822 .0248672
1088.402 .0248658
1088.983 .0248648
1089.563 .0248643
1090.144 .0248640
1090.725 .0248640
1091.306 .0248644
1091.887 .0248649
1092.469 .0248657
1093.050 .0248669
1093.632 .0248683
1094.214 .0248700
1094.796 .0248719
1095.379 .0248739
1095.961 .0248758
1096.544 .0248777
1097.127 .0248794
1097.710 .0248810
1098.294 .0248826
1098.877 .0248844
1099.461 .0248868
1100.046 .0248900
1100.630 .0248943
1101.215 .0248998
1101.800 .0249066
1102.385 .0249145
1102.970 .0249233
1103.556 .0249330
1104.142 .0249432
1104.728 .0249539
1105.315 .0249651
1105.902 .0249768
1106.489 .0249893
1107.077 .0250028
1107.664 .0250174
1108.253 .0250333
1108.841 .0250505
1109.430 .0250689
1110.019 .0250884
1110.609 .0251088
1111.198 .0251299
1111.789 .0251519
1112.379 .0251747
1112.970 .0251985
1113.561 .0252236
1114.153 .0252500
1114.745 .0252780
1115.338 .0253078
1115.931 .0253394
1116.524 .0253728
1117.117 .0254077
1117.712 .0254443
1118.306 .0254823
1118.901 .0255217
1119.496 .0255624
1120.092 .0256046
1120.689 .0256483
1121.285 .0256936
1121.882 .0257407
1122.480 .0257901
1123.078 .0258417
1123.677 .0258959
1124.276 .0259528
1124.875 .0260121
1125.476 .0260738
1126.076 .0261376
1126.677 .0262034
1127.279 .0262711
1127.881 .0263405
1128.484 .0264119
1129.087 .0264418
1129.691 .0265168
1130.295 .0265941
1130.900 .0266742
1131.505 .0267567
1132.111 .0268413
1132.718 .0269280
1133.325 .0270170
1133.933 .0271095
1134.541 .0271965
1135.150 .0272839
1135.760 .0273777
1136.370 .0274941
1136.981 .0276077
1137.592 .0277086
1138.204 .0278142
1138.817 .0279253
1139.431 .0280329
1140.045 .0281382
1140.660 .0282432
1141.275 .0283622
1141.891 .0285153
1142.508 .0284238
1143.126 .0284950
1143.744 .0287370
1144.363 .0294334
1144.983 .0302182
