Measurement Sequence started on: 15-12-46-377
Integration time: 28
Scans to Average: 2 
>>>>>Begin Spectral Data<<<<<
432.689 .0000100
433.621 .0000100
434.552 .0000100
435.482 .0000100
436.410 .0000100
437.337 .0000100
438.262 .0281903
439.187 .0598133
440.110 .0991250
441.031 .1434236
441.952 .1146289
442.871 .1196465
443.789 .1243096
444.705 .1286940
445.621 .1328514
446.535 .1368208
447.447 .1391487
448.359 .1396747
449.269 .1380118
450.178 .1339103
451.086 .1274499
451.993 .1191239
452.898 .1097491
453.803 .1002517
454.706 .0914229
455.608 .0837535
456.508 .0774098
457.408 .0731160
458.306 .0698250
459.204 .0671547
460.100 .0649110
460.995 .0629857
461.888 .0613049
462.781 .0598192
463.673 .0584929
464.563 .0572990
465.452 .0562203
466.340 .0552421
467.228 .0543543
468.114 .0535487
468.999 .0528183
469.882 .0521555
470.765 .0515541
471.647 .0510079
472.528 .0505119
473.407 .0500611
474.286 .0496530
475.163 .0492855
476.040 .0489572
476.915 .0486670
477.790 .0484133
478.663 .0481949
479.535 .0480104
480.407 .0478571
481.277 .0477328
482.147 .0476346
483.015 .0475600
483.883 .0475066
484.749 .0474725
485.615 .0474561
486.479 .0474566
487.343 .0474731
488.206 .0475054
489.067 .0475527
489.928 .0476152
490.788 .0476927
491.647 .0477856
492.505 .0478943
493.362 .0480193
494.218 .0481614
495.073 .0483217
495.928 .0486298
496.781 .0488400
497.634 .0490696
498.486 .0493194
499.337 .0495903
500.187 .0498839
501.036 .0502024
501.884 .0505487
502.731 .0509266
503.578 .0513400
504.424 .0516234
505.268 .0521047
506.113 .0526340
506.956 .0532152
507.798 .0538543
508.640 .0545578
509.480 .0553345
510.320 .0561946
511.160 .0571514
511.998 .0582215
512.836 .0594243
513.672 .0607809
514.508 .0623177
515.344 .0640617
516.178 .0660400
517.012 .0682828
517.845 .0708148
518.677 .0736583
519.508 .0768293
520.339 .0803343
521.169 .0841750
521.998 .0883246
522.826 .0927455
523.654 .0973777
524.481 .1021505
525.307 .1069811
526.133 .1117735
526.958 .1164300
527.782 .1208536
528.605 .1249536
529.428 .1286478
530.250 .1318623
531.072 .1345481
531.892 .1366620
532.712 .1381781
533.532 .1390808
534.350 .1393629
535.168 .1390282
535.986 .1380858
536.802 .1365458
537.618 .1344227
538.434 .1317315
539.249 .1285137
540.063 .1248198
540.876 .1207187
541.689 .1162896
542.501 .1116223
543.313 .1068152
544.124 .1019671
544.934 .0971713
545.744 .0925113
546.553 .0880580
547.361 .0838719
548.169 .0799845
548.976 .0764184
549.783 .0731763
550.589 .0702500
551.395 .0676183
552.200 .0652539
553.004 .0631245
553.808 .0612015
554.611 .0594610
555.414 .0578827
556.216 .0564468
557.018 .0551357
557.819 .0539350
558.619 .0528305
559.419 .0518092
560.218 .0508606
561.017 .0499739
561.815 .0491416
562.613 .0483577
563.410 .0476155
564.207 .0469092
565.003 .0462351
565.799 .0455882
566.594 .0449649
567.388 .0443624
568.182 .0437784
568.976 .0432104
569.769 .0426578
570.562 .0421202
571.354 .0415972
572.145 .0410894
572.936 .0405979
573.727 .0401234
574.517 .0396666
575.307 .0392287
576.096 .0388100
576.885 .0384113
577.673 .0380330
578.461 .0376750
579.248 .0373372
580.035 .0370194
580.821 .0367209
581.607 .0364407
582.392 .0361781
583.177 .0359321
583.962 .0357019
584.746 .0354870
585.529 .0352869
586.313 .0351013
587.095 .0349298
587.878 .0347721
588.660 .0346275
589.441 .0344950
590.222 .0343741
591.003 .0342637
591.783 .0341627
592.563 .0340702
593.342 .0339849
594.121 .0339061
594.899 .0338326
595.678 .0337639
596.455 .0336992
597.233 .0336382
598.009 .0335805
598.786 .0335256
599.562 .0334732
600.338 .0334229
601.113 .0333740
601.888 .0333022
602.663 .0332549
603.437 .0332076
604.211 .0331603
604.984 .0331128
605.757 .0330651
606.530 .0330173
607.302 .0329697
608.074 .0329225
608.845 .0328761
609.616 .0328307
610.387 .0328103
611.158 .0327669
611.928 .0327247
612.697 .0326837
613.467 .0326440
614.236 .0326056
615.004 .0325686
615.773 .0325329
616.541 .0324987
617.308 .0324660
618.076 .0324348
618.843 .0324051
619.609 .0323768
620.375 .0323499
621.141 .0323243
621.907 .0322996
622.672 .0322759
623.437 .0322528
624.202 .0322302
624.966 .0322078
625.730 .0321855
626.493 .0321630
627.257 .0321402
628.020 .0321171
628.782 .0320935
629.545 .0320694
630.307 .0320449
631.068 .0320199
631.830 .0319945
632.591 .0319687
633.352 .0319426
634.112 .0319161
634.872 .0318892
635.632 .0318621
636.392 .0318347
637.151 .0318072
637.910 .0317796
638.668 .0317522
639.427 .0317250
640.185 .0316982
640.943 .0316718
641.700 .0316459
642.457 .0316205
643.214 .0315956
643.971 .0315711
644.727 .0315469
645.483 .0315231
646.239 .0314996
646.994 .0314762
647.750 .0314531
648.505 .0314301
649.259 .0314073
650.014 .0313844
650.768 .0313614
651.521 .0313381
652.275 .0313146
653.028 .0312907
653.781 .0312665
654.534 .0312419
655.286 .0312170
656.039 .0311917
656.791 .0311660
657.542 .0311398
658.294 .0311132
659.045 .0310860
659.796 .0310583
660.546 .0310302
661.297 .0310016
662.047 .0309727
662.796 .0309436
663.546 .0309143
664.295 .0308849
665.044 .0308554
665.793 .0308257
666.542 .0307959
667.290 .0307661
668.038 .0307361
668.786 .0307061
669.533 .0306762
670.281 .0306463
671.028 .0306166
671.774 .0305870
672.521 .0305576
673.267 .0305284
674.013 .0304993
674.759 .0304705
675.505 .0304419
676.250 .0304138
676.995 .0303860
677.740 .0303587
678.484 .0303318
679.229 .0303056
679.973 .0302799
680.717 .0302548
681.460 .0302303
682.204 .0302063
682.947 .0301831
683.690 .0301604
684.433 .0301384
685.175 .0301170
685.917 .0300961
686.659 .0300757
687.401 .0300558
688.142 .0300362
688.884 .0300170
689.625 .0299980
690.365 .0299793
691.106 .0299608
691.846 .0299425
692.586 .0299244
693.326 .0299065
694.066 .0298888
694.805 .0298712
695.545 .0298539
696.284 .0298366
697.022 .0298196
697.761 .0298026
698.499 .0297859
699.237 .0297693
699.975 .0297529
700.713 .0297366
701.450 .0297206
702.187 .0297048
702.924 .0296891
703.661 .0296737
704.397 .0296585
705.133 .0296435
705.869 .0296287
706.605 .0296142
707.341 .0296000
708.076 .0295861
708.811 .0295725
709.546 .0295592
710.281 .0295462
711.015 .0295333
711.749 .0295206
712.483 .0295081
713.217 .0294955
713.950 .0294829
714.684 .0294702
715.417 .0294573
716.150 .0294442
716.882 .0294307
717.615 .0294170
718.347 .0294029
719.079 .0293885
719.811 .0293738
720.542 .0293588
721.273 .0293435
722.005 .0293279
722.735 .0293121
723.466 .0292960
724.196 .0292796
724.927 .0292631
725.656 .0292464
726.386 .0292298
727.116 .0292133
727.845 .0291969
728.574 .0291809
729.303 .0291651
730.031 .0291497
730.760 .0291346
731.488 .0291200
732.216 .0291058
732.944 .0290919
733.671 .0290785
734.398 .0290656
735.125 .0290529
735.852 .0290407
736.579 .0290287
737.305 .0290170
738.031 .0290056
738.757 .0289943
739.483 .0289831
740.208 .0289721
740.933 .0289612
741.658 .0289502
742.383 .0289391
743.108 .0289278
743.832 .0289163
744.556 .0289043
745.280 .0288920
746.004 .0288792
746.727 .0288658
747.450 .0288520
748.173 .0288377
748.896 .0288228
749.618 .0288073
750.340 .0287913
751.062 .0287747
751.784 .0287575
752.506 .0287397
753.227 .0287214
753.948 .0287027
754.669 .0286834
755.389 .0286636
756.110 .0286433
756.830 .0286225
757.550 .0286010
758.269 .0285791
758.989 .0285566
759.708 .0285337
760.427 .0285106
761.146 .0284872
761.864 .0284638
762.582 .0284403
763.300 .0284170
764.018 .0283937
764.736 .0283706
765.453 .0283477
766.170 .0283250
766.887 .0283027
767.603 .0282807
768.320 .0282592
769.036 .0282383
769.751 .0282179
770.467 .0281983
771.182 .0281792
771.897 .0281610
772.612 .0281434
773.327 .0281266
774.041 .0281107
774.755 .0280956
775.469 .0280813
776.183 .0280679
776.896 .0280553
777.609 .0280433
778.322 .0280320
779.035 .0280212
779.747 .0280108
780.459 .0280009
781.171 .0279912
781.882 .0279819
782.594 .0279730
783.305 .0279643
784.016 .0279559
784.726 .0279478
785.436 .0279399
786.147 .0279285
786.856 .0279208
787.566 .0279131
788.275 .0279053
788.984 .0278975
789.693 .0278895
790.401 .0278815
791.110 .0278733
791.818 .0278650
792.525 .0278565
793.233 .0278480
793.940 .0278392
794.647 .0278344
795.353 .0278256
796.060 .0278168
796.766 .0278080
797.472 .0277993
798.177 .0277906
798.883 .0277819
799.588 .0277731
800.292 .0277644
800.997 .0277556
801.701 .0277467
802.405 .0277378
803.109 .0277290
803.812 .0277202
804.515 .0277116
805.218 .0277031
805.921 .0276949
806.623 .0276867
807.325 .0276788
808.027 .0276709
808.728 .0276631
809.429 .0276553
810.130 .0276477
810.831 .0276402
811.531 .0276329
812.231 .0276258
812.931 .0276190
813.630 .0276125
814.330 .0276062
815.029 .0276002
815.727 .0275945
816.426 .0275892
817.124 .0275843
817.821 .0275798
818.519 .0275758
819.216 .0275722
819.913 .0275691
820.609 .0275664
821.306 .0275642
822.002 .0275624
822.697 .0275610
823.393 .0275600
824.088 .0275596
824.783 .0275597
825.477 .0275604
826.171 .0275616
826.865 .0275633
827.559 .0275655
828.252 .0275679
828.945 .0275706
829.638 .0275734
830.330 .0275762
831.023 .0275789
831.714 .0275816
832.406 .0275841
833.097 .0275864
833.788 .0275885
834.479 .0275903
835.169 .0275918
835.859 .0275928
836.548 .0275933
837.238 .0275933
837.927 .0275927
838.615 .0275915
839.304 .0275898
839.992 .0275874
840.680 .0275844
841.367 .0275808
842.054 .0275766
842.741 .0275717
843.428 .0275662
844.114 .0275599
844.800 .0275530
845.485 .0275454
846.170 .0275371
846.855 .0275279
847.540 .0275180
848.224 .0275071
848.908 .0274954
849.592 .0274827
850.275 .0274692
850.958 .0274548
851.641 .0274395
852.323 .0274235
853.005 .0274067
853.687 .0273891
854.368 .0273708
855.049 .0273517
855.730 .0273319
856.410 .0273115
857.090 .0272903
857.769 .0272686
858.449 .0272463
859.128 .0272235
859.806 .0272003
860.485 .0271766
861.163 .0271525
861.840 .0271282
862.518 .0271036
863.195 .0270790
863.871 .0270543
864.548 .0270298
865.224 .0270054
865.899 .0269813
866.574 .0269574
867.249 .0269338
867.924 .0269105
868.598 .0268875
869.272 .0268647
869.946 .0268423
870.619 .0268202
871.292 .0267985
871.964 .0267772
872.636 .0267563
873.308 .0267357
873.979 .0267156
874.651 .0266958
875.321 .0266763
875.992 .0266572
876.662 .0266383
877.331 .0266196
878.001 .0266012
878.670 .0265830
879.338 .0265651
880.007 .0265474
880.675 .0265300
881.342 .0265129
882.009 .0264961
882.676 .0264796
883.343 .0264635
884.009 .0264478
884.675 .0264325
885.340 .0264177
886.005 .0264034
886.670 .0263895
887.334 .0263761
887.998 .0263632
888.662 .0263507
889.325 .0263386
889.988 .0263269
890.650 .0263155
891.312 .0263045
891.974 .0262937
892.636 .0262833
893.297 .0262732
893.957 .0262634
894.618 .0262538
895.278 .0262443
895.937 .0262350
896.596 .0262257
897.255 .0262162
897.914 .0262066
898.572 .0261966
899.230 .0261862
899.887 .0261754
900.544 .0261641
901.201 .0261523
901.857 .0261320
902.513 .0261189
903.168 .0261052
903.823 .0260910
904.478 .0260763
905.132 .0260611
905.786 .0260456
906.440 .0260296
907.093 .0260134
907.746 .0259970
908.399 .0259804
909.051 .0259638
909.703 .0259471
910.354 .0259390
911.005 .0259227
911.656 .0259064
912.306 .0258903
912.956 .0258743
913.605 .0258586
914.254 .0258431
914.903 .0258280
915.551 .0258131
916.199 .0257985
916.847 .0257842
917.494 .0257702
918.141 .0257563
918.788 .0257426
919.434 .0257291
920.079 .0257157
920.725 .0257025
921.370 .0256894
922.014 .0256764
922.658 .0256636
923.302 .0256509
923.946 .0256383
924.589 .0256258
925.231 .0256135
925.873 .0256014
926.515 .0255894
927.157 .0255777
927.798 .0255663
928.439 .0255551
929.079 .0255443
929.719 .0255338
930.359 .0255236
930.998 .0255138
931.637 .0255045
932.275 .0254957
932.913 .0254875
933.551 .0254800
934.188 .0254734
934.825 .0254677
935.462 .0254630
936.098 .0254593
936.733 .0254565
937.369 .0254547
938.004 .0254538
938.638 .0254537
939.273 .0254544
939.907 .0254560
940.540 .0254583
941.173 .0254614
941.806 .0254652
942.438 .0254697
943.070 .0254748
943.702 .0254803
944.333 .0254861
944.964 .0254921
945.594 .0254982
946.224 .0255043
946.854 .0255105
947.483 .0255166
948.112 .0255226
948.741 .0255286
949.369 .0255344
949.996 .0255401
950.624 .0255455
951.251 .0255507
951.878 .0255555
952.504 .0255600
953.130 .0255641
953.755 .0255680
954.380 .0255715
955.005 .0255748
955.629 .0255779
956.253 .0255808
956.877 .0255833
957.500 .0255856
958.123 .0255876
958.746 .0255893
959.368 .0255908
959.990 .0255921
960.611 .0255933
961.232 .0255944
961.853 .0255955
962.473 .0255967
963.093 .0255978
963.712 .0255991
964.331 .0256004
964.950 .0256019
965.569 .0256034
966.187 .0256050
966.804 .0256067
967.422 .0256084
968.039 .0256101
968.655 .0256118
969.272 .0256135
969.887 .0256150
970.503 .0256165
971.118 .0256179
971.733 .0256191
972.347 .0256203
972.961 .0256213
973.575 .0256220
974.188 .0256223
974.801 .0256223
975.414 .0256218
976.026 .0256207
976.638 .0256192
977.250 .0256171
977.861 .0256145
978.472 .0256114
979.083 .0256078
979.693 .0256037
980.303 .0255991
980.912 .0255894
981.521 .0255833
982.130 .0255768
982.738 .0255697
983.346 .0255623
983.954 .0255547
984.562 .0255469
985.169 .0255391
985.775 .0255313
986.382 .0255236
986.988 .0255159
987.594 .0255081
988.199 .0255003
988.804 .0254925
989.409 .0254896
990.013 .0254819
990.617 .0254743
991.221 .0254668
991.824 .0254594
992.427 .0254521
993.030 .0254449
993.632 .0254378
994.234 .0254305
994.836 .0254232
995.438 .0254158
996.039 .0254084
996.640 .0254008
997.240 .0253933
997.840 .0253858
998.440 .0253785
999.040 .0253713
999.639 .0253641
1000.238 .0253570
1000.836 .0253499
1001.435 .0253426
1002.033 .0253352
1002.630 .0253277
1003.228 .0253200
1003.825 .0253121
1004.422 .0253040
1005.018 .0252958
1005.614 .0252874
1006.210 .0252787
1006.806 .0252699
1007.401 .0252608
1007.996 .0252514
1008.591 .0252419
1009.186 .0252322
1009.780 .0252224
1010.374 .0252127
1010.967 .0252030
1011.561 .0251933
1012.154 .0251837
1012.746 .0251742
1013.339 .0251647
1013.931 .0251552
1014.523 .0251457
1015.115 .0251363
1015.706 .0251269
1016.298 .0251177
1016.888 .0251085
1017.479 .0250995
1018.069 .0250907
1018.660 .0250819
1019.250 .0250733
1019.839 .0250647
1020.429 .0250561
1021.018 .0250476
1021.607 .0250392
1022.195 .0250308
1022.784 .0250226
1023.372 .0250146
1023.960 .0250068
1024.547 .0249992
1025.135 .0249918
1025.722 .0249846
1026.309 .0249775
1026.896 .0249704
1027.483 .0249635
1028.069 .0249565
1028.655 .0249497
1029.241 .0249429
1029.827 .0249361
1030.412 .0249295
1030.997 .0249228
1031.582 .0249161
1032.167 .0249094
1032.752 .0249025
1033.336 .0248954
1033.921 .0248881
1034.505 .0248805
1035.089 .0248727
1035.672 .0248647
1036.256 .0248565
1036.839 .0248481
1037.422 .0248396
1038.005 .0248310
1038.588 .0248222
1039.171 .0248132
1039.753 .0248040
1040.335 .0247945
1040.918 .0247848
1041.500 .0247748
1042.081 .0247645
1042.663 .0247541
1043.244 .0247437
1043.826 .0247332
1044.407 .0247229
1044.988 .0247127
1045.569 .0247025
1046.150 .0246925
1046.730 .0246826
1047.311 .0246727
1047.891 .0246628
1048.471 .0246529
1049.052 .0246430
1049.632 .0246332
1050.211 .0246236
1050.791 .0246142
1051.371 .0246051
1051.950 .0245963
1052.530 .0245877
1053.109 .0245791
1053.688 .0245706
1054.268 .0245620
1054.847 .0245532
1055.426 .0245442
1056.005 .0245351
1056.583 .0245259
1057.162 .0245166
1057.741 .0245073
1058.319 .0244980
1058.898 .0244886
1059.476 .0244790
1060.055 .0244691
1060.633 .0244589
1061.211 .0244484
1061.790 .0244376
1062.368 .0244266
1062.946 .0244155
1063.524 .0244046
1064.102 .0243939
1064.680 .0243834
1065.258 .0243733
1065.836 .0243636
1066.414 .0243542
1066.992 .0243451
1067.570 .0243361
1068.148 .0243274
1068.726 .0243190
1069.304 .0243111
1069.882 .0243038
1070.460 .0242974
1071.038 .0242919
1071.616 .0242875
1072.194 .0242842
1072.772 .0242820
1073.350 .0242807
1073.928 .0242803
1074.506 .0242807
1075.084 .0242818
1075.662 .0242838
1076.240 .0242867
1076.819 .0242906
1077.397 .0242955
1077.976 .0243016
1078.554 .0243086
1079.133 .0243165
1079.711 .0243251
1080.290 .0243340
1080.869 .0243433
1081.448 .0243527
1082.027 .0243623
1082.606 .0243722
1083.185 .0243823
1083.764 .0243930
1084.343 .0244044
1084.923 .0244167
1085.502 .0244299
1086.082 .0244440
1086.662 .0244589
1087.242 .0244744
1087.822 .0244904
1088.402 .0245068
1088.983 .0245235
1089.563 .0245405
1090.144 .0245578
1090.725 .0245756
1091.306 .0245940
1091.887 .0246131
1092.469 .0246329
1093.050 .0246534
1093.632 .0246745
1094.214 .0246959
1094.796 .0247176
1095.379 .0247393
1095.961 .0247611
1096.544 .0247828
1097.127 .0248048
1097.710 .0248270
1098.294 .0248497
1098.877 .0248731
1099.461 .0248973
1100.046 .0249224
1100.630 .0249484
1101.215 .0249751
1101.800 .0250023
1102.385 .0250298
1102.970 .0250573
1103.556 .0250846
1104.142 .0251118
1104.728 .0251390
1105.315 .0251662
1105.902 .0251936
1106.489 .0252212
1107.077 .0252493
1107.664 .0252778
1108.253 .0253067
1108.841 .0253360
1109.430 .0253655
1110.019 .0253953
1110.609 .0254252
1111.198 .0254552
1111.789 .0254855
1112.379 .0255164
1112.970 .0255480
1113.561 .0255804
1114.153 .0256140
1114.745 .0256488
1115.338 .0256848
1115.931 .0257223
1116.524 .0257612
1117.117 .0258014
1117.712 .0258430
1118.306 .0258861
1118.901 .0259310
1119.496 .0259779
1120.092 .0260271
1120.689 .0260789
1121.285 .0261335
1121.882 .0261911
1122.480 .0262515
1123.078 .0263149
1123.677 .0263810
1124.276 .0264497
1124.875 .0265210
1125.476 .0265948
1126.076 .0266711
1126.677 .0267501
1127.279 .0268317
1127.881 .0269161
1128.484 .0270034
1129.087 .0270407
1129.691 .0271328
1130.295 .0272275
1130.900 .0273248
1131.505 .0274248
1132.111 .0275276
1132.718 .0276330
1133.325 .0277410
1133.933 .0278530
1134.541 .0279719
1135.150 .0280902
1135.760 .0282039
1136.370 .0283223
1136.981 .0284584
1137.592 .0285686
1138.204 .0286771
1138.817 .0287863
1139.431 .0289059
1140.045 .0290307
1140.660 .0291595
1141.275 .0292958
1141.891 .0294735
1142.508 .0297459
1143.126 .0298073
1143.744 .0297695
1144.363 .0299937
1144.983 .0310759
