Measurement Sequence started on: 15-12-46-377
Integration time: 28
Scans to Average: 2 
>>>>>Begin Spectral Data<<<<<
432.689 .0000100
433.621 .0000100
434.552 .0000100
435.482 .0000100
436.410 .0000100
437.337 .0000100
438.262 .0269062
439.187 .0569362
440.110 .0943393
441.031 .1365167
441.952 .1100143
442.871 .1149925
443.789 .1196354
444.705 .1240098
445.621 .1281637
446.535 .1321325
447.447 .1345265
448.359 .1352029
449.269 .1337912
450.178 .1300546
451.086 .1240659
451.993 .1162892
452.898 .1074969
453.803 .0985646
454.706 .0902368
455.608 .0829767
456.508 .0769409
457.408 .0728242
458.306 .0696285
459.204 .0670036
460.100 .0647730
460.995 .0628415
461.888 .0611450
462.781 .0596387
463.673 .0582898
464.563 .0570757
465.452 .0559762
466.340 .0549762
467.228 .0540637
468.114 .0532301
468.999 .0524688
469.882 .0517740
470.765 .0511412
471.647 .0505662
472.528 .0500460
473.407 .0495767
474.286 .0491559
475.163 .0487817
476.040 .0484508
476.915 .0481603
477.790 .0479071
478.663 .0476884
479.535 .0475014
480.407 .0473438
481.277 .0472129
482.147 .0471071
483.015 .0470252
483.883 .0469659
484.749 .0469280
485.615 .0469110
486.479 .0469138
487.343 .0469349
488.206 .0469735
489.067 .0470274
489.928 .0470945
490.788 .0471736
491.647 .0472636
492.505 .0473641
493.362 .0474758
494.218 .0475993
495.073 .0477367
495.928 .0479962
496.781 .0481765
497.634 .0483750
498.486 .0485931
499.337 .0488309
500.187 .0490896
501.036 .0493713
501.884 .0496784
502.731 .0500149
503.578 .0503862
504.424 .0506534
505.268 .0511000
506.113 .0516013
506.956 .0521655
507.798 .0528006
508.640 .0535151
509.480 .0543188
510.320 .0552219
511.160 .0562344
511.998 .0573692
512.836 .0586418
513.672 .0600690
514.508 .0616721
515.344 .0634746
516.178 .0655013
517.012 .0677762
517.845 .0703244
518.677 .0731654
519.508 .0763128
520.339 .0797724
521.169 .0835404
521.998 .0875883
522.826 .0918758
523.654 .0963465
524.481 .1009305
525.307 .1055507
526.133 .1101177
526.958 .1145368
527.782 .1187182
528.605 .1225753
529.428 .1260315
530.250 .1290180
531.072 .1314915
531.892 .1334134
532.712 .1347593
533.532 .1355185
534.350 .1356876
535.168 .1352718
535.986 .1342791
536.802 .1327187
537.618 .1306054
538.434 .1279567
539.249 .1248144
540.063 .1212290
540.876 .1172660
541.689 .1130015
542.501 .1085174
543.313 .1039051
544.124 .0992590
544.934 .0946647
545.744 .0902035
546.553 .0859431
547.361 .0819399
548.169 .0782233
548.976 .0748138
549.783 .0717153
550.589 .0689168
551.395 .0663989
552.200 .0641330
553.004 .0620910
553.808 .0602479
554.611 .0585791
555.414 .0570653
556.216 .0556873
557.018 .0544272
557.819 .0532678
558.619 .0521959
559.419 .0511993
560.218 .0502676
561.017 .0493919
561.815 .0485655
562.613 .0477833
563.410 .0470406
564.207 .0463326
565.003 .0456556
565.799 .0450060
566.594 .0443801
567.388 .0437746
568.182 .0431878
568.976 .0426177
569.769 .0420639
570.562 .0415264
571.354 .0410065
572.145 .0405055
572.936 .0400242
573.727 .0395637
574.517 .0391246
575.307 .0387065
576.096 .0383085
576.885 .0379301
577.673 .0375710
578.461 .0372305
579.248 .0369085
580.035 .0366048
580.821 .0363196
581.607 .0360525
582.392 .0358034
583.177 .0355720
583.962 .0353575
584.746 .0351590
585.529 .0349749
586.313 .0348039
587.095 .0346446
587.878 .0344954
588.660 .0343555
589.441 .0342238
590.222 .0340999
591.003 .0339832
591.783 .0338736
592.563 .0337710
593.342 .0336750
594.121 .0335854
594.899 .0335017
595.678 .0334234
596.455 .0333498
597.233 .0332802
598.009 .0332140
598.786 .0331510
599.562 .0330908
600.338 .0330332
601.113 .0329780
601.888 .0329041
602.663 .0328551
603.437 .0328084
604.211 .0327640
604.984 .0327217
605.757 .0326813
606.530 .0326426
607.302 .0326052
608.074 .0325690
608.845 .0325339
609.616 .0325000
610.387 .0324860
611.158 .0324540
611.928 .0324233
612.697 .0323939
613.467 .0323658
614.236 .0323389
615.004 .0323132
615.773 .0322884
616.541 .0322644
617.308 .0322411
618.076 .0322183
618.843 .0321960
619.609 .0321740
620.375 .0321524
621.141 .0321313
621.907 .0321104
622.672 .0320899
623.437 .0320696
624.202 .0320493
624.966 .0320289
625.730 .0320082
626.493 .0319871
627.257 .0319656
628.020 .0319434
628.782 .0319205
629.545 .0318970
630.307 .0318729
631.068 .0318481
631.830 .0318227
632.591 .0317967
633.352 .0317700
634.112 .0317427
634.872 .0317147
635.632 .0316861
636.392 .0316569
637.151 .0316272
637.910 .0315970
638.668 .0315663
639.427 .0315354
640.185 .0315041
640.943 .0314728
641.700 .0314415
642.457 .0314102
643.214 .0313792
643.971 .0313485
644.727 .0313181
645.483 .0312882
646.239 .0312588
646.994 .0312298
647.750 .0312014
648.505 .0311733
649.259 .0311457
650.014 .0311185
650.768 .0310917
651.521 .0310654
652.275 .0310395
653.028 .0310142
653.781 .0309893
654.534 .0309647
655.286 .0309405
656.039 .0309165
656.791 .0308925
657.542 .0308687
658.294 .0308448
659.045 .0308210
659.796 .0307971
660.546 .0307733
661.297 .0307495
662.047 .0307256
662.796 .0307017
663.546 .0306776
664.295 .0306532
665.044 .0306286
665.793 .0306038
666.542 .0305788
667.290 .0305538
668.038 .0305288
668.786 .0305039
669.533 .0304793
670.281 .0304547
671.028 .0304304
671.774 .0304062
672.521 .0303821
673.267 .0303580
674.013 .0303340
674.759 .0303101
675.505 .0302864
676.250 .0302629
676.995 .0302395
677.740 .0302165
678.484 .0301938
679.229 .0301713
679.973 .0301492
680.717 .0301273
681.460 .0301057
682.204 .0300844
682.947 .0300632
683.690 .0300423
684.433 .0300215
685.175 .0300009
685.917 .0299804
686.659 .0299599
687.401 .0299396
688.142 .0299194
688.884 .0298993
689.625 .0298793
690.365 .0298594
691.106 .0298396
691.846 .0298198
692.586 .0298001
693.326 .0297803
694.066 .0297605
694.805 .0297406
695.545 .0297206
696.284 .0297007
697.022 .0296807
697.761 .0296609
698.499 .0296412
699.237 .0296217
699.975 .0296025
700.713 .0295837
701.450 .0295654
702.187 .0295475
702.924 .0295300
703.661 .0295129
704.397 .0294962
705.133 .0294798
705.869 .0294637
706.605 .0294476
707.341 .0294317
708.076 .0294159
708.811 .0294001
709.546 .0293844
710.281 .0293687
711.015 .0293531
711.749 .0293375
712.483 .0293219
713.217 .0293063
713.950 .0292906
714.684 .0292747
715.417 .0292588
716.150 .0292426
716.882 .0292263
717.615 .0292099
718.347 .0291932
719.079 .0291765
719.811 .0291597
720.542 .0291429
721.273 .0291261
722.005 .0291094
722.735 .0290928
723.466 .0290765
724.196 .0290604
724.927 .0290447
725.656 .0290294
726.386 .0290145
727.116 .0289999
727.845 .0289856
728.574 .0289716
729.303 .0289578
730.031 .0289443
730.760 .0289311
731.488 .0289181
732.216 .0289054
732.944 .0288930
733.671 .0288809
734.398 .0288691
735.125 .0288574
735.852 .0288458
736.579 .0288343
737.305 .0288228
738.031 .0288113
738.757 .0287996
739.483 .0287879
740.208 .0287762
740.933 .0287644
741.658 .0287526
742.383 .0287408
743.108 .0287289
743.832 .0287169
744.556 .0287049
745.280 .0286928
746.004 .0286806
746.727 .0286683
747.450 .0286557
748.173 .0286428
748.896 .0286297
749.618 .0286163
750.340 .0286025
751.062 .0285884
751.784 .0285740
752.506 .0285592
753.227 .0285441
753.948 .0285286
754.669 .0285128
755.389 .0284967
756.110 .0284801
756.830 .0284632
757.550 .0284460
758.269 .0284284
758.989 .0284105
759.708 .0283925
760.427 .0283743
761.146 .0283560
761.864 .0283377
762.582 .0283193
763.300 .0283009
764.018 .0282826
764.736 .0282642
765.453 .0282459
766.170 .0282277
766.887 .0282097
767.603 .0281918
768.320 .0281743
769.036 .0281571
769.751 .0281402
770.467 .0281238
771.182 .0281077
771.897 .0280920
772.612 .0280768
773.327 .0280619
774.041 .0280473
774.755 .0280332
775.469 .0280195
776.183 .0280063
776.896 .0279935
777.609 .0279813
778.322 .0279697
779.035 .0279586
779.747 .0279480
780.459 .0279379
781.171 .0279283
781.882 .0279190
782.594 .0279101
783.305 .0279014
784.016 .0278930
784.726 .0278847
785.436 .0278766
786.147 .0278648
786.856 .0278566
787.566 .0278484
788.275 .0278400
788.984 .0278315
789.693 .0278228
790.401 .0278140
791.110 .0278051
791.818 .0277960
792.525 .0277868
793.233 .0277773
793.940 .0277676
794.647 .0277620
795.353 .0277520
796.060 .0277419
796.766 .0277316
797.472 .0277212
798.177 .0277109
798.883 .0277005
799.588 .0276902
800.292 .0276798
800.997 .0276694
801.701 .0276589
802.405 .0276482
803.109 .0276373
803.812 .0276262
804.515 .0276150
805.218 .0276037
805.921 .0275923
806.623 .0275810
807.325 .0275695
808.027 .0275579
808.728 .0275462
809.429 .0275343
810.130 .0275221
810.831 .0275096
811.531 .0274970
812.231 .0274842
812.931 .0274714
813.630 .0274584
814.330 .0274455
815.029 .0274325
815.727 .0274196
816.426 .0274067
817.124 .0273939
817.821 .0273812
818.519 .0273688
819.216 .0273566
819.913 .0273448
820.609 .0273334
821.306 .0273224
822.002 .0273119
822.697 .0273020
823.393 .0272926
824.088 .0272837
824.783 .0272755
825.477 .0272678
826.171 .0272607
826.865 .0272541
827.559 .0272480
828.252 .0272424
828.945 .0272372
829.638 .0272324
830.330 .0272279
831.023 .0272236
831.714 .0272195
832.406 .0272155
833.097 .0272116
833.788 .0272077
834.479 .0272037
835.169 .0271997
835.859 .0271956
836.548 .0271915
837.238 .0271873
837.927 .0271831
838.615 .0271788
839.304 .0271744
839.992 .0271698
840.680 .0271650
841.367 .0271599
842.054 .0271546
842.741 .0271491
843.428 .0271433
844.114 .0271373
844.800 .0271311
845.485 .0271247
846.170 .0271181
846.855 .0271111
847.540 .0271039
848.224 .0270963
848.908 .0270884
849.592 .0270800
850.275 .0270713
850.958 .0270622
851.641 .0270528
852.323 .0270431
853.005 .0270331
853.687 .0270228
854.368 .0270123
855.049 .0270015
855.730 .0269904
856.410 .0269791
857.090 .0269675
857.769 .0269557
858.449 .0269437
859.128 .0269316
859.806 .0269193
860.485 .0269070
861.163 .0268946
861.840 .0268821
862.518 .0268697
863.195 .0268573
863.871 .0268449
864.548 .0268327
865.224 .0268206
865.899 .0268087
866.574 .0267970
867.249 .0267856
867.924 .0267743
868.598 .0267633
869.272 .0267525
869.946 .0267419
870.619 .0267314
871.292 .0267211
871.964 .0267110
872.636 .0267010
873.308 .0266911
873.979 .0266815
874.651 .0266720
875.321 .0266627
875.992 .0266535
876.662 .0266444
877.331 .0266353
878.001 .0266262
878.670 .0266171
879.338 .0266080
880.007 .0265988
880.675 .0265895
881.342 .0265803
882.009 .0265712
882.676 .0265622
883.343 .0265533
884.009 .0265446
884.675 .0265360
885.340 .0265277
886.005 .0265195
886.670 .0265116
887.334 .0265040
887.998 .0264968
888.662 .0264899
889.325 .0264834
889.988 .0264774
890.650 .0264718
891.312 .0264665
891.974 .0264616
892.636 .0264569
893.297 .0264525
893.957 .0264483
894.618 .0264443
895.278 .0264403
895.937 .0264364
896.596 .0264324
897.255 .0264283
897.914 .0264239
898.572 .0264192
899.230 .0264140
899.887 .0264084
900.544 .0264021
901.201 .0263952
901.857 .0263812
902.513 .0263724
903.168 .0263628
903.823 .0263524
904.478 .0263412
905.132 .0263292
905.786 .0263164
906.440 .0263026
907.093 .0262881
907.746 .0262728
908.399 .0262569
909.051 .0262404
909.703 .0262234
910.354 .0262142
911.005 .0261971
911.656 .0261797
912.306 .0261621
912.956 .0261444
913.605 .0261267
914.254 .0261090
914.903 .0260914
915.551 .0260738
916.199 .0260564
916.847 .0260391
917.494 .0260219
918.141 .0260049
918.788 .0259878
919.434 .0259708
920.079 .0259538
920.725 .0259366
921.370 .0259193
922.014 .0259017
922.658 .0258840
923.302 .0258659
923.946 .0258477
924.589 .0258293
925.231 .0258107
925.873 .0257919
926.515 .0257728
927.157 .0257536
927.798 .0257342
928.439 .0257146
929.079 .0256949
929.719 .0256752
930.359 .0256555
930.998 .0256359
931.637 .0256163
932.275 .0255969
932.913 .0255776
933.551 .0255585
934.188 .0255395
934.825 .0255208
935.462 .0255024
936.098 .0254844
936.733 .0254668
937.369 .0254498
938.004 .0254332
938.638 .0254173
939.273 .0254018
939.907 .0253870
940.540 .0253726
941.173 .0253587
941.806 .0253452
942.438 .0253321
943.070 .0253193
943.702 .0253069
944.333 .0252948
944.964 .0252829
945.594 .0252712
946.224 .0252596
946.854 .0252481
947.483 .0252366
948.112 .0252250
948.741 .0252134
949.369 .0252016
949.996 .0251898
950.624 .0251778
951.251 .0251657
951.878 .0251536
952.504 .0251414
953.130 .0251293
953.755 .0251172
954.380 .0251053
955.005 .0250936
955.629 .0250821
956.253 .0250709
956.877 .0250599
957.500 .0250492
958.123 .0250387
958.746 .0250284
959.368 .0250184
959.990 .0250086
960.611 .0249992
961.232 .0249901
961.853 .0249813
962.473 .0249728
963.093 .0249647
963.712 .0249568
964.331 .0249491
964.950 .0249417
965.569 .0249343
966.187 .0249272
966.804 .0249202
967.422 .0249133
968.039 .0249066
968.655 .0248999
969.272 .0248933
969.887 .0248867
970.503 .0248800
971.118 .0248732
971.733 .0248662
972.347 .0248590
972.961 .0248517
973.575 .0248443
974.188 .0248367
974.801 .0248292
975.414 .0248215
976.026 .0248139
976.638 .0248062
977.250 .0247985
977.861 .0247909
978.472 .0247832
979.083 .0247756
979.693 .0247680
980.303 .0247604
980.912 .0247497
981.521 .0247424
982.130 .0247351
982.738 .0247280
983.346 .0247210
983.954 .0247142
984.562 .0247076
985.169 .0247014
985.775 .0246954
986.382 .0246897
986.988 .0246844
987.594 .0246795
988.199 .0246750
988.804 .0246711
989.409 .0246704
990.013 .0246674
990.617 .0246652
991.221 .0246637
991.824 .0246628
992.427 .0246624
993.030 .0246626
993.632 .0246632
994.234 .0246640
994.836 .0246650
995.438 .0246661
996.039 .0246672
996.640 .0246684
997.240 .0246697
997.840 .0246711
998.440 .0246727
999.040 .0246744
999.639 .0246763
1000.238 .0246783
1000.836 .0246804
1001.435 .0246827
1002.033 .0246851
1002.630 .0246877
1003.228 .0246904
1003.825 .0246934
1004.422 .0246965
1005.018 .0246999
1005.614 .0247033
1006.210 .0247068
1006.806 .0247102
1007.401 .0247133
1007.996 .0247162
1008.591 .0247187
1009.186 .0247208
1009.780 .0247227
1010.374 .0247245
1010.967 .0247262
1011.561 .0247279
1012.154 .0247299
1012.746 .0247321
1013.339 .0247346
1013.931 .0247376
1014.523 .0247410
1015.115 .0247450
1015.706 .0247495
1016.298 .0247548
1016.888 .0247607
1017.479 .0247674
1018.069 .0247749
1018.660 .0247830
1019.250 .0247918
1019.839 .0248011
1020.429 .0248108
1021.018 .0248207
1021.607 .0248308
1022.195 .0248409
1022.784 .0248510
1023.372 .0248611
1023.960 .0248712
1024.547 .0248814
1025.135 .0248917
1025.722 .0249021
1026.309 .0249126
1026.896 .0249232
1027.483 .0249339
1028.069 .0249447
1028.655 .0249556
1029.241 .0249666
1029.827 .0249777
1030.412 .0249888
1030.997 .0250000
1031.582 .0250113
1032.167 .0250225
1032.752 .0250337
1033.336 .0250447
1033.921 .0250553
1034.505 .0250657
1035.089 .0250756
1035.672 .0250851
1036.256 .0250941
1036.839 .0251028
1037.422 .0251110
1038.005 .0251188
1038.588 .0251263
1039.171 .0251335
1039.753 .0251404
1040.335 .0251470
1040.918 .0251532
1041.500 .0251591
1042.081 .0251647
1042.663 .0251700
1043.244 .0251751
1043.826 .0251800
1044.407 .0251848
1044.988 .0251896
1045.569 .0251942
1046.150 .0251987
1046.730 .0252030
1047.311 .0252071
1047.891 .0252108
1048.471 .0252141
1049.052 .0252171
1049.632 .0252197
1050.211 .0252219
1050.791 .0252239
1051.371 .0252257
1051.950 .0252274
1052.530 .0252289
1053.109 .0252305
1053.688 .0252322
1054.268 .0252340
1054.847 .0252360
1055.426 .0252382
1056.005 .0252408
1056.583 .0252436
1057.162 .0252466
1057.741 .0252499
1058.319 .0252533
1058.898 .0252569
1059.476 .0252605
1060.055 .0252642
1060.633 .0252680
1061.211 .0252719
1061.790 .0252758
1062.368 .0252796
1062.946 .0252833
1063.524 .0252867
1064.102 .0252898
1064.680 .0252925
1065.258 .0252949
1065.836 .0252968
1066.414 .0252985
1066.992 .0253001
1067.570 .0253018
1068.148 .0253037
1068.726 .0253059
1069.304 .0253084
1069.882 .0253111
1070.460 .0253141
1071.038 .0253172
1071.616 .0253203
1072.194 .0253234
1072.772 .0253267
1073.350 .0253300
1073.928 .0253336
1074.506 .0253375
1075.084 .0253417
1075.662 .0253462
1076.240 .0253510
1076.819 .0253559
1077.397 .0253607
1077.976 .0253655
1078.554 .0253700
1079.133 .0253744
1079.711 .0253788
1080.290 .0253834
1080.869 .0253883
1081.448 .0253937
1082.027 .0253994
1082.606 .0254055
1083.185 .0254119
1083.764 .0254182
1084.343 .0254243
1084.923 .0254302
1085.502 .0254358
1086.082 .0254411
1086.662 .0254462
1087.242 .0254512
1087.822 .0254563
1088.402 .0254613
1088.983 .0254664
1089.563 .0254714
1090.144 .0254761
1090.725 .0254805
1091.306 .0254846
1091.887 .0254885
1092.469 .0254923
1093.050 .0254960
1093.632 .0254999
1094.214 .0255042
1094.796 .0255090
1095.379 .0255141
1095.961 .0255197
1096.544 .0255255
1097.127 .0255314
1097.710 .0255374
1098.294 .0255433
1098.877 .0255494
1099.461 .0255556
1100.046 .0255621
1100.630 .0255689
1101.215 .0255760
1101.800 .0255833
1102.385 .0255907
1102.970 .0255980
1103.556 .0256050
1104.142 .0256115
1104.728 .0256176
1105.315 .0256231
1105.902 .0256284
1106.489 .0256335
1107.077 .0256389
1107.664 .0256445
1108.253 .0256508
1108.841 .0256575
1109.430 .0256649
1110.019 .0256728
1110.609 .0256812
1111.198 .0256901
1111.789 .0256997
1112.379 .0257101
1112.970 .0257217
1113.561 .0257344
1114.153 .0257487
1114.745 .0257646
1115.338 .0257823
1115.931 .0258016
1116.524 .0258227
1117.117 .0258455
1117.712 .0258702
1118.306 .0258971
1118.901 .0259263
1119.496 .0259583
1120.092 .0259934
1120.689 .0260319
1121.285 .0260740
1121.882 .0261198
1122.480 .0261695
1123.078 .0262231
1123.677 .0262807
1124.276 .0263421
1124.875 .0264077
1125.476 .0264773
1126.076 .0265511
1126.677 .0266291
1127.279 .0267110
1127.881 .0267965
1128.484 .0268853
1129.087 .0269213
1129.691 .0270148
1130.295 .0271104
1130.900 .0272078
1131.505 .0273067
1132.111 .0274066
1132.718 .0275071
1133.325 .0276078
1133.933 .0277080
1134.541 .0278119
1135.150 .0279118
1135.760 .0280062
1136.370 .0280974
1136.981 .0284194
1137.592 .0285310
1138.204 .0286317
1138.817 .0287257
1139.431 .0288139
1140.045 .0288952
1140.660 .0289658
1141.275 .0290255
1141.891 .0290658
1142.508 .0292310
1143.126 .0291827
1143.744 .0290999
1144.363 .0290886
1144.983 .0289179
