Measurement Sequence started on: 15-12-46-377
Integration time: 28
Scans to Average: 2 
>>>>>Begin Spectral Data<<<<<
432.689 .0000100
433.621 .0000100
434.552 .0000100
435.482 .0000100
436.410 .0000100
437.337 .0000100
438.262 .0274070
439.187 .0580289
440.110 .0960535
441.031 .1388744
441.952 .1112864
442.871 .1162972
443.789 .1209864
444.705 .1254230
445.621 .1296542
446.535 .1337125
447.447 .1361804
448.359 .1369073
449.269 .1355191
450.178 .1317760
451.086 .1257543
451.993 .1179314
452.898 .1090977
453.803 .1001452
454.706 .0918303
455.608 .0846199
456.508 .0786657
457.408 .0746666
458.306 .0715985
459.204 .0690936
460.100 .0669687
460.995 .0651266
461.888 .0635022
462.781 .0620520
463.673 .0607476
464.563 .0595683
465.452 .0584980
466.340 .0575241
467.228 .0566362
468.114 .0558260
468.999 .0550858
469.882 .0544092
470.765 .0537901
471.647 .0532246
472.528 .0527093
473.407 .0522408
474.286 .0518175
475.163 .0514376
476.040 .0510984
476.915 .0507981
477.790 .0505339
478.663 .0503029
479.535 .0501019
480.407 .0499279
481.277 .0497780
482.147 .0496503
483.015 .0495428
483.883 .0494545
484.749 .0493847
485.615 .0493337
486.479 .0493013
487.343 .0492874
488.206 .0492929
489.067 .0493173
489.928 .0493618
490.788 .0494268
491.647 .0495127
492.505 .0496200
493.362 .0497491
494.218 .0499004
495.073 .0500742
495.928 .0504168
496.781 .0506472
497.634 .0509007
498.486 .0511773
499.337 .0514777
500.187 .0518031
501.036 .0521557
501.884 .0525376
502.731 .0529525
503.578 .0534037
504.424 .0537030
505.268 .0542226
506.113 .0547909
506.956 .0554121
507.798 .0560924
508.640 .0568395
509.480 .0576623
510.320 .0585729
511.160 .0595846
511.998 .0607125
512.836 .0619767
513.672 .0633987
514.508 .0650019
515.344 .0668087
516.178 .0688432
517.012 .0711301
517.845 .0736932
518.677 .0765527
519.508 .0797234
520.339 .0832097
521.169 .0870102
521.998 .0910961
522.826 .0954265
523.654 .0999433
524.481 .1045740
525.307 .1092352
526.133 .1138338
526.958 .1182742
527.782 .1224635
528.605 .1263173
529.428 .1297655
530.250 .1327420
531.072 .1352027
531.892 .1371099
532.712 .1384418
533.532 .1391883
534.350 .1393448
535.168 .1389126
535.986 .1378980
536.802 .1363104
537.618 .1341641
538.434 .1314765
539.249 .1282919
540.063 .1246631
540.876 .1206555
541.689 .1163472
542.501 .1118243
543.313 .1071794
544.124 .1025058
544.934 .0978905
545.744 .0934107
546.553 .0891275
547.361 .0850926
548.169 .0813342
548.976 .0778726
549.783 .0747119
550.589 .0718414
551.395 .0692437
552.200 .0668948
553.004 .0647674
553.808 .0628358
554.611 .0610776
555.414 .0594734
556.216 .0580037
557.018 .0566511
557.819 .0554027
558.619 .0542472
559.419 .0531749
560.218 .0521778
561.017 .0512483
561.815 .0503799
562.613 .0495661
563.410 .0488002
564.207 .0480767
565.003 .0473900
565.799 .0467347
566.594 .0461051
567.388 .0454979
568.182 .0449100
568.976 .0443394
569.769 .0437848
570.562 .0432459
571.354 .0427230
572.145 .0422168
572.936 .0417278
573.727 .0412563
574.517 .0408024
575.307 .0403667
576.096 .0399493
576.885 .0395504
577.673 .0391704
578.461 .0388094
579.248 .0384676
580.035 .0381452
580.821 .0378421
581.607 .0375581
582.392 .0372928
583.177 .0370458
583.962 .0368165
584.746 .0366041
585.529 .0364076
586.313 .0362259
587.095 .0360581
587.878 .0359032
588.660 .0357598
589.441 .0356270
590.222 .0355041
591.003 .0353903
591.783 .0352848
592.563 .0351871
593.342 .0350966
594.121 .0350123
594.899 .0349336
595.678 .0348596
596.455 .0347895
597.233 .0347227
598.009 .0346584
598.786 .0345963
599.562 .0345359
600.338 .0344771
601.113 .0344196
601.888 .0343388
602.663 .0342856
603.437 .0342341
604.211 .0341843
604.984 .0341363
605.757 .0340899
606.530 .0340451
607.302 .0340019
608.074 .0339601
608.845 .0339196
609.616 .0338805
610.387 .0338649
611.158 .0338277
611.928 .0337919
612.697 .0337576
613.467 .0337247
614.236 .0336931
615.004 .0336627
615.773 .0336333
616.541 .0336047
617.308 .0335766
618.076 .0335487
618.843 .0335209
619.609 .0334931
620.375 .0334649
621.141 .0334365
621.907 .0334076
622.672 .0333784
623.437 .0333486
624.202 .0333183
624.966 .0332874
625.730 .0332560
626.493 .0332240
627.257 .0331915
628.020 .0331583
628.782 .0331246
629.545 .0330901
630.307 .0330549
631.068 .0330191
631.830 .0329828
632.591 .0329460
633.352 .0329088
634.112 .0328716
634.872 .0328344
635.632 .0327975
636.392 .0327609
637.151 .0327247
637.910 .0326890
638.668 .0326536
639.427 .0326186
640.185 .0325840
640.943 .0325500
641.700 .0325166
642.457 .0324839
643.214 .0324520
643.971 .0324212
644.727 .0323915
645.483 .0323630
646.239 .0323357
646.994 .0323096
647.750 .0322846
648.505 .0322607
649.259 .0322378
650.014 .0322159
650.768 .0321949
651.521 .0321749
652.275 .0321557
653.028 .0321373
653.781 .0321196
654.534 .0321025
655.286 .0320859
656.039 .0320699
656.791 .0320542
657.542 .0320389
658.294 .0320238
659.045 .0320088
659.796 .0319938
660.546 .0319786
661.297 .0319630
662.047 .0319471
662.796 .0319305
663.546 .0319133
664.295 .0318956
665.044 .0318772
665.793 .0318582
666.542 .0318387
667.290 .0318186
668.038 .0317979
668.786 .0317767
669.533 .0317548
670.281 .0317324
671.028 .0317093
671.774 .0316857
672.521 .0316616
673.267 .0316372
674.013 .0316126
674.759 .0315879
675.505 .0315633
676.250 .0315387
676.995 .0315144
677.740 .0314901
678.484 .0314661
679.229 .0314422
679.973 .0314184
680.717 .0313949
681.460 .0313714
682.204 .0313482
682.947 .0313252
683.690 .0313024
684.433 .0312796
685.175 .0312570
685.917 .0312343
686.659 .0312116
687.401 .0311889
688.142 .0311659
688.884 .0311428
689.625 .0311194
690.365 .0310955
691.106 .0310712
691.846 .0310463
692.586 .0310208
693.326 .0309948
694.066 .0309680
694.805 .0309408
695.545 .0309130
696.284 .0308849
697.022 .0308564
697.761 .0308277
698.499 .0307988
699.237 .0307697
699.975 .0307406
700.713 .0307114
701.450 .0306823
702.187 .0306533
702.924 .0306245
703.661 .0305961
704.397 .0305680
705.133 .0305405
705.869 .0305135
706.605 .0304871
707.341 .0304614
708.076 .0304364
708.811 .0304120
709.546 .0303884
710.281 .0303654
711.015 .0303431
711.749 .0303215
712.483 .0303004
713.217 .0302798
713.950 .0302599
714.684 .0302404
715.417 .0302214
716.150 .0302030
716.882 .0301851
717.615 .0301677
718.347 .0301507
719.079 .0301342
719.811 .0301181
720.542 .0301022
721.273 .0300866
722.005 .0300713
722.735 .0300563
723.466 .0300416
724.196 .0300273
724.927 .0300135
725.656 .0300002
726.386 .0299876
727.116 .0299756
727.845 .0299643
728.574 .0299537
729.303 .0299440
730.031 .0299351
730.760 .0299270
731.488 .0299197
732.216 .0299132
732.944 .0299074
733.671 .0299024
734.398 .0298979
735.125 .0298941
735.852 .0298907
736.579 .0298879
737.305 .0298854
738.031 .0298834
738.757 .0298815
739.483 .0298798
740.208 .0298781
740.933 .0298763
741.658 .0298743
742.383 .0298720
743.108 .0298693
743.832 .0298660
744.556 .0298622
745.280 .0298577
746.004 .0298525
746.727 .0298467
747.450 .0298401
748.173 .0298327
748.896 .0298246
749.618 .0298157
750.340 .0298061
751.062 .0297957
751.784 .0297846
752.506 .0297728
753.227 .0297601
753.948 .0297467
754.669 .0297326
755.389 .0297178
756.110 .0297024
756.830 .0296865
757.550 .0296701
758.269 .0296532
758.989 .0296359
759.708 .0296182
760.427 .0296001
761.146 .0295815
761.864 .0295624
762.582 .0295429
763.300 .0295228
764.018 .0295023
764.736 .0294813
765.453 .0294599
766.170 .0294381
766.887 .0294160
767.603 .0293936
768.320 .0293709
769.036 .0293480
769.751 .0293249
770.467 .0293017
771.182 .0292783
771.897 .0292549
772.612 .0292315
773.327 .0292081
774.041 .0291847
774.755 .0291614
775.469 .0291383
776.183 .0291153
776.896 .0290926
777.609 .0290703
778.322 .0290484
779.035 .0290269
779.747 .0290059
780.459 .0289854
781.171 .0289654
781.882 .0289459
782.594 .0289268
783.305 .0289082
784.016 .0288900
784.726 .0288723
785.436 .0288549
786.147 .0288306
786.856 .0288141
787.566 .0287980
788.275 .0287822
788.984 .0287666
789.693 .0287514
790.401 .0287363
791.110 .0287213
791.818 .0287065
792.525 .0286918
793.233 .0286773
793.940 .0286629
794.647 .0286557
795.353 .0286416
796.060 .0286278
796.766 .0286142
797.472 .0286007
798.177 .0285874
798.883 .0285742
799.588 .0285611
800.292 .0285482
800.997 .0285354
801.701 .0285227
802.405 .0285103
803.109 .0284982
803.812 .0284863
804.515 .0284747
805.218 .0284634
805.921 .0284523
806.623 .0284416
807.325 .0284313
808.027 .0284213
808.728 .0284117
809.429 .0284026
810.130 .0283939
810.831 .0283858
811.531 .0283782
812.231 .0283710
812.931 .0283644
813.630 .0283583
814.330 .0283527
815.029 .0283478
815.727 .0283435
816.426 .0283398
817.124 .0283369
817.821 .0283345
818.519 .0283329
819.216 .0283318
819.913 .0283314
820.609 .0283317
821.306 .0283326
822.002 .0283341
822.697 .0283362
823.393 .0283390
824.088 .0283425
824.783 .0283465
825.477 .0283510
826.171 .0283560
826.865 .0283614
827.559 .0283671
828.252 .0283730
828.945 .0283792
829.638 .0283854
830.330 .0283918
831.023 .0283981
831.714 .0284045
832.406 .0284108
833.097 .0284170
833.788 .0284231
834.479 .0284292
835.169 .0284351
835.859 .0284409
836.548 .0284466
837.238 .0284520
837.927 .0284572
838.615 .0284620
839.304 .0284664
839.992 .0284703
840.680 .0284737
841.367 .0284765
842.054 .0284788
842.741 .0284803
843.428 .0284811
844.114 .0284812
844.800 .0284805
845.485 .0284788
846.170 .0284763
846.855 .0284727
847.540 .0284681
848.224 .0284625
848.908 .0284557
849.592 .0284479
850.275 .0284388
850.958 .0284287
851.641 .0284174
852.323 .0284051
853.005 .0283918
853.687 .0283775
854.368 .0283623
855.049 .0283462
855.730 .0283293
856.410 .0283117
857.090 .0282934
857.769 .0282743
858.449 .0282547
859.128 .0282345
859.806 .0282137
860.485 .0281926
861.163 .0281711
861.840 .0281493
862.518 .0281272
863.195 .0281050
863.871 .0280825
864.548 .0280599
865.224 .0280371
865.899 .0280142
866.574 .0279911
867.249 .0279678
867.924 .0279444
868.598 .0279209
869.272 .0278971
869.946 .0278731
870.619 .0278489
871.292 .0278244
871.964 .0277997
872.636 .0277746
873.308 .0277494
873.979 .0277239
874.651 .0276982
875.321 .0276724
875.992 .0276464
876.662 .0276202
877.331 .0275939
878.001 .0275675
878.670 .0275410
879.338 .0275144
880.007 .0274879
880.675 .0274615
881.342 .0274354
882.009 .0274095
882.676 .0273840
883.343 .0273589
884.009 .0273342
884.675 .0273101
885.340 .0272864
886.005 .0272633
886.670 .0272407
887.334 .0272186
887.998 .0271971
888.662 .0271762
889.325 .0271558
889.988 .0271361
890.650 .0271168
891.312 .0270981
891.974 .0270799
892.636 .0270623
893.297 .0270451
893.957 .0270285
894.618 .0270123
895.278 .0269965
895.937 .0269810
896.596 .0269658
897.255 .0269507
897.914 .0269358
898.572 .0269209
899.230 .0269060
899.887 .0268911
900.544 .0268762
901.201 .0268612
901.857 .0268381
902.513 .0268230
903.168 .0268078
903.823 .0267925
904.478 .0267771
905.132 .0267617
905.786 .0267462
906.440 .0267308
907.093 .0267155
907.746 .0267004
908.399 .0266855
909.051 .0266709
909.703 .0266567
910.354 .0266508
911.005 .0266374
911.656 .0266244
912.306 .0266118
912.956 .0265998
913.605 .0265883
914.254 .0265773
914.903 .0265667
915.551 .0265566
916.199 .0265469
916.847 .0265375
917.494 .0265283
918.141 .0265195
918.788 .0265108
919.434 .0265024
920.079 .0264942
920.725 .0264862
921.370 .0264784
922.014 .0264707
922.658 .0264632
923.302 .0264557
923.946 .0264484
924.589 .0264413
925.231 .0264342
925.873 .0264274
926.515 .0264208
927.157 .0264146
927.798 .0264086
928.439 .0264029
929.079 .0263976
929.719 .0263927
930.359 .0263882
930.998 .0263842
931.637 .0263807
932.275 .0263778
932.913 .0263756
933.551 .0263742
934.188 .0263735
934.825 .0263737
935.462 .0263747
936.098 .0263766
936.733 .0263793
937.369 .0263828
938.004 .0263872
938.638 .0263923
939.273 .0263983
939.907 .0264051
940.540 .0264126
941.173 .0264210
941.806 .0264300
942.438 .0264396
943.070 .0264497
943.702 .0264601
944.333 .0264707
944.964 .0264813
945.594 .0264920
946.224 .0265026
946.854 .0265130
947.483 .0265231
948.112 .0265329
948.741 .0265423
949.369 .0265512
949.996 .0265596
950.624 .0265674
951.251 .0265745
951.878 .0265810
952.504 .0265868
953.130 .0265920
953.755 .0265965
954.380 .0266004
955.005 .0266038
955.629 .0266068
956.253 .0266092
956.877 .0266112
957.500 .0266129
958.123 .0266141
958.746 .0266150
959.368 .0266156
959.990 .0266160
960.611 .0266163
961.232 .0266164
961.853 .0266164
962.473 .0266164
963.093 .0266163
963.712 .0266163
964.331 .0266162
964.950 .0266161
965.569 .0266160
966.187 .0266159
966.804 .0266158
967.422 .0266156
968.039 .0266153
968.655 .0266148
969.272 .0266142
969.887 .0266133
970.503 .0266120
971.118 .0266102
971.733 .0266079
972.347 .0266050
972.961 .0266015
973.575 .0265973
974.188 .0265924
974.801 .0265868
975.414 .0265803
976.026 .0265731
976.638 .0265649
977.250 .0265558
977.861 .0265457
978.472 .0265348
979.083 .0265228
979.693 .0265100
980.303 .0264963
980.912 .0264727
981.521 .0264574
982.130 .0264414
982.738 .0264248
983.346 .0264077
983.954 .0263901
984.562 .0263722
985.169 .0263539
985.775 .0263355
986.382 .0263169
986.988 .0262983
987.594 .0262798
988.199 .0262614
988.804 .0262431
989.409 .0262346
990.013 .0262167
990.617 .0261990
991.221 .0261815
991.824 .0261641
992.427 .0261469
993.030 .0261297
993.632 .0261126
994.234 .0260956
994.836 .0260785
995.438 .0260615
996.039 .0260444
996.640 .0260274
997.240 .0260103
997.840 .0259932
998.440 .0259761
999.040 .0259590
999.639 .0259418
1000.238 .0259245
1000.836 .0259072
1001.435 .0258898
1002.033 .0258723
1002.630 .0258547
1003.228 .0258371
1003.825 .0258193
1004.422 .0258013
1005.018 .0257830
1005.614 .0257644
1006.210 .0257454
1006.806 .0257259
1007.401 .0257059
1007.996 .0256854
1008.591 .0256646
1009.186 .0256434
1009.780 .0256219
1010.374 .0256003
1010.967 .0255786
1011.561 .0255569
1012.154 .0255352
1012.746 .0255136
1013.339 .0254922
1013.931 .0254710
1014.523 .0254501
1015.115 .0254296
1015.706 .0254095
1016.298 .0253899
1016.888 .0253708
1017.479 .0253523
1018.069 .0253343
1018.660 .0253170
1019.250 .0253002
1019.839 .0252839
1020.429 .0252682
1021.018 .0252530
1021.607 .0252382
1022.195 .0252240
1022.784 .0252103
1023.372 .0251973
1023.960 .0251850
1024.547 .0251734
1025.135 .0251627
1025.722 .0251527
1026.309 .0251436
1026.896 .0251351
1027.483 .0251273
1028.069 .0251200
1028.655 .0251132
1029.241 .0251068
1029.827 .0251006
1030.412 .0250949
1030.997 .0250894
1031.582 .0250843
1032.167 .0250795
1032.752 .0250750
1033.336 .0250709
1033.921 .0250670
1034.505 .0250632
1035.089 .0250596
1035.672 .0250560
1036.256 .0250525
1036.839 .0250490
1037.422 .0250457
1038.005 .0250425
1038.588 .0250394
1039.171 .0250366
1039.753 .0250340
1040.335 .0250315
1040.918 .0250290
1041.500 .0250265
1042.081 .0250239
1042.663 .0250211
1043.244 .0250183
1043.826 .0250154
1044.407 .0250125
1044.988 .0250096
1045.569 .0250069
1046.150 .0250043
1046.730 .0250020
1047.311 .0250000
1047.891 .0249981
1048.471 .0249966
1049.052 .0249954
1049.632 .0249944
1050.211 .0249939
1050.791 .0249938
1051.371 .0249942
1051.950 .0249950
1052.530 .0249963
1053.109 .0249981
1053.688 .0250002
1054.268 .0250027
1054.847 .0250055
1055.426 .0250087
1056.005 .0250122
1056.583 .0250159
1057.162 .0250201
1057.741 .0250246
1058.319 .0250296
1058.898 .0250350
1059.476 .0250409
1060.055 .0250471
1060.633 .0250537
1061.211 .0250606
1061.790 .0250679
1062.368 .0250756
1062.946 .0250838
1063.524 .0250923
1064.102 .0251014
1064.680 .0251109
1065.258 .0251209
1065.836 .0251313
1066.414 .0251421
1066.992 .0251532
1067.570 .0251644
1068.148 .0251757
1068.726 .0251870
1069.304 .0251984
1069.882 .0252099
1070.460 .0252215
1071.038 .0252332
1071.616 .0252452
1072.194 .0252573
1072.772 .0252698
1073.350 .0252827
1073.928 .0252959
1074.506 .0253095
1075.084 .0253236
1075.662 .0253381
1076.240 .0253531
1076.819 .0253686
1077.397 .0253847
1077.976 .0254014
1078.554 .0254188
1079.133 .0254369
1079.711 .0254559
1080.290 .0254756
1080.869 .0254961
1081.448 .0255171
1082.027 .0255385
1082.606 .0255601
1083.185 .0255817
1083.764 .0256032
1084.343 .0256246
1084.923 .0256458
1085.502 .0256670
1086.082 .0256882
1086.662 .0257095
1087.242 .0257312
1087.822 .0257532
1088.402 .0257755
1088.983 .0257979
1089.563 .0258203
1090.144 .0258428
1090.725 .0258653
1091.306 .0258879
1091.887 .0259108
1092.469 .0259341
1093.050 .0259580
1093.632 .0259826
1094.214 .0260081
1094.796 .0260346
1095.379 .0260618
1095.961 .0260898
1096.544 .0261185
1097.127 .0261476
1097.710 .0261772
1098.294 .0262073
1098.877 .0262382
1099.461 .0262698
1100.046 .0263023
1100.630 .0263358
1101.215 .0263702
1101.800 .0264054
1102.385 .0264412
1102.970 .0264774
1103.556 .0265137
1104.142 .0265498
1104.728 .0265855
1105.315 .0266210
1105.902 .0266562
1106.489 .0266913
1107.077 .0267265
1107.664 .0267617
1108.253 .0267972
1108.841 .0268328
1109.430 .0268686
1110.019 .0269046
1110.609 .0269407
1111.198 .0269772
1111.789 .0270141
1112.379 .0270516
1112.970 .0270900
1113.561 .0271295
1114.153 .0271702
1114.745 .0272124
1115.338 .0272561
1115.931 .0273016
1116.524 .0273489
1117.117 .0273984
1117.712 .0274502
1118.306 .0275047
1118.901 .0275621
1119.496 .0276226
1120.092 .0276863
1120.689 .0277531
1121.285 .0278229
1121.882 .0278955
1122.480 .0279707
1123.078 .0280483
1123.677 .0281284
1124.276 .0282108
1124.875 .0282959
1125.476 .0283837
1126.076 .0284744
1126.677 .0285677
1127.279 .0286634
1127.881 .0287612
1128.484 .0288606
1129.087 .0289093
1129.691 .0290107
1130.295 .0291124
1130.900 .0292144
1131.505 .0293170
1132.111 .0294202
1132.718 .0295239
1133.325 .0296278
1133.933 .0297324
1134.541 .0298460
1135.150 .0299550
1135.760 .0300484
1136.370 .0301430
1136.981 .0303122
1137.592 .0304061
1138.204 .0304930
1138.817 .0305840
1139.431 .0306861
1140.045 .0307936
1140.660 .0309002
1141.275 .0310069
1141.891 .0311245
1142.508 .0314864
1143.126 .0314730
1143.744 .0311530
1144.363 .0313083
1144.983 .0318590
