Measurement Sequence started on: 15-12-46-377
Integration time: 28
Scans to Average: 2 
>>>>>Begin Spectral Data<<<<<
432.689 .0000100
433.621 .0000100
434.552 .0000100
435.482 .0000100
436.410 .0000100
437.337 .0000100
438.262 .0270252
439.187 .0573141
440.110 .0949558
441.031 .1373981
441.952 .1098104
442.871 .1146096
443.789 .1190685
444.705 .1232626
445.621 .1272418
446.535 .1310443
447.447 .1332756
448.359 .1337844
449.269 .1322000
450.178 .1282816
451.086 .1221041
451.993 .1141413
452.898 .1051743
453.803 .0960916
454.706 .0876491
455.608 .0803177
456.508 .0742566
457.408 .0701601
458.306 .0670233
459.204 .0644799
460.100 .0623443
460.995 .0605126
461.888 .0589119
462.781 .0574952
463.673 .0562272
464.563 .0550838
465.452 .0540469
466.340 .0531030
467.228 .0522427
468.114 .0514580
468.999 .0507417
469.882 .0500879
470.765 .0494900
471.647 .0489439
472.528 .0484459
473.407 .0479928
474.286 .0475829
475.163 .0472153
476.040 .0468884
476.915 .0466014
477.790 .0463526
478.663 .0461402
479.535 .0459617
480.407 .0458147
481.277 .0456962
482.147 .0456033
483.015 .0455336
483.883 .0454852
484.749 .0454562
485.615 .0454460
486.479 .0454534
487.343 .0454778
488.206 .0455185
489.067 .0455741
489.928 .0456436
490.788 .0457258
491.647 .0458193
492.505 .0459233
493.362 .0460371
494.218 .0461607
495.073 .0462949
495.928 .0465375
496.781 .0467052
497.634 .0468883
498.486 .0470884
499.337 .0473070
500.187 .0475466
501.036 .0478099
501.884 .0481001
502.731 .0484221
503.578 .0487804
504.424 .0490426
505.268 .0494751
506.113 .0499573
506.956 .0504947
507.798 .0510921
508.640 .0517550
509.480 .0524910
510.320 .0533093
511.160 .0542201
511.998 .0552370
512.836 .0563770
513.672 .0576569
514.508 .0590943
515.344 .0607069
516.178 .0625119
517.012 .0645254
517.845 .0667631
518.677 .0692363
519.508 .0719589
520.339 .0749384
521.169 .0781765
521.998 .0816560
522.826 .0853526
523.654 .0892242
524.481 .0932166
525.307 .0972639
526.133 .1012895
526.958 .1052089
527.782 .1089411
528.605 .1124057
529.428 .1155326
530.250 .1182591
531.072 .1205418
531.892 .1223444
532.712 .1236475
533.532 .1244400
534.350 .1247207
535.168 .1244956
535.986 .1237751
536.802 .1225629
537.618 .1208659
538.434 .1186937
539.249 .1160756
540.063 .1130467
540.876 .1096583
541.689 .1059717
542.501 .1020599
543.313 .0980044
544.124 .0938909
544.934 .0897991
545.744 .0858046
546.553 .0819695
547.361 .0783440
548.169 .0749574
548.976 .0718318
549.783 .0689718
550.589 .0663742
551.395 .0640254
552.200 .0619048
553.004 .0599886
553.808 .0582562
554.611 .0566883
555.414 .0552685
556.216 .0539789
557.018 .0528028
557.819 .0517263
558.619 .0507370
559.419 .0498235
560.218 .0489763
561.017 .0481862
561.815 .0474458
562.613 .0467487
563.410 .0460877
564.207 .0454570
565.003 .0448521
565.799 .0442681
566.594 .0437009
567.388 .0431469
568.182 .0426036
568.976 .0420690
569.769 .0415430
570.562 .0410267
571.354 .0405207
572.145 .0400266
572.936 .0395454
573.727 .0390782
574.517 .0386258
575.307 .0381883
576.096 .0377655
576.885 .0373575
577.673 .0369648
578.461 .0365877
579.248 .0362270
580.035 .0358839
580.821 .0355596
581.607 .0352547
582.392 .0349699
583.177 .0347053
583.962 .0344606
584.746 .0342350
585.529 .0340278
586.313 .0338376
587.095 .0336632
587.878 .0335037
588.660 .0333581
589.441 .0332258
590.222 .0331061
591.003 .0329983
591.783 .0329015
592.563 .0328149
593.342 .0327372
594.121 .0326674
594.899 .0326043
595.678 .0325470
596.455 .0324943
597.233 .0324454
598.009 .0323995
598.786 .0323561
599.562 .0323147
600.338 .0322749
601.113 .0322364
601.888 .0321811
602.663 .0321448
603.437 .0321093
604.211 .0320746
604.984 .0320405
605.757 .0320071
606.530 .0319744
607.302 .0319424
608.074 .0319112
608.845 .0318806
609.616 .0318509
610.387 .0318389
611.158 .0318106
611.928 .0317832
612.697 .0317568
613.467 .0317314
614.236 .0317069
615.004 .0316832
615.773 .0316602
616.541 .0316378
617.308 .0316158
618.076 .0315940
618.843 .0315723
619.609 .0315506
620.375 .0315289
621.141 .0315069
621.907 .0314847
622.672 .0314621
623.437 .0314390
624.202 .0314153
624.966 .0313908
625.730 .0313654
626.493 .0313392
627.257 .0313120
628.020 .0312839
628.782 .0312549
629.545 .0312251
630.307 .0311946
631.068 .0311634
631.830 .0311317
632.591 .0310997
633.352 .0310676
634.112 .0310355
634.872 .0310036
635.632 .0309722
636.392 .0309414
637.151 .0309114
637.910 .0308823
638.668 .0308541
639.427 .0308270
640.185 .0308011
640.943 .0307763
641.700 .0307528
642.457 .0307306
643.214 .0307099
643.971 .0306908
644.727 .0306732
645.483 .0306571
646.239 .0306424
646.994 .0306289
647.750 .0306165
648.505 .0306050
649.259 .0305941
650.014 .0305838
650.768 .0305739
651.521 .0305642
652.275 .0305547
653.028 .0305452
653.781 .0305357
654.534 .0305261
655.286 .0305162
656.039 .0305058
656.791 .0304950
657.542 .0304835
658.294 .0304712
659.045 .0304582
659.796 .0304444
660.546 .0304297
661.297 .0304143
662.047 .0303981
662.796 .0303813
663.546 .0303638
664.295 .0303459
665.044 .0303277
665.793 .0303092
666.542 .0302908
667.290 .0302723
668.038 .0302539
668.786 .0302356
669.533 .0302173
670.281 .0301989
671.028 .0301806
671.774 .0301622
672.521 .0301437
673.267 .0301251
674.013 .0301066
674.759 .0300880
675.505 .0300695
676.250 .0300509
676.995 .0300323
677.740 .0300135
678.484 .0299945
679.229 .0299750
679.973 .0299552
680.717 .0299349
681.460 .0299140
682.204 .0298926
682.947 .0298707
683.690 .0298481
684.433 .0298250
685.175 .0298014
685.917 .0297772
686.659 .0297524
687.401 .0297271
688.142 .0297013
688.884 .0296751
689.625 .0296485
690.365 .0296217
691.106 .0295947
691.846 .0295676
692.586 .0295405
693.326 .0295135
694.066 .0294866
694.805 .0294600
695.545 .0294338
696.284 .0294081
697.022 .0293829
697.761 .0293585
698.499 .0293347
699.237 .0293117
699.975 .0292894
700.713 .0292678
701.450 .0292469
702.187 .0292266
702.924 .0292070
703.661 .0291881
704.397 .0291698
705.133 .0291522
705.869 .0291353
706.605 .0291189
707.341 .0291030
708.076 .0290876
708.811 .0290724
709.546 .0290576
710.281 .0290429
711.015 .0290285
711.749 .0290143
712.483 .0290003
713.217 .0289865
713.950 .0289729
714.684 .0289595
715.417 .0289462
716.150 .0289330
716.882 .0289198
717.615 .0289066
718.347 .0288934
719.079 .0288803
719.811 .0288673
720.542 .0288543
721.273 .0288415
722.005 .0288288
722.735 .0288163
723.466 .0288039
724.196 .0287917
724.927 .0287797
725.656 .0287678
726.386 .0287562
727.116 .0287447
727.845 .0287335
728.574 .0287223
729.303 .0287113
730.031 .0287003
730.760 .0286893
731.488 .0286785
732.216 .0286676
732.944 .0286569
733.671 .0286463
734.398 .0286359
735.125 .0286256
735.852 .0286154
736.579 .0286054
737.305 .0285954
738.031 .0285855
738.757 .0285756
739.483 .0285657
740.208 .0285556
740.933 .0285453
741.658 .0285348
742.383 .0285239
743.108 .0285127
743.832 .0285011
744.556 .0284892
745.280 .0284768
746.004 .0284641
746.727 .0284509
747.450 .0284373
748.173 .0284232
748.896 .0284086
749.618 .0283933
750.340 .0283773
751.062 .0283605
751.784 .0283428
752.506 .0283243
753.227 .0283048
753.948 .0282845
754.669 .0282633
755.389 .0282413
756.110 .0282184
756.830 .0281947
757.550 .0281702
758.269 .0281450
758.989 .0281190
759.708 .0280923
760.427 .0280651
761.146 .0280373
761.864 .0280091
762.582 .0279805
763.300 .0279516
764.018 .0279226
764.736 .0278934
765.453 .0278643
766.170 .0278353
766.887 .0278066
767.603 .0277784
768.320 .0277508
769.036 .0277238
769.751 .0276975
770.467 .0276719
771.182 .0276470
771.897 .0276228
772.612 .0275994
773.327 .0275767
774.041 .0275549
774.755 .0275341
775.469 .0275142
776.183 .0274953
776.896 .0274774
777.609 .0274606
778.322 .0274447
779.035 .0274297
779.747 .0274155
780.459 .0274022
781.171 .0273897
781.882 .0273780
782.594 .0273671
783.305 .0273568
784.016 .0273472
784.726 .0273382
785.436 .0273297
786.147 .0273193
786.856 .0273122
787.566 .0273055
788.275 .0272994
788.984 .0272938
789.693 .0272889
790.401 .0272845
791.110 .0272806
791.818 .0272772
792.525 .0272742
793.233 .0272714
793.940 .0272689
794.647 .0272679
795.353 .0272655
796.060 .0272631
796.766 .0272609
797.472 .0272587
798.177 .0272565
798.883 .0272542
799.588 .0272519
800.292 .0272493
800.997 .0272465
801.701 .0272434
802.405 .0272400
803.109 .0272362
803.812 .0272321
804.515 .0272276
805.218 .0272228
805.921 .0272175
806.623 .0272119
807.325 .0272058
808.027 .0271993
808.728 .0271924
809.429 .0271851
810.130 .0271773
810.831 .0271692
811.531 .0271607
812.231 .0271518
812.931 .0271426
813.630 .0271330
814.330 .0271231
815.029 .0271129
815.727 .0271025
816.426 .0270919
817.124 .0270812
817.821 .0270704
818.519 .0270595
819.216 .0270486
819.913 .0270378
820.609 .0270271
821.306 .0270166
822.002 .0270063
822.697 .0269963
823.393 .0269867
824.088 .0269774
824.783 .0269685
825.477 .0269600
826.171 .0269518
826.865 .0269439
827.559 .0269362
828.252 .0269288
828.945 .0269215
829.638 .0269144
830.330 .0269073
831.023 .0269003
831.714 .0268932
832.406 .0268859
833.097 .0268783
833.788 .0268702
834.479 .0268615
835.169 .0268522
835.859 .0268422
836.548 .0268313
837.238 .0268197
837.927 .0268071
838.615 .0267935
839.304 .0267788
839.992 .0267630
840.680 .0267459
841.367 .0267276
842.054 .0267081
842.741 .0266873
843.428 .0266655
844.114 .0266427
844.800 .0266190
845.485 .0265946
846.170 .0265693
846.855 .0265434
847.540 .0265169
848.224 .0264898
848.908 .0264622
849.592 .0264341
850.275 .0264058
850.958 .0263773
851.641 .0263487
852.323 .0263200
853.005 .0262914
853.687 .0262629
854.368 .0262344
855.049 .0262060
855.730 .0261777
856.410 .0261495
857.090 .0261214
857.769 .0260936
858.449 .0260660
859.128 .0260386
859.806 .0260115
860.485 .0259847
861.163 .0259581
861.840 .0259319
862.518 .0259059
863.195 .0258804
863.871 .0258552
864.548 .0258304
865.224 .0258062
865.899 .0257825
866.574 .0257593
867.249 .0257367
867.924 .0257148
868.598 .0256935
869.272 .0256730
869.946 .0256532
870.619 .0256343
871.292 .0256161
871.964 .0255988
872.636 .0255824
873.308 .0255668
873.979 .0255521
874.651 .0255383
875.321 .0255255
875.992 .0255136
876.662 .0255027
877.331 .0254928
878.001 .0254839
878.670 .0254759
879.338 .0254689
880.007 .0254626
880.675 .0254573
881.342 .0254527
882.009 .0254490
882.676 .0254461
883.343 .0254440
884.009 .0254427
884.675 .0254423
885.340 .0254425
886.005 .0254435
886.670 .0254452
887.334 .0254476
887.998 .0254505
888.662 .0254541
889.325 .0254583
889.988 .0254631
890.650 .0254685
891.312 .0254745
891.974 .0254810
892.636 .0254880
893.297 .0254953
893.957 .0255030
894.618 .0255109
895.278 .0255191
895.937 .0255274
896.596 .0255358
897.255 .0255442
897.914 .0255525
898.572 .0255607
899.230 .0255687
899.887 .0255762
900.544 .0255834
901.201 .0255900
901.857 .0255976
902.513 .0256027
903.168 .0256073
903.823 .0256112
904.478 .0256146
905.132 .0256174
905.786 .0256196
906.440 .0256211
907.093 .0256219
907.746 .0256221
908.399 .0256216
909.051 .0256203
909.703 .0256185
910.354 .0256158
911.005 .0256131
911.656 .0256098
912.306 .0256059
912.956 .0256015
913.605 .0255965
914.254 .0255908
914.903 .0255846
915.551 .0255779
916.199 .0255705
916.847 .0255627
917.494 .0255545
918.141 .0255458
918.788 .0255368
919.434 .0255274
920.079 .0255178
920.725 .0255078
921.370 .0254976
922.014 .0254870
922.658 .0254762
923.302 .0254650
923.946 .0254534
924.589 .0254417
925.231 .0254296
925.873 .0254172
926.515 .0254046
927.157 .0253918
927.798 .0253786
928.439 .0253652
929.079 .0253515
929.719 .0253376
930.359 .0253234
930.998 .0253090
931.637 .0252944
932.275 .0252797
932.913 .0252648
933.551 .0252499
934.188 .0252348
934.825 .0252196
935.462 .0252044
936.098 .0251890
936.733 .0251734
937.369 .0251577
938.004 .0251418
938.638 .0251257
939.273 .0251096
939.907 .0250934
940.540 .0250772
941.173 .0250609
941.806 .0250446
942.438 .0250282
943.070 .0250118
943.702 .0249952
944.333 .0249784
944.964 .0249615
945.594 .0249443
946.224 .0249269
946.854 .0249092
947.483 .0248914
948.112 .0248734
948.741 .0248551
949.369 .0248367
949.996 .0248180
950.624 .0247991
951.251 .0247799
951.878 .0247605
952.504 .0247408
953.130 .0247209
953.755 .0247007
954.380 .0246804
955.005 .0246598
955.629 .0246391
956.253 .0246182
956.877 .0245971
957.500 .0245757
958.123 .0245541
958.746 .0245323
959.368 .0245102
959.990 .0244879
960.611 .0244654
961.232 .0244427
961.853 .0244198
962.473 .0243967
963.093 .0243734
963.712 .0243498
964.331 .0243260
964.950 .0243019
965.569 .0242777
966.187 .0242532
966.804 .0242287
967.422 .0242040
968.039 .0241792
968.655 .0241543
969.272 .0241292
969.887 .0241041
970.503 .0240788
971.118 .0240533
971.733 .0240278
972.347 .0240022
972.961 .0239767
973.575 .0239511
974.188 .0239256
974.801 .0239003
975.414 .0238750
976.026 .0238499
976.638 .0238249
977.250 .0238002
977.861 .0237757
978.472 .0237517
979.083 .0237281
979.693 .0237050
980.303 .0236825
980.912 .0236515
981.521 .0236305
982.130 .0236102
982.738 .0235904
983.346 .0235712
983.954 .0235525
984.562 .0235345
985.169 .0235172
985.775 .0235006
986.382 .0234849
986.988 .0234700
987.594 .0234558
988.199 .0234425
988.804 .0234300
989.409 .0234257
990.013 .0234142
990.617 .0234034
991.221 .0233933
991.824 .0233839
992.427 .0233752
993.030 .0233672
993.632 .0233600
994.234 .0233534
994.836 .0233475
995.438 .0233423
996.039 .0233377
996.640 .0233337
997.240 .0233304
997.840 .0233279
998.440 .0233260
999.040 .0233250
999.639 .0233248
1000.238 .0233255
1000.836 .0233270
1001.435 .0233294
1002.033 .0233327
1002.630 .0233369
1003.228 .0233419
1003.825 .0233477
1004.422 .0233543
1005.018 .0233616
1005.614 .0233697
1006.210 .0233784
1006.806 .0233877
1007.401 .0233975
1007.996 .0234079
1008.591 .0234188
1009.186 .0234302
1009.780 .0234420
1010.374 .0234542
1010.967 .0234669
1011.561 .0234799
1012.154 .0234932
1012.746 .0235069
1013.339 .0235210
1013.931 .0235355
1014.523 .0235503
1015.115 .0235654
1015.706 .0235810
1016.298 .0235969
1016.888 .0236132
1017.479 .0236299
1018.069 .0236470
1018.660 .0236643
1019.250 .0236821
1019.839 .0237001
1020.429 .0237184
1021.018 .0237371
1021.607 .0237560
1022.195 .0237752
1022.784 .0237947
1023.372 .0238146
1023.960 .0238347
1024.547 .0238553
1025.135 .0238761
1025.722 .0238972
1026.309 .0239186
1026.896 .0239402
1027.483 .0239619
1028.069 .0239838
1028.655 .0240058
1029.241 .0240278
1029.827 .0240499
1030.412 .0240718
1030.997 .0240937
1031.582 .0241154
1032.167 .0241368
1032.752 .0241580
1033.336 .0241788
1033.921 .0241994
1034.505 .0242195
1035.089 .0242393
1035.672 .0242588
1036.256 .0242779
1036.839 .0242966
1037.422 .0243149
1038.005 .0243329
1038.588 .0243504
1039.171 .0243676
1039.753 .0243844
1040.335 .0244008
1040.918 .0244168
1041.500 .0244324
1042.081 .0244476
1042.663 .0244624
1043.244 .0244768
1043.826 .0244909
1044.407 .0245048
1044.988 .0245186
1045.569 .0245322
1046.150 .0245457
1046.730 .0245592
1047.311 .0245726
1047.891 .0245857
1048.471 .0245985
1049.052 .0246110
1049.632 .0246229
1050.211 .0246345
1050.791 .0246457
1051.371 .0246566
1051.950 .0246672
1052.530 .0246776
1053.109 .0246875
1053.688 .0246970
1054.268 .0247060
1054.847 .0247143
1055.426 .0247218
1056.005 .0247287
1056.583 .0247348
1057.162 .0247403
1057.741 .0247455
1058.319 .0247504
1058.898 .0247552
1059.476 .0247599
1060.055 .0247645
1060.633 .0247689
1061.211 .0247731
1061.790 .0247769
1062.368 .0247803
1062.946 .0247833
1063.524 .0247860
1064.102 .0247882
1064.680 .0247903
1065.258 .0247922
1065.836 .0247939
1066.414 .0247956
1066.992 .0247971
1067.570 .0247981
1068.148 .0247986
1068.726 .0247985
1069.304 .0247977
1069.882 .0247962
1070.460 .0247942
1071.038 .0247917
1071.616 .0247889
1072.194 .0247859
1072.772 .0247826
1073.350 .0247792
1073.928 .0247754
1074.506 .0247712
1075.084 .0247664
1075.662 .0247610
1076.240 .0247550
1076.819 .0247485
1077.397 .0247417
1077.976 .0247347
1078.554 .0247278
1079.133 .0247209
1079.711 .0247141
1080.290 .0247076
1080.869 .0247012
1081.448 .0246950
1082.027 .0246890
1082.606 .0246833
1083.185 .0246779
1083.764 .0246728
1084.343 .0246683
1084.923 .0246642
1085.502 .0246608
1086.082 .0246578
1086.662 .0246552
1087.242 .0246530
1087.822 .0246512
1088.402 .0246497
1088.983 .0246483
1089.563 .0246472
1090.144 .0246462
1090.725 .0246451
1091.306 .0246441
1091.887 .0246430
1092.469 .0246417
1093.050 .0246402
1093.632 .0246384
1094.214 .0246362
1094.796 .0246337
1095.379 .0246306
1095.961 .0246270
1096.544 .0246231
1097.127 .0246189
1097.710 .0246145
1098.294 .0246101
1098.877 .0246059
1099.461 .0246021
1100.046 .0245988
1100.630 .0245962
1101.215 .0245945
1101.800 .0245937
1102.385 .0245939
1102.970 .0245950
1103.556 .0245972
1104.142 .0246004
1104.728 .0246046
1105.315 .0246099
1105.902 .0246162
1106.489 .0246232
1107.077 .0246310
1107.664 .0246394
1108.253 .0246485
1108.841 .0246581
1109.430 .0246682
1110.019 .0246789
1110.609 .0246902
1111.198 .0247025
1111.789 .0247158
1112.379 .0247306
1112.970 .0247471
1113.561 .0247651
1114.153 .0247849
1114.745 .0248064
1115.338 .0248295
1115.931 .0248542
1116.524 .0248804
1117.117 .0249076
1117.712 .0249357
1118.306 .0249645
1118.901 .0249938
1119.496 .0250237
1120.092 .0250541
1120.689 .0250847
1121.285 .0251155
1121.882 .0251465
1122.480 .0251779
1123.078 .0252098
1123.677 .0252428
1124.276 .0252772
1124.875 .0253131
1125.476 .0253510
1126.076 .0253911
1126.677 .0254337
1127.279 .0254790
1127.881 .0255273
1128.484 .0255786
1129.087 .0256019
1129.691 .0256573
1130.295 .0257155
1130.900 .0257768
1131.505 .0258409
1132.111 .0259074
1132.718 .0259761
1133.325 .0260469
1133.933 .0261195
1134.541 .0261907
1135.150 .0262619
1135.760 .0263427
1136.370 .0264263
1136.981 .0263926
1137.592 .0265023
1138.204 .0266216
1138.817 .0267474
1139.431 .0268719
1140.045 .0269902
1140.660 .0271078
1141.275 .0272198
1141.891 .0273273
1142.508 .0273421
1143.126 .0273964
1143.744 .0277167
1144.363 .0278412
1144.983 .0278477
