Measurement Sequence started on: 15-12-46-377
Integration time: 28
Scans to Average: 2 
>>>>>Begin Spectral Data<<<<<
432.689 .0000100
433.621 .0000100
434.552 .0000100
435.482 .0000100
436.410 .0000100
437.337 .0000100
438.262 .0258859
439.187 .0549498
440.110 .0911255
441.031 .1320187
441.952 .1067658
442.871 .1116659
443.789 .1162608
444.705 .1206157
445.621 .1247755
446.535 .1287738
447.447 .1312722
448.359 .1321221
449.269 .1309653
450.178 .1275644
451.086 .1219893
451.993 .1146872
452.898 .1064015
453.803 .0979786
454.706 .0901397
455.608 .0833338
456.508 .0777120
457.408 .0739391
458.306 .0710540
459.204 .0687080
460.100 .0667272
460.995 .0650113
461.888 .0634970
462.781 .0621418
463.673 .0609148
464.563 .0597952
465.452 .0587667
466.340 .0578159
467.228 .0569347
468.114 .0561161
468.999 .0553534
469.882 .0546427
470.765 .0539801
471.647 .0533628
472.528 .0527894
473.407 .0522586
474.286 .0517696
475.163 .0513231
476.040 .0509187
476.915 .0505554
477.790 .0502322
478.663 .0499477
479.535 .0496994
480.407 .0494854
481.277 .0493033
482.147 .0491510
483.015 .0490264
483.883 .0489284
484.749 .0488554
485.615 .0488066
486.479 .0487808
487.343 .0487764
488.206 .0487921
489.067 .0488260
489.928 .0488762
490.788 .0489427
491.647 .0490248
492.505 .0491231
493.362 .0492394
494.218 .0493756
495.073 .0495344
495.928 .0498620
496.781 .0500893
497.634 .0503447
498.486 .0506292
499.337 .0509437
500.187 .0512896
501.036 .0516691
501.884 .0520855
502.731 .0525433
503.578 .0530464
504.424 .0534003
505.268 .0539866
506.113 .0546306
506.956 .0553361
507.798 .0561081
508.640 .0569523
509.480 .0578776
510.320 .0588940
511.160 .0600141
511.998 .0612521
512.836 .0626260
513.672 .0641541
514.508 .0658588
515.344 .0677627
516.178 .0698872
517.012 .0722545
517.845 .0748859
518.677 .0777989
519.508 .0810073
520.339 .0845149
521.169 .0883221
521.998 .0924036
522.826 .0967232
523.654 .1012228
524.481 .1058299
525.307 .1104643
526.133 .1150328
526.958 .1194357
527.782 .1235768
528.605 .1273649
529.428 .1307230
530.250 .1335834
531.072 .1359041
531.892 .1376504
532.712 .1388048
533.532 .1393632
534.350 .1393274
535.168 .1387047
535.986 .1375076
536.802 .1357453
537.618 .1334335
538.434 .1305866
539.249 .1272424
540.063 .1234493
540.876 .1192756
541.689 .1148044
542.501 .1101239
543.313 .1053310
544.124 .1005262
544.934 .0958012
545.744 .0912395
546.553 .0869069
547.361 .0828566
548.169 .0791149
548.976 .0756977
549.783 .0726016
550.589 .0698109
551.395 .0673023
552.200 .0650467
553.004 .0630125
553.808 .0611734
554.611 .0595063
555.414 .0579922
556.216 .0566144
557.018 .0553571
557.819 .0542058
558.619 .0531465
559.419 .0521665
560.218 .0512561
561.017 .0504052
561.815 .0496058
562.613 .0488517
563.410 .0481371
564.207 .0474572
565.003 .0468078
565.799 .0461849
566.594 .0455856
567.388 .0450079
568.182 .0444496
568.976 .0439093
569.769 .0433860
570.562 .0428796
571.354 .0423891
572.145 .0419151
572.936 .0414578
573.727 .0410164
574.517 .0405909
575.307 .0401811
576.096 .0397861
576.885 .0394056
577.673 .0390393
578.461 .0386874
579.248 .0383498
580.035 .0380271
580.821 .0377192
581.607 .0374261
582.392 .0371483
583.177 .0368853
583.962 .0366371
584.746 .0364035
585.529 .0361844
586.313 .0359794
587.095 .0357884
587.878 .0356109
588.660 .0354463
589.441 .0352941
590.222 .0351535
591.003 .0350237
591.783 .0349038
592.563 .0347929
593.342 .0346902
594.121 .0345950
594.899 .0345066
595.678 .0344241
596.455 .0343469
597.233 .0342742
598.009 .0342051
598.786 .0341390
599.562 .0340753
600.338 .0340134
601.113 .0339530
601.888 .0338667
602.663 .0338095
603.437 .0337534
604.211 .0336986
604.984 .0336448
605.757 .0335921
606.530 .0335404
607.302 .0334895
608.074 .0334394
608.845 .0333903
609.616 .0333421
610.387 .0333208
611.158 .0332748
611.928 .0332300
612.697 .0331865
613.467 .0331446
614.236 .0331042
615.004 .0330652
615.773 .0330277
616.541 .0329914
617.308 .0329564
618.076 .0329223
618.843 .0328891
619.609 .0328567
620.375 .0328252
621.141 .0327943
621.907 .0327640
622.672 .0327343
623.437 .0327050
624.202 .0326761
624.966 .0326474
625.730 .0326188
626.493 .0325902
627.257 .0325615
628.020 .0325325
628.782 .0325033
629.545 .0324740
630.307 .0324444
631.068 .0324149
631.830 .0323852
632.591 .0323557
633.352 .0323262
634.112 .0322969
634.872 .0322678
635.632 .0322389
636.392 .0322102
637.151 .0321819
637.910 .0321538
638.668 .0321260
639.427 .0320986
640.185 .0320716
640.943 .0320451
641.700 .0320192
642.457 .0319940
643.214 .0319694
643.971 .0319457
644.727 .0319227
645.483 .0319004
646.239 .0318788
646.994 .0318578
647.750 .0318373
648.505 .0318171
649.259 .0317972
650.014 .0317775
650.768 .0317580
651.521 .0317387
652.275 .0317195
653.028 .0317004
653.781 .0316813
654.534 .0316622
655.286 .0316431
656.039 .0316239
656.791 .0316045
657.542 .0315849
658.294 .0315651
659.045 .0315451
659.796 .0315246
660.546 .0315037
661.297 .0314823
662.047 .0314604
662.796 .0314379
663.546 .0314148
664.295 .0313912
665.044 .0313670
665.793 .0313423
666.542 .0313172
667.290 .0312916
668.038 .0312657
668.786 .0312394
669.533 .0312128
670.281 .0311860
671.028 .0311590
671.774 .0311319
672.521 .0311048
673.267 .0310777
674.013 .0310508
674.759 .0310241
675.505 .0309977
676.250 .0309716
676.995 .0309459
677.740 .0309207
678.484 .0308958
679.229 .0308713
679.973 .0308470
680.717 .0308230
681.460 .0307991
682.204 .0307753
682.947 .0307515
683.690 .0307276
684.433 .0307038
685.175 .0306799
685.917 .0306559
686.659 .0306319
687.401 .0306078
688.142 .0305836
688.884 .0305591
689.625 .0305343
690.365 .0305091
691.106 .0304837
691.846 .0304579
692.586 .0304319
693.326 .0304057
694.066 .0303793
694.805 .0303529
695.545 .0303267
696.284 .0303005
697.022 .0302747
697.761 .0302491
698.499 .0302238
699.237 .0301990
699.975 .0301745
700.713 .0301506
701.450 .0301271
702.187 .0301041
702.924 .0300818
703.661 .0300600
704.397 .0300388
705.133 .0300184
705.869 .0299985
706.605 .0299793
707.341 .0299607
708.076 .0299425
708.811 .0299249
709.546 .0299076
710.281 .0298906
711.015 .0298739
711.749 .0298575
712.483 .0298411
713.217 .0298250
713.950 .0298091
714.684 .0297933
715.417 .0297778
716.150 .0297625
716.882 .0297473
717.615 .0297324
718.347 .0297176
719.079 .0297031
719.811 .0296887
720.542 .0296745
721.273 .0296605
722.005 .0296467
722.735 .0296333
723.466 .0296201
724.196 .0296073
724.927 .0295949
725.656 .0295828
726.386 .0295711
727.116 .0295597
727.845 .0295485
728.574 .0295375
729.303 .0295268
730.031 .0295162
730.760 .0295058
731.488 .0294955
732.216 .0294854
732.944 .0294754
733.671 .0294657
734.398 .0294560
735.125 .0294465
735.852 .0294370
736.579 .0294275
737.305 .0294179
738.031 .0294081
738.757 .0293982
739.483 .0293881
740.208 .0293779
740.933 .0293675
741.658 .0293569
742.383 .0293461
743.108 .0293351
743.832 .0293238
744.556 .0293122
745.280 .0293001
746.004 .0292876
746.727 .0292745
747.450 .0292609
748.173 .0292467
748.896 .0292318
749.618 .0292164
750.340 .0292004
751.062 .0291838
751.784 .0291666
752.506 .0291489
753.227 .0291307
753.948 .0291120
754.669 .0290929
755.389 .0290734
756.110 .0290535
756.830 .0290334
757.550 .0290130
758.269 .0289924
758.989 .0289717
759.708 .0289509
760.427 .0289301
761.146 .0289093
761.864 .0288885
762.582 .0288677
763.300 .0288469
764.018 .0288262
764.736 .0288054
765.453 .0287847
766.170 .0287639
766.887 .0287431
767.603 .0287222
768.320 .0287012
769.036 .0286803
769.751 .0286593
770.467 .0286384
771.182 .0286176
771.897 .0285969
772.612 .0285764
773.327 .0285562
774.041 .0285362
774.755 .0285165
775.469 .0284973
776.183 .0284786
776.896 .0284604
777.609 .0284428
778.322 .0284259
779.035 .0284098
779.747 .0283945
780.459 .0283800
781.171 .0283663
781.882 .0283534
782.594 .0283413
783.305 .0283299
784.016 .0283192
784.726 .0283091
785.436 .0282996
786.147 .0282869
786.856 .0282783
787.566 .0282701
788.275 .0282621
788.984 .0282545
789.693 .0282470
790.401 .0282395
791.110 .0282321
791.818 .0282246
792.525 .0282169
793.233 .0282091
793.940 .0282011
794.647 .0281965
795.353 .0281884
796.060 .0281800
796.766 .0281715
797.472 .0281628
798.177 .0281540
798.883 .0281450
799.588 .0281359
800.292 .0281268
800.997 .0281177
801.701 .0281086
802.405 .0280996
803.109 .0280906
803.812 .0280816
804.515 .0280727
805.218 .0280639
805.921 .0280551
806.623 .0280464
807.325 .0280377
808.027 .0280291
808.728 .0280206
809.429 .0280121
810.130 .0280037
810.831 .0279954
811.531 .0279873
812.231 .0279793
812.931 .0279715
813.630 .0279640
814.330 .0279569
815.029 .0279501
815.727 .0279439
816.426 .0279381
817.124 .0279329
817.821 .0279282
818.519 .0279242
819.216 .0279207
819.913 .0279178
820.609 .0279155
821.306 .0279139
822.002 .0279127
822.697 .0279122
823.393 .0279121
824.088 .0279125
824.783 .0279132
825.477 .0279143
826.171 .0279156
826.865 .0279170
827.559 .0279185
828.252 .0279201
828.945 .0279216
829.638 .0279230
830.330 .0279243
831.023 .0279254
831.714 .0279263
832.406 .0279269
833.097 .0279271
833.788 .0279270
834.479 .0279264
835.169 .0279254
835.859 .0279239
836.548 .0279219
837.238 .0279194
837.927 .0279164
838.615 .0279128
839.304 .0279086
839.992 .0279039
840.680 .0278986
841.367 .0278927
842.054 .0278862
842.741 .0278791
843.428 .0278715
844.114 .0278633
844.800 .0278544
845.485 .0278450
846.170 .0278348
846.855 .0278239
847.540 .0278121
848.224 .0277995
848.908 .0277859
849.592 .0277714
850.275 .0277559
850.958 .0277393
851.641 .0277217
852.323 .0277031
853.005 .0276835
853.687 .0276628
854.368 .0276411
855.049 .0276184
855.730 .0275947
856.410 .0275702
857.090 .0275449
857.769 .0275188
858.449 .0274920
859.128 .0274647
859.806 .0274369
860.485 .0274087
861.163 .0273803
861.840 .0273518
862.518 .0273232
863.195 .0272947
863.871 .0272664
864.548 .0272383
865.224 .0272105
865.899 .0271830
866.574 .0271559
867.249 .0271292
867.924 .0271030
868.598 .0270774
869.272 .0270524
869.946 .0270281
870.619 .0270046
871.292 .0269819
871.964 .0269599
872.636 .0269388
873.308 .0269184
873.979 .0268988
874.651 .0268800
875.321 .0268618
875.992 .0268443
876.662 .0268275
877.331 .0268112
878.001 .0267955
878.670 .0267803
879.338 .0267655
880.007 .0267512
880.675 .0267373
881.342 .0267238
882.009 .0267108
882.676 .0266982
883.343 .0266862
884.009 .0266745
884.675 .0266633
885.340 .0266526
886.005 .0266422
886.670 .0266321
887.334 .0266224
887.998 .0266131
888.662 .0266042
889.325 .0265957
889.988 .0265876
890.650 .0265800
891.312 .0265729
891.974 .0265662
892.636 .0265599
893.297 .0265539
893.957 .0265481
894.618 .0265426
895.278 .0265371
895.937 .0265317
896.596 .0265263
897.255 .0265209
897.914 .0265153
898.572 .0265097
899.230 .0265038
899.887 .0264976
900.544 .0264912
901.201 .0264843
901.857 .0264716
902.513 .0264633
903.168 .0264545
903.823 .0264453
904.478 .0264354
905.132 .0264251
905.786 .0264142
906.440 .0264027
907.093 .0263908
907.746 .0263785
908.399 .0263657
909.051 .0263528
909.703 .0263397
910.354 .0263331
911.005 .0263203
911.656 .0263076
912.306 .0262951
912.956 .0262830
913.605 .0262712
914.254 .0262598
914.903 .0262488
915.551 .0262383
916.199 .0262283
916.847 .0262187
917.494 .0262097
918.141 .0262011
918.788 .0261931
919.434 .0261855
920.079 .0261784
920.725 .0261716
921.370 .0261652
922.014 .0261590
922.658 .0261530
923.302 .0261471
923.946 .0261412
924.589 .0261353
925.231 .0261293
925.873 .0261233
926.515 .0261172
927.157 .0261110
927.798 .0261049
928.439 .0260988
929.079 .0260927
929.719 .0260866
930.359 .0260807
930.998 .0260748
931.637 .0260690
932.275 .0260634
932.913 .0260580
933.551 .0260529
934.188 .0260481
934.825 .0260437
935.462 .0260398
936.098 .0260364
936.733 .0260336
937.369 .0260314
938.004 .0260299
938.638 .0260291
939.273 .0260290
939.907 .0260296
940.540 .0260310
941.173 .0260331
941.806 .0260359
942.438 .0260393
943.070 .0260434
943.702 .0260481
944.333 .0260532
944.964 .0260587
945.594 .0260645
946.224 .0260704
946.854 .0260764
947.483 .0260824
948.112 .0260881
948.741 .0260936
949.369 .0260987
949.996 .0261034
950.624 .0261076
951.251 .0261113
951.878 .0261145
952.504 .0261170
953.130 .0261190
953.755 .0261202
954.380 .0261208
955.005 .0261206
955.629 .0261196
956.253 .0261178
956.877 .0261152
957.500 .0261118
958.123 .0261077
958.746 .0261029
959.368 .0260976
959.990 .0260916
960.611 .0260851
961.232 .0260781
961.853 .0260706
962.473 .0260626
963.093 .0260541
963.712 .0260453
964.331 .0260361
964.950 .0260267
965.569 .0260171
966.187 .0260074
966.804 .0259977
967.422 .0259879
968.039 .0259780
968.655 .0259679
969.272 .0259576
969.887 .0259470
970.503 .0259361
971.118 .0259250
971.733 .0259136
972.347 .0259019
972.961 .0258899
973.575 .0258777
974.188 .0258652
974.801 .0258523
975.414 .0258389
976.026 .0258250
976.638 .0258105
977.250 .0257954
977.861 .0257797
978.472 .0257633
979.083 .0257464
979.693 .0257288
980.303 .0257107
980.912 .0256806
981.521 .0256612
982.130 .0256412
982.738 .0256208
983.346 .0256000
983.954 .0255788
984.562 .0255573
985.169 .0255355
985.775 .0255137
986.382 .0254918
986.988 .0254700
987.594 .0254484
988.199 .0254271
988.804 .0254061
989.409 .0253970
990.013 .0253768
990.617 .0253569
991.221 .0253373
991.824 .0253181
992.427 .0252992
993.030 .0252806
993.632 .0252623
994.234 .0252443
994.836 .0252264
995.438 .0252088
996.039 .0251913
996.640 .0251741
997.240 .0251570
997.840 .0251401
998.440 .0251233
999.040 .0251067
999.639 .0250902
1000.238 .0250737
1000.836 .0250572
1001.435 .0250407
1002.033 .0250242
1002.630 .0250076
1003.228 .0249910
1003.825 .0249745
1004.422 .0249581
1005.018 .0249418
1005.614 .0249258
1006.210 .0249099
1006.806 .0248941
1007.401 .0248785
1007.996 .0248631
1008.591 .0248478
1009.186 .0248327
1009.780 .0248178
1010.374 .0248032
1010.967 .0247889
1011.561 .0247750
1012.154 .0247616
1012.746 .0247487
1013.339 .0247363
1013.931 .0247244
1014.523 .0247132
1015.115 .0247025
1015.706 .0246923
1016.298 .0246828
1016.888 .0246738
1017.479 .0246656
1018.069 .0246580
1018.660 .0246511
1019.250 .0246450
1019.839 .0246396
1020.429 .0246349
1021.018 .0246308
1021.607 .0246272
1022.195 .0246241
1022.784 .0246214
1023.372 .0246190
1023.960 .0246170
1024.547 .0246153
1025.135 .0246140
1025.722 .0246131
1026.309 .0246126
1026.896 .0246124
1027.483 .0246126
1028.069 .0246132
1028.655 .0246141
1029.241 .0246152
1029.827 .0246167
1030.412 .0246185
1030.997 .0246205
1031.582 .0246227
1032.167 .0246253
1032.752 .0246280
1033.336 .0246308
1033.921 .0246337
1034.505 .0246367
1035.089 .0246396
1035.672 .0246425
1036.256 .0246452
1036.839 .0246478
1037.422 .0246502
1038.005 .0246525
1038.588 .0246545
1039.171 .0246565
1039.753 .0246583
1040.335 .0246601
1040.918 .0246617
1041.500 .0246634
1042.081 .0246650
1042.663 .0246667
1043.244 .0246686
1043.826 .0246705
1044.407 .0246727
1044.988 .0246750
1045.569 .0246774
1046.150 .0246801
1046.730 .0246830
1047.311 .0246861
1047.891 .0246894
1048.471 .0246930
1049.052 .0246970
1049.632 .0247013
1050.211 .0247060
1050.791 .0247112
1051.371 .0247168
1051.950 .0247229
1052.530 .0247294
1053.109 .0247365
1053.688 .0247441
1054.268 .0247522
1054.847 .0247609
1055.426 .0247700
1056.005 .0247794
1056.583 .0247893
1057.162 .0247994
1057.741 .0248098
1058.319 .0248204
1058.898 .0248312
1059.476 .0248422
1060.055 .0248536
1060.633 .0248652
1061.211 .0248773
1061.790 .0248896
1062.368 .0249023
1062.946 .0249151
1063.524 .0249282
1064.102 .0249414
1064.680 .0249546
1065.258 .0249680
1065.836 .0249815
1066.414 .0249952
1066.992 .0250091
1067.570 .0250233
1068.148 .0250378
1068.726 .0250525
1069.304 .0250674
1069.882 .0250823
1070.460 .0250973
1071.038 .0251122
1071.616 .0251271
1072.194 .0251419
1072.772 .0251565
1073.350 .0251712
1073.928 .0251857
1074.506 .0252002
1075.084 .0252147
1075.662 .0252292
1076.240 .0252435
1076.819 .0252578
1077.397 .0252721
1077.976 .0252865
1078.554 .0253010
1079.133 .0253157
1079.711 .0253306
1080.290 .0253458
1080.869 .0253614
1081.448 .0253774
1082.027 .0253937
1082.606 .0254102
1083.185 .0254269
1083.764 .0254437
1084.343 .0254607
1084.923 .0254777
1085.502 .0254949
1086.082 .0255122
1086.662 .0255298
1087.242 .0255475
1087.822 .0255654
1088.402 .0255834
1088.983 .0256016
1089.563 .0256199
1090.144 .0256383
1090.725 .0256568
1091.306 .0256756
1091.887 .0256945
1092.469 .0257138
1093.050 .0257335
1093.632 .0257538
1094.214 .0257745
1094.796 .0257959
1095.379 .0258177
1095.961 .0258401
1096.544 .0258630
1097.127 .0258863
1097.710 .0259099
1098.294 .0259338
1098.877 .0259581
1099.461 .0259829
1100.046 .0260082
1100.630 .0260342
1101.215 .0260608
1101.800 .0260882
1102.385 .0261164
1102.970 .0261452
1103.556 .0261747
1104.142 .0262048
1104.728 .0262353
1105.315 .0262662
1105.902 .0262975
1106.489 .0263294
1107.077 .0263619
1107.664 .0263954
1108.253 .0264300
1108.841 .0264659
1109.430 .0265034
1110.019 .0265424
1110.609 .0265832
1111.198 .0266257
1111.789 .0266700
1112.379 .0267161
1112.970 .0267640
1113.561 .0268138
1114.153 .0268658
1114.745 .0269197
1115.338 .0269757
1115.931 .0270337
1116.524 .0270935
1117.117 .0271548
1117.712 .0272172
1118.306 .0272804
1118.901 .0273439
1119.496 .0274071
1120.092 .0274700
1120.689 .0275320
1121.285 .0275933
1121.882 .0276539
1122.480 .0277140
1123.078 .0277740
1123.677 .0278343
1124.276 .0278953
1124.875 .0279574
1125.476 .0280209
1126.076 .0280858
1126.677 .0281523
1127.279 .0282205
1127.881 .0282905
1128.484 .0283622
1129.087 .0283974
1129.691 .0284707
1130.295 .0285465
1130.900 .0286253
1131.505 .0287075
1132.111 .0287936
1132.718 .0288838
1133.325 .0289785
1133.933 .0290785
1134.541 .0291849
1135.150 .0292920
1135.760 .0294011
1136.370 .0295265
1136.981 .0293751
1137.592 .0295192
1138.204 .0296764
1138.817 .0298527
1139.431 .0300436
1140.045 .0302438
1140.660 .0304509
1141.275 .0306717
1141.891 .0309069
1142.508 .0311677
1143.126 .0312615
1143.744 .0313871
1144.363 .0318926
1144.983 .0323865
