Measurement Sequence started on: 15-12-46-377
Integration time: 28
Scans to Average: 2 
>>>>>Begin Spectral Data<<<<<
432.689 .0000100
433.621 .0000100
434.552 .0000100
435.482 .0000100
436.410 .0000100
437.337 .0000100
438.262 .0264960
439.187 .0562144
440.110 .0931843
441.031 .1349366
441.952 .1088177
442.871 .1136953
443.789 .1182308
444.705 .1224958
445.621 .1265404
446.535 .1304026
447.447 .1327170
448.359 .1333350
449.269 .1318933
450.178 .1281538
451.086 .1221858
451.993 .1144473
452.898 .1056999
453.803 .0968114
454.706 .0885225
455.608 .0812964
456.508 .0752938
457.408 .0712029
458.306 .0680465
459.204 .0654726
460.100 .0633054
460.995 .0614465
461.888 .0598264
462.781 .0583970
463.673 .0571219
464.563 .0559745
465.452 .0549354
466.340 .0539890
467.228 .0531242
468.114 .0523340
468.999 .0516125
469.882 .0509549
470.765 .0503561
471.647 .0498123
472.528 .0493190
473.407 .0488713
474.286 .0484657
475.163 .0480991
476.040 .0477692
476.915 .0474739
477.790 .0472121
478.663 .0469830
479.535 .0467856
480.407 .0466189
481.277 .0464811
482.147 .0463702
483.015 .0462835
483.883 .0462185
484.749 .0461724
485.615 .0461438
486.479 .0461312
487.343 .0461338
488.206 .0461519
489.067 .0461852
489.928 .0462339
490.788 .0462980
491.647 .0463776
492.505 .0464717
493.362 .0465801
494.218 .0467020
495.073 .0468373
495.928 .0470933
496.781 .0472676
497.634 .0474594
498.486 .0476704
499.337 .0479021
500.187 .0481562
501.036 .0484348
501.884 .0487396
502.731 .0490736
503.578 .0494403
504.424 .0496948
505.268 .0501276
506.113 .0506097
506.956 .0511476
507.798 .0517487
508.640 .0524213
509.480 .0531749
510.320 .0540191
511.160 .0549647
511.998 .0560233
512.836 .0572104
513.672 .0585442
514.508 .0600470
515.344 .0617416
516.178 .0636512
517.012 .0658015
517.845 .0682133
518.677 .0709033
519.508 .0738829
520.339 .0771566
521.169 .0807261
521.998 .0845693
522.826 .0886528
523.654 .0929280
524.481 .0973335
525.307 .1017996
526.133 .1062452
526.958 .1105831
527.782 .1147247
528.605 .1185848
529.428 .1220856
530.250 .1251531
531.072 .1277334
531.892 .1297807
532.712 .1312634
533.532 .1321641
534.350 .1324731
535.168 .1321949
535.986 .1313448
536.802 .1299409
537.618 .1280022
538.434 .1255472
539.249 .1226137
540.063 .1192472
540.876 .1155038
541.689 .1114511
542.501 .1071627
543.313 .1027204
544.124 .0982109
544.934 .0937200
545.744 .0893289
546.553 .0851105
547.361 .0811290
548.169 .0774248
548.976 .0740252
549.783 .0709409
550.589 .0681663
551.395 .0656858
552.200 .0634733
553.004 .0614954
553.808 .0597209
554.611 .0581234
555.414 .0566794
556.216 .0553678
557.018 .0541711
557.819 .0530743
558.619 .0520641
559.419 .0511292
560.218 .0502605
561.017 .0494496
561.815 .0486896
562.613 .0479736
563.410 .0472944
564.207 .0466455
565.003 .0460211
565.799 .0454161
566.594 .0448272
567.388 .0442528
568.182 .0436916
568.976 .0431432
569.769 .0426081
570.562 .0420861
571.354 .0415776
572.145 .0410832
572.936 .0406031
573.727 .0401371
574.517 .0396852
575.307 .0392475
576.096 .0388239
576.885 .0384146
577.673 .0380202
578.461 .0376412
579.248 .0372783
580.035 .0369322
580.821 .0366032
581.607 .0362916
582.392 .0359980
583.177 .0357225
583.962 .0354650
584.746 .0352254
585.529 .0350032
586.313 .0347979
587.095 .0346089
587.878 .0344354
588.660 .0342768
589.441 .0341323
590.222 .0340015
591.003 .0338833
591.783 .0337771
592.563 .0336817
593.342 .0335962
594.121 .0335193
594.899 .0334498
595.678 .0333865
596.455 .0333282
597.233 .0332741
598.009 .0332234
598.786 .0331755
599.562 .0331300
600.338 .0330864
601.113 .0330444
601.888 .0329837
602.663 .0329436
603.437 .0329041
604.211 .0328651
604.984 .0328265
605.757 .0327883
606.530 .0327505
607.302 .0327132
608.074 .0326766
608.845 .0326407
609.616 .0326055
610.387 .0325901
611.158 .0325562
611.928 .0325231
612.697 .0324908
613.467 .0324593
614.236 .0324288
615.004 .0323991
615.773 .0323703
616.541 .0323423
617.308 .0323150
618.076 .0322884
618.843 .0322624
619.609 .0322368
620.375 .0322117
621.141 .0321870
621.907 .0321624
622.672 .0321380
623.437 .0321137
624.202 .0320893
624.966 .0320648
625.730 .0320401
626.493 .0320153
627.257 .0319904
628.020 .0319655
628.782 .0319405
629.545 .0319157
630.307 .0318908
631.068 .0318659
631.830 .0318409
632.591 .0318158
633.352 .0317905
634.112 .0317651
634.872 .0317398
635.632 .0317146
636.392 .0316898
637.151 .0316653
637.910 .0316414
638.668 .0316180
639.427 .0315953
640.185 .0315731
640.943 .0315514
641.700 .0315302
642.457 .0315094
643.214 .0314890
643.971 .0314690
644.727 .0314493
645.483 .0314299
646.239 .0314109
646.994 .0313921
647.750 .0313735
648.505 .0313551
649.259 .0313368
650.014 .0313186
650.768 .0313004
651.521 .0312822
652.275 .0312638
653.028 .0312454
653.781 .0312267
654.534 .0312077
655.286 .0311884
656.039 .0311686
656.791 .0311483
657.542 .0311275
658.294 .0311062
659.045 .0310844
659.796 .0310620
660.546 .0310392
661.297 .0310160
662.047 .0309923
662.796 .0309682
663.546 .0309437
664.295 .0309190
665.044 .0308940
665.793 .0308688
666.542 .0308437
667.290 .0308187
668.038 .0307940
668.786 .0307697
669.533 .0307457
670.281 .0307223
671.028 .0306993
671.774 .0306769
672.521 .0306551
673.267 .0306340
674.013 .0306136
674.759 .0305939
675.505 .0305750
676.250 .0305568
676.995 .0305393
677.740 .0305224
678.484 .0305061
679.229 .0304901
679.973 .0304745
680.717 .0304592
681.460 .0304442
682.204 .0304295
682.947 .0304150
683.690 .0304006
684.433 .0303864
685.175 .0303721
685.917 .0303577
686.659 .0303431
687.401 .0303283
688.142 .0303132
688.884 .0302978
689.625 .0302821
690.365 .0302659
691.106 .0302494
691.846 .0302324
692.586 .0302149
693.326 .0301970
694.066 .0301786
694.805 .0301599
695.545 .0301411
696.284 .0301221
697.022 .0301031
697.761 .0300842
698.499 .0300654
699.237 .0300466
699.975 .0300279
700.713 .0300092
701.450 .0299905
702.187 .0299719
702.924 .0299535
703.661 .0299352
704.397 .0299171
705.133 .0298992
705.869 .0298816
706.605 .0298644
707.341 .0298474
708.076 .0298307
708.811 .0298143
709.546 .0297981
710.281 .0297821
711.015 .0297663
711.749 .0297506
712.483 .0297350
713.217 .0297195
713.950 .0297039
714.684 .0296883
715.417 .0296727
716.150 .0296571
716.882 .0296415
717.615 .0296258
718.347 .0296101
719.079 .0295943
719.811 .0295785
720.542 .0295624
721.273 .0295461
722.005 .0295296
722.735 .0295130
723.466 .0294962
724.196 .0294793
724.927 .0294625
725.656 .0294458
726.386 .0294294
727.116 .0294133
727.845 .0293975
728.574 .0293821
729.303 .0293672
730.031 .0293527
730.760 .0293387
731.488 .0293251
732.216 .0293120
732.944 .0292994
733.671 .0292873
734.398 .0292755
735.125 .0292642
735.852 .0292534
736.579 .0292430
737.305 .0292330
738.031 .0292235
738.757 .0292143
739.483 .0292055
740.208 .0291969
740.933 .0291885
741.658 .0291802
742.383 .0291718
743.108 .0291633
743.832 .0291547
744.556 .0291458
745.280 .0291366
746.004 .0291272
746.727 .0291173
747.450 .0291071
748.173 .0290965
748.896 .0290856
749.618 .0290742
750.340 .0290625
751.062 .0290505
751.784 .0290381
752.506 .0290254
753.227 .0290125
753.948 .0289993
754.669 .0289859
755.389 .0289723
756.110 .0289585
756.830 .0289447
757.550 .0289307
758.269 .0289168
758.989 .0289030
759.708 .0288893
760.427 .0288758
761.146 .0288624
761.864 .0288492
762.582 .0288360
763.300 .0288229
764.018 .0288097
764.736 .0287964
765.453 .0287831
766.170 .0287697
766.887 .0287563
767.603 .0287430
768.320 .0287299
769.036 .0287169
769.751 .0287043
770.467 .0286919
771.182 .0286798
771.897 .0286679
772.612 .0286562
773.327 .0286448
774.041 .0286335
774.755 .0286225
775.469 .0286118
776.183 .0286013
776.896 .0285912
777.609 .0285814
778.322 .0285720
779.035 .0285628
779.747 .0285540
780.459 .0285453
781.171 .0285368
781.882 .0285285
782.594 .0285201
783.305 .0285117
784.016 .0285031
784.726 .0284944
785.436 .0284855
786.147 .0284709
786.856 .0284612
787.566 .0284511
788.275 .0284408
788.984 .0284301
789.693 .0284193
790.401 .0284081
791.110 .0283967
791.818 .0283850
792.525 .0283729
793.233 .0283605
793.940 .0283479
794.647 .0283411
795.353 .0283283
796.060 .0283153
796.766 .0283022
797.472 .0282891
798.177 .0282759
798.883 .0282629
799.588 .0282499
800.292 .0282371
800.997 .0282243
801.701 .0282115
802.405 .0281988
803.109 .0281862
803.812 .0281736
804.515 .0281611
805.218 .0281486
805.921 .0281362
806.623 .0281238
807.325 .0281115
808.027 .0280992
808.728 .0280869
809.429 .0280747
810.130 .0280625
810.831 .0280503
811.531 .0280381
812.231 .0280260
812.931 .0280138
813.630 .0280016
814.330 .0279894
815.029 .0279772
815.727 .0279652
816.426 .0279532
817.124 .0279416
817.821 .0279302
818.519 .0279193
819.216 .0279088
819.913 .0278989
820.609 .0278896
821.306 .0278809
822.002 .0278729
822.697 .0278654
823.393 .0278585
824.088 .0278523
824.783 .0278467
825.477 .0278417
826.171 .0278373
826.865 .0278335
827.559 .0278303
828.252 .0278277
828.945 .0278255
829.638 .0278239
830.330 .0278226
831.023 .0278216
831.714 .0278209
832.406 .0278204
833.097 .0278200
833.788 .0278196
834.479 .0278193
835.169 .0278189
835.859 .0278184
836.548 .0278178
837.238 .0278170
837.927 .0278160
838.615 .0278148
839.304 .0278132
839.992 .0278112
840.680 .0278088
841.367 .0278058
842.054 .0278023
842.741 .0277982
843.428 .0277933
844.114 .0277878
844.800 .0277814
845.485 .0277743
846.170 .0277664
846.855 .0277577
847.540 .0277483
848.224 .0277382
848.908 .0277275
849.592 .0277161
850.275 .0277041
850.958 .0276915
851.641 .0276784
852.323 .0276646
853.005 .0276504
853.687 .0276356
854.368 .0276204
855.049 .0276048
855.730 .0275888
856.410 .0275726
857.090 .0275561
857.769 .0275395
858.449 .0275228
859.128 .0275061
859.806 .0274892
860.485 .0274724
861.163 .0274555
861.840 .0274386
862.518 .0274217
863.195 .0274049
863.871 .0273880
864.548 .0273713
865.224 .0273545
865.899 .0273378
866.574 .0273212
867.249 .0273046
867.924 .0272881
868.598 .0272716
869.272 .0272551
869.946 .0272386
870.619 .0272221
871.292 .0272057
871.964 .0271894
872.636 .0271732
873.308 .0271571
873.979 .0271413
874.651 .0271258
875.321 .0271106
875.992 .0270958
876.662 .0270814
877.331 .0270675
878.001 .0270541
878.670 .0270412
879.338 .0270288
880.007 .0270170
880.675 .0270057
881.342 .0269951
882.009 .0269851
882.676 .0269758
883.343 .0269672
884.009 .0269592
884.675 .0269519
885.340 .0269452
886.005 .0269391
886.670 .0269336
887.334 .0269285
887.998 .0269237
888.662 .0269194
889.325 .0269153
889.988 .0269115
890.650 .0269079
891.312 .0269044
891.974 .0269011
892.636 .0268978
893.297 .0268944
893.957 .0268910
894.618 .0268875
895.278 .0268838
895.937 .0268798
896.596 .0268756
897.255 .0268710
897.914 .0268660
898.572 .0268606
899.230 .0268547
899.887 .0268484
900.544 .0268417
901.201 .0268345
901.857 .0268218
902.513 .0268137
903.168 .0268052
903.823 .0267963
904.478 .0267871
905.132 .0267774
905.786 .0267673
906.440 .0267567
907.093 .0267458
907.746 .0267345
908.399 .0267229
909.051 .0267109
909.703 .0266988
910.354 .0266923
911.005 .0266800
911.656 .0266675
912.306 .0266548
912.956 .0266421
913.605 .0266292
914.254 .0266162
914.903 .0266032
915.551 .0265902
916.199 .0265773
916.847 .0265644
917.494 .0265516
918.141 .0265389
918.788 .0265262
919.434 .0265135
920.079 .0265009
920.725 .0264882
921.370 .0264755
922.014 .0264627
922.658 .0264498
923.302 .0264369
923.946 .0264239
924.589 .0264108
925.231 .0263977
925.873 .0263847
926.515 .0263716
927.157 .0263586
927.798 .0263456
928.439 .0263328
929.079 .0263200
929.719 .0263075
930.359 .0262952
930.998 .0262832
931.637 .0262716
932.275 .0262605
932.913 .0262499
933.551 .0262399
934.188 .0262305
934.825 .0262217
935.462 .0262136
936.098 .0262060
936.733 .0261989
937.369 .0261924
938.004 .0261864
938.638 .0261808
939.273 .0261757
939.907 .0261712
940.540 .0261671
941.173 .0261635
941.806 .0261603
942.438 .0261574
943.070 .0261547
943.702 .0261522
944.333 .0261497
944.964 .0261471
945.594 .0261444
946.224 .0261415
946.854 .0261384
947.483 .0261351
948.112 .0261317
948.741 .0261280
949.369 .0261240
949.996 .0261198
950.624 .0261153
951.251 .0261104
951.878 .0261050
952.504 .0260992
953.130 .0260930
953.755 .0260863
954.380 .0260792
955.005 .0260719
955.629 .0260645
956.253 .0260569
956.877 .0260492
957.500 .0260415
958.123 .0260336
958.746 .0260257
959.368 .0260176
959.990 .0260096
960.611 .0260017
961.232 .0259939
961.853 .0259863
962.473 .0259791
963.093 .0259722
963.712 .0259656
964.331 .0259593
964.950 .0259531
965.569 .0259468
966.187 .0259405
966.804 .0259340
967.422 .0259272
968.039 .0259201
968.655 .0259128
969.272 .0259051
969.887 .0258972
970.503 .0258890
971.118 .0258805
971.733 .0258715
972.347 .0258621
972.961 .0258521
973.575 .0258414
974.188 .0258301
974.801 .0258182
975.414 .0258056
976.026 .0257925
976.638 .0257787
977.250 .0257643
977.861 .0257494
978.472 .0257337
979.083 .0257175
979.693 .0257006
980.303 .0256830
980.912 .0256546
981.521 .0256359
982.130 .0256168
982.738 .0255973
983.346 .0255777
983.954 .0255578
984.562 .0255380
985.169 .0255182
985.775 .0254987
986.382 .0254795
986.988 .0254607
987.594 .0254425
988.199 .0254249
988.804 .0254080
989.409 .0254020
990.013 .0253863
990.617 .0253714
991.221 .0253572
991.824 .0253437
992.427 .0253310
993.030 .0253192
993.632 .0253082
994.234 .0252980
994.836 .0252888
995.438 .0252803
996.039 .0252727
996.640 .0252658
997.240 .0252595
997.840 .0252540
998.440 .0252490
999.040 .0252445
999.639 .0252405
1000.238 .0252370
1000.836 .0252339
1001.435 .0252311
1002.033 .0252286
1002.630 .0252263
1003.228 .0252239
1003.825 .0252216
1004.422 .0252191
1005.018 .0252164
1005.614 .0252133
1006.210 .0252100
1006.806 .0252064
1007.401 .0252026
1007.996 .0251987
1008.591 .0251946
1009.186 .0251905
1009.780 .0251864
1010.374 .0251824
1010.967 .0251785
1011.561 .0251747
1012.154 .0251709
1012.746 .0251673
1013.339 .0251638
1013.931 .0251605
1014.523 .0251574
1015.115 .0251547
1015.706 .0251523
1016.298 .0251503
1016.888 .0251488
1017.479 .0251478
1018.069 .0251474
1018.660 .0251476
1019.250 .0251484
1019.839 .0251498
1020.429 .0251519
1021.018 .0251546
1021.607 .0251580
1022.195 .0251621
1022.784 .0251669
1023.372 .0251725
1023.960 .0251789
1024.547 .0251861
1025.135 .0251941
1025.722 .0252027
1026.309 .0252120
1026.896 .0252218
1027.483 .0252320
1028.069 .0252423
1028.655 .0252528
1029.241 .0252633
1029.827 .0252738
1030.412 .0252842
1030.997 .0252945
1031.582 .0253047
1032.167 .0253147
1032.752 .0253246
1033.336 .0253342
1033.921 .0253435
1034.505 .0253525
1035.089 .0253611
1035.672 .0253694
1036.256 .0253773
1036.839 .0253849
1037.422 .0253922
1038.005 .0253993
1038.588 .0254061
1039.171 .0254128
1039.753 .0254191
1040.335 .0254252
1040.918 .0254308
1041.500 .0254359
1042.081 .0254405
1042.663 .0254445
1043.244 .0254480
1043.826 .0254508
1044.407 .0254529
1044.988 .0254546
1045.569 .0254557
1046.150 .0254563
1046.730 .0254566
1047.311 .0254565
1047.891 .0254562
1048.471 .0254558
1049.052 .0254554
1049.632 .0254551
1050.211 .0254551
1050.791 .0254554
1051.371 .0254560
1051.950 .0254572
1052.530 .0254589
1053.109 .0254611
1053.688 .0254639
1054.268 .0254672
1054.847 .0254709
1055.426 .0254751
1056.005 .0254797
1056.583 .0254846
1057.162 .0254899
1057.741 .0254953
1058.319 .0255009
1058.898 .0255066
1059.476 .0255124
1060.055 .0255182
1060.633 .0255241
1061.211 .0255299
1061.790 .0255358
1062.368 .0255418
1062.946 .0255480
1063.524 .0255542
1064.102 .0255605
1064.680 .0255668
1065.258 .0255732
1065.836 .0255795
1066.414 .0255857
1066.992 .0255919
1067.570 .0255980
1068.148 .0256043
1068.726 .0256107
1069.304 .0256174
1069.882 .0256245
1070.460 .0256321
1071.038 .0256402
1071.616 .0256488
1072.194 .0256577
1072.772 .0256669
1073.350 .0256763
1073.928 .0256858
1074.506 .0256953
1075.084 .0257049
1075.662 .0257146
1076.240 .0257245
1076.819 .0257346
1077.397 .0257449
1077.976 .0257554
1078.554 .0257662
1079.133 .0257770
1079.711 .0257878
1080.290 .0257985
1080.869 .0258090
1081.448 .0258194
1082.027 .0258296
1082.606 .0258398
1083.185 .0258500
1083.764 .0258605
1084.343 .0258711
1084.923 .0258820
1085.502 .0258931
1086.082 .0259044
1086.662 .0259159
1087.242 .0259273
1087.822 .0259386
1088.402 .0259498
1088.983 .0259607
1089.563 .0259713
1090.144 .0259819
1090.725 .0259924
1091.306 .0260032
1091.887 .0260143
1092.469 .0260260
1093.050 .0260384
1093.632 .0260518
1094.214 .0260662
1094.796 .0260816
1095.379 .0260980
1095.961 .0261154
1096.544 .0261338
1097.127 .0261532
1097.710 .0261739
1098.294 .0261957
1098.877 .0262189
1099.461 .0262435
1100.046 .0262693
1100.630 .0262961
1101.215 .0263236
1101.800 .0263515
1102.385 .0263793
1102.970 .0264067
1103.556 .0264336
1104.142 .0264600
1104.728 .0264861
1105.315 .0265122
1105.902 .0265387
1106.489 .0265661
1107.077 .0265945
1107.664 .0266241
1108.253 .0266548
1108.841 .0266864
1109.430 .0267187
1110.019 .0267513
1110.609 .0267842
1111.198 .0268175
1111.789 .0268513
1112.379 .0268858
1112.970 .0269211
1113.561 .0269575
1114.153 .0269945
1114.745 .0270320
1115.338 .0270695
1115.931 .0271066
1116.524 .0271429
1117.117 .0271781
1117.712 .0272123
1118.306 .0272459
1118.901 .0272791
1119.496 .0273127
1120.092 .0273471
1120.689 .0273829
1121.285 .0274200
1121.882 .0274588
1122.480 .0274991
1123.078 .0275410
1123.677 .0275844
1124.276 .0276297
1124.875 .0276772
1125.476 .0277276
1126.076 .0277812
1126.677 .0278386
1127.279 .0279001
1127.881 .0279655
1128.484 .0280347
1129.087 .0280584
1129.691 .0281318
1130.295 .0282086
1130.900 .0282885
1131.505 .0283720
1132.111 .0284595
1132.718 .0285515
1133.325 .0286484
1133.933 .0287505
1134.541 .0288596
1135.150 .0289758
1135.760 .0290922
1136.370 .0292127
1136.981 .0293300
1137.592 .0294769
1138.204 .0296212
1138.817 .0297636
1139.431 .0299072
1140.045 .0300597
1140.660 .0302146
1141.275 .0303732
1141.891 .0305339
1142.508 .0307394
1143.126 .0309496
1143.744 .0309719
1144.363 .0311062
1144.983 .0312836
