Measurement Sequence started on: 15-12-46-377
Integration time: 28
Scans to Average: 2 
>>>>>Begin Spectral Data<<<<<
432.689 .0000100
433.621 .0000100
434.552 .0000100
435.482 .0000100
436.410 .0000100
437.337 .0000100
438.262 .0265074
439.187 .0559964
440.110 .0927557
441.031 .1341861
441.952 .1076470
442.871 .1124542
443.789 .1169363
444.705 .1211631
445.621 .1251807
446.535 .1290259
447.447 .1313298
448.359 .1319560
449.269 .1305391
450.178 .1268453
451.086 .1209487
451.993 .1133108
452.898 .1046933
453.803 .0959593
454.706 .0878422
455.608 .0807986
456.508 .0749810
457.408 .0710708
458.306 .0680785
459.204 .0656569
460.100 .0636276
460.995 .0618914
461.888 .0603801
462.781 .0590491
463.673 .0578639
464.563 .0568003
465.452 .0558395
466.340 .0549664
467.228 .0541710
468.114 .0534449
468.999 .0527809
469.882 .0521720
470.765 .0516123
471.647 .0510974
472.528 .0506229
473.407 .0501860
474.286 .0497843
475.163 .0494155
476.040 .0490783
476.915 .0487713
477.790 .0484934
478.663 .0482443
479.535 .0480236
480.407 .0478308
481.277 .0476658
482.147 .0475274
483.015 .0474146
483.883 .0473262
484.749 .0472611
485.615 .0472178
486.479 .0471946
487.343 .0471901
488.206 .0472035
489.067 .0472341
489.928 .0472823
490.788 .0473486
491.647 .0474340
492.505 .0475393
493.362 .0476652
494.218 .0478116
495.073 .0479791
495.928 .0483025
496.781 .0485242
497.634 .0487676
498.486 .0490332
499.337 .0493217
500.187 .0496347
501.036 .0499740
501.884 .0503417
502.731 .0507409
503.578 .0511753
504.424 .0514687
505.268 .0519690
506.113 .0525168
506.956 .0531174
507.798 .0537778
508.640 .0545067
509.480 .0553141
510.320 .0562127
511.160 .0572163
511.998 .0583411
512.836 .0596050
513.672 .0610284
514.508 .0626325
515.344 .0644415
516.178 .0664796
517.012 .0687725
517.845 .0713431
518.677 .0742145
519.508 .0774042
520.339 .0809208
521.169 .0847677
521.998 .0889188
522.826 .0933312
523.654 .0979442
524.481 .1026783
525.307 .1074444
526.133 .1121406
526.958 .1166656
527.782 .1209200
528.605 .1248178
529.428 .1282835
530.250 .1312533
531.072 .1336874
531.892 .1355550
532.712 .1368336
533.532 .1375122
534.350 .1375843
535.168 .1370534
535.986 .1359246
536.802 .1342064
537.618 .1319106
538.434 .1290536
539.249 .1256777
540.063 .1218415
540.876 .1176168
541.689 .1130929
542.501 .1083639
543.313 .1035324
544.124 .0986981
544.934 .0939535
545.744 .0893757
546.553 .0850287
547.361 .0809627
548.169 .0772009
548.976 .0737565
549.783 .0706302
550.589 .0678106
551.395 .0652802
552.200 .0630132
553.004 .0609814
553.808 .0591581
554.611 .0575209
555.414 .0560466
556.216 .0547152
557.018 .0535061
557.819 .0524024
558.619 .0513879
559.419 .0504499
560.218 .0495778
561.017 .0487624
561.815 .0479973
562.613 .0472778
563.410 .0465979
564.207 .0459535
565.003 .0453395
565.799 .0447512
566.594 .0441851
567.388 .0436387
568.182 .0431087
568.976 .0425930
569.769 .0420908
570.562 .0416016
571.354 .0411250
572.145 .0406619
572.936 .0402125
573.727 .0397771
574.517 .0393562
575.307 .0389498
576.096 .0385577
576.885 .0381802
577.673 .0378178
578.461 .0374708
579.248 .0371391
580.035 .0368231
580.821 .0365225
581.607 .0362379
582.392 .0359695
583.177 .0357173
583.962 .0354810
584.746 .0352606
585.529 .0350556
586.313 .0348649
587.095 .0346877
587.878 .0345233
588.660 .0343707
589.441 .0342293
590.222 .0340984
591.003 .0339774
591.783 .0338660
592.563 .0337637
593.342 .0336698
594.121 .0335834
594.899 .0335037
595.678 .0334298
596.455 .0333608
597.233 .0332959
598.009 .0332344
598.786 .0331759
599.562 .0331201
600.338 .0330667
601.113 .0330154
601.888 .0329450
602.663 .0328986
603.437 .0328540
604.211 .0328112
604.984 .0327699
605.757 .0327302
606.530 .0326917
607.302 .0326545
608.074 .0326186
608.845 .0325839
609.616 .0325505
610.387 .0325371
611.158 .0325056
611.928 .0324755
612.697 .0324469
613.467 .0324195
614.236 .0323934
615.004 .0323684
615.773 .0323444
616.541 .0323211
617.308 .0322985
618.076 .0322766
618.843 .0322551
619.609 .0322340
620.375 .0322133
621.141 .0321927
621.907 .0321723
622.672 .0321517
623.437 .0321308
624.202 .0321097
624.966 .0320881
625.730 .0320661
626.493 .0320437
627.257 .0320208
628.020 .0319972
628.782 .0319731
629.545 .0319483
630.307 .0319228
631.068 .0318965
631.830 .0318696
632.591 .0318421
633.352 .0318140
634.112 .0317856
634.872 .0317568
635.632 .0317278
636.392 .0316986
637.151 .0316693
637.910 .0316398
638.668 .0316103
639.427 .0315808
640.185 .0315514
640.943 .0315223
641.700 .0314935
642.457 .0314649
643.214 .0314366
643.971 .0314086
644.727 .0313807
645.483 .0313528
646.239 .0313250
646.994 .0312971
647.750 .0312691
648.505 .0312411
649.259 .0312131
650.014 .0311850
650.768 .0311569
651.521 .0311287
652.275 .0311005
653.028 .0310722
653.781 .0310438
654.534 .0310154
655.286 .0309868
656.039 .0309580
656.791 .0309291
657.542 .0309002
658.294 .0308713
659.045 .0308425
659.796 .0308138
660.546 .0307855
661.297 .0307575
662.047 .0307300
662.796 .0307030
663.546 .0306766
664.295 .0306507
665.044 .0306255
665.793 .0306007
666.542 .0305766
667.290 .0305529
668.038 .0305299
668.786 .0305074
669.533 .0304853
670.281 .0304637
671.028 .0304425
671.774 .0304217
672.521 .0304012
673.267 .0303810
674.013 .0303612
674.759 .0303415
675.505 .0303219
676.250 .0303025
676.995 .0302831
677.740 .0302637
678.484 .0302442
679.229 .0302248
679.973 .0302053
680.717 .0301859
681.460 .0301666
682.204 .0301474
682.947 .0301282
683.690 .0301092
684.433 .0300902
685.175 .0300712
685.917 .0300521
686.659 .0300330
687.401 .0300137
688.142 .0299943
688.884 .0299747
689.625 .0299551
690.365 .0299354
691.106 .0299156
691.846 .0298959
692.586 .0298761
693.326 .0298564
694.066 .0298368
694.805 .0298172
695.545 .0297978
696.284 .0297786
697.022 .0297596
697.761 .0297409
698.499 .0297225
699.237 .0297043
699.975 .0296865
700.713 .0296690
701.450 .0296517
702.187 .0296346
702.924 .0296178
703.661 .0296011
704.397 .0295845
705.133 .0295680
705.869 .0295515
706.605 .0295350
707.341 .0295183
708.076 .0295016
708.811 .0294847
709.546 .0294676
710.281 .0294503
711.015 .0294329
711.749 .0294153
712.483 .0293977
713.217 .0293800
713.950 .0293621
714.684 .0293442
715.417 .0293261
716.150 .0293078
716.882 .0292892
717.615 .0292706
718.347 .0292517
719.079 .0292327
719.811 .0292137
720.542 .0291947
721.273 .0291759
722.005 .0291572
722.735 .0291388
723.466 .0291207
724.196 .0291029
724.927 .0290856
725.656 .0290686
726.386 .0290521
727.116 .0290360
727.845 .0290203
728.574 .0290051
729.303 .0289904
730.031 .0289761
730.760 .0289624
731.488 .0289491
732.216 .0289363
732.944 .0289239
733.671 .0289120
734.398 .0289004
735.125 .0288892
735.852 .0288782
736.579 .0288676
737.305 .0288571
738.031 .0288467
738.757 .0288363
739.483 .0288260
740.208 .0288155
740.933 .0288049
741.658 .0287941
742.383 .0287829
743.108 .0287715
743.832 .0287597
744.556 .0287474
745.280 .0287347
746.004 .0287215
746.727 .0287078
747.450 .0286935
748.173 .0286787
748.896 .0286634
749.618 .0286475
750.340 .0286311
751.062 .0286142
751.784 .0285969
752.506 .0285793
753.227 .0285613
753.948 .0285432
754.669 .0285249
755.389 .0285066
756.110 .0284884
756.830 .0284702
757.550 .0284522
758.269 .0284344
758.989 .0284167
759.708 .0283992
760.427 .0283818
761.146 .0283645
761.864 .0283474
762.582 .0283304
763.300 .0283135
764.018 .0282968
764.736 .0282803
765.453 .0282641
766.170 .0282481
766.887 .0282324
767.603 .0282170
768.320 .0282019
769.036 .0281871
769.751 .0281724
770.467 .0281580
771.182 .0281436
771.897 .0281294
772.612 .0281154
773.327 .0281016
774.041 .0280881
774.755 .0280749
775.469 .0280622
776.183 .0280498
776.896 .0280380
777.609 .0280266
778.322 .0280156
779.035 .0280051
779.747 .0279949
780.459 .0279851
781.171 .0279757
781.882 .0279666
782.594 .0279579
783.305 .0279496
784.016 .0279416
784.726 .0279338
785.436 .0279262
786.147 .0279157
786.856 .0279082
787.566 .0279008
788.275 .0278934
788.984 .0278859
789.693 .0278783
790.401 .0278706
791.110 .0278626
791.818 .0278544
792.525 .0278459
793.233 .0278370
793.940 .0278278
794.647 .0278220
795.353 .0278124
796.060 .0278026
796.766 .0277926
797.472 .0277824
798.177 .0277721
798.883 .0277617
799.588 .0277511
800.292 .0277403
800.997 .0277294
801.701 .0277183
802.405 .0277071
803.109 .0276959
803.812 .0276846
804.515 .0276733
805.218 .0276620
805.921 .0276506
806.623 .0276392
807.325 .0276277
808.027 .0276161
808.728 .0276044
809.429 .0275926
810.130 .0275807
810.831 .0275687
811.531 .0275566
812.231 .0275445
812.931 .0275323
813.630 .0275201
814.330 .0275079
815.029 .0274957
815.727 .0274835
816.426 .0274715
817.124 .0274595
817.821 .0274476
818.519 .0274359
819.216 .0274244
819.913 .0274132
820.609 .0274022
821.306 .0273916
822.002 .0273814
822.697 .0273717
823.393 .0273624
824.088 .0273536
824.783 .0273453
825.477 .0273375
826.171 .0273301
826.865 .0273231
827.559 .0273165
828.252 .0273103
828.945 .0273044
829.638 .0272989
830.330 .0272938
831.023 .0272889
831.714 .0272841
832.406 .0272796
833.097 .0272750
833.788 .0272704
834.479 .0272657
835.169 .0272609
835.859 .0272560
836.548 .0272511
837.238 .0272461
837.927 .0272410
838.615 .0272358
839.304 .0272305
839.992 .0272250
840.680 .0272194
841.367 .0272136
842.054 .0272076
842.741 .0272014
843.428 .0271952
844.114 .0271889
844.800 .0271826
845.485 .0271763
846.170 .0271698
846.855 .0271633
847.540 .0271565
848.224 .0271496
848.908 .0271423
849.592 .0271348
850.275 .0271270
850.958 .0271189
851.641 .0271105
852.323 .0271017
853.005 .0270926
853.687 .0270831
854.368 .0270733
855.049 .0270631
855.730 .0270527
856.410 .0270419
857.090 .0270309
857.769 .0270196
858.449 .0270081
859.128 .0269963
859.806 .0269842
860.485 .0269718
861.163 .0269592
861.840 .0269464
862.518 .0269333
863.195 .0269202
863.871 .0269070
864.548 .0268938
865.224 .0268806
865.899 .0268675
866.574 .0268543
867.249 .0268412
867.924 .0268281
868.598 .0268151
869.272 .0268023
869.946 .0267896
870.619 .0267771
871.292 .0267649
871.964 .0267528
872.636 .0267410
873.308 .0267293
873.979 .0267178
874.651 .0267064
875.321 .0266951
875.992 .0266841
876.662 .0266731
877.331 .0266624
878.001 .0266518
878.670 .0266414
879.338 .0266311
880.007 .0266208
880.675 .0266107
881.342 .0266006
882.009 .0265908
882.676 .0265813
883.343 .0265720
884.009 .0265631
884.675 .0265547
885.340 .0265467
886.005 .0265391
886.670 .0265319
887.334 .0265251
887.998 .0265186
888.662 .0265125
889.325 .0265068
889.988 .0265014
890.650 .0264964
891.312 .0264916
891.974 .0264871
892.636 .0264828
893.297 .0264786
893.957 .0264744
894.618 .0264702
895.278 .0264660
895.937 .0264618
896.596 .0264574
897.255 .0264528
897.914 .0264479
898.572 .0264427
899.230 .0264371
899.887 .0264309
900.544 .0264240
901.201 .0264165
901.857 .0264016
902.513 .0263921
903.168 .0263819
903.823 .0263709
904.478 .0263591
905.132 .0263465
905.786 .0263330
906.440 .0263188
907.093 .0263038
907.746 .0262881
908.399 .0262720
909.051 .0262553
909.703 .0262384
910.354 .0262293
911.005 .0262123
911.656 .0261951
912.306 .0261779
912.956 .0261606
913.605 .0261433
914.254 .0261260
914.903 .0261086
915.551 .0260913
916.199 .0260740
916.847 .0260566
917.494 .0260394
918.141 .0260221
918.788 .0260048
919.434 .0259874
920.079 .0259700
920.725 .0259525
921.370 .0259349
922.014 .0259172
922.658 .0258994
923.302 .0258816
923.946 .0258636
924.589 .0258456
925.231 .0258274
925.873 .0258091
926.515 .0257905
927.157 .0257718
927.798 .0257528
928.439 .0257337
929.079 .0257144
929.719 .0256951
930.359 .0256757
930.998 .0256564
931.637 .0256371
932.275 .0256180
932.913 .0255990
933.551 .0255802
934.188 .0255617
934.825 .0255435
935.462 .0255257
936.098 .0255085
936.733 .0254917
937.369 .0254755
938.004 .0254600
938.638 .0254450
939.273 .0254307
939.907 .0254169
940.540 .0254036
941.173 .0253909
941.806 .0253786
942.438 .0253668
943.070 .0253554
943.702 .0253444
944.333 .0253338
944.964 .0253235
945.594 .0253134
946.224 .0253034
946.854 .0252935
947.483 .0252836
948.112 .0252737
948.741 .0252637
949.369 .0252536
949.996 .0252435
950.624 .0252333
951.251 .0252230
951.878 .0252127
952.504 .0252022
953.130 .0251917
953.755 .0251810
954.380 .0251701
955.005 .0251590
955.629 .0251478
956.253 .0251365
956.877 .0251251
957.500 .0251138
958.123 .0251025
958.746 .0250914
959.368 .0250805
959.990 .0250700
960.611 .0250597
961.232 .0250498
961.853 .0250403
962.473 .0250313
963.093 .0250226
963.712 .0250144
964.331 .0250067
964.950 .0249994
965.569 .0249926
966.187 .0249862
966.804 .0249802
967.422 .0249746
968.039 .0249692
968.655 .0249641
969.272 .0249592
969.887 .0249545
970.503 .0249498
971.118 .0249453
971.733 .0249408
972.347 .0249363
972.961 .0249318
973.575 .0249272
974.188 .0249224
974.801 .0249174
975.414 .0249122
976.026 .0249067
976.638 .0249010
977.250 .0248950
977.861 .0248889
978.472 .0248825
979.083 .0248760
979.693 .0248693
980.303 .0248624
980.912 .0248512
981.521 .0248439
982.130 .0248364
982.738 .0248287
983.346 .0248209
983.954 .0248131
984.562 .0248052
985.169 .0247975
985.775 .0247898
986.382 .0247823
986.988 .0247751
987.594 .0247682
988.199 .0247616
988.804 .0247555
989.409 .0247537
990.013 .0247483
990.617 .0247436
991.221 .0247394
991.824 .0247359
992.427 .0247330
993.030 .0247307
993.632 .0247289
994.234 .0247277
994.836 .0247269
995.438 .0247266
996.039 .0247267
996.640 .0247272
997.240 .0247280
997.840 .0247293
998.440 .0247309
999.040 .0247329
999.639 .0247351
1000.238 .0247375
1000.836 .0247400
1001.435 .0247426
1002.033 .0247452
1002.630 .0247478
1003.228 .0247505
1003.825 .0247532
1004.422 .0247560
1005.018 .0247588
1005.614 .0247616
1006.210 .0247643
1006.806 .0247668
1007.401 .0247693
1007.996 .0247716
1008.591 .0247738
1009.186 .0247759
1009.780 .0247781
1010.374 .0247802
1010.967 .0247826
1011.561 .0247850
1012.154 .0247877
1012.746 .0247906
1013.339 .0247936
1013.931 .0247968
1014.523 .0248001
1015.115 .0248037
1015.706 .0248075
1016.298 .0248117
1016.888 .0248163
1017.479 .0248214
1018.069 .0248270
1018.660 .0248332
1019.250 .0248401
1019.839 .0248474
1020.429 .0248553
1021.018 .0248636
1021.607 .0248723
1022.195 .0248815
1022.784 .0248911
1023.372 .0249011
1023.960 .0249115
1024.547 .0249224
1025.135 .0249337
1025.722 .0249454
1026.309 .0249574
1026.896 .0249696
1027.483 .0249819
1028.069 .0249942
1028.655 .0250064
1029.241 .0250184
1029.827 .0250302
1030.412 .0250418
1030.997 .0250532
1031.582 .0250645
1032.167 .0250755
1032.752 .0250862
1033.336 .0250968
1033.921 .0251071
1034.505 .0251169
1035.089 .0251264
1035.672 .0251353
1036.256 .0251436
1036.839 .0251513
1037.422 .0251583
1038.005 .0251648
1038.588 .0251707
1039.171 .0251762
1039.753 .0251812
1040.335 .0251859
1040.918 .0251902
1041.500 .0251941
1042.081 .0251977
1042.663 .0252010
1043.244 .0252040
1043.826 .0252068
1044.407 .0252096
1044.988 .0252124
1045.569 .0252154
1046.150 .0252185
1046.730 .0252220
1047.311 .0252257
1047.891 .0252297
1048.471 .0252340
1049.052 .0252384
1049.632 .0252430
1050.211 .0252478
1050.791 .0252527
1051.371 .0252577
1051.950 .0252629
1052.530 .0252682
1053.109 .0252736
1053.688 .0252791
1054.268 .0252846
1054.847 .0252901
1055.426 .0252955
1056.005 .0253008
1056.583 .0253060
1057.162 .0253110
1057.741 .0253160
1058.319 .0253209
1058.898 .0253256
1059.476 .0253302
1060.055 .0253344
1060.633 .0253383
1061.211 .0253417
1061.790 .0253445
1062.368 .0253467
1062.946 .0253483
1063.524 .0253492
1064.102 .0253496
1064.680 .0253493
1065.258 .0253486
1065.836 .0253474
1066.414 .0253457
1066.992 .0253437
1067.570 .0253413
1068.148 .0253386
1068.726 .0253357
1069.304 .0253329
1069.882 .0253301
1070.460 .0253275
1071.038 .0253253
1071.616 .0253234
1072.194 .0253219
1072.772 .0253206
1073.350 .0253196
1073.928 .0253187
1074.506 .0253179
1075.084 .0253173
1075.662 .0253169
1076.240 .0253166
1076.819 .0253166
1077.397 .0253167
1077.976 .0253170
1078.554 .0253172
1079.133 .0253174
1079.711 .0253173
1080.290 .0253169
1080.869 .0253162
1081.448 .0253151
1082.027 .0253138
1082.606 .0253122
1083.185 .0253105
1083.764 .0253087
1084.343 .0253068
1084.923 .0253048
1085.502 .0253027
1086.082 .0253005
1086.662 .0252981
1087.242 .0252958
1087.822 .0252934
1088.402 .0252913
1088.983 .0252896
1089.563 .0252885
1090.144 .0252881
1090.725 .0252886
1091.306 .0252901
1091.887 .0252925
1092.469 .0252957
1093.050 .0252996
1093.632 .0253042
1094.214 .0253094
1094.796 .0253152
1095.379 .0253215
1095.961 .0253285
1096.544 .0253359
1097.127 .0253440
1097.710 .0253525
1098.294 .0253615
1098.877 .0253710
1099.461 .0253810
1100.046 .0253915
1100.630 .0254025
1101.215 .0254140
1101.800 .0254260
1102.385 .0254384
1102.970 .0254514
1103.556 .0254651
1104.142 .0254795
1104.728 .0254948
1105.315 .0255112
1105.902 .0255288
1106.489 .0255477
1107.077 .0255678
1107.664 .0255892
1108.253 .0256116
1108.841 .0256347
1109.430 .0256584
1110.019 .0256828
1110.609 .0257077
1111.198 .0257334
1111.789 .0257601
1112.379 .0257879
1112.970 .0258171
1113.561 .0258477
1114.153 .0258799
1114.745 .0259135
1115.338 .0259486
1115.931 .0259851
1116.524 .0260229
1117.117 .0260621
1117.712 .0261029
1118.306 .0261455
1118.901 .0261901
1119.496 .0262368
1120.092 .0262855
1120.689 .0263362
1121.285 .0263886
1121.882 .0264428
1122.480 .0264983
1123.078 .0265552
1123.677 .0266135
1124.276 .0266728
1124.875 .0267335
1125.476 .0267958
1126.076 .0268600
1126.677 .0269262
1127.279 .0269947
1127.881 .0270657
1128.484 .0271391
1129.087 .0271696
1129.691 .0272467
1130.295 .0273266
1130.900 .0274098
1131.505 .0274965
1132.111 .0275875
1132.718 .0276832
1133.325 .0277843
1133.933 .0278906
1134.541 .0280023
1135.150 .0281264
1135.760 .0282487
1136.370 .0283811
1136.981 .0283724
1137.592 .0284930
1138.204 .0286172
1138.817 .0287519
1139.431 .0288999
1140.045 .0290630
1140.660 .0292369
1141.275 .0294312
1141.891 .0296187
1142.508 .0298191
1143.126 .0302218
1143.744 .0302347
1144.363 .0305849
1144.983 .0302125
