Measurement Sequence started on: 15-12-46-377
Integration time: 28
Scans to Average: 2 
>>>>>Begin Spectral Data<<<<<
432.689 .0000100
433.621 .0000100
434.552 .0000100
435.482 .0000100
436.410 .0000100
437.337 .0000100
438.262 .0274349
439.187 .0581099
440.110 .0962884
441.031 .1393249
441.952 .1114818
442.871 .1163757
443.789 .1209236
444.705 .1251989
445.621 .1292539
446.535 .1331296
447.447 .1354105
448.359 .1359486
449.269 .1343673
450.178 .1304237
451.086 .1241951
451.993 .1161590
452.898 .1071065
453.803 .0979373
454.706 .0894158
455.608 .0820184
456.508 .0759063
457.408 .0717857
458.306 .0686354
459.204 .0660890
460.100 .0639585
460.995 .0621373
461.888 .0605534
462.781 .0591564
463.673 .0579074
464.563 .0567813
465.452 .0557582
466.340 .0548226
467.228 .0539650
468.114 .0531777
468.999 .0524541
469.882 .0517885
470.765 .0511756
471.647 .0506110
472.528 .0500911
473.407 .0496123
474.286 .0491721
475.163 .0487691
476.040 .0484020
476.915 .0480695
477.790 .0477711
478.663 .0475062
479.535 .0472734
480.407 .0470717
481.277 .0468990
482.147 .0467531
483.015 .0466318
483.883 .0465329
484.749 .0464544
485.615 .0463955
486.479 .0463552
487.343 .0463325
488.206 .0463282
489.067 .0463420
489.928 .0463746
490.788 .0464267
491.647 .0464993
492.505 .0465925
493.362 .0467066
494.218 .0468414
495.073 .0469966
495.928 .0473029
496.781 .0475068
497.634 .0477297
498.486 .0479717
499.337 .0482332
500.187 .0485149
501.036 .0488187
501.884 .0491462
502.731 .0495001
503.578 .0498833
504.424 .0501325
505.268 .0505729
506.113 .0510545
506.956 .0515830
507.798 .0521650
508.640 .0528088
509.480 .0535251
510.320 .0543271
511.160 .0552290
511.998 .0562486
512.836 .0574052
513.672 .0587203
514.508 .0602183
515.344 .0619240
516.178 .0638628
517.012 .0660618
517.845 .0685447
518.677 .0713306
519.508 .0744364
520.339 .0778692
521.169 .0816290
521.998 .0856902
522.826 .0900132
523.654 .0945391
524.481 .0991913
525.307 .1038858
526.133 .1085246
526.958 .1130097
527.782 .1172465
528.605 .1211472
529.428 .1246373
530.250 .1276538
531.072 .1301533
531.892 .1321000
532.712 .1334702
533.532 .1342487
534.350 .1344258
535.168 .1340036
535.986 .1329897
536.802 .1313934
537.618 .1292303
538.434 .1265212
539.249 .1233078
540.063 .1196470
540.876 .1156079
541.689 .1112751
542.501 .1067371
543.313 .1020903
544.124 .0974295
544.934 .0928415
545.744 .0884045
546.553 .0841807
547.361 .0802193
548.169 .0765471
548.976 .0731802
549.783 .0701216
550.589 .0673635
551.395 .0648908
552.200 .0626783
553.004 .0606977
553.808 .0589214
554.611 .0573239
555.414 .0558813
556.216 .0545730
557.018 .0533780
557.819 .0522807
558.619 .0512672
559.419 .0503257
560.218 .0494494
561.017 .0486303
561.815 .0478629
562.613 .0471425
563.410 .0464636
564.207 .0458207
565.003 .0452086
565.799 .0446224
566.594 .0440576
567.388 .0435107
568.182 .0429786
568.976 .0424592
569.769 .0419520
570.562 .0414572
571.354 .0409744
572.145 .0405050
572.936 .0400494
573.727 .0396078
574.517 .0391807
575.307 .0387681
576.096 .0383698
576.885 .0379854
577.673 .0376149
578.461 .0372585
579.248 .0369158
580.035 .0365872
580.821 .0362729
581.607 .0359736
582.392 .0356896
583.177 .0354216
583.962 .0351699
584.746 .0349350
585.529 .0347168
586.313 .0345148
587.095 .0343282
587.878 .0341563
588.660 .0339977
589.441 .0338513
590.222 .0337161
591.003 .0335910
591.783 .0334749
592.563 .0333673
593.342 .0332675
594.121 .0331749
594.899 .0330890
595.678 .0330090
596.455 .0329345
597.233 .0328647
598.009 .0327988
598.786 .0327364
599.562 .0326767
600.338 .0326195
601.113 .0325644
601.888 .0324890
602.663 .0324386
603.437 .0323900
604.211 .0323433
604.984 .0322986
605.757 .0322555
606.530 .0322142
607.302 .0321744
608.074 .0321361
608.845 .0320992
609.616 .0320637
610.387 .0320486
611.158 .0320151
611.928 .0319828
612.697 .0319517
613.467 .0319218
614.236 .0318931
615.004 .0318655
615.773 .0318390
616.541 .0318136
617.308 .0317892
618.076 .0317657
618.843 .0317431
619.609 .0317212
620.375 .0316999
621.141 .0316791
621.907 .0316585
622.672 .0316381
623.437 .0316177
624.202 .0315971
624.966 .0315763
625.730 .0315553
626.493 .0315339
627.257 .0315121
628.020 .0314900
628.782 .0314676
629.545 .0314448
630.307 .0314217
631.068 .0313983
631.830 .0313746
632.591 .0313507
633.352 .0313266
634.112 .0313024
634.872 .0312782
635.632 .0312539
636.392 .0312297
637.151 .0312057
637.910 .0311818
638.668 .0311583
639.427 .0311352
640.185 .0311125
640.943 .0310903
641.700 .0310687
642.457 .0310477
643.214 .0310272
643.971 .0310072
644.727 .0309874
645.483 .0309679
646.239 .0309485
646.994 .0309292
647.750 .0309097
648.505 .0308901
649.259 .0308704
650.014 .0308505
650.768 .0308305
651.521 .0308103
652.275 .0307898
653.028 .0307691
653.781 .0307480
654.534 .0307265
655.286 .0307045
656.039 .0306822
656.791 .0306594
657.542 .0306363
658.294 .0306128
659.045 .0305892
659.796 .0305655
660.546 .0305418
661.297 .0305182
662.047 .0304946
662.796 .0304710
663.546 .0304476
664.295 .0304243
665.044 .0304012
665.793 .0303782
666.542 .0303554
667.290 .0303329
668.038 .0303106
668.786 .0302885
669.533 .0302667
670.281 .0302451
671.028 .0302238
671.774 .0302027
672.521 .0301819
673.267 .0301613
674.013 .0301409
674.759 .0301209
675.505 .0301011
676.250 .0300816
676.995 .0300623
677.740 .0300432
678.484 .0300243
679.229 .0300056
679.973 .0299870
680.717 .0299685
681.460 .0299503
682.204 .0299321
682.947 .0299141
683.690 .0298962
684.433 .0298783
685.175 .0298605
685.917 .0298427
686.659 .0298248
687.401 .0298069
688.142 .0297889
688.884 .0297709
689.625 .0297528
690.365 .0297348
691.106 .0297167
691.846 .0296985
692.586 .0296801
693.326 .0296614
694.066 .0296424
694.805 .0296231
695.545 .0296036
696.284 .0295838
697.022 .0295639
697.761 .0295439
698.499 .0295240
699.237 .0295041
699.975 .0294843
700.713 .0294646
701.450 .0294449
702.187 .0294253
702.924 .0294057
703.661 .0293862
704.397 .0293669
705.133 .0293477
705.869 .0293287
706.605 .0293100
707.341 .0292916
708.076 .0292734
708.811 .0292554
709.546 .0292376
710.281 .0292199
711.015 .0292024
711.749 .0291850
712.483 .0291678
713.217 .0291507
713.950 .0291337
714.684 .0291169
715.417 .0291001
716.150 .0290835
716.882 .0290668
717.615 .0290502
718.347 .0290336
719.079 .0290169
719.811 .0290003
720.542 .0289836
721.273 .0289670
722.005 .0289504
722.735 .0289338
723.466 .0289174
724.196 .0289011
724.927 .0288849
725.656 .0288691
726.386 .0288535
727.116 .0288383
727.845 .0288234
728.574 .0288089
729.303 .0287948
730.031 .0287811
730.760 .0287678
731.488 .0287549
732.216 .0287425
732.944 .0287304
733.671 .0287186
734.398 .0287073
735.125 .0286964
735.852 .0286858
736.579 .0286755
737.305 .0286656
738.031 .0286559
738.757 .0286462
739.483 .0286367
740.208 .0286273
740.933 .0286179
741.658 .0286085
742.383 .0285992
743.108 .0285899
743.832 .0285808
744.556 .0285717
745.280 .0285627
746.004 .0285537
746.727 .0285447
747.450 .0285355
748.173 .0285261
748.896 .0285166
749.618 .0285068
750.340 .0284968
751.062 .0284866
751.784 .0284763
752.506 .0284657
753.227 .0284549
753.948 .0284440
754.669 .0284329
755.389 .0284215
756.110 .0284099
756.830 .0283979
757.550 .0283856
758.269 .0283730
758.989 .0283601
759.708 .0283470
760.427 .0283336
761.146 .0283199
761.864 .0283060
762.582 .0282919
763.300 .0282777
764.018 .0282634
764.736 .0282490
765.453 .0282346
766.170 .0282201
766.887 .0282056
767.603 .0281911
768.320 .0281768
769.036 .0281627
769.751 .0281488
770.467 .0281352
771.182 .0281219
771.897 .0281090
772.612 .0280965
773.327 .0280843
774.041 .0280724
774.755 .0280608
775.469 .0280494
776.183 .0280382
776.896 .0280273
777.609 .0280167
778.322 .0280063
779.035 .0279962
779.747 .0279864
780.459 .0279767
781.171 .0279672
781.882 .0279579
782.594 .0279487
783.305 .0279396
784.016 .0279305
784.726 .0279215
785.436 .0279124
786.147 .0278989
786.856 .0278898
787.566 .0278806
788.275 .0278713
788.984 .0278619
789.693 .0278525
790.401 .0278432
791.110 .0278338
791.818 .0278244
792.525 .0278150
793.233 .0278055
793.940 .0277958
794.647 .0277902
795.353 .0277801
796.060 .0277696
796.766 .0277589
797.472 .0277479
798.177 .0277365
798.883 .0277250
799.588 .0277131
800.292 .0277010
800.997 .0276885
801.701 .0276757
802.405 .0276624
803.109 .0276487
803.812 .0276344
804.515 .0276196
805.218 .0276043
805.921 .0275883
806.623 .0275717
807.325 .0275545
808.027 .0275368
808.728 .0275185
809.429 .0274998
810.130 .0274806
810.831 .0274612
811.531 .0274414
812.231 .0274215
812.931 .0274013
813.630 .0273811
814.330 .0273607
815.029 .0273404
815.727 .0273201
816.426 .0273001
817.124 .0272805
817.821 .0272613
818.519 .0272428
819.216 .0272250
819.913 .0272080
820.609 .0271919
821.306 .0271767
822.002 .0271623
822.697 .0271488
823.393 .0271361
824.088 .0271243
824.783 .0271133
825.477 .0271031
826.171 .0270935
826.865 .0270846
827.559 .0270763
828.252 .0270685
828.945 .0270612
829.638 .0270544
830.330 .0270480
831.023 .0270419
831.714 .0270361
832.406 .0270307
833.097 .0270254
833.788 .0270203
834.479 .0270153
835.169 .0270103
835.859 .0270053
836.548 .0270001
837.238 .0269949
837.927 .0269895
838.615 .0269840
839.304 .0269784
839.992 .0269726
840.680 .0269667
841.367 .0269607
842.054 .0269545
842.741 .0269483
843.428 .0269419
844.114 .0269354
844.800 .0269286
845.485 .0269217
846.170 .0269146
846.855 .0269072
847.540 .0268997
848.224 .0268920
848.908 .0268841
849.592 .0268760
850.275 .0268678
850.958 .0268592
851.641 .0268504
852.323 .0268413
853.005 .0268319
853.687 .0268222
854.368 .0268121
855.049 .0268018
855.730 .0267913
856.410 .0267806
857.090 .0267698
857.769 .0267588
858.449 .0267476
859.128 .0267362
859.806 .0267247
860.485 .0267131
861.163 .0267015
861.840 .0266900
862.518 .0266785
863.195 .0266673
863.871 .0266563
864.548 .0266454
865.224 .0266348
865.899 .0266242
866.574 .0266138
867.249 .0266035
867.924 .0265932
868.598 .0265831
869.272 .0265732
869.946 .0265635
870.619 .0265541
871.292 .0265450
871.964 .0265363
872.636 .0265279
873.308 .0265200
873.979 .0265126
874.651 .0265057
875.321 .0264994
875.992 .0264936
876.662 .0264885
877.331 .0264839
878.001 .0264799
878.670 .0264764
879.338 .0264734
880.007 .0264708
880.675 .0264687
881.342 .0264670
882.009 .0264657
882.676 .0264650
883.343 .0264646
884.009 .0264648
884.675 .0264654
885.340 .0264665
886.005 .0264680
886.670 .0264698
887.334 .0264719
887.998 .0264742
888.662 .0264767
889.325 .0264794
889.988 .0264823
890.650 .0264853
891.312 .0264885
891.974 .0264917
892.636 .0264950
893.297 .0264983
893.957 .0265016
894.618 .0265046
895.278 .0265075
895.937 .0265101
896.596 .0265123
897.255 .0265140
897.914 .0265152
898.572 .0265157
899.230 .0265155
899.887 .0265144
900.544 .0265124
901.201 .0265094
901.857 .0265003
902.513 .0264946
903.168 .0264881
903.823 .0264806
904.478 .0264721
905.132 .0264627
905.786 .0264522
906.440 .0264408
907.093 .0264283
907.746 .0264149
908.399 .0264006
909.051 .0263856
909.703 .0263698
910.354 .0263606
911.005 .0263444
911.656 .0263278
912.306 .0263108
912.956 .0262935
913.605 .0262760
914.254 .0262581
914.903 .0262401
915.551 .0262220
916.199 .0262038
916.847 .0261855
917.494 .0261672
918.141 .0261489
918.788 .0261305
919.434 .0261121
920.079 .0260936
920.725 .0260749
921.370 .0260561
922.014 .0260370
922.658 .0260178
923.302 .0259983
923.946 .0259786
924.589 .0259587
925.231 .0259387
925.873 .0259185
926.515 .0258980
927.157 .0258774
927.798 .0258567
928.439 .0258357
929.079 .0258147
929.719 .0257934
930.359 .0257721
930.998 .0257508
931.637 .0257295
932.275 .0257083
932.913 .0256872
933.551 .0256664
934.188 .0256460
934.825 .0256260
935.462 .0256065
936.098 .0255874
936.733 .0255689
937.369 .0255509
938.004 .0255333
938.638 .0255163
939.273 .0254998
939.907 .0254838
940.540 .0254685
941.173 .0254537
941.806 .0254395
942.438 .0254259
943.070 .0254129
943.702 .0254003
944.333 .0253881
944.964 .0253762
945.594 .0253645
946.224 .0253530
946.854 .0253415
947.483 .0253301
948.112 .0253187
948.741 .0253073
949.369 .0252959
949.996 .0252846
950.624 .0252731
951.251 .0252615
951.878 .0252498
952.504 .0252379
953.130 .0252258
953.755 .0252136
954.380 .0252012
955.005 .0251888
955.629 .0251762
956.253 .0251636
956.877 .0251509
957.500 .0251381
958.123 .0251251
958.746 .0251121
959.368 .0250989
959.990 .0250858
960.611 .0250727
961.232 .0250597
961.853 .0250469
962.473 .0250342
963.093 .0250218
963.712 .0250097
964.331 .0249977
964.950 .0249860
965.569 .0249745
966.187 .0249633
966.804 .0249522
967.422 .0249415
968.039 .0249310
968.655 .0249206
969.272 .0249104
969.887 .0249003
970.503 .0248902
971.118 .0248801
971.733 .0248698
972.347 .0248594
972.961 .0248489
973.575 .0248382
974.188 .0248273
974.801 .0248162
975.414 .0248047
976.026 .0247930
976.638 .0247808
977.250 .0247682
977.861 .0247550
978.472 .0247414
979.083 .0247274
979.693 .0247129
980.303 .0246981
980.912 .0246740
981.521 .0246585
982.130 .0246427
982.738 .0246266
983.346 .0246103
983.954 .0245937
984.562 .0245771
985.169 .0245605
985.775 .0245441
986.382 .0245280
986.988 .0245124
987.594 .0244973
988.199 .0244827
988.804 .0244687
989.409 .0244639
990.013 .0244510
990.617 .0244389
991.221 .0244274
991.824 .0244167
992.427 .0244067
993.030 .0243976
993.632 .0243894
994.234 .0243820
994.836 .0243755
995.438 .0243698
996.039 .0243648
996.640 .0243606
997.240 .0243569
997.840 .0243539
998.440 .0243515
999.040 .0243497
999.639 .0243483
1000.238 .0243475
1000.836 .0243472
1001.435 .0243473
1002.033 .0243478
1002.630 .0243486
1003.228 .0243496
1003.825 .0243508
1004.422 .0243522
1005.018 .0243536
1005.614 .0243551
1006.210 .0243567
1006.806 .0243584
1007.401 .0243601
1007.996 .0243619
1008.591 .0243639
1009.186 .0243660
1009.780 .0243682
1010.374 .0243706
1010.967 .0243731
1011.561 .0243758
1012.154 .0243786
1012.746 .0243816
1013.339 .0243849
1013.931 .0243886
1014.523 .0243927
1015.115 .0243973
1015.706 .0244023
1016.298 .0244079
1016.888 .0244140
1017.479 .0244206
1018.069 .0244278
1018.660 .0244354
1019.250 .0244436
1019.839 .0244524
1020.429 .0244617
1021.018 .0244717
1021.607 .0244823
1022.195 .0244934
1022.784 .0245052
1023.372 .0245174
1023.960 .0245300
1024.547 .0245430
1025.135 .0245563
1025.722 .0245700
1026.309 .0245839
1026.896 .0245982
1027.483 .0246129
1028.069 .0246278
1028.655 .0246431
1029.241 .0246584
1029.827 .0246738
1030.412 .0246890
1030.997 .0247041
1031.582 .0247189
1032.167 .0247334
1032.752 .0247476
1033.336 .0247617
1033.921 .0247755
1034.505 .0247891
1035.089 .0248025
1035.672 .0248156
1036.256 .0248284
1036.839 .0248408
1037.422 .0248528
1038.005 .0248643
1038.588 .0248754
1039.171 .0248863
1039.753 .0248969
1040.335 .0249075
1040.918 .0249180
1041.500 .0249285
1042.081 .0249391
1042.663 .0249495
1043.244 .0249598
1043.826 .0249699
1044.407 .0249797
1044.988 .0249891
1045.569 .0249983
1046.150 .0250071
1046.730 .0250157
1047.311 .0250242
1047.891 .0250324
1048.471 .0250406
1049.052 .0250486
1049.632 .0250565
1050.211 .0250642
1050.791 .0250717
1051.371 .0250792
1051.950 .0250866
1052.530 .0250939
1053.109 .0251012
1053.688 .0251083
1054.268 .0251155
1054.847 .0251227
1055.426 .0251298
1056.005 .0251369
1056.583 .0251440
1057.162 .0251511
1057.741 .0251582
1058.319 .0251654
1058.898 .0251727
1059.476 .0251800
1060.055 .0251875
1060.633 .0251950
1061.211 .0252027
1061.790 .0252105
1062.368 .0252187
1062.946 .0252271
1063.524 .0252360
1064.102 .0252452
1064.680 .0252549
1065.258 .0252649
1065.836 .0252752
1066.414 .0252857
1066.992 .0252961
1067.570 .0253065
1068.148 .0253167
1068.726 .0253267
1069.304 .0253365
1069.882 .0253461
1070.460 .0253555
1071.038 .0253647
1071.616 .0253736
1072.194 .0253821
1072.772 .0253900
1073.350 .0253972
1073.928 .0254035
1074.506 .0254088
1075.084 .0254132
1075.662 .0254168
1076.240 .0254197
1076.819 .0254220
1077.397 .0254240
1077.976 .0254256
1078.554 .0254271
1079.133 .0254283
1079.711 .0254292
1080.290 .0254299
1080.869 .0254305
1081.448 .0254308
1082.027 .0254312
1082.606 .0254320
1083.185 .0254333
1083.764 .0254356
1084.343 .0254389
1084.923 .0254435
1085.502 .0254493
1086.082 .0254564
1086.662 .0254647
1087.242 .0254741
1087.822 .0254846
1088.402 .0254962
1088.983 .0255089
1089.563 .0255227
1090.144 .0255379
1090.725 .0255543
1091.306 .0255722
1091.887 .0255913
1092.469 .0256115
1093.050 .0256326
1093.632 .0256546
1094.214 .0256774
1094.796 .0257006
1095.379 .0257244
1095.961 .0257486
1096.544 .0257732
1097.127 .0257982
1097.710 .0258235
1098.294 .0258492
1098.877 .0258752
1099.461 .0259013
1100.046 .0259276
1100.630 .0259539
1101.215 .0259799
1101.800 .0260056
1102.385 .0260308
1102.970 .0260554
1103.556 .0260794
1104.142 .0261028
1104.728 .0261258
1105.315 .0261487
1105.902 .0261718
1106.489 .0261954
1107.077 .0262198
1107.664 .0262452
1108.253 .0262715
1108.841 .0262989
1109.430 .0263272
1110.019 .0263564
1110.609 .0263866
1111.198 .0264177
1111.789 .0264501
1112.379 .0264838
1112.970 .0265191
1113.561 .0265561
1114.153 .0265947
1114.745 .0266346
1115.338 .0266754
1115.931 .0267167
1116.524 .0267580
1117.117 .0267990
1117.712 .0268394
1118.306 .0268795
1118.901 .0269194
1119.496 .0269595
1120.092 .0270001
1120.689 .0270417
1121.285 .0270844
1121.882 .0271282
1122.480 .0271728
1123.078 .0272180
1123.677 .0272637
1124.276 .0273094
1124.875 .0273551
1125.476 .0274011
1126.076 .0274476
1126.677 .0274950
1127.279 .0275436
1127.881 .0275936
1128.484 .0276453
1129.087 .0276681
1129.691 .0277212
1130.295 .0277757
1130.900 .0278315
1131.505 .0278889
1132.111 .0279482
1132.718 .0280101
1133.325 .0280758
1133.933 .0281464
1134.541 .0282190
1135.150 .0282963
1135.760 .0283878
1136.370 .0284888
1136.981 .0284470
1137.592 .0285518
1138.204 .0286573
1138.817 .0287607
1139.431 .0288695
1140.045 .0289784
1140.660 .0291000
1141.275 .0292384
1141.891 .0294045
1142.508 .0294752
1143.126 .0296251
1143.744 .0300345
1144.363 .0303259
1144.983 .0307230
