Measurement Sequence started on: 15-12-46-377
Integration time: 28
Scans to Average: 2 
>>>>>Begin Spectral Data<<<<<
432.689 .0000100
433.621 .0000100
434.552 .0000100
435.482 .0000100
436.410 .0000100
437.337 .0000100
438.262 .0261954
439.187 .0554800
440.110 .0918997
441.031 .1329968
441.952 .1064981
442.871 .1111777
443.789 .1155274
444.705 .1196210
445.621 .1235086
446.535 .1272297
447.447 .1294325
448.359 .1299755
449.269 .1285002
450.178 .1247719
451.086 .1188608
451.993 .1112222
452.898 .1026084
453.803 .0938773
454.706 .0857574
455.608 .0787039
456.508 .0728715
457.408 .0689364
458.306 .0659253
459.204 .0634886
460.100 .0614488
460.995 .0597052
461.888 .0581858
462.781 .0568433
463.673 .0556401
464.563 .0545516
465.452 .0535584
466.340 .0526466
467.228 .0518068
468.114 .0510331
468.999 .0503206
469.882 .0496661
470.765 .0490656
471.647 .0485170
472.528 .0480166
473.407 .0475614
474.286 .0471480
475.163 .0467729
476.040 .0464321
476.915 .0461230
477.790 .0458422
478.663 .0455876
479.535 .0453570
480.407 .0451485
481.277 .0449605
482.147 .0447917
483.015 .0446402
483.883 .0445050
484.749 .0443853
485.615 .0442805
486.479 .0441896
487.343 .0441126
488.206 .0440496
489.067 .0440004
489.928 .0439660
490.788 .0439469
491.647 .0439446
492.505 .0439608
493.362 .0439970
494.218 .0440553
495.073 .0441381
495.928 .0443584
496.781 .0445106
497.634 .0446917
498.486 .0449021
499.337 .0451428
500.187 .0454147
501.036 .0457185
501.884 .0460557
502.731 .0464294
503.578 .0468422
504.424 .0471327
505.268 .0476155
506.113 .0481468
506.956 .0487301
507.798 .0493697
508.640 .0500713
509.480 .0508419
510.320 .0516903
511.160 .0526271
511.998 .0536656
512.836 .0548221
513.672 .0561141
514.508 .0575616
515.344 .0591867
516.178 .0610125
517.012 .0630623
517.845 .0653587
518.677 .0679225
519.508 .0707728
520.339 .0739223
521.169 .0773775
521.998 .0811223
522.826 .0851270
523.654 .0893442
524.481 .0937101
525.307 .0981494
526.133 .1025716
526.958 .1068819
527.782 .1109878
528.605 .1148030
529.428 .1182498
530.250 .1212618
531.072 .1237947
531.892 .1258133
532.712 .1272932
533.532 .1282199
534.350 .1285873
535.168 .1283982
535.986 .1276586
536.802 .1263745
537.618 .1245532
538.434 .1222079
539.249 .1193708
540.063 .1160866
540.876 .1124137
541.689 .1084238
542.501 .1041984
543.313 .0998288
544.124 .0954088
544.934 .0910260
545.744 .0867593
546.553 .0826766
547.361 .0788320
548.169 .0752558
548.976 .0719674
549.783 .0689725
550.589 .0662649
551.395 .0638284
552.200 .0616390
553.004 .0596693
553.808 .0578934
554.611 .0562880
555.414 .0548309
556.216 .0535017
557.018 .0522816
557.819 .0511562
558.619 .0501130
559.419 .0491416
560.218 .0482345
561.017 .0473844
561.815 .0465862
562.613 .0458353
563.410 .0451265
564.207 .0444550
565.003 .0438163
565.799 .0432053
566.594 .0426175
567.388 .0420502
568.182 .0415011
568.976 .0409678
569.769 .0404493
570.562 .0399452
571.354 .0394557
572.145 .0389807
572.936 .0385206
573.727 .0380758
574.517 .0376467
575.307 .0372333
576.096 .0368353
576.885 .0364530
577.673 .0360866
578.461 .0357364
579.248 .0354026
580.035 .0350856
580.821 .0347853
581.607 .0345020
582.392 .0342357
583.177 .0339869
583.962 .0337549
584.746 .0335396
585.529 .0333406
586.313 .0331575
587.095 .0329893
587.878 .0328354
588.660 .0326948
589.441 .0325666
590.222 .0324498
591.003 .0323433
591.783 .0322464
592.563 .0321583
593.342 .0320780
594.121 .0320049
594.899 .0319381
595.678 .0318768
596.455 .0318202
597.233 .0317676
598.009 .0317184
598.786 .0316719
599.562 .0316276
600.338 .0315850
601.113 .0315439
601.888 .0314857
602.663 .0314474
603.437 .0314103
604.211 .0313741
604.984 .0313390
605.757 .0313048
606.530 .0312716
607.302 .0312393
608.074 .0312079
608.845 .0311774
609.616 .0311478
610.387 .0311356
611.158 .0311074
611.928 .0310802
612.697 .0310541
613.467 .0310292
614.236 .0310054
615.004 .0309828
615.773 .0309611
616.541 .0309403
617.308 .0309202
618.076 .0309005
618.843 .0308812
619.609 .0308622
620.375 .0308434
621.141 .0308247
621.907 .0308061
622.672 .0307876
623.437 .0307691
624.202 .0307506
624.966 .0307319
625.730 .0307128
626.493 .0306933
627.257 .0306731
628.020 .0306523
628.782 .0306307
629.545 .0306084
630.307 .0305853
631.068 .0305615
631.830 .0305370
632.591 .0305119
633.352 .0304863
634.112 .0304602
634.872 .0304338
635.632 .0304072
636.392 .0303804
637.151 .0303535
637.910 .0303265
638.668 .0302995
639.427 .0302725
640.185 .0302456
640.943 .0302187
641.700 .0301920
642.457 .0301657
643.214 .0301398
643.971 .0301144
644.727 .0300897
645.483 .0300657
646.239 .0300424
646.994 .0300197
647.750 .0299974
648.505 .0299756
649.259 .0299540
650.014 .0299326
650.768 .0299114
651.521 .0298902
652.275 .0298692
653.028 .0298482
653.781 .0298272
654.534 .0298062
655.286 .0297850
656.039 .0297635
656.791 .0297418
657.542 .0297198
658.294 .0296975
659.045 .0296750
659.796 .0296525
660.546 .0296299
661.297 .0296075
662.047 .0295853
662.796 .0295634
663.546 .0295417
664.295 .0295203
665.044 .0294995
665.793 .0294791
666.542 .0294594
667.290 .0294404
668.038 .0294223
668.786 .0294051
669.533 .0293887
670.281 .0293733
671.028 .0293586
671.774 .0293448
672.521 .0293317
673.267 .0293192
674.013 .0293074
674.759 .0292962
675.505 .0292854
676.250 .0292750
676.995 .0292650
677.740 .0292552
678.484 .0292455
679.229 .0292359
679.973 .0292264
680.717 .0292169
681.460 .0292074
682.204 .0291979
682.947 .0291882
683.690 .0291784
684.433 .0291684
685.175 .0291580
685.917 .0291472
686.659 .0291361
687.401 .0291245
688.142 .0291125
688.884 .0291001
689.625 .0290874
690.365 .0290743
691.106 .0290610
691.846 .0290473
692.586 .0290333
693.326 .0290188
694.066 .0290040
694.805 .0289887
695.545 .0289729
696.284 .0289567
697.022 .0289400
697.761 .0289229
698.499 .0289053
699.237 .0288873
699.975 .0288689
700.713 .0288503
701.450 .0288314
702.187 .0288123
702.924 .0287930
703.661 .0287736
704.397 .0287541
705.133 .0287346
705.869 .0287149
706.605 .0286952
707.341 .0286755
708.076 .0286558
708.811 .0286362
709.546 .0286167
710.281 .0285975
711.015 .0285784
711.749 .0285596
712.483 .0285410
713.217 .0285225
713.950 .0285040
714.684 .0284856
715.417 .0284672
716.150 .0284487
716.882 .0284300
717.615 .0284112
718.347 .0283923
719.079 .0283731
719.811 .0283539
720.542 .0283345
721.273 .0283151
722.005 .0282956
722.735 .0282762
723.466 .0282568
724.196 .0282375
724.927 .0282185
725.656 .0281997
726.386 .0281811
727.116 .0281628
727.845 .0281449
728.574 .0281274
729.303 .0281104
730.031 .0280939
730.760 .0280780
731.488 .0280628
732.216 .0280483
732.944 .0280346
733.671 .0280216
734.398 .0280094
735.125 .0279978
735.852 .0279868
736.579 .0279764
737.305 .0279665
738.031 .0279570
738.757 .0279480
739.483 .0279394
740.208 .0279312
740.933 .0279233
741.658 .0279158
742.383 .0279085
743.108 .0279014
743.832 .0278945
744.556 .0278876
745.280 .0278808
746.004 .0278739
746.727 .0278670
747.450 .0278600
748.173 .0278530
748.896 .0278458
749.618 .0278385
750.340 .0278311
751.062 .0278237
751.784 .0278161
752.506 .0278084
753.227 .0278007
753.948 .0277928
754.669 .0277847
755.389 .0277765
756.110 .0277680
756.830 .0277592
757.550 .0277502
758.269 .0277408
758.989 .0277311
759.708 .0277211
760.427 .0277107
761.146 .0277000
761.864 .0276889
762.582 .0276775
763.300 .0276657
764.018 .0276536
764.736 .0276413
765.453 .0276287
766.170 .0276161
766.887 .0276034
767.603 .0275907
768.320 .0275782
769.036 .0275658
769.751 .0275537
770.467 .0275420
771.182 .0275307
771.897 .0275199
772.612 .0275098
773.327 .0275002
774.041 .0274914
774.755 .0274832
775.469 .0274756
776.183 .0274688
776.896 .0274625
777.609 .0274568
778.322 .0274517
779.035 .0274471
779.747 .0274430
780.459 .0274392
781.171 .0274357
781.882 .0274323
782.594 .0274290
783.305 .0274257
784.016 .0274221
784.726 .0274183
785.436 .0274142
786.147 .0274060
786.856 .0274007
787.566 .0273949
788.275 .0273886
788.984 .0273818
789.693 .0273744
790.401 .0273664
791.110 .0273577
791.818 .0273486
792.525 .0273388
793.233 .0273285
793.940 .0273176
794.647 .0273111
795.353 .0272996
796.060 .0272876
796.766 .0272752
797.472 .0272623
798.177 .0272489
798.883 .0272351
799.588 .0272209
800.292 .0272063
800.997 .0271912
801.701 .0271757
802.405 .0271597
803.109 .0271433
803.812 .0271265
804.515 .0271091
805.218 .0270913
805.921 .0270729
806.623 .0270540
807.325 .0270347
808.027 .0270148
808.728 .0269945
809.429 .0269738
810.130 .0269527
810.831 .0269313
811.531 .0269097
812.231 .0268878
812.931 .0268657
813.630 .0268436
814.330 .0268214
815.029 .0267994
815.727 .0267776
816.426 .0267562
817.124 .0267351
817.821 .0267147
818.519 .0266948
819.216 .0266755
819.913 .0266569
820.609 .0266389
821.306 .0266218
822.002 .0266054
822.697 .0265898
823.393 .0265752
824.088 .0265615
824.783 .0265488
825.477 .0265371
826.171 .0265262
826.865 .0265162
827.559 .0265069
828.252 .0264984
828.945 .0264905
829.638 .0264832
830.330 .0264766
831.023 .0264705
831.714 .0264649
832.406 .0264598
833.097 .0264551
833.788 .0264507
834.479 .0264464
835.169 .0264423
835.859 .0264382
836.548 .0264342
837.238 .0264302
837.927 .0264261
838.615 .0264222
839.304 .0264181
839.992 .0264141
840.680 .0264100
841.367 .0264057
842.054 .0264013
842.741 .0263967
843.428 .0263919
844.114 .0263869
844.800 .0263817
845.485 .0263763
846.170 .0263707
846.855 .0263648
847.540 .0263587
848.224 .0263524
848.908 .0263457
849.592 .0263388
850.275 .0263315
850.958 .0263240
851.641 .0263161
852.323 .0263081
853.005 .0262997
853.687 .0262912
854.368 .0262825
855.049 .0262736
855.730 .0262645
856.410 .0262552
857.090 .0262457
857.769 .0262361
858.449 .0262264
859.128 .0262165
859.806 .0262066
860.485 .0261966
861.163 .0261867
861.840 .0261768
862.518 .0261670
863.195 .0261574
863.871 .0261479
864.548 .0261386
865.224 .0261295
865.899 .0261205
866.574 .0261117
867.249 .0261031
867.924 .0260949
868.598 .0260870
869.272 .0260795
869.946 .0260725
870.619 .0260660
871.292 .0260599
871.964 .0260543
872.636 .0260491
873.308 .0260443
873.979 .0260399
874.651 .0260359
875.321 .0260323
875.992 .0260293
876.662 .0260269
877.331 .0260250
878.001 .0260237
878.670 .0260229
879.338 .0260226
880.007 .0260227
880.675 .0260233
881.342 .0260241
882.009 .0260254
882.676 .0260269
883.343 .0260287
884.009 .0260308
884.675 .0260331
885.340 .0260355
886.005 .0260380
886.670 .0260404
887.334 .0260428
887.998 .0260450
888.662 .0260471
889.325 .0260491
889.988 .0260509
890.650 .0260525
891.312 .0260540
891.974 .0260554
892.636 .0260564
893.297 .0260572
893.957 .0260576
894.618 .0260576
895.278 .0260571
895.937 .0260559
896.596 .0260542
897.255 .0260519
897.914 .0260489
898.572 .0260453
899.230 .0260409
899.887 .0260358
900.544 .0260299
901.201 .0260230
901.857 .0260089
902.513 .0259995
903.168 .0259891
903.823 .0259777
904.478 .0259654
905.132 .0259523
905.786 .0259385
906.440 .0259239
907.093 .0259088
907.746 .0258929
908.399 .0258764
909.051 .0258593
909.703 .0258416
910.354 .0258313
911.005 .0258129
911.656 .0257941
912.306 .0257748
912.956 .0257552
913.605 .0257354
914.254 .0257153
914.903 .0256950
915.551 .0256745
916.199 .0256538
916.847 .0256327
917.494 .0256114
918.141 .0255899
918.788 .0255680
919.434 .0255460
920.079 .0255239
920.725 .0255016
921.370 .0254793
922.014 .0254570
922.658 .0254345
923.302 .0254119
923.946 .0253891
924.589 .0253662
925.231 .0253431
925.873 .0253200
926.515 .0252967
927.157 .0252735
927.798 .0252503
928.439 .0252272
929.079 .0252043
929.719 .0251816
930.359 .0251590
930.998 .0251367
931.637 .0251145
932.275 .0250927
932.913 .0250713
933.551 .0250504
934.188 .0250301
934.825 .0250104
935.462 .0249914
936.098 .0249731
936.733 .0249555
937.369 .0249386
938.004 .0249224
938.638 .0249068
939.273 .0248919
939.907 .0248777
940.540 .0248641
941.173 .0248512
941.806 .0248388
942.438 .0248270
943.070 .0248156
943.702 .0248045
944.333 .0247937
944.964 .0247830
945.594 .0247723
946.224 .0247617
946.854 .0247510
947.483 .0247403
948.112 .0247295
948.741 .0247187
949.369 .0247077
949.996 .0246965
950.624 .0246851
951.251 .0246735
951.878 .0246617
952.504 .0246496
953.130 .0246374
953.755 .0246250
954.380 .0246126
955.005 .0246001
955.629 .0245875
956.253 .0245750
956.877 .0245623
957.500 .0245496
958.123 .0245369
958.746 .0245242
959.368 .0245116
959.990 .0244991
960.611 .0244868
961.232 .0244748
961.853 .0244631
962.473 .0244517
963.093 .0244407
963.712 .0244301
964.331 .0244199
964.950 .0244101
965.569 .0244007
966.187 .0243917
966.804 .0243832
967.422 .0243751
968.039 .0243675
968.655 .0243604
969.272 .0243538
969.887 .0243477
970.503 .0243421
971.118 .0243368
971.733 .0243320
972.347 .0243275
972.961 .0243233
973.575 .0243193
974.188 .0243156
974.801 .0243119
975.414 .0243084
976.026 .0243049
976.638 .0243015
977.250 .0242981
977.861 .0242947
978.472 .0242912
979.083 .0242876
979.693 .0242839
980.303 .0242799
980.912 .0242727
981.521 .0242679
982.130 .0242628
982.738 .0242575
983.346 .0242521
983.954 .0242467
984.562 .0242413
985.169 .0242360
985.775 .0242310
986.382 .0242261
986.988 .0242214
987.594 .0242169
988.199 .0242127
988.804 .0242087
989.409 .0242080
990.013 .0242048
990.617 .0242022
991.221 .0242002
991.824 .0241988
992.427 .0241980
993.030 .0241979
993.632 .0241983
994.234 .0241992
994.836 .0242005
995.438 .0242024
996.039 .0242047
996.640 .0242077
997.240 .0242113
997.840 .0242156
998.440 .0242208
999.040 .0242267
999.639 .0242332
1000.238 .0242403
1000.836 .0242478
1001.435 .0242556
1002.033 .0242637
1002.630 .0242718
1003.228 .0242801
1003.825 .0242886
1004.422 .0242971
1005.018 .0243059
1005.614 .0243147
1006.210 .0243235
1006.806 .0243322
1007.401 .0243407
1007.996 .0243490
1008.591 .0243569
1009.186 .0243646
1009.780 .0243721
1010.374 .0243795
1010.967 .0243869
1011.561 .0243946
1012.154 .0244026
1012.746 .0244110
1013.339 .0244196
1013.931 .0244286
1014.523 .0244378
1015.115 .0244473
1015.706 .0244569
1016.298 .0244668
1016.888 .0244770
1017.479 .0244874
1018.069 .0244982
1018.660 .0245093
1019.250 .0245207
1019.839 .0245323
1020.429 .0245440
1021.018 .0245557
1021.607 .0245675
1022.195 .0245792
1022.784 .0245908
1023.372 .0246025
1023.960 .0246142
1024.547 .0246259
1025.135 .0246377
1025.722 .0246495
1026.309 .0246613
1026.896 .0246730
1027.483 .0246846
1028.069 .0246961
1028.655 .0247073
1029.241 .0247183
1029.827 .0247291
1030.412 .0247395
1030.997 .0247497
1031.582 .0247595
1032.167 .0247688
1032.752 .0247777
1033.336 .0247861
1033.921 .0247938
1034.505 .0248009
1035.089 .0248074
1035.672 .0248133
1036.256 .0248187
1036.839 .0248236
1037.422 .0248280
1038.005 .0248319
1038.588 .0248353
1039.171 .0248383
1039.753 .0248407
1040.335 .0248428
1040.918 .0248445
1041.500 .0248459
1042.081 .0248471
1042.663 .0248482
1043.244 .0248492
1043.826 .0248503
1044.407 .0248513
1044.988 .0248522
1045.569 .0248529
1046.150 .0248534
1046.730 .0248537
1047.311 .0248538
1047.891 .0248538
1048.471 .0248537
1049.052 .0248536
1049.632 .0248537
1050.211 .0248539
1050.791 .0248543
1051.371 .0248549
1051.950 .0248556
1052.530 .0248564
1053.109 .0248573
1053.688 .0248581
1054.268 .0248590
1054.847 .0248600
1055.426 .0248610
1056.005 .0248621
1056.583 .0248634
1057.162 .0248649
1057.741 .0248666
1058.319 .0248684
1058.898 .0248703
1059.476 .0248720
1060.055 .0248734
1060.633 .0248745
1061.211 .0248751
1061.790 .0248751
1062.368 .0248745
1062.946 .0248735
1063.524 .0248719
1064.102 .0248699
1064.680 .0248677
1065.258 .0248651
1065.836 .0248622
1066.414 .0248590
1066.992 .0248555
1067.570 .0248516
1068.148 .0248473
1068.726 .0248428
1069.304 .0248380
1069.882 .0248332
1070.460 .0248282
1071.038 .0248233
1071.616 .0248185
1072.194 .0248136
1072.772 .0248088
1073.350 .0248039
1073.928 .0247988
1074.506 .0247936
1075.084 .0247881
1075.662 .0247825
1076.240 .0247769
1076.819 .0247714
1077.397 .0247663
1077.976 .0247616
1078.554 .0247576
1079.133 .0247541
1079.711 .0247513
1080.290 .0247489
1080.869 .0247470
1081.448 .0247454
1082.027 .0247442
1082.606 .0247432
1083.185 .0247426
1083.764 .0247424
1084.343 .0247428
1084.923 .0247436
1085.502 .0247450
1086.082 .0247470
1086.662 .0247492
1087.242 .0247517
1087.822 .0247544
1088.402 .0247572
1088.983 .0247602
1089.563 .0247636
1090.144 .0247675
1090.725 .0247720
1091.306 .0247774
1091.887 .0247839
1092.469 .0247914
1093.050 .0248000
1093.632 .0248094
1094.214 .0248196
1094.796 .0248303
1095.379 .0248413
1095.961 .0248525
1096.544 .0248640
1097.127 .0248756
1097.710 .0248875
1098.294 .0248997
1098.877 .0249124
1099.461 .0249255
1100.046 .0249390
1100.630 .0249528
1101.215 .0249668
1101.800 .0249809
1102.385 .0249950
1102.970 .0250092
1103.556 .0250238
1104.142 .0250390
1104.728 .0250549
1105.315 .0250720
1105.902 .0250902
1106.489 .0251096
1107.077 .0251301
1107.664 .0251516
1108.253 .0251738
1108.841 .0251965
1109.430 .0252197
1110.019 .0252433
1110.609 .0252674
1111.198 .0252921
1111.789 .0253176
1112.379 .0253439
1112.970 .0253709
1113.561 .0253984
1114.153 .0254263
1114.745 .0254546
1115.338 .0254830
1115.931 .0255117
1116.524 .0255408
1117.117 .0255705
1117.712 .0256009
1118.306 .0256323
1118.901 .0256647
1119.496 .0256983
1120.092 .0257331
1120.689 .0257686
1121.285 .0258047
1121.882 .0258413
1122.480 .0258782
1123.078 .0259152
1123.677 .0259524
1124.276 .0259898
1124.875 .0260275
1125.476 .0260657
1126.076 .0261042
1126.677 .0261432
1127.279 .0261827
1127.881 .0262226
1128.484 .0262629
1129.087 .0262806
1129.691 .0263213
1130.295 .0263626
1130.900 .0264050
1131.505 .0264489
1132.111 .0264944
1132.718 .0265415
1133.325 .0265904
1133.933 .0266397
1134.541 .0266970
1135.150 .0267519
1135.760 .0268010
1136.370 .0268592
1136.981 .0268971
1137.592 .0269481
1138.204 .0269973
1138.817 .0270531
1139.431 .0271168
1140.045 .0271828
1140.660 .0272479
1141.275 .0273246
1141.891 .0273661
1142.508 .0276244
1143.126 .0275982
1143.744 .0274763
1144.363 .0277760
1144.983 .0267669
