Measurement Sequence started on: 15-12-46-377
Integration time: 28
Scans to Average: 2 
>>>>>Begin Spectral Data<<<<<
432.689 .0000100
433.621 .0000100
434.552 .0000100
435.482 .0000100
436.410 .0000100
437.337 .0000100
438.262 .0283931
439.187 .0599781
440.110 .0992741
441.031 .1435450
441.952 .1140734
442.871 .1190175
443.789 .1236137
444.705 .1279371
445.621 .1320387
446.535 .1359592
447.447 .1382346
448.359 .1387199
449.269 .1370295
450.178 .1329166
451.086 .1264681
451.993 .1181814
452.898 .1088756
453.803 .0994771
454.706 .0907706
455.608 .0832408
456.508 .0770444
457.408 .0729056
458.306 .0697579
459.204 .0672221
460.100 .0651052
460.995 .0632971
461.888 .0617251
462.781 .0603404
463.673 .0591053
464.563 .0579928
465.452 .0569816
466.340 .0560541
467.228 .0551976
468.114 .0544031
468.999 .0536645
469.882 .0529767
470.765 .0523364
471.647 .0517418
472.528 .0511912
473.407 .0506836
474.286 .0502181
475.163 .0497944
476.040 .0494122
476.915 .0490700
477.790 .0487663
478.663 .0484991
479.535 .0482662
480.407 .0480652
481.277 .0478936
482.147 .0477490
483.015 .0476291
483.883 .0475322
484.749 .0474566
485.615 .0474007
486.479 .0473639
487.343 .0473451
488.206 .0473439
489.067 .0473597
489.928 .0473923
490.788 .0474412
491.647 .0475068
492.505 .0475888
493.362 .0476883
494.218 .0478062
495.073 .0479444
495.928 .0482358
496.781 .0484363
497.634 .0486627
498.486 .0489161
499.337 .0491978
500.187 .0495090
501.036 .0498515
501.884 .0502274
502.731 .0506392
503.578 .0510897
504.424 .0513981
505.268 .0519180
506.113 .0524870
506.956 .0531086
507.798 .0537876
508.640 .0545303
509.480 .0553443
510.320 .0562398
511.160 .0572287
511.998 .0583264
512.836 .0595496
513.672 .0609183
514.508 .0624557
515.344 .0641864
516.178 .0661372
517.012 .0683356
517.845 .0708086
518.677 .0735822
519.508 .0766772
520.339 .0801059
521.169 .0838761
521.998 .0879691
522.826 .0923487
523.654 .0969579
524.481 .1017237
525.307 .1065618
526.133 .1113754
526.958 .1160631
527.782 .1205260
528.605 .1246725
529.428 .1284226
530.250 .1317022
531.072 .1344609
531.892 .1366548
532.712 .1382545
533.532 .1392417
534.350 .1396067
535.168 .1393498
535.986 .1384770
536.802 .1369970
537.618 .1349236
538.434 .1322700
539.249 .1290752
540.063 .1253908
540.876 .1212864
541.689 .1168448
542.501 .1121567
543.313 .1073212
544.124 .1024408
544.934 .0976104
545.744 .0929142
546.553 .0884215
547.361 .0841921
548.169 .0802593
548.976 .0766466
549.783 .0733611
550.589 .0703955
551.395 .0677336
552.200 .0653493
553.004 .0632100
553.808 .0612855
554.611 .0595482
555.414 .0579744
556.216 .0565418
557.018 .0552303
557.819 .0540230
558.619 .0529057
559.419 .0518673
560.218 .0508986
561.017 .0499904
561.815 .0491362
562.613 .0483308
563.410 .0475686
564.207 .0468454
565.003 .0461573
565.799 .0454998
566.594 .0448700
567.388 .0442659
568.182 .0436850
568.976 .0431257
569.769 .0425869
570.562 .0420681
571.354 .0415682
572.145 .0410869
572.936 .0406234
573.727 .0401774
574.517 .0397493
575.307 .0393388
576.096 .0389452
576.885 .0385684
577.673 .0382083
578.461 .0378645
579.248 .0375370
580.035 .0372256
580.821 .0369299
581.607 .0366499
582.392 .0363858
583.177 .0361374
583.962 .0359044
584.746 .0356866
585.529 .0354833
586.313 .0352937
587.095 .0351167
587.878 .0349515
588.660 .0347971
589.441 .0346531
590.222 .0345185
591.003 .0343927
591.783 .0342752
592.563 .0341656
593.342 .0340631
594.121 .0339672
594.899 .0338772
595.678 .0337924
596.455 .0337123
597.233 .0336362
598.009 .0335639
598.786 .0334947
599.562 .0334286
600.338 .0333654
601.113 .0333048
601.888 .0332225
602.663 .0331682
603.437 .0331164
604.211 .0330668
604.984 .0330193
605.757 .0329737
606.530 .0329300
607.302 .0328881
608.074 .0328478
608.845 .0328091
609.616 .0327720
610.387 .0327570
611.158 .0327220
611.928 .0326883
612.697 .0326561
613.467 .0326251
614.236 .0325955
615.004 .0325672
615.773 .0325400
616.541 .0325139
617.308 .0324888
618.076 .0324645
618.843 .0324407
619.609 .0324173
620.375 .0323942
621.141 .0323710
621.907 .0323478
622.672 .0323246
623.437 .0323014
624.202 .0322780
624.966 .0322544
625.730 .0322307
626.493 .0322067
627.257 .0321822
628.020 .0321572
628.782 .0321317
629.545 .0321056
630.307 .0320789
631.068 .0320517
631.830 .0320242
632.591 .0319964
633.352 .0319684
634.112 .0319403
634.872 .0319121
635.632 .0318838
636.392 .0318556
637.151 .0318274
637.910 .0317993
638.668 .0317713
639.427 .0317434
640.185 .0317158
640.943 .0316883
641.700 .0316611
642.457 .0316342
643.214 .0316074
643.971 .0315810
644.727 .0315549
645.483 .0315291
646.239 .0315036
646.994 .0314784
647.750 .0314534
648.505 .0314285
649.259 .0314036
650.014 .0313788
650.768 .0313539
651.521 .0313288
652.275 .0313036
653.028 .0312782
653.781 .0312526
654.534 .0312268
655.286 .0312007
656.039 .0311742
656.791 .0311475
657.542 .0311204
658.294 .0310929
659.045 .0310651
659.796 .0310370
660.546 .0310086
661.297 .0309800
662.047 .0309512
662.796 .0309222
663.546 .0308929
664.295 .0308635
665.044 .0308340
665.793 .0308043
666.542 .0307745
667.290 .0307448
668.038 .0307151
668.786 .0306856
669.533 .0306564
670.281 .0306274
671.028 .0305989
671.774 .0305707
672.521 .0305430
673.267 .0305158
674.013 .0304892
674.759 .0304632
675.505 .0304378
676.250 .0304130
676.995 .0303889
677.740 .0303654
678.484 .0303426
679.229 .0303204
679.973 .0302988
680.717 .0302780
681.460 .0302578
682.204 .0302382
682.947 .0302192
683.690 .0302008
684.433 .0301827
685.175 .0301649
685.917 .0301475
686.659 .0301301
687.401 .0301129
688.142 .0300958
688.884 .0300787
689.625 .0300616
690.365 .0300446
691.106 .0300277
691.846 .0300108
692.586 .0299941
693.326 .0299774
694.066 .0299609
694.805 .0299445
695.545 .0299283
696.284 .0299122
697.022 .0298963
697.761 .0298807
698.499 .0298652
699.237 .0298499
699.975 .0298348
700.713 .0298201
701.450 .0298056
702.187 .0297914
702.924 .0297776
703.661 .0297642
704.397 .0297511
705.133 .0297384
705.869 .0297259
706.605 .0297136
707.341 .0297014
708.076 .0296892
708.811 .0296771
709.546 .0296650
710.281 .0296529
711.015 .0296408
711.749 .0296287
712.483 .0296167
713.217 .0296047
713.950 .0295928
714.684 .0295808
715.417 .0295687
716.150 .0295564
716.882 .0295439
717.615 .0295310
718.347 .0295177
719.079 .0295040
719.811 .0294898
720.542 .0294751
721.273 .0294601
722.005 .0294447
722.735 .0294290
723.466 .0294132
724.196 .0293971
724.927 .0293809
725.656 .0293646
726.386 .0293482
727.116 .0293317
727.845 .0293151
728.574 .0292984
729.303 .0292817
730.031 .0292650
730.760 .0292484
731.488 .0292320
732.216 .0292158
732.944 .0291997
733.671 .0291838
734.398 .0291680
735.125 .0291524
735.852 .0291370
736.579 .0291219
737.305 .0291068
738.031 .0290920
738.757 .0290773
739.483 .0290627
740.208 .0290481
740.933 .0290335
741.658 .0290188
742.383 .0290040
743.108 .0289889
743.832 .0289737
744.556 .0289583
745.280 .0289427
746.004 .0289268
746.727 .0289105
747.450 .0288939
748.173 .0288768
748.896 .0288592
749.618 .0288411
750.340 .0288224
751.062 .0288033
751.784 .0287836
752.506 .0287635
753.227 .0287429
753.948 .0287218
754.669 .0287002
755.389 .0286783
756.110 .0286559
756.830 .0286333
757.550 .0286104
758.269 .0285874
758.989 .0285644
759.708 .0285414
760.427 .0285184
761.146 .0284955
761.864 .0284727
762.582 .0284500
763.300 .0284275
764.018 .0284052
764.736 .0283832
765.453 .0283617
766.170 .0283408
766.887 .0283206
767.603 .0283011
768.320 .0282825
769.036 .0282647
769.751 .0282478
770.467 .0282318
771.182 .0282166
771.897 .0282021
772.612 .0281884
773.327 .0281754
774.041 .0281631
774.755 .0281514
775.469 .0281404
776.183 .0281300
776.896 .0281202
777.609 .0281110
778.322 .0281024
779.035 .0280944
779.747 .0280869
780.459 .0280799
781.171 .0280734
781.882 .0280673
782.594 .0280615
783.305 .0280561
784.016 .0280511
784.726 .0280463
785.436 .0280417
786.147 .0280359
786.856 .0280317
787.566 .0280277
788.275 .0280238
788.984 .0280200
789.693 .0280161
790.401 .0280122
791.110 .0280083
791.818 .0280042
792.525 .0279999
793.233 .0279955
793.940 .0279908
794.647 .0279876
795.353 .0279826
796.060 .0279773
796.766 .0279719
797.472 .0279663
798.177 .0279605
798.883 .0279543
799.588 .0279479
800.292 .0279413
800.997 .0279344
801.701 .0279272
802.405 .0279199
803.109 .0279123
803.812 .0279046
804.515 .0278966
805.218 .0278885
805.921 .0278801
806.623 .0278716
807.325 .0278628
808.027 .0278539
808.728 .0278449
809.429 .0278359
810.130 .0278270
810.831 .0278181
811.531 .0278093
812.231 .0278006
812.931 .0277921
813.630 .0277837
814.330 .0277754
815.029 .0277674
815.727 .0277596
816.426 .0277522
817.124 .0277452
817.821 .0277386
818.519 .0277325
819.216 .0277268
819.913 .0277216
820.609 .0277168
821.306 .0277124
822.002 .0277086
822.697 .0277053
823.393 .0277026
824.088 .0277005
824.783 .0276991
825.477 .0276983
826.171 .0276980
826.865 .0276981
827.559 .0276986
828.252 .0276993
828.945 .0277003
829.638 .0277014
830.330 .0277026
831.023 .0277038
831.714 .0277050
832.406 .0277060
833.097 .0277067
833.788 .0277072
834.479 .0277072
835.169 .0277067
835.859 .0277058
836.548 .0277044
837.238 .0277024
837.927 .0276999
838.615 .0276968
839.304 .0276930
839.992 .0276884
840.680 .0276831
841.367 .0276770
842.054 .0276701
842.741 .0276624
843.428 .0276541
844.114 .0276450
844.800 .0276353
845.485 .0276249
846.170 .0276137
846.855 .0276017
847.540 .0275889
848.224 .0275751
848.908 .0275605
849.592 .0275449
850.275 .0275284
850.958 .0275110
851.641 .0274929
852.323 .0274739
853.005 .0274542
853.687 .0274337
854.368 .0274124
855.049 .0273904
855.730 .0273678
856.410 .0273446
857.090 .0273210
857.769 .0272969
858.449 .0272724
859.128 .0272476
859.806 .0272225
860.485 .0271972
861.163 .0271716
861.840 .0271458
862.518 .0271200
863.195 .0270941
863.871 .0270683
864.548 .0270427
865.224 .0270171
865.899 .0269918
866.574 .0269667
867.249 .0269418
867.924 .0269172
868.598 .0268928
869.272 .0268686
869.946 .0268448
870.619 .0268212
871.292 .0267980
871.964 .0267752
872.636 .0267527
873.308 .0267306
873.979 .0267089
874.651 .0266876
875.321 .0266666
875.992 .0266460
876.662 .0266257
877.331 .0266059
878.001 .0265864
878.670 .0265674
879.338 .0265487
880.007 .0265304
880.675 .0265126
881.342 .0264953
882.009 .0264785
882.676 .0264622
883.343 .0264465
884.009 .0264314
884.675 .0264169
885.340 .0264030
886.005 .0263898
886.670 .0263772
887.334 .0263654
887.998 .0263542
888.662 .0263436
889.325 .0263337
889.988 .0263245
890.650 .0263158
891.312 .0263077
891.974 .0263001
892.636 .0262929
893.297 .0262861
893.957 .0262797
894.618 .0262734
895.278 .0262674
895.937 .0262616
896.596 .0262558
897.255 .0262500
897.914 .0262441
898.572 .0262382
899.230 .0262320
899.887 .0262257
900.544 .0262190
901.201 .0262119
901.857 .0261988
902.513 .0261903
903.168 .0261814
903.823 .0261718
904.478 .0261618
905.132 .0261511
905.786 .0261399
906.440 .0261281
907.093 .0261158
907.746 .0261030
908.399 .0260897
909.051 .0260759
909.703 .0260617
910.354 .0260540
911.005 .0260397
911.656 .0260254
912.306 .0260110
912.956 .0259967
913.605 .0259825
914.254 .0259684
914.903 .0259546
915.551 .0259410
916.199 .0259277
916.847 .0259148
917.494 .0259022
918.141 .0258900
918.788 .0258782
919.434 .0258669
920.079 .0258560
920.725 .0258455
921.370 .0258353
922.014 .0258255
922.658 .0258159
923.302 .0258065
923.946 .0257974
924.589 .0257885
925.231 .0257799
925.873 .0257716
926.515 .0257636
927.157 .0257558
927.798 .0257482
928.439 .0257409
929.079 .0257338
929.719 .0257270
930.359 .0257203
930.998 .0257138
931.637 .0257077
932.275 .0257018
932.913 .0256963
933.551 .0256912
934.188 .0256866
934.825 .0256826
935.462 .0256792
936.098 .0256764
936.733 .0256742
937.369 .0256728
938.004 .0256719
938.638 .0256716
939.273 .0256720
939.907 .0256730
940.540 .0256747
941.173 .0256771
941.806 .0256802
942.438 .0256839
943.070 .0256882
943.702 .0256931
944.333 .0256985
944.964 .0257043
945.594 .0257103
946.224 .0257165
946.854 .0257229
947.483 .0257293
948.112 .0257358
948.741 .0257424
949.369 .0257489
949.996 .0257554
950.624 .0257619
951.251 .0257682
951.878 .0257743
952.504 .0257801
953.130 .0257856
953.755 .0257907
954.380 .0257954
955.005 .0257998
955.629 .0258039
956.253 .0258077
956.877 .0258111
957.500 .0258143
958.123 .0258171
958.746 .0258195
959.368 .0258216
959.990 .0258234
960.611 .0258249
961.232 .0258261
961.853 .0258271
962.473 .0258279
963.093 .0258284
963.712 .0258288
964.331 .0258290
964.950 .0258289
965.569 .0258285
966.187 .0258279
966.804 .0258269
967.422 .0258256
968.039 .0258239
968.655 .0258218
969.272 .0258194
969.887 .0258165
970.503 .0258132
971.118 .0258093
971.733 .0258049
972.347 .0258000
972.961 .0257944
973.575 .0257883
974.188 .0257817
974.801 .0257745
975.414 .0257668
976.026 .0257587
976.638 .0257501
977.250 .0257410
977.861 .0257315
978.472 .0257215
979.083 .0257110
979.693 .0257001
980.303 .0256887
980.912 .0256702
981.521 .0256582
982.130 .0256460
982.738 .0256337
983.346 .0256212
983.954 .0256087
984.562 .0255961
985.169 .0255835
985.775 .0255710
986.382 .0255585
986.988 .0255461
987.594 .0255341
988.199 .0255223
988.804 .0255108
989.409 .0255061
990.013 .0254951
990.617 .0254844
991.221 .0254738
991.824 .0254635
992.427 .0254532
993.030 .0254430
993.632 .0254327
994.234 .0254225
994.836 .0254121
995.438 .0254017
996.039 .0253913
996.640 .0253808
997.240 .0253704
997.840 .0253598
998.440 .0253492
999.040 .0253386
999.639 .0253279
1000.238 .0253171
1000.836 .0253063
1001.435 .0252953
1002.033 .0252841
1002.630 .0252729
1003.228 .0252615
1003.825 .0252499
1004.422 .0252382
1005.018 .0252262
1005.614 .0252140
1006.210 .0252016
1006.806 .0251889
1007.401 .0251760
1007.996 .0251629
1008.591 .0251496
1009.186 .0251361
1009.780 .0251225
1010.374 .0251088
1010.967 .0250951
1011.561 .0250815
1012.154 .0250679
1012.746 .0250544
1013.339 .0250413
1013.931 .0250284
1014.523 .0250159
1015.115 .0250038
1015.706 .0249921
1016.298 .0249806
1016.888 .0249695
1017.479 .0249586
1018.069 .0249480
1018.660 .0249376
1019.250 .0249276
1019.839 .0249179
1020.429 .0249086
1021.018 .0248997
1021.607 .0248912
1022.195 .0248831
1022.784 .0248754
1023.372 .0248680
1023.960 .0248610
1024.547 .0248543
1025.135 .0248479
1025.722 .0248419
1026.309 .0248363
1026.896 .0248310
1027.483 .0248262
1028.069 .0248217
1028.655 .0248175
1029.241 .0248136
1029.827 .0248099
1030.412 .0248063
1030.997 .0248027
1031.582 .0247992
1032.167 .0247957
1032.752 .0247922
1033.336 .0247887
1033.921 .0247853
1034.505 .0247819
1035.089 .0247785
1035.672 .0247750
1036.256 .0247715
1036.839 .0247679
1037.422 .0247641
1038.005 .0247601
1038.588 .0247559
1039.171 .0247514
1039.753 .0247467
1040.335 .0247418
1040.918 .0247367
1041.500 .0247313
1042.081 .0247257
1042.663 .0247197
1043.244 .0247134
1043.826 .0247068
1044.407 .0246999
1044.988 .0246926
1045.569 .0246850
1046.150 .0246771
1046.730 .0246688
1047.311 .0246603
1047.891 .0246516
1048.471 .0246427
1049.052 .0246336
1049.632 .0246244
1050.211 .0246150
1050.791 .0246055
1051.371 .0245960
1051.950 .0245864
1052.530 .0245769
1053.109 .0245673
1053.688 .0245578
1054.268 .0245483
1054.847 .0245389
1055.426 .0245297
1056.005 .0245207
1056.583 .0245119
1057.162 .0245034
1057.741 .0244953
1058.319 .0244876
1058.898 .0244803
1059.476 .0244736
1060.055 .0244676
1060.633 .0244621
1061.211 .0244575
1061.790 .0244537
1062.368 .0244509
1062.946 .0244492
1063.524 .0244485
1064.102 .0244488
1064.680 .0244500
1065.258 .0244521
1065.836 .0244548
1066.414 .0244582
1066.992 .0244621
1067.570 .0244663
1068.148 .0244708
1068.726 .0244755
1069.304 .0244805
1069.882 .0244856
1070.460 .0244909
1071.038 .0244962
1071.616 .0245016
1072.194 .0245069
1072.772 .0245121
1073.350 .0245171
1073.928 .0245220
1074.506 .0245268
1075.084 .0245316
1075.662 .0245366
1076.240 .0245417
1076.819 .0245473
1077.397 .0245534
1077.976 .0245600
1078.554 .0245673
1079.133 .0245750
1079.711 .0245832
1080.290 .0245918
1080.869 .0246007
1081.448 .0246100
1082.027 .0246195
1082.606 .0246294
1083.185 .0246397
1083.764 .0246505
1084.343 .0246617
1084.923 .0246735
1085.502 .0246858
1086.082 .0246985
1086.662 .0247116
1087.242 .0247251
1087.822 .0247391
1088.402 .0247536
1088.983 .0247688
1089.563 .0247847
1090.144 .0248015
1090.725 .0248191
1091.306 .0248375
1091.887 .0248565
1092.469 .0248759
1093.050 .0248955
1093.632 .0249151
1094.214 .0249343
1094.796 .0249530
1095.379 .0249712
1095.961 .0249888
1096.544 .0250058
1097.127 .0250223
1097.710 .0250383
1098.294 .0250540
1098.877 .0250694
1099.461 .0250846
1100.046 .0250997
1100.630 .0251149
1101.215 .0251304
1101.800 .0251462
1102.385 .0251627
1102.970 .0251802
1103.556 .0251990
1104.142 .0252194
1104.728 .0252414
1105.315 .0252653
1105.902 .0252910
1106.489 .0253185
1107.077 .0253475
1107.664 .0253778
1108.253 .0254091
1108.841 .0254413
1109.430 .0254743
1110.019 .0255081
1110.609 .0255428
1111.198 .0255785
1111.789 .0256154
1112.379 .0256536
1112.970 .0256930
1113.561 .0257337
1114.153 .0257754
1114.745 .0258180
1115.338 .0258616
1115.931 .0259063
1116.524 .0259523
1117.117 .0259999
1117.712 .0260498
1118.306 .0261023
1118.901 .0261578
1119.496 .0262163
1120.092 .0262781
1120.689 .0263426
1121.285 .0264096
1121.882 .0264787
1122.480 .0265496
1123.078 .0266221
1123.677 .0266964
1124.276 .0267726
1124.875 .0268512
1125.476 .0269324
1126.076 .0270166
1126.677 .0271039
1127.279 .0271942
1127.881 .0272872
1128.484 .0273828
1129.087 .0274232
1129.691 .0275228
1130.295 .0276245
1130.900 .0277286
1131.505 .0278357
1132.111 .0279461
1132.718 .0280607
1133.325 .0281799
1133.933 .0283049
1134.541 .0284332
1135.150 .0285655
1135.760 .0287036
1136.370 .0288515
1136.981 .0289760
1137.592 .0290890
1138.204 .0291967
1138.817 .0293114
1139.431 .0294356
1140.045 .0295729
1140.660 .0297262
1141.275 .0299040
1141.891 .0301186
1142.508 .0302781
1143.126 .0304782
1143.744 .0307434
1144.363 .0311348
1144.983 .0318011
