Measurement Sequence started on: 15-12-46-377
Integration time: 28
Scans to Average: 2 
>>>>>Begin Spectral Data<<<<<
432.689 .0000100
433.621 .0000100
434.552 .0000100
435.482 .0000100
436.410 .0000100
437.337 .0000100
438.262 .0251806
439.187 .0533780
440.110 .0884700
441.031 .1280700
441.952 .1028228
442.871 .1073929
443.789 .1116464
444.705 .1156503
445.621 .1194511
446.535 .1230841
447.447 .1252504
448.359 .1258121
449.269 .1244250
450.178 .1208656
451.086 .1152033
451.993 .1078767
452.898 .0996116
453.803 .0912326
454.706 .0834417
455.608 .0766746
456.508 .0710792
457.408 .0673038
458.306 .0644115
459.204 .0620654
460.100 .0600947
460.995 .0584040
461.888 .0569278
462.781 .0556213
463.673 .0544510
464.563 .0533928
465.452 .0524276
466.340 .0515397
467.228 .0507180
468.114 .0499554
468.999 .0492465
469.882 .0485869
470.765 .0479739
471.647 .0474053
472.528 .0468802
473.407 .0463964
474.286 .0459529
475.163 .0455497
476.040 .0451855
476.915 .0448597
477.790 .0445714
478.663 .0443197
479.535 .0441034
480.407 .0439211
481.277 .0437708
482.147 .0436498
483.015 .0435550
483.883 .0434833
484.749 .0434315
485.615 .0433966
486.479 .0433762
487.343 .0433683
488.206 .0433716
489.067 .0433852
489.928 .0434088
490.788 .0434433
491.647 .0434892
492.505 .0435472
493.362 .0436178
494.218 .0437015
495.073 .0437993
495.928 .0440067
496.781 .0441495
497.634 .0443117
498.486 .0444956
499.337 .0447039
500.187 .0449394
501.036 .0452043
501.884 .0455015
502.731 .0458339
503.578 .0462032
504.424 .0464667
505.268 .0468970
506.113 .0473706
506.956 .0478906
507.798 .0484621
508.640 .0490917
509.480 .0497880
510.320 .0505620
511.160 .0514263
511.998 .0523934
512.836 .0534787
513.672 .0546966
514.508 .0560628
515.344 .0575938
516.178 .0593067
517.012 .0612220
517.845 .0633577
518.677 .0657330
519.508 .0683621
520.339 .0712537
521.169 .0744095
521.998 .0778094
522.826 .0814192
523.654 .0851902
524.481 .0890605
525.307 .0929595
526.133 .0968109
526.958 .1005393
527.782 .1040710
528.605 .1073381
529.428 .1102822
530.250 .1128512
531.072 .1150080
531.892 .1167232
532.712 .1179733
533.532 .1187454
534.350 .1190299
535.168 .1188249
535.986 .1181335
536.802 .1169617
537.618 .1153184
538.434 .1132169
539.249 .1106915
540.063 .1077874
540.876 .1045600
541.689 .1010758
542.501 .0974073
543.313 .0936297
544.124 .0898151
544.934 .0860312
545.744 .0823383
546.553 .0787882
547.361 .0754223
548.169 .0722672
548.976 .0693407
549.783 .0666521
550.589 .0641998
551.395 .0619736
552.200 .0599580
553.004 .0581309
553.808 .0564709
554.611 .0549592
555.414 .0535791
556.216 .0523148
557.018 .0511520
557.819 .0500802
558.619 .0490901
559.419 .0481734
560.218 .0473229
561.017 .0465327
561.815 .0457964
562.613 .0451078
563.410 .0444598
564.207 .0438458
565.003 .0432603
565.799 .0426978
566.594 .0421542
567.388 .0416261
568.182 .0411111
568.976 .0406070
569.769 .0401132
570.562 .0396297
571.354 .0391563
572.145 .0386936
572.936 .0382420
573.727 .0378021
574.517 .0373740
575.307 .0369581
576.096 .0365544
576.885 .0361637
577.673 .0357867
578.461 .0354242
579.248 .0350769
580.035 .0347460
580.821 .0344325
581.607 .0341372
582.392 .0338606
583.177 .0336031
583.962 .0333644
584.746 .0331440
585.529 .0329411
586.313 .0327546
587.095 .0325831
587.878 .0324257
588.660 .0322811
589.441 .0321485
590.222 .0320271
591.003 .0319164
591.783 .0318158
592.563 .0317248
593.342 .0316426
594.121 .0315681
594.899 .0315003
595.678 .0314384
596.455 .0313813
597.233 .0313282
598.009 .0312786
598.786 .0312319
599.562 .0311879
600.338 .0311463
601.113 .0311070
601.888 .0310558
602.663 .0310219
603.437 .0309900
604.211 .0309598
604.984 .0309311
605.757 .0309035
606.530 .0308770
607.302 .0308514
608.074 .0308264
608.845 .0308021
609.616 .0307783
610.387 .0307678
611.158 .0307446
611.928 .0307221
612.697 .0307001
613.467 .0306787
614.236 .0306578
615.004 .0306371
615.773 .0306166
616.541 .0305962
617.308 .0305757
618.076 .0305550
618.843 .0305341
619.609 .0305130
620.375 .0304918
621.141 .0304705
621.907 .0304491
622.672 .0304277
623.437 .0304063
624.202 .0303850
624.966 .0303637
625.730 .0303425
626.493 .0303212
627.257 .0303000
628.020 .0302788
628.782 .0302576
629.545 .0302363
630.307 .0302151
631.068 .0301940
631.830 .0301729
632.591 .0301520
633.352 .0301312
634.112 .0301107
634.872 .0300903
635.632 .0300702
636.392 .0300503
637.151 .0300306
637.910 .0300109
638.668 .0299912
639.427 .0299716
640.185 .0299521
640.943 .0299327
641.700 .0299137
642.457 .0298950
643.214 .0298767
643.971 .0298589
644.727 .0298416
645.483 .0298247
646.239 .0298081
646.994 .0297919
647.750 .0297759
648.505 .0297601
649.259 .0297445
650.014 .0297291
650.768 .0297138
651.521 .0296987
652.275 .0296836
653.028 .0296685
653.781 .0296534
654.534 .0296382
655.286 .0296228
656.039 .0296073
656.791 .0295917
657.542 .0295759
658.294 .0295599
659.045 .0295438
659.796 .0295277
660.546 .0295113
661.297 .0294948
662.047 .0294782
662.796 .0294615
663.546 .0294447
664.295 .0294278
665.044 .0294110
665.793 .0293942
666.542 .0293775
667.290 .0293609
668.038 .0293443
668.786 .0293278
669.533 .0293113
670.281 .0292950
671.028 .0292787
671.774 .0292625
672.521 .0292466
673.267 .0292308
674.013 .0292151
674.759 .0291997
675.505 .0291844
676.250 .0291691
676.995 .0291538
677.740 .0291385
678.484 .0291232
679.229 .0291078
679.973 .0290924
680.717 .0290771
681.460 .0290618
682.204 .0290466
682.947 .0290315
683.690 .0290164
684.433 .0290015
685.175 .0289866
685.917 .0289718
686.659 .0289571
687.401 .0289426
688.142 .0289282
688.884 .0289139
689.625 .0288998
690.365 .0288859
691.106 .0288721
691.846 .0288586
692.586 .0288452
693.326 .0288321
694.066 .0288193
694.805 .0288066
695.545 .0287941
696.284 .0287818
697.022 .0287694
697.761 .0287571
698.499 .0287446
699.237 .0287320
699.975 .0287192
700.713 .0287062
701.450 .0286930
702.187 .0286797
702.924 .0286663
703.661 .0286527
704.397 .0286389
705.133 .0286249
705.869 .0286107
706.605 .0285961
707.341 .0285813
708.076 .0285660
708.811 .0285504
709.546 .0285343
710.281 .0285178
711.015 .0285009
711.749 .0284838
712.483 .0284664
713.217 .0284488
713.950 .0284311
714.684 .0284134
715.417 .0283956
716.150 .0283779
716.882 .0283602
717.615 .0283425
718.347 .0283247
719.079 .0283069
719.811 .0282890
720.542 .0282711
721.273 .0282531
722.005 .0282352
722.735 .0282173
723.466 .0281994
724.196 .0281817
724.927 .0281640
725.656 .0281465
726.386 .0281291
727.116 .0281119
727.845 .0280947
728.574 .0280776
729.303 .0280606
730.031 .0280437
730.760 .0280269
731.488 .0280102
732.216 .0279937
732.944 .0279774
733.671 .0279614
734.398 .0279458
735.125 .0279305
735.852 .0279156
736.579 .0279010
737.305 .0278867
738.031 .0278724
738.757 .0278583
739.483 .0278441
740.208 .0278299
740.933 .0278157
741.658 .0278014
742.383 .0277870
743.108 .0277725
743.832 .0277580
744.556 .0277435
745.280 .0277289
746.004 .0277144
746.727 .0276998
747.450 .0276854
748.173 .0276710
748.896 .0276568
749.618 .0276427
750.340 .0276288
751.062 .0276150
751.784 .0276014
752.506 .0275880
753.227 .0275748
753.948 .0275618
754.669 .0275493
755.389 .0275371
756.110 .0275253
756.830 .0275140
757.550 .0275030
758.269 .0274925
758.989 .0274822
759.708 .0274722
760.427 .0274625
761.146 .0274529
761.864 .0274435
762.582 .0274342
763.300 .0274251
764.018 .0274161
764.736 .0274072
765.453 .0273984
766.170 .0273896
766.887 .0273808
767.603 .0273719
768.320 .0273630
769.036 .0273539
769.751 .0273446
770.467 .0273352
771.182 .0273255
771.897 .0273156
772.612 .0273054
773.327 .0272950
774.041 .0272844
774.755 .0272736
775.469 .0272626
776.183 .0272515
776.896 .0272403
777.609 .0272290
778.322 .0272176
779.035 .0272062
779.747 .0271946
780.459 .0271829
781.171 .0271711
781.882 .0271592
782.594 .0271473
783.305 .0271352
784.016 .0271232
784.726 .0271111
785.436 .0270991
786.147 .0270817
786.856 .0270701
787.566 .0270585
788.275 .0270471
788.984 .0270356
789.693 .0270241
790.401 .0270124
791.110 .0270005
791.818 .0269882
792.525 .0269755
793.233 .0269624
793.940 .0269488
794.647 .0269405
795.353 .0269258
796.060 .0269108
796.766 .0268953
797.472 .0268795
798.177 .0268632
798.883 .0268464
799.588 .0268291
800.292 .0268113
800.997 .0267931
801.701 .0267744
802.405 .0267553
803.109 .0267359
803.812 .0267164
804.515 .0266967
805.218 .0266768
805.921 .0266569
806.623 .0266370
807.325 .0266170
808.027 .0265970
808.728 .0265770
809.429 .0265572
810.130 .0265374
810.831 .0265178
811.531 .0264983
812.231 .0264789
812.931 .0264595
813.630 .0264401
814.330 .0264208
815.029 .0264016
815.727 .0263825
816.426 .0263636
817.124 .0263449
817.821 .0263265
818.519 .0263084
819.216 .0262906
819.913 .0262731
820.609 .0262557
821.306 .0262385
822.002 .0262214
822.697 .0262044
823.393 .0261876
824.088 .0261711
824.783 .0261548
825.477 .0261389
826.171 .0261234
826.865 .0261084
827.559 .0260938
828.252 .0260796
828.945 .0260659
829.638 .0260526
830.330 .0260397
831.023 .0260273
831.714 .0260153
832.406 .0260037
833.097 .0259924
833.788 .0259814
834.479 .0259706
835.169 .0259600
835.859 .0259495
836.548 .0259392
837.238 .0259290
837.927 .0259188
838.615 .0259088
839.304 .0258989
839.992 .0258890
840.680 .0258794
841.367 .0258699
842.054 .0258606
842.741 .0258517
843.428 .0258431
844.114 .0258350
844.800 .0258274
845.485 .0258204
846.170 .0258141
846.855 .0258085
847.540 .0258035
848.224 .0257992
848.908 .0257954
849.592 .0257922
850.275 .0257896
850.958 .0257873
851.641 .0257855
852.323 .0257841
853.005 .0257830
853.687 .0257821
854.368 .0257814
855.049 .0257808
855.730 .0257803
856.410 .0257797
857.090 .0257791
857.769 .0257785
858.449 .0257777
859.128 .0257768
859.806 .0257757
860.485 .0257745
861.163 .0257731
861.840 .0257715
862.518 .0257697
863.195 .0257677
863.871 .0257655
864.548 .0257631
865.224 .0257604
865.899 .0257575
866.574 .0257544
867.249 .0257510
867.924 .0257473
868.598 .0257434
869.272 .0257394
869.946 .0257352
870.619 .0257309
871.292 .0257266
871.964 .0257223
872.636 .0257180
873.308 .0257137
873.979 .0257095
874.651 .0257053
875.321 .0257010
875.992 .0256967
876.662 .0256923
877.331 .0256877
878.001 .0256829
878.670 .0256779
879.338 .0256726
880.007 .0256669
880.675 .0256608
881.342 .0256543
882.009 .0256474
882.676 .0256401
883.343 .0256323
884.009 .0256243
884.675 .0256158
885.340 .0256069
886.005 .0255977
886.670 .0255880
887.334 .0255779
887.998 .0255673
888.662 .0255564
889.325 .0255451
889.988 .0255336
890.650 .0255218
891.312 .0255098
891.974 .0254977
892.636 .0254854
893.297 .0254730
893.957 .0254603
894.618 .0254474
895.278 .0254343
895.937 .0254209
896.596 .0254073
897.255 .0253934
897.914 .0253793
898.572 .0253648
899.230 .0253500
899.887 .0253348
900.544 .0253191
901.201 .0253028
901.857 .0252756
902.513 .0252575
903.168 .0252387
903.823 .0252193
904.478 .0251992
905.132 .0251783
905.786 .0251566
906.440 .0251342
907.093 .0251110
907.746 .0250870
908.399 .0250623
909.051 .0250370
909.703 .0250112
910.354 .0249970
911.005 .0249710
911.656 .0249447
912.306 .0249182
912.956 .0248917
913.605 .0248651
914.254 .0248387
914.903 .0248126
915.551 .0247867
916.199 .0247611
916.847 .0247361
917.494 .0247115
918.141 .0246876
918.788 .0246642
919.434 .0246415
920.079 .0246194
920.725 .0245978
921.370 .0245767
922.014 .0245561
922.658 .0245359
923.302 .0245162
923.946 .0244967
924.589 .0244776
925.231 .0244587
925.873 .0244399
926.515 .0244213
927.157 .0244027
927.798 .0243841
928.439 .0243654
929.079 .0243467
929.719 .0243277
930.359 .0243086
930.998 .0242892
931.637 .0242697
932.275 .0242500
932.913 .0242300
933.551 .0242100
934.188 .0241898
934.825 .0241696
935.462 .0241493
936.098 .0241290
936.733 .0241087
937.369 .0240885
938.004 .0240683
938.638 .0240484
939.273 .0240286
939.907 .0240092
940.540 .0239903
941.173 .0239717
941.806 .0239538
942.438 .0239363
943.070 .0239195
943.702 .0239032
944.333 .0238874
944.964 .0238723
945.594 .0238577
946.224 .0238437
946.854 .0238303
947.483 .0238175
948.112 .0238053
948.741 .0237936
949.369 .0237826
949.996 .0237720
950.624 .0237620
951.251 .0237524
951.878 .0237432
952.504 .0237346
953.130 .0237263
953.755 .0237186
954.380 .0237114
955.005 .0237047
955.629 .0236987
956.253 .0236931
956.877 .0236881
957.500 .0236836
958.123 .0236796
958.746 .0236760
959.368 .0236729
959.990 .0236702
960.611 .0236679
961.232 .0236660
961.853 .0236646
962.473 .0236636
963.093 .0236630
963.712 .0236628
964.331 .0236630
964.950 .0236636
965.569 .0236645
966.187 .0236658
966.804 .0236675
967.422 .0236695
968.039 .0236717
968.655 .0236742
969.272 .0236769
969.887 .0236798
970.503 .0236828
971.118 .0236861
971.733 .0236895
972.347 .0236930
972.961 .0236967
973.575 .0237005
974.188 .0237043
974.801 .0237081
975.414 .0237119
976.026 .0237156
976.638 .0237194
977.250 .0237233
977.861 .0237274
978.472 .0237317
979.083 .0237363
979.693 .0237413
980.303 .0237465
980.912 .0237557
981.521 .0237616
982.130 .0237678
982.738 .0237742
983.346 .0237808
983.954 .0237877
984.562 .0237950
985.169 .0238027
985.775 .0238107
986.382 .0238192
986.988 .0238279
987.594 .0238369
988.199 .0238460
988.804 .0238551
989.409 .0238602
990.013 .0238691
990.617 .0238781
991.221 .0238870
991.824 .0238961
992.427 .0239052
993.030 .0239143
993.632 .0239235
994.234 .0239326
994.836 .0239414
995.438 .0239499
996.039 .0239580
996.640 .0239656
997.240 .0239728
997.840 .0239796
998.440 .0239861
999.040 .0239924
999.639 .0239985
1000.238 .0240045
1000.836 .0240103
1001.435 .0240160
1002.033 .0240213
1002.630 .0240264
1003.228 .0240310
1003.825 .0240352
1004.422 .0240389
1005.018 .0240423
1005.614 .0240454
1006.210 .0240482
1006.806 .0240508
1007.401 .0240531
1007.996 .0240552
1008.591 .0240569
1009.186 .0240583
1009.780 .0240592
1010.374 .0240595
1010.967 .0240594
1011.561 .0240589
1012.154 .0240579
1012.746 .0240565
1013.339 .0240550
1013.931 .0240532
1014.523 .0240513
1015.115 .0240492
1015.706 .0240470
1016.298 .0240445
1016.888 .0240417
1017.479 .0240386
1018.069 .0240352
1018.660 .0240314
1019.250 .0240273
1019.839 .0240228
1020.429 .0240181
1021.018 .0240133
1021.607 .0240083
1022.195 .0240032
1022.784 .0239981
1023.372 .0239928
1023.960 .0239875
1024.547 .0239821
1025.135 .0239764
1025.722 .0239707
1026.309 .0239649
1026.896 .0239589
1027.483 .0239529
1028.069 .0239469
1028.655 .0239410
1029.241 .0239351
1029.827 .0239292
1030.412 .0239233
1030.997 .0239173
1031.582 .0239111
1032.167 .0239047
1032.752 .0238980
1033.336 .0238909
1033.921 .0238834
1034.505 .0238754
1035.089 .0238671
1035.672 .0238584
1036.256 .0238492
1036.839 .0238397
1037.422 .0238297
1038.005 .0238192
1038.588 .0238082
1039.171 .0237967
1039.753 .0237845
1040.335 .0237717
1040.918 .0237583
1041.500 .0237444
1042.081 .0237301
1042.663 .0237154
1043.244 .0237005
1043.826 .0236853
1044.407 .0236700
1044.988 .0236545
1045.569 .0236389
1046.150 .0236232
1046.730 .0236074
1047.311 .0235916
1047.891 .0235758
1048.471 .0235602
1049.052 .0235448
1049.632 .0235298
1050.211 .0235152
1050.791 .0235012
1051.371 .0234876
1051.950 .0234745
1052.530 .0234620
1053.109 .0234500
1053.688 .0234385
1054.268 .0234276
1054.847 .0234172
1055.426 .0234074
1056.005 .0233984
1056.583 .0233901
1057.162 .0233827
1057.741 .0233762
1058.319 .0233704
1058.898 .0233654
1059.476 .0233610
1060.055 .0233571
1060.633 .0233536
1061.211 .0233503
1061.790 .0233474
1062.368 .0233446
1062.946 .0233419
1063.524 .0233394
1064.102 .0233370
1064.680 .0233347
1065.258 .0233324
1065.836 .0233299
1066.414 .0233273
1066.992 .0233243
1067.570 .0233210
1068.148 .0233174
1068.726 .0233135
1069.304 .0233094
1069.882 .0233053
1070.460 .0233010
1071.038 .0232967
1071.616 .0232922
1072.194 .0232877
1072.772 .0232830
1073.350 .0232781
1073.928 .0232729
1074.506 .0232675
1075.084 .0232619
1075.662 .0232562
1076.240 .0232506
1076.819 .0232450
1077.397 .0232396
1077.976 .0232343
1078.554 .0232293
1079.133 .0232245
1079.711 .0232200
1080.290 .0232159
1080.869 .0232123
1081.448 .0232093
1082.027 .0232070
1082.606 .0232053
1083.185 .0232043
1083.764 .0232040
1084.343 .0232045
1084.923 .0232056
1085.502 .0232074
1086.082 .0232098
1086.662 .0232130
1087.242 .0232168
1087.822 .0232214
1088.402 .0232268
1088.983 .0232330
1089.563 .0232399
1090.144 .0232475
1090.725 .0232558
1091.306 .0232649
1091.887 .0232749
1092.469 .0232857
1093.050 .0232975
1093.632 .0233104
1094.214 .0233243
1094.796 .0233391
1095.379 .0233548
1095.961 .0233711
1096.544 .0233879
1097.127 .0234050
1097.710 .0234221
1098.294 .0234392
1098.877 .0234563
1099.461 .0234734
1100.046 .0234906
1100.630 .0235080
1101.215 .0235257
1101.800 .0235438
1102.385 .0235622
1102.970 .0235811
1103.556 .0236006
1104.142 .0236207
1104.728 .0236415
1105.315 .0236631
1105.902 .0236858
1106.489 .0237097
1107.077 .0237351
1107.664 .0237620
1108.253 .0237905
1108.841 .0238205
1109.430 .0238517
1110.019 .0238840
1110.609 .0239173
1111.198 .0239512
1111.789 .0239858
1112.379 .0240211
1112.970 .0240570
1113.561 .0240936
1114.153 .0241310
1114.745 .0241693
1115.338 .0242084
1115.931 .0242482
1116.524 .0242887
1117.117 .0243296
1117.712 .0243711
1118.306 .0244133
1118.901 .0244562
1119.496 .0245001
1120.092 .0245452
1120.689 .0245914
1121.285 .0246389
1121.882 .0246876
1122.480 .0247373
1123.078 .0247878
1123.677 .0248390
1124.276 .0248908
1124.875 .0249432
1125.476 .0249965
1126.076 .0250508
1126.677 .0251064
1127.279 .0251637
1127.881 .0252226
1128.484 .0252835
1129.087 .0253075
1129.691 .0253713
1130.295 .0254376
1130.900 .0255062
1131.505 .0255773
1132.111 .0256509
1132.718 .0257272
1133.325 .0258061
1133.933 .0258888
1134.541 .0259745
1135.150 .0260610
1135.760 .0261537
1136.370 .0262447
1136.981 .0263347
1137.592 .0264411
1138.204 .0265467
1138.817 .0266502
1139.431 .0267547
1140.045 .0268595
1140.660 .0269679
1141.275 .0270750
1141.891 .0272120
1142.508 .0273241
1143.126 .0273831
1143.744 .0275934
1144.363 .0275879
1144.983 .0284401
