Measurement Sequence started on: 15-12-46-377
Integration time: 28
Scans to Average: 2 
>>>>>Begin Spectral Data<<<<<
432.689 .0000100
433.621 .0000100
434.552 .0000100
435.482 .0000100
436.410 .0000100
437.337 .0000100
438.262 .0272305
439.187 .0576615
440.110 .0955186
441.031 .1382365
441.952 .1112204
442.871 .1161890
443.789 .1208087
444.705 .1251503
445.621 .1292648
446.535 .1331907
447.447 .1355242
448.359 .1361190
449.269 .1346015
450.178 .1307306
451.086 .1245807
451.993 .1166217
452.898 .1076356
453.803 .0985104
454.706 .0900034
455.608 .0825870
456.508 .0764213
457.408 .0722121
458.306 .0689514
459.204 .0662814
460.100 .0640226
460.995 .0620754
461.888 .0603719
462.781 .0588637
463.673 .0575153
464.563 .0563010
465.452 .0552012
466.340 .0542017
467.228 .0532900
468.114 .0524579
468.999 .0516986
469.882 .0510063
470.765 .0503753
471.647 .0498016
472.528 .0492812
473.407 .0488100
474.286 .0483845
475.163 .0480024
476.040 .0476606
476.915 .0473573
477.790 .0470897
478.663 .0468557
479.535 .0466530
480.407 .0464790
481.277 .0463308
482.147 .0462059
483.015 .0461021
483.883 .0460178
484.749 .0459514
485.615 .0459022
486.479 .0458695
487.343 .0458529
488.206 .0458522
489.067 .0458671
489.928 .0458977
490.788 .0459441
491.647 .0460066
492.505 .0460857
493.362 .0461818
494.218 .0462955
495.073 .0464273
495.928 .0466946
496.781 .0468749
497.634 .0470748
498.486 .0472949
499.337 .0475367
500.187 .0478022
501.036 .0480938
501.884 .0484141
502.731 .0487666
503.578 .0491549
504.424 .0494253
505.268 .0498823
506.113 .0503878
506.956 .0509474
507.798 .0515676
508.640 .0522570
509.480 .0530255
510.320 .0538850
511.160 .0548485
511.998 .0559312
512.836 .0571502
513.672 .0585243
514.508 .0600734
515.344 .0618180
516.178 .0637787
517.012 .0659770
517.845 .0684314
518.677 .0711565
519.508 .0741632
520.339 .0774551
521.169 .0810313
521.998 .0848703
522.826 .0889411
523.654 .0931960
524.481 .0975732
525.307 .1020021
526.133 .1063970
526.958 .1106674
527.782 .1147232
528.605 .1184787
529.428 .1218586
530.250 .1247965
531.072 .1272472
531.892 .1291751
532.712 .1305600
533.532 .1313907
534.350 .1316599
535.168 .1313715
535.986 .1305325
536.802 .1291508
537.618 .1272395
538.434 .1248146
539.249 .1219115
540.063 .1185754
540.876 .1148641
541.689 .1108476
542.501 .1066028
543.313 .1022164
544.124 .0977768
544.934 .0933695
545.744 .0890736
546.553 .0849541
547.361 .0810652
548.169 .0774384
548.976 .0740938
549.783 .0710345
550.589 .0682539
551.395 .0657387
552.200 .0634666
553.004 .0614143
553.808 .0595603
554.611 .0578846
555.414 .0563687
556.216 .0549941
557.018 .0537421
557.819 .0525967
558.619 .0515430
559.419 .0505680
560.218 .0496609
561.017 .0488131
561.815 .0480169
562.613 .0472657
563.410 .0465543
564.207 .0458777
565.003 .0452306
565.799 .0446091
566.594 .0440092
567.388 .0434281
568.182 .0428634
568.976 .0423137
569.769 .0417784
570.562 .0412577
571.354 .0407522
572.145 .0402625
572.936 .0397894
573.727 .0393334
574.517 .0388948
575.307 .0384741
576.096 .0380710
576.885 .0376857
577.673 .0373183
578.461 .0369685
579.248 .0366359
580.035 .0363206
580.821 .0360223
581.607 .0357410
582.392 .0354767
583.177 .0352290
583.962 .0349977
584.746 .0347823
585.529 .0345820
586.313 .0343959
587.095 .0342233
587.878 .0340630
588.660 .0339142
589.441 .0337761
590.222 .0336482
591.003 .0335298
591.783 .0334206
592.563 .0333203
593.342 .0332282
594.121 .0331440
594.899 .0330670
595.678 .0329963
596.455 .0329315
597.233 .0328716
598.009 .0328162
598.786 .0327646
599.562 .0327162
600.338 .0326706
601.113 .0326274
601.888 .0325685
602.663 .0325293
603.437 .0324915
604.211 .0324548
604.984 .0324189
605.757 .0323837
606.530 .0323489
607.302 .0323142
608.074 .0322796
608.845 .0322450
609.616 .0322103
610.387 .0321928
611.158 .0321582
611.928 .0321238
612.697 .0320897
613.467 .0320559
614.236 .0320226
615.004 .0319898
615.773 .0319576
616.541 .0319258
617.308 .0318946
618.076 .0318638
618.843 .0318337
619.609 .0318042
620.375 .0317752
621.141 .0317469
621.907 .0317193
622.672 .0316923
623.437 .0316659
624.202 .0316401
624.966 .0316147
625.730 .0315898
626.493 .0315652
627.257 .0315410
628.020 .0315171
628.782 .0314934
629.545 .0314698
630.307 .0314462
631.068 .0314226
631.830 .0313988
632.591 .0313749
633.352 .0313509
634.112 .0313268
634.872 .0313027
635.632 .0312786
636.392 .0312547
637.151 .0312309
637.910 .0312072
638.668 .0311838
639.427 .0311605
640.185 .0311374
640.943 .0311146
641.700 .0310921
642.457 .0310701
643.214 .0310487
643.971 .0310278
644.727 .0310075
645.483 .0309877
646.239 .0309685
646.994 .0309496
647.750 .0309312
648.505 .0309131
649.259 .0308954
650.014 .0308780
650.768 .0308608
651.521 .0308438
652.275 .0308270
653.028 .0308102
653.781 .0307935
654.534 .0307767
655.286 .0307598
656.039 .0307426
656.791 .0307253
657.542 .0307077
658.294 .0306897
659.045 .0306715
659.796 .0306528
660.546 .0306337
661.297 .0306142
662.047 .0305944
662.796 .0305741
663.546 .0305535
664.295 .0305326
665.044 .0305115
665.793 .0304901
666.542 .0304685
667.290 .0304468
668.038 .0304249
668.786 .0304028
669.533 .0303806
670.281 .0303584
671.028 .0303361
671.774 .0303139
672.521 .0302918
673.267 .0302698
674.013 .0302479
674.759 .0302262
675.505 .0302047
676.250 .0301833
676.995 .0301620
677.740 .0301409
678.484 .0301200
679.229 .0300993
679.973 .0300789
680.717 .0300588
681.460 .0300390
682.204 .0300195
682.947 .0300005
683.690 .0299817
684.433 .0299631
685.175 .0299449
685.917 .0299268
686.659 .0299089
687.401 .0298910
688.142 .0298731
688.884 .0298552
689.625 .0298372
690.365 .0298191
691.106 .0298008
691.846 .0297823
692.586 .0297636
693.326 .0297448
694.066 .0297257
694.805 .0297065
695.545 .0296871
696.284 .0296676
697.022 .0296479
697.761 .0296281
698.499 .0296082
699.237 .0295883
699.975 .0295683
700.713 .0295485
701.450 .0295288
702.187 .0295092
702.924 .0294899
703.661 .0294707
704.397 .0294519
705.133 .0294333
705.869 .0294151
706.605 .0293972
707.341 .0293798
708.076 .0293630
708.811 .0293468
709.546 .0293312
710.281 .0293163
711.015 .0293021
711.749 .0292884
712.483 .0292753
713.217 .0292627
713.950 .0292504
714.684 .0292385
715.417 .0292269
716.150 .0292156
716.882 .0292045
717.615 .0291937
718.347 .0291831
719.079 .0291726
719.811 .0291623
720.542 .0291520
721.273 .0291417
722.005 .0291313
722.735 .0291210
723.466 .0291105
724.196 .0291000
724.927 .0290894
725.656 .0290788
726.386 .0290681
727.116 .0290574
727.845 .0290467
728.574 .0290360
729.303 .0290254
730.031 .0290149
730.760 .0290045
731.488 .0289943
732.216 .0289843
732.944 .0289744
733.671 .0289646
734.398 .0289550
735.125 .0289455
735.852 .0289360
736.579 .0289268
737.305 .0289177
738.031 .0289087
738.757 .0289000
739.483 .0288914
740.208 .0288830
740.933 .0288746
741.658 .0288661
742.383 .0288575
743.108 .0288487
743.832 .0288395
744.556 .0288299
745.280 .0288199
746.004 .0288093
746.727 .0287982
747.450 .0287865
748.173 .0287742
748.896 .0287612
749.618 .0287477
750.340 .0287336
751.062 .0287189
751.784 .0287038
752.506 .0286881
753.227 .0286719
753.948 .0286553
754.669 .0286382
755.389 .0286207
756.110 .0286027
756.830 .0285844
757.550 .0285658
758.269 .0285470
758.989 .0285280
759.708 .0285089
760.427 .0284898
761.146 .0284707
761.864 .0284517
762.582 .0284328
763.300 .0284139
764.018 .0283951
764.736 .0283763
765.453 .0283576
766.170 .0283390
766.887 .0283205
767.603 .0283021
768.320 .0282840
769.036 .0282662
769.751 .0282488
770.467 .0282318
771.182 .0282153
771.897 .0281994
772.612 .0281840
773.327 .0281691
774.041 .0281549
774.755 .0281412
775.469 .0281281
776.183 .0281156
776.896 .0281037
777.609 .0280925
778.322 .0280820
779.035 .0280722
779.747 .0280631
780.459 .0280547
781.171 .0280470
781.882 .0280398
782.594 .0280333
783.305 .0280272
784.016 .0280216
784.726 .0280162
785.436 .0280111
786.147 .0280040
786.856 .0279991
787.566 .0279943
788.275 .0279896
788.984 .0279849
789.693 .0279802
790.401 .0279755
791.110 .0279707
791.818 .0279658
792.525 .0279607
793.233 .0279554
793.940 .0279498
794.647 .0279464
795.353 .0279405
796.060 .0279344
796.766 .0279281
797.472 .0279216
798.177 .0279149
798.883 .0279080
799.588 .0279010
800.292 .0278938
800.997 .0278864
801.701 .0278788
802.405 .0278711
803.109 .0278630
803.812 .0278548
804.515 .0278463
805.218 .0278376
805.921 .0278286
806.623 .0278194
807.325 .0278099
808.027 .0278002
808.728 .0277901
809.429 .0277799
810.130 .0277694
810.831 .0277588
811.531 .0277480
812.231 .0277371
812.931 .0277261
813.630 .0277151
814.330 .0277041
815.029 .0276932
815.727 .0276825
816.426 .0276720
817.124 .0276617
817.821 .0276518
818.519 .0276422
819.216 .0276331
819.913 .0276244
820.609 .0276162
821.306 .0276086
822.002 .0276015
822.697 .0275949
823.393 .0275890
824.088 .0275836
824.783 .0275788
825.477 .0275746
826.171 .0275709
826.865 .0275677
827.559 .0275649
828.252 .0275625
828.945 .0275604
829.638 .0275585
830.330 .0275570
831.023 .0275556
831.714 .0275543
832.406 .0275532
833.097 .0275520
833.788 .0275508
834.479 .0275494
835.169 .0275478
835.859 .0275459
836.548 .0275438
837.238 .0275415
837.927 .0275390
838.615 .0275361
839.304 .0275330
839.992 .0275295
840.680 .0275255
841.367 .0275210
842.054 .0275159
842.741 .0275101
843.428 .0275037
844.114 .0274965
844.800 .0274886
845.485 .0274800
846.170 .0274707
846.855 .0274607
847.540 .0274500
848.224 .0274386
848.908 .0274265
849.592 .0274136
850.275 .0274000
850.958 .0273858
851.641 .0273709
852.323 .0273554
853.005 .0273393
853.687 .0273226
854.368 .0273055
855.049 .0272878
855.730 .0272696
856.410 .0272510
857.090 .0272320
857.769 .0272128
858.449 .0271934
859.128 .0271740
859.806 .0271546
860.485 .0271352
861.163 .0271159
861.840 .0270967
862.518 .0270777
863.195 .0270588
863.871 .0270400
864.548 .0270213
865.224 .0270029
865.899 .0269846
866.574 .0269666
867.249 .0269488
867.924 .0269313
868.598 .0269140
869.272 .0268970
869.946 .0268802
870.619 .0268637
871.292 .0268475
871.964 .0268315
872.636 .0268159
873.308 .0268005
873.979 .0267855
874.651 .0267709
875.321 .0267568
875.992 .0267432
876.662 .0267301
877.331 .0267176
878.001 .0267056
878.670 .0266942
879.338 .0266834
880.007 .0266732
880.675 .0266637
881.342 .0266548
882.009 .0266466
882.676 .0266391
883.343 .0266322
884.009 .0266259
884.675 .0266201
885.340 .0266149
886.005 .0266101
886.670 .0266058
887.334 .0266020
887.998 .0265985
888.662 .0265955
889.325 .0265929
889.988 .0265906
890.650 .0265885
891.312 .0265866
891.974 .0265847
892.636 .0265827
893.297 .0265806
893.957 .0265784
894.618 .0265762
895.278 .0265738
895.937 .0265712
896.596 .0265686
897.255 .0265657
897.914 .0265625
898.572 .0265590
899.230 .0265551
899.887 .0265508
900.544 .0265461
901.201 .0265410
901.857 .0265315
902.513 .0265253
903.168 .0265187
903.823 .0265117
904.478 .0265043
905.132 .0264963
905.786 .0264878
906.440 .0264787
907.093 .0264691
907.746 .0264589
908.399 .0264483
909.051 .0264373
909.703 .0264262
910.354 .0264197
911.005 .0264085
911.656 .0263973
912.306 .0263860
912.956 .0263746
913.605 .0263632
914.254 .0263516
914.903 .0263400
915.551 .0263283
916.199 .0263166
916.847 .0263049
917.494 .0262933
918.141 .0262817
918.788 .0262701
919.434 .0262585
920.079 .0262467
920.725 .0262347
921.370 .0262224
922.014 .0262099
922.658 .0261970
923.302 .0261839
923.946 .0261705
924.589 .0261570
925.231 .0261433
925.873 .0261294
926.515 .0261154
927.157 .0261012
927.798 .0260869
928.439 .0260724
929.079 .0260578
929.719 .0260431
930.359 .0260284
930.998 .0260139
931.637 .0259996
932.275 .0259857
932.913 .0259722
933.551 .0259592
934.188 .0259468
934.825 .0259351
935.462 .0259240
936.098 .0259136
936.733 .0259039
937.369 .0258951
938.004 .0258871
938.638 .0258800
939.273 .0258739
939.907 .0258688
940.540 .0258646
941.173 .0258613
941.806 .0258589
942.438 .0258573
943.070 .0258563
943.702 .0258559
944.333 .0258559
944.964 .0258563
945.594 .0258570
946.224 .0258577
946.854 .0258585
947.483 .0258592
948.112 .0258596
948.741 .0258598
949.369 .0258595
949.996 .0258587
950.624 .0258573
951.251 .0258552
951.878 .0258525
952.504 .0258490
953.130 .0258448
953.755 .0258399
954.380 .0258343
955.005 .0258281
955.629 .0258213
956.253 .0258139
956.877 .0258059
957.500 .0257975
958.123 .0257888
958.746 .0257797
959.368 .0257705
959.990 .0257611
960.611 .0257517
961.232 .0257424
961.853 .0257332
962.473 .0257242
963.093 .0257154
963.712 .0257068
964.331 .0256984
964.950 .0256903
965.569 .0256825
966.187 .0256749
966.804 .0256675
967.422 .0256603
968.039 .0256532
968.655 .0256462
969.272 .0256392
969.887 .0256320
970.503 .0256248
971.118 .0256173
971.733 .0256096
972.347 .0256015
972.961 .0255932
973.575 .0255846
974.188 .0255755
974.801 .0255661
975.414 .0255563
976.026 .0255459
976.638 .0255349
977.250 .0255233
977.861 .0255110
978.472 .0254981
979.083 .0254846
979.693 .0254705
980.303 .0254558
980.912 .0254319
981.521 .0254162
982.130 .0254001
982.738 .0253835
983.346 .0253666
983.954 .0253493
984.562 .0253318
985.169 .0253143
985.775 .0252968
986.382 .0252796
986.988 .0252627
987.594 .0252462
988.199 .0252301
988.804 .0252145
989.409 .0252082
990.013 .0251935
990.617 .0251794
991.221 .0251659
991.824 .0251530
992.427 .0251409
993.030 .0251295
993.632 .0251189
994.234 .0251090
994.836 .0251000
995.438 .0250916
996.039 .0250838
996.640 .0250765
997.240 .0250699
997.840 .0250637
998.440 .0250581
999.040 .0250531
999.639 .0250487
1000.238 .0250449
1000.836 .0250417
1001.435 .0250391
1002.033 .0250370
1002.630 .0250352
1003.228 .0250336
1003.825 .0250322
1004.422 .0250309
1005.018 .0250295
1005.614 .0250282
1006.210 .0250270
1006.806 .0250258
1007.401 .0250246
1007.996 .0250235
1008.591 .0250224
1009.186 .0250211
1009.780 .0250198
1010.374 .0250182
1010.967 .0250164
1011.561 .0250145
1012.154 .0250124
1012.746 .0250104
1013.339 .0250084
1013.931 .0250065
1014.523 .0250049
1015.115 .0250036
1015.706 .0250026
1016.298 .0250019
1016.888 .0250017
1017.479 .0250018
1018.069 .0250024
1018.660 .0250035
1019.250 .0250052
1019.839 .0250076
1020.429 .0250108
1021.018 .0250147
1021.607 .0250194
1022.195 .0250249
1022.784 .0250311
1023.372 .0250380
1023.960 .0250454
1024.547 .0250534
1025.135 .0250619
1025.722 .0250709
1026.309 .0250803
1026.896 .0250900
1027.483 .0251001
1028.069 .0251105
1028.655 .0251210
1029.241 .0251315
1029.827 .0251421
1030.412 .0251526
1030.997 .0251629
1031.582 .0251732
1032.167 .0251833
1032.752 .0251932
1033.336 .0252029
1033.921 .0252123
1034.505 .0252214
1035.089 .0252301
1035.672 .0252383
1036.256 .0252459
1036.839 .0252529
1037.422 .0252593
1038.005 .0252650
1038.588 .0252701
1039.171 .0252746
1039.753 .0252785
1040.335 .0252819
1040.918 .0252847
1041.500 .0252870
1042.081 .0252888
1042.663 .0252901
1043.244 .0252909
1043.826 .0252913
1044.407 .0252914
1044.988 .0252913
1045.569 .0252912
1046.150 .0252910
1046.730 .0252909
1047.311 .0252909
1047.891 .0252908
1048.471 .0252907
1049.052 .0252906
1049.632 .0252904
1050.211 .0252901
1050.791 .0252898
1051.371 .0252896
1051.950 .0252894
1052.530 .0252893
1053.109 .0252893
1053.688 .0252895
1054.268 .0252899
1054.847 .0252905
1055.426 .0252914
1056.005 .0252924
1056.583 .0252938
1057.162 .0252954
1057.741 .0252975
1058.319 .0253001
1058.898 .0253033
1059.476 .0253070
1060.055 .0253114
1060.633 .0253164
1061.211 .0253220
1061.790 .0253280
1062.368 .0253344
1062.946 .0253411
1063.524 .0253480
1064.102 .0253549
1064.680 .0253619
1065.258 .0253688
1065.836 .0253756
1066.414 .0253823
1066.992 .0253888
1067.570 .0253952
1068.148 .0254015
1068.726 .0254077
1069.304 .0254138
1069.882 .0254200
1070.460 .0254261
1071.038 .0254322
1071.616 .0254384
1072.194 .0254447
1072.772 .0254510
1073.350 .0254574
1073.928 .0254639
1074.506 .0254704
1075.084 .0254769
1075.662 .0254835
1076.240 .0254900
1076.819 .0254964
1077.397 .0255027
1077.976 .0255090
1078.554 .0255151
1079.133 .0255212
1079.711 .0255276
1080.290 .0255341
1080.869 .0255410
1081.448 .0255483
1082.027 .0255561
1082.606 .0255644
1083.185 .0255732
1083.764 .0255823
1084.343 .0255918
1084.923 .0256018
1085.502 .0256122
1086.082 .0256232
1086.662 .0256350
1087.242 .0256474
1087.822 .0256606
1088.402 .0256745
1088.983 .0256890
1089.563 .0257040
1090.144 .0257194
1090.725 .0257351
1091.306 .0257513
1091.887 .0257678
1092.469 .0257849
1093.050 .0258025
1093.632 .0258210
1094.214 .0258401
1094.796 .0258600
1095.379 .0258807
1095.961 .0259020
1096.544 .0259238
1097.127 .0259462
1097.710 .0259690
1098.294 .0259923
1098.877 .0260159
1099.461 .0260398
1100.046 .0260639
1100.630 .0260882
1101.215 .0261126
1101.800 .0261368
1102.385 .0261610
1102.970 .0261849
1103.556 .0262085
1104.142 .0262317
1104.728 .0262544
1105.315 .0262768
1105.902 .0262988
1106.489 .0263204
1107.077 .0263418
1107.664 .0263629
1108.253 .0263839
1108.841 .0264050
1109.430 .0264261
1110.019 .0264475
1110.609 .0264691
1111.198 .0264910
1111.789 .0265133
1112.379 .0265363
1112.970 .0265598
1113.561 .0265842
1114.153 .0266095
1114.745 .0266361
1115.338 .0266640
1115.931 .0266936
1116.524 .0267247
1117.117 .0267576
1117.712 .0267922
1118.306 .0268285
1118.901 .0268664
1119.496 .0269060
1120.092 .0269472
1120.689 .0269899
1121.285 .0270342
1121.882 .0270803
1122.480 .0271281
1123.078 .0271777
1123.677 .0272291
1124.276 .0272822
1124.875 .0273367
1125.476 .0273926
1126.076 .0274498
1126.677 .0275084
1127.279 .0275685
1127.881 .0276299
1128.484 .0276930
1129.087 .0277234
1129.691 .0277891
1130.295 .0278567
1130.900 .0279265
1131.505 .0279984
1132.111 .0280727
1132.718 .0281498
1133.325 .0282300
1133.933 .0283136
1134.541 .0283999
1135.150 .0284882
1135.760 .0285923
1136.370 .0286974
1136.981 .0286276
1137.592 .0287286
1138.204 .0288340
1138.817 .0289451
1139.431 .0290647
1140.045 .0291925
1140.660 .0293386
1141.275 .0294971
1141.891 .0296584
1142.508 .0298007
1143.126 .0299203
1143.744 .0304239
1144.363 .0305116
1144.983 .0304030
