Measurement Sequence started on: 15-12-46-377
Integration time: 28
Scans to Average: 2 
>>>>>Begin Spectral Data<<<<<
432.689 .0000100
433.621 .0000100
434.552 .0000100
435.482 .0000100
436.410 .0000100
437.337 .0000100
438.262 .0287591
439.187 .0608916
440.110 .1007867
441.031 .1457985
441.952 .1162343
442.871 .1212787
443.789 .1259603
444.705 .1303577
445.621 .1345268
446.535 .1385098
447.447 .1408244
448.359 .1413153
449.269 .1395925
450.178 .1354005
451.086 .1288217
451.993 .1203568
452.898 .1108361
453.803 .1012008
454.706 .0922523
455.608 .0844886
456.508 .0780767
457.408 .0737568
458.306 .0704585
459.204 .0677944
460.100 .0655704
460.995 .0636725
461.888 .0620233
462.781 .0605680
463.673 .0592660
464.563 .0580888
465.452 .0570159
466.340 .0560323
467.228 .0551279
468.114 .0542963
468.999 .0535330
469.882 .0528339
470.765 .0521940
471.647 .0516087
472.528 .0510733
473.407 .0505827
474.286 .0501331
475.163 .0497217
476.040 .0493468
476.915 .0490076
477.790 .0487036
478.663 .0484351
479.535 .0482014
480.407 .0480016
481.277 .0478335
482.147 .0476942
483.015 .0475800
483.883 .0474870
484.749 .0474114
485.615 .0473505
486.479 .0473026
487.343 .0472668
488.206 .0472433
489.067 .0472324
489.928 .0472352
490.788 .0472527
491.647 .0472858
492.505 .0473356
493.362 .0474033
494.218 .0474898
495.073 .0475964
495.928 .0478421
496.781 .0480132
497.634 .0482111
498.486 .0484383
499.337 .0486975
500.187 .0489919
501.036 .0493246
501.884 .0496997
502.731 .0501214
503.578 .0505933
504.424 .0509383
505.268 .0514979
506.113 .0521167
506.956 .0527982
507.798 .0535461
508.640 .0543654
509.480 .0552628
510.320 .0562482
511.160 .0573329
511.998 .0585314
512.836 .0598590
513.672 .0613343
514.508 .0629767
515.344 .0648077
516.178 .0668465
517.012 .0691158
517.845 .0716363
518.677 .0744289
519.508 .0775105
520.339 .0808903
521.169 .0845745
521.998 .0885484
522.826 .0927831
523.654 .0972309
524.481 .1018278
525.307 .1065007
526.133 .1111613
526.958 .1157153
527.782 .1200640
528.605 .1241165
529.428 .1277924
530.250 .1310194
531.072 .1337451
531.892 .1359282
532.712 .1375423
533.532 .1385731
534.350 .1390122
535.168 .1388601
535.986 .1381207
536.802 .1368012
537.618 .1349113
538.434 .1324630
539.249 .1294882
540.063 .1260334
540.876 .1221599
541.689 .1179435
542.501 .1134652
543.313 .1088165
544.124 .1040922
544.934 .0993869
545.744 .0947843
546.553 .0903540
547.361 .0861561
548.169 .0822281
548.976 .0785954
549.783 .0752666
550.589 .0722386
551.395 .0694986
552.200 .0670250
553.004 .0647922
553.808 .0627726
554.611 .0609435
555.414 .0592834
556.216 .0577711
557.018 .0563859
557.819 .0551109
558.619 .0539310
559.419 .0528349
560.218 .0518145
561.017 .0508614
561.815 .0499688
562.613 .0491312
563.410 .0483432
564.207 .0475990
565.003 .0468936
565.799 .0462219
566.594 .0455789
567.388 .0449613
568.182 .0443659
568.976 .0437907
569.769 .0432348
570.562 .0426982
571.354 .0421808
572.145 .0416823
572.936 .0412026
573.727 .0407409
574.517 .0402966
575.307 .0398691
576.096 .0394571
576.885 .0390602
577.673 .0386782
578.461 .0383111
579.248 .0379589
580.035 .0376223
580.821 .0373018
581.607 .0369975
582.392 .0367096
583.177 .0364380
583.962 .0361826
584.746 .0359434
585.529 .0357202
586.313 .0355122
587.095 .0353189
587.878 .0351397
588.660 .0349742
589.441 .0348219
590.222 .0346820
591.003 .0345536
591.783 .0344359
592.563 .0343278
593.342 .0342281
594.121 .0341356
594.899 .0340493
595.678 .0339686
596.455 .0338924
597.233 .0338201
598.009 .0337511
598.786 .0336850
599.562 .0336215
600.338 .0335602
601.113 .0335007
601.888 .0334162
602.663 .0333606
603.437 .0333064
604.211 .0332536
604.984 .0332022
605.757 .0331523
606.530 .0331040
607.302 .0330572
608.074 .0330121
608.845 .0329687
609.616 .0329270
610.387 .0329110
611.158 .0328720
611.928 .0328348
612.697 .0327994
613.467 .0327659
614.236 .0327344
615.004 .0327047
615.773 .0326767
616.541 .0326505
617.308 .0326256
618.076 .0326021
618.843 .0325798
619.609 .0325584
620.375 .0325378
621.141 .0325180
621.907 .0324986
622.672 .0324796
623.437 .0324607
624.202 .0324418
624.966 .0324227
625.730 .0324033
626.493 .0323834
627.257 .0323628
628.020 .0323416
628.782 .0323197
629.545 .0322970
630.307 .0322737
631.068 .0322495
631.830 .0322246
632.591 .0321989
633.352 .0321726
634.112 .0321456
634.872 .0321182
635.632 .0320904
636.392 .0320623
637.151 .0320340
637.910 .0320056
638.668 .0319771
639.427 .0319486
640.185 .0319201
640.943 .0318916
641.700 .0318634
642.457 .0318354
643.214 .0318077
643.971 .0317805
644.727 .0317537
645.483 .0317273
646.239 .0317013
646.994 .0316756
647.750 .0316500
648.505 .0316245
649.259 .0315989
650.014 .0315732
650.768 .0315474
651.521 .0315213
652.275 .0314950
653.028 .0314685
653.781 .0314417
654.534 .0314146
655.286 .0313870
656.039 .0313589
656.791 .0313303
657.542 .0313011
658.294 .0312713
659.045 .0312409
659.796 .0312101
660.546 .0311787
661.297 .0311471
662.047 .0311153
662.796 .0310834
663.546 .0310515
664.295 .0310199
665.044 .0309884
665.793 .0309573
666.542 .0309266
667.290 .0308963
668.038 .0308666
668.786 .0308373
669.533 .0308084
670.281 .0307800
671.028 .0307521
671.774 .0307247
672.521 .0306979
673.267 .0306717
674.013 .0306463
674.759 .0306216
675.505 .0305977
676.250 .0305746
676.995 .0305522
677.740 .0305304
678.484 .0305093
679.229 .0304888
679.973 .0304689
680.717 .0304495
681.460 .0304306
682.204 .0304123
682.947 .0303945
683.690 .0303770
684.433 .0303598
685.175 .0303428
685.917 .0303259
686.659 .0303090
687.401 .0302920
688.142 .0302750
688.884 .0302578
689.625 .0302405
690.365 .0302232
691.106 .0302057
691.846 .0301882
692.586 .0301706
693.326 .0301528
694.066 .0301350
694.805 .0301170
695.545 .0300991
696.284 .0300814
697.022 .0300638
697.761 .0300467
698.499 .0300299
699.237 .0300135
699.975 .0299977
700.713 .0299824
701.450 .0299675
702.187 .0299531
702.924 .0299390
703.661 .0299253
704.397 .0299119
705.133 .0298988
705.869 .0298859
706.605 .0298733
707.341 .0298609
708.076 .0298486
708.811 .0298365
709.546 .0298244
710.281 .0298123
711.015 .0298003
711.749 .0297882
712.483 .0297759
713.217 .0297635
713.950 .0297507
714.684 .0297375
715.417 .0297239
716.150 .0297097
716.882 .0296950
717.615 .0296797
718.347 .0296639
719.079 .0296476
719.811 .0296310
720.542 .0296141
721.273 .0295970
722.005 .0295796
722.735 .0295620
723.466 .0295443
724.196 .0295263
724.927 .0295083
725.656 .0294903
726.386 .0294723
727.116 .0294544
727.845 .0294367
728.574 .0294191
729.303 .0294017
730.031 .0293846
730.760 .0293675
731.488 .0293506
732.216 .0293337
732.944 .0293168
733.671 .0293000
734.398 .0292832
735.125 .0292665
735.852 .0292499
736.579 .0292334
737.305 .0292170
738.031 .0292007
738.757 .0291845
739.483 .0291683
740.208 .0291523
740.933 .0291363
741.658 .0291203
742.383 .0291043
743.108 .0290883
743.832 .0290722
744.556 .0290560
745.280 .0290396
746.004 .0290229
746.727 .0290060
747.450 .0289888
748.173 .0289714
748.896 .0289538
749.618 .0289359
750.340 .0289177
751.062 .0288992
751.784 .0288803
752.506 .0288610
753.227 .0288413
753.948 .0288211
754.669 .0288006
755.389 .0287799
756.110 .0287589
756.830 .0287378
757.550 .0287166
758.269 .0286953
758.989 .0286739
759.708 .0286524
760.427 .0286309
761.146 .0286093
761.864 .0285877
762.582 .0285662
763.300 .0285447
764.018 .0285234
764.736 .0285023
765.453 .0284817
766.170 .0284614
766.887 .0284417
767.603 .0284227
768.320 .0284044
769.036 .0283869
769.751 .0283702
770.467 .0283544
771.182 .0283395
771.897 .0283255
772.612 .0283122
773.327 .0282996
774.041 .0282878
774.755 .0282767
775.469 .0282665
776.183 .0282571
776.896 .0282486
777.609 .0282410
778.322 .0282344
779.035 .0282287
779.747 .0282238
780.459 .0282196
781.171 .0282161
781.882 .0282131
782.594 .0282105
783.305 .0282084
784.016 .0282066
784.726 .0282051
785.436 .0282040
786.147 .0282032
786.856 .0282025
787.566 .0282019
788.275 .0282014
788.984 .0282009
789.693 .0282004
790.401 .0281998
791.110 .0281990
791.818 .0281980
792.525 .0281967
793.233 .0281951
793.940 .0281933
794.647 .0281914
795.353 .0281892
796.060 .0281868
796.766 .0281842
797.472 .0281814
798.177 .0281784
798.883 .0281752
799.588 .0281717
800.292 .0281680
800.997 .0281639
801.701 .0281596
802.405 .0281549
803.109 .0281499
803.812 .0281447
804.515 .0281394
805.218 .0281339
805.921 .0281284
806.623 .0281226
807.325 .0281168
808.027 .0281109
808.728 .0281048
809.429 .0280987
810.130 .0280924
810.831 .0280862
811.531 .0280799
812.231 .0280736
812.931 .0280672
813.630 .0280607
814.330 .0280542
815.029 .0280476
815.727 .0280410
816.426 .0280343
817.124 .0280277
817.821 .0280212
818.519 .0280149
819.216 .0280089
819.913 .0280030
820.609 .0279975
821.306 .0279921
822.002 .0279869
822.697 .0279819
823.393 .0279770
824.088 .0279722
824.783 .0279676
825.477 .0279631
826.171 .0279587
826.865 .0279544
827.559 .0279501
828.252 .0279458
828.945 .0279415
829.638 .0279372
830.330 .0279328
831.023 .0279283
831.714 .0279237
832.406 .0279189
833.097 .0279139
833.788 .0279087
834.479 .0279032
835.169 .0278975
835.859 .0278914
836.548 .0278850
837.238 .0278782
837.927 .0278710
838.615 .0278634
839.304 .0278553
839.992 .0278467
840.680 .0278376
841.367 .0278279
842.054 .0278177
842.741 .0278068
843.428 .0277952
844.114 .0277829
844.800 .0277698
845.485 .0277560
846.170 .0277412
846.855 .0277256
847.540 .0277092
848.224 .0276918
848.908 .0276736
849.592 .0276545
850.275 .0276346
850.958 .0276139
851.641 .0275924
852.323 .0275702
853.005 .0275473
853.687 .0275237
854.368 .0274994
855.049 .0274746
855.730 .0274492
856.410 .0274233
857.090 .0273970
857.769 .0273705
858.449 .0273437
859.128 .0273169
859.806 .0272901
860.485 .0272633
861.163 .0272367
861.840 .0272103
862.518 .0271841
863.195 .0271582
863.871 .0271326
864.548 .0271072
865.224 .0270822
865.899 .0270576
866.574 .0270335
867.249 .0270097
867.924 .0269864
868.598 .0269636
869.272 .0269412
869.946 .0269191
870.619 .0268975
871.292 .0268763
871.964 .0268555
872.636 .0268350
873.308 .0268150
873.979 .0267954
874.651 .0267762
875.321 .0267574
875.992 .0267390
876.662 .0267209
877.331 .0267033
878.001 .0266860
878.670 .0266692
879.338 .0266529
880.007 .0266371
880.675 .0266219
881.342 .0266073
882.009 .0265935
882.676 .0265803
883.343 .0265678
884.009 .0265560
884.675 .0265448
885.340 .0265343
886.005 .0265245
886.670 .0265154
887.334 .0265070
887.998 .0264994
888.662 .0264924
889.325 .0264862
889.988 .0264807
890.650 .0264758
891.312 .0264716
891.974 .0264678
892.636 .0264646
893.297 .0264617
893.957 .0264592
894.618 .0264570
895.278 .0264550
895.937 .0264532
896.596 .0264514
897.255 .0264495
897.914 .0264474
898.572 .0264451
899.230 .0264424
899.887 .0264392
900.544 .0264355
901.201 .0264312
901.857 .0264218
902.513 .0264159
903.168 .0264093
903.823 .0264020
904.478 .0263941
905.132 .0263854
905.786 .0263760
906.440 .0263659
907.093 .0263553
907.746 .0263441
908.399 .0263325
909.051 .0263207
909.703 .0263087
910.354 .0263025
911.005 .0262908
911.656 .0262792
912.306 .0262678
912.956 .0262565
913.605 .0262456
914.254 .0262351
914.903 .0262250
915.551 .0262155
916.199 .0262065
916.847 .0261982
917.494 .0261905
918.141 .0261835
918.788 .0261771
919.434 .0261712
920.079 .0261659
920.725 .0261610
921.370 .0261566
922.014 .0261525
922.658 .0261488
923.302 .0261453
923.946 .0261420
924.589 .0261390
925.231 .0261360
925.873 .0261331
926.515 .0261302
927.157 .0261274
927.798 .0261244
928.439 .0261214
929.079 .0261183
929.719 .0261152
930.359 .0261119
930.998 .0261086
931.637 .0261052
932.275 .0261018
932.913 .0260984
933.551 .0260951
934.188 .0260919
934.825 .0260889
935.462 .0260861
936.098 .0260836
936.733 .0260814
937.369 .0260796
938.004 .0260783
938.638 .0260773
939.273 .0260770
939.907 .0260771
940.540 .0260779
941.173 .0260792
941.806 .0260812
942.438 .0260837
943.070 .0260867
943.702 .0260901
944.333 .0260938
944.964 .0260978
945.594 .0261020
946.224 .0261064
946.854 .0261108
947.483 .0261154
948.112 .0261199
948.741 .0261244
949.369 .0261288
949.996 .0261331
950.624 .0261372
951.251 .0261409
951.878 .0261442
952.504 .0261470
953.130 .0261494
953.755 .0261512
954.380 .0261526
955.005 .0261536
955.629 .0261541
956.253 .0261541
956.877 .0261537
957.500 .0261529
958.123 .0261516
958.746 .0261498
959.368 .0261476
959.990 .0261450
960.611 .0261421
961.232 .0261390
961.853 .0261357
962.473 .0261324
963.093 .0261290
963.712 .0261256
964.331 .0261220
964.950 .0261184
965.569 .0261146
966.187 .0261106
966.804 .0261064
967.422 .0261019
968.039 .0260971
968.655 .0260920
969.272 .0260866
969.887 .0260810
970.503 .0260749
971.118 .0260685
971.733 .0260616
972.347 .0260542
972.961 .0260462
973.575 .0260376
974.188 .0260284
974.801 .0260186
975.414 .0260081
976.026 .0259971
976.638 .0259855
977.250 .0259734
977.861 .0259608
978.472 .0259476
979.083 .0259338
979.693 .0259193
980.303 .0259043
980.912 .0258792
981.521 .0258626
982.130 .0258454
982.738 .0258276
983.346 .0258094
983.954 .0257908
984.562 .0257720
985.169 .0257530
985.775 .0257339
986.382 .0257150
986.988 .0256961
987.594 .0256773
988.199 .0256587
988.804 .0256402
989.409 .0256318
990.013 .0256138
990.617 .0255961
991.221 .0255788
991.824 .0255619
992.427 .0255455
993.030 .0255295
993.632 .0255139
994.234 .0254987
994.836 .0254838
995.438 .0254692
996.039 .0254548
996.640 .0254406
997.240 .0254266
997.840 .0254129
998.440 .0253995
999.040 .0253865
999.639 .0253738
1000.238 .0253615
1000.836 .0253495
1001.435 .0253377
1002.033 .0253262
1002.630 .0253147
1003.228 .0253032
1003.825 .0252915
1004.422 .0252797
1005.018 .0252677
1005.614 .0252556
1006.210 .0252434
1006.806 .0252311
1007.401 .0252188
1007.996 .0252064
1008.591 .0251940
1009.186 .0251814
1009.780 .0251688
1010.374 .0251561
1010.967 .0251433
1011.561 .0251304
1012.154 .0251177
1012.746 .0251050
1013.339 .0250926
1013.931 .0250805
1014.523 .0250688
1015.115 .0250573
1015.706 .0250462
1016.298 .0250353
1016.888 .0250248
1017.479 .0250145
1018.069 .0250044
1018.660 .0249947
1019.250 .0249855
1019.839 .0249767
1020.429 .0249684
1021.018 .0249608
1021.607 .0249537
1022.195 .0249472
1022.784 .0249412
1023.372 .0249357
1023.960 .0249306
1024.547 .0249259
1025.135 .0249216
1025.722 .0249175
1026.309 .0249138
1026.896 .0249103
1027.483 .0249070
1028.069 .0249038
1028.655 .0249006
1029.241 .0248972
1029.827 .0248936
1030.412 .0248897
1030.997 .0248854
1031.582 .0248808
1032.167 .0248759
1032.752 .0248708
1033.336 .0248655
1033.921 .0248602
1034.505 .0248549
1035.089 .0248495
1035.672 .0248440
1036.256 .0248384
1036.839 .0248328
1037.422 .0248270
1038.005 .0248212
1038.588 .0248153
1039.171 .0248094
1039.753 .0248034
1040.335 .0247975
1040.918 .0247915
1041.500 .0247854
1042.081 .0247792
1042.663 .0247729
1043.244 .0247664
1043.826 .0247598
1044.407 .0247531
1044.988 .0247465
1045.569 .0247399
1046.150 .0247333
1046.730 .0247268
1047.311 .0247204
1047.891 .0247141
1048.471 .0247079
1049.052 .0247018
1049.632 .0246959
1050.211 .0246901
1050.791 .0246846
1051.371 .0246794
1051.950 .0246744
1052.530 .0246696
1053.109 .0246648
1053.688 .0246600
1054.268 .0246552
1054.847 .0246502
1055.426 .0246453
1056.005 .0246405
1056.583 .0246360
1057.162 .0246319
1057.741 .0246285
1058.319 .0246257
1058.898 .0246238
1059.476 .0246226
1060.055 .0246222
1060.633 .0246223
1061.211 .0246230
1061.790 .0246241
1062.368 .0246256
1062.946 .0246276
1063.524 .0246301
1064.102 .0246330
1064.680 .0246365
1065.258 .0246405
1065.836 .0246449
1066.414 .0246494
1066.992 .0246542
1067.570 .0246590
1068.148 .0246638
1068.726 .0246686
1069.304 .0246734
1069.882 .0246784
1070.460 .0246838
1071.038 .0246898
1071.616 .0246963
1072.194 .0247034
1072.772 .0247113
1073.350 .0247196
1073.928 .0247285
1074.506 .0247376
1075.084 .0247471
1075.662 .0247569
1076.240 .0247668
1076.819 .0247769
1077.397 .0247873
1077.976 .0247981
1078.554 .0248093
1079.133 .0248210
1079.711 .0248333
1080.290 .0248462
1080.869 .0248598
1081.448 .0248740
1082.027 .0248888
1082.606 .0249041
1083.185 .0249198
1083.764 .0249360
1084.343 .0249525
1084.923 .0249693
1085.502 .0249864
1086.082 .0250038
1086.662 .0250216
1087.242 .0250395
1087.822 .0250576
1088.402 .0250757
1088.983 .0250938
1089.563 .0251116
1090.144 .0251293
1090.725 .0251467
1091.306 .0251641
1091.887 .0251815
1092.469 .0251991
1093.050 .0252173
1093.632 .0252363
1094.214 .0252561
1094.796 .0252770
1095.379 .0252988
1095.961 .0253215
1096.544 .0253450
1097.127 .0253693
1097.710 .0253942
1098.294 .0254199
1098.877 .0254465
1099.461 .0254740
1100.046 .0255026
1100.630 .0255323
1101.215 .0255633
1101.800 .0255954
1102.385 .0256285
1102.970 .0256625
1103.556 .0256975
1104.142 .0257335
1104.728 .0257705
1105.315 .0258086
1105.902 .0258478
1106.489 .0258881
1107.077 .0259295
1107.664 .0259716
1108.253 .0260143
1108.841 .0260572
1109.430 .0261002
1110.019 .0261429
1110.609 .0261853
1111.198 .0262275
1111.789 .0262695
1112.379 .0263115
1112.970 .0263533
1113.561 .0263951
1114.153 .0264370
1114.745 .0264789
1115.338 .0265211
1115.931 .0265637
1116.524 .0266073
1117.117 .0266522
1117.712 .0266987
1118.306 .0267475
1118.901 .0267986
1119.496 .0268519
1120.092 .0269076
1120.689 .0269652
1121.285 .0270245
1121.882 .0270855
1122.480 .0271482
1123.078 .0272128
1123.677 .0272796
1124.276 .0273490
1124.875 .0274214
1125.476 .0274971
1126.076 .0275764
1126.677 .0276588
1127.279 .0277440
1127.881 .0278319
1128.484 .0279220
1129.087 .0279611
1129.691 .0280551
1130.295 .0281515
1130.900 .0282506
1131.505 .0283526
1132.111 .0284579
1132.718 .0285660
1133.325 .0286766
1133.933 .0287896
1134.541 .0289074
1135.150 .0290262
1135.760 .0291315
1136.370 .0292369
1136.981 .0294014
1137.592 .0295053
1138.204 .0296155
1138.817 .0297333
1139.431 .0298602
1140.045 .0299979
1140.660 .0301271
1141.275 .0302529
1141.891 .0303955
1142.508 .0306137
1143.126 .0307429
1143.744 .0304741
1144.363 .0305911
1144.983 .0314852
