Measurement Sequence started on: 15-12-46-377
Integration time: 28
Scans to Average: 2 
>>>>>Begin Spectral Data<<<<<
432.689 .0000100
433.621 .0000100
434.552 .0000100
435.482 .0000100
436.410 .0000100
437.337 .0000100
438.262 .0264642
439.187 .0560963
440.110 .0928474
441.031 .1343319
441.952 .1076525
442.871 .1124353
443.789 .1168870
444.705 .1210736
445.621 .1250426
446.535 .1288297
447.447 .1310699
448.359 .1316172
449.269 .1301154
450.178 .1263303
451.086 .1203393
451.993 .1126027
452.898 .1038838
453.803 .0950465
454.706 .0868258
455.608 .0796770
456.508 .0737515
457.408 .0697298
458.306 .0666287
459.204 .0640923
460.100 .0619480
460.995 .0600974
461.888 .0584768
462.781 .0570409
463.673 .0557573
464.563 .0546018
465.452 .0535564
466.340 .0526058
467.228 .0517378
468.114 .0509431
468.999 .0502140
469.882 .0495441
470.765 .0489279
471.647 .0483620
472.528 .0478434
473.407 .0473692
474.286 .0469377
475.163 .0465481
476.040 .0461994
476.915 .0458907
477.790 .0456202
478.663 .0453856
479.535 .0451848
480.407 .0450141
481.277 .0448699
482.147 .0447488
483.015 .0446478
483.883 .0445648
484.749 .0444987
485.615 .0444496
486.479 .0444176
487.343 .0444035
488.206 .0444081
489.067 .0444312
489.928 .0444730
490.788 .0445330
491.647 .0446113
492.505 .0447076
493.362 .0448224
494.218 .0449565
495.073 .0451115
495.928 .0454346
496.781 .0456540
497.634 .0459008
498.486 .0461767
499.337 .0464836
500.187 .0468223
501.036 .0471941
501.884 .0475991
502.731 .0480387
503.578 .0485140
504.424 .0488267
505.268 .0493599
506.113 .0499342
506.956 .0505527
507.798 .0512199
508.640 .0519417
509.480 .0527267
510.320 .0535863
511.160 .0545331
511.998 .0555811
512.836 .0567467
513.672 .0580437
514.508 .0594893
515.344 .0611010
516.178 .0628971
517.012 .0648976
517.845 .0671194
518.677 .0695805
519.508 .0722962
520.339 .0752743
521.169 .0785196
521.998 .0820144
522.826 .0857313
523.654 .0896199
524.481 .0936150
525.307 .0976434
526.133 .1016210
526.958 .1054603
527.782 .1090749
528.605 .1123865
529.428 .1153292
530.250 .1178458
531.072 .1199032
531.892 .1214749
532.712 .1225476
533.532 .1231159
534.350 .1231777
535.168 .1227389
535.986 .1218074
536.802 .1203897
537.618 .1184964
538.434 .1161388
539.249 .1133477
540.063 .1101639
540.876 .1066466
541.689 .1028691
542.501 .0989102
543.313 .0948555
544.124 .0907906
544.934 .0867954
545.744 .0829383
546.553 .0792738
547.361 .0758440
548.169 .0726691
548.976 .0697596
549.783 .0671125
550.589 .0647157
551.395 .0625518
552.200 .0605981
553.004 .0588285
553.808 .0572212
554.611 .0557567
555.414 .0544180
556.216 .0531904
557.018 .0520600
557.819 .0510142
558.619 .0500412
559.419 .0491305
560.218 .0482740
561.017 .0474638
561.815 .0466945
562.613 .0459617
563.410 .0452620
564.207 .0445924
565.003 .0439508
565.799 .0433349
566.594 .0427425
567.388 .0421722
568.182 .0416224
568.976 .0410922
569.769 .0405801
570.562 .0400853
571.354 .0396075
572.145 .0391458
572.936 .0387001
573.727 .0382695
574.517 .0378540
575.307 .0374536
576.096 .0370679
576.885 .0366968
577.673 .0363405
578.461 .0359992
579.248 .0356735
580.035 .0353636
580.821 .0350698
581.607 .0347923
582.392 .0345313
583.177 .0342866
583.962 .0340584
584.746 .0338464
585.529 .0336500
586.313 .0334686
587.095 .0333015
587.878 .0331475
588.660 .0330059
589.441 .0328755
590.222 .0327556
591.003 .0326454
591.783 .0325441
592.563 .0324510
593.342 .0323657
594.121 .0322873
594.899 .0322153
595.678 .0321490
596.455 .0320875
597.233 .0320301
598.009 .0319762
598.786 .0319251
599.562 .0318762
600.338 .0318291
601.113 .0317833
601.888 .0317193
602.663 .0316766
603.437 .0316353
604.211 .0315954
604.984 .0315571
605.757 .0315202
606.530 .0314847
607.302 .0314506
608.074 .0314177
608.845 .0313860
609.616 .0313553
610.387 .0313424
611.158 .0313133
611.928 .0312851
612.697 .0312579
613.467 .0312319
614.236 .0312072
615.004 .0311838
615.773 .0311616
616.541 .0311408
617.308 .0311210
618.076 .0311022
618.843 .0310841
619.609 .0310666
620.375 .0310495
621.141 .0310326
621.907 .0310157
622.672 .0309989
623.437 .0309821
624.202 .0309651
624.966 .0309480
625.730 .0309306
626.493 .0309128
627.257 .0308945
628.020 .0308756
628.782 .0308559
629.545 .0308354
630.307 .0308140
631.068 .0307916
631.830 .0307684
632.591 .0307443
633.352 .0307195
634.112 .0306941
634.872 .0306683
635.632 .0306422
636.392 .0306158
637.151 .0305894
637.910 .0305630
638.668 .0305367
639.427 .0305105
640.185 .0304846
640.943 .0304589
641.700 .0304336
642.457 .0304088
643.214 .0303845
643.971 .0303609
644.727 .0303380
645.483 .0303160
646.239 .0302948
646.994 .0302746
647.750 .0302551
648.505 .0302363
649.259 .0302179
650.014 .0301999
650.768 .0301820
651.521 .0301643
652.275 .0301467
653.028 .0301291
653.781 .0301117
654.534 .0300945
655.286 .0300773
656.039 .0300601
656.791 .0300429
657.542 .0300255
658.294 .0300076
659.045 .0299893
659.796 .0299705
660.546 .0299512
661.297 .0299315
662.047 .0299114
662.796 .0298911
663.546 .0298705
664.295 .0298499
665.044 .0298292
665.793 .0298085
666.542 .0297878
667.290 .0297674
668.038 .0297471
668.786 .0297271
669.533 .0297073
670.281 .0296878
671.028 .0296687
671.774 .0296499
672.521 .0296315
673.267 .0296136
674.013 .0295961
674.759 .0295793
675.505 .0295629
676.250 .0295471
676.995 .0295318
677.740 .0295170
678.484 .0295025
679.229 .0294884
679.973 .0294745
680.717 .0294610
681.460 .0294477
682.204 .0294347
682.947 .0294220
683.690 .0294095
684.433 .0293971
685.175 .0293849
685.917 .0293726
686.659 .0293603
687.401 .0293479
688.142 .0293354
688.884 .0293230
689.625 .0293104
690.365 .0292979
691.106 .0292853
691.846 .0292727
692.586 .0292601
693.326 .0292473
694.066 .0292345
694.805 .0292215
695.545 .0292085
696.284 .0291953
697.022 .0291820
697.761 .0291686
698.499 .0291552
699.237 .0291415
699.975 .0291279
700.713 .0291142
701.450 .0291005
702.187 .0290868
702.924 .0290733
703.661 .0290597
704.397 .0290460
705.133 .0290323
705.869 .0290183
706.605 .0290042
707.341 .0289898
708.076 .0289752
708.811 .0289604
709.546 .0289455
710.281 .0289305
711.015 .0289155
711.749 .0289002
712.483 .0288848
713.217 .0288692
713.950 .0288532
714.684 .0288369
715.417 .0288204
716.150 .0288035
716.882 .0287864
717.615 .0287691
718.347 .0287515
719.079 .0287337
719.811 .0287158
720.542 .0286976
721.273 .0286794
722.005 .0286610
722.735 .0286425
723.466 .0286241
724.196 .0286056
724.927 .0285873
725.656 .0285692
726.386 .0285513
727.116 .0285338
727.845 .0285166
728.574 .0284997
729.303 .0284833
730.031 .0284674
730.760 .0284519
731.488 .0284369
732.216 .0284222
732.944 .0284079
733.671 .0283940
734.398 .0283804
735.125 .0283672
735.852 .0283544
736.579 .0283419
737.305 .0283298
738.031 .0283181
738.757 .0283066
739.483 .0282954
740.208 .0282843
740.933 .0282735
741.658 .0282627
742.383 .0282521
743.108 .0282415
743.832 .0282310
744.556 .0282206
745.280 .0282102
746.004 .0281997
746.727 .0281892
747.450 .0281786
748.173 .0281679
748.896 .0281571
749.618 .0281460
750.340 .0281348
751.062 .0281233
751.784 .0281116
752.506 .0280997
753.227 .0280874
753.948 .0280749
754.669 .0280621
755.389 .0280492
756.110 .0280360
756.830 .0280228
757.550 .0280095
758.269 .0279961
758.989 .0279827
759.708 .0279693
760.427 .0279558
761.146 .0279422
761.864 .0279285
762.582 .0279147
763.300 .0279009
764.018 .0278869
764.736 .0278729
765.453 .0278589
766.170 .0278451
766.887 .0278313
767.603 .0278177
768.320 .0278043
769.036 .0277912
769.751 .0277785
770.467 .0277661
771.182 .0277543
771.897 .0277429
772.612 .0277322
773.327 .0277220
774.041 .0277125
774.755 .0277036
775.469 .0276953
776.183 .0276877
776.896 .0276806
777.609 .0276741
778.322 .0276682
779.035 .0276628
779.747 .0276580
780.459 .0276536
781.171 .0276497
781.882 .0276460
782.594 .0276426
783.305 .0276393
784.016 .0276362
784.726 .0276331
785.436 .0276300
786.147 .0276244
786.856 .0276209
787.566 .0276172
788.275 .0276133
788.984 .0276089
789.693 .0276042
790.401 .0275989
791.110 .0275930
791.818 .0275866
792.525 .0275796
793.233 .0275721
793.940 .0275640
794.647 .0275588
795.353 .0275499
796.060 .0275403
796.766 .0275299
797.472 .0275189
798.177 .0275072
798.883 .0274949
799.588 .0274820
800.292 .0274686
800.997 .0274549
801.701 .0274408
802.405 .0274263
803.109 .0274114
803.812 .0273962
804.515 .0273807
805.218 .0273647
805.921 .0273485
806.623 .0273320
807.325 .0273153
808.027 .0272983
808.728 .0272813
809.429 .0272641
810.130 .0272468
810.831 .0272295
811.531 .0272122
812.231 .0271949
812.931 .0271779
813.630 .0271611
814.330 .0271448
815.029 .0271289
815.727 .0271137
816.426 .0270989
817.124 .0270848
817.821 .0270712
818.519 .0270582
819.216 .0270457
819.913 .0270337
820.609 .0270223
821.306 .0270116
822.002 .0270015
822.697 .0269920
823.393 .0269833
824.088 .0269752
824.783 .0269678
825.477 .0269608
826.171 .0269542
826.865 .0269481
827.559 .0269422
828.252 .0269367
828.945 .0269315
829.638 .0269266
830.330 .0269220
831.023 .0269176
831.714 .0269134
832.406 .0269094
833.097 .0269055
833.788 .0269016
834.479 .0268977
835.169 .0268937
835.859 .0268897
836.548 .0268856
837.238 .0268815
837.927 .0268772
838.615 .0268728
839.304 .0268680
839.992 .0268629
840.680 .0268574
841.367 .0268515
842.054 .0268450
842.741 .0268382
843.428 .0268309
844.114 .0268232
844.800 .0268152
845.485 .0268069
846.170 .0267981
846.855 .0267890
847.540 .0267793
848.224 .0267693
848.908 .0267587
849.592 .0267476
850.275 .0267361
850.958 .0267241
851.641 .0267118
852.323 .0266990
853.005 .0266858
853.687 .0266723
854.368 .0266583
855.049 .0266439
855.730 .0266292
856.410 .0266141
857.090 .0265988
857.769 .0265833
858.449 .0265677
859.128 .0265519
859.806 .0265360
860.485 .0265200
861.163 .0265040
861.840 .0264879
862.518 .0264719
863.195 .0264560
863.871 .0264403
864.548 .0264248
865.224 .0264097
865.899 .0263950
866.574 .0263807
867.249 .0263668
867.924 .0263532
868.598 .0263401
869.272 .0263274
869.946 .0263152
870.619 .0263034
871.292 .0262921
871.964 .0262813
872.636 .0262711
873.308 .0262616
873.979 .0262527
874.651 .0262444
875.321 .0262368
875.992 .0262298
876.662 .0262235
877.331 .0262178
878.001 .0262127
878.670 .0262081
879.338 .0262040
880.007 .0262002
880.675 .0261968
881.342 .0261936
882.009 .0261907
882.676 .0261879
883.343 .0261853
884.009 .0261829
884.675 .0261807
885.340 .0261787
886.005 .0261769
886.670 .0261752
887.334 .0261736
887.998 .0261721
888.662 .0261705
889.325 .0261689
889.988 .0261672
890.650 .0261653
891.312 .0261633
891.974 .0261612
892.636 .0261589
893.297 .0261563
893.957 .0261535
894.618 .0261504
895.278 .0261470
895.937 .0261431
896.596 .0261387
897.255 .0261339
897.914 .0261286
898.572 .0261227
899.230 .0261164
899.887 .0261096
900.544 .0261024
901.201 .0260946
901.857 .0260810
902.513 .0260721
903.168 .0260627
903.823 .0260528
904.478 .0260425
905.132 .0260317
905.786 .0260204
906.440 .0260088
907.093 .0259967
907.746 .0259842
908.399 .0259712
909.051 .0259577
909.703 .0259438
910.354 .0259360
911.005 .0259214
911.656 .0259064
912.306 .0258911
912.956 .0258756
913.605 .0258599
914.254 .0258441
914.903 .0258282
915.551 .0258122
916.199 .0257960
916.847 .0257796
917.494 .0257630
918.141 .0257462
918.788 .0257292
919.434 .0257122
920.079 .0256951
920.725 .0256779
921.370 .0256607
922.014 .0256435
922.658 .0256262
923.302 .0256089
923.946 .0255915
924.589 .0255740
925.231 .0255564
925.873 .0255388
926.515 .0255213
927.157 .0255038
927.798 .0254864
928.439 .0254692
929.079 .0254522
929.719 .0254354
930.359 .0254186
930.998 .0254020
931.637 .0253855
932.275 .0253691
932.913 .0253529
933.551 .0253369
934.188 .0253213
934.825 .0253060
935.462 .0252912
936.098 .0252768
936.733 .0252628
937.369 .0252492
938.004 .0252359
938.638 .0252228
939.273 .0252100
939.907 .0251974
940.540 .0251849
941.173 .0251728
941.806 .0251609
942.438 .0251492
943.070 .0251379
943.702 .0251268
944.333 .0251159
944.964 .0251053
945.594 .0250948
946.224 .0250845
946.854 .0250744
947.483 .0250645
948.112 .0250548
948.741 .0250454
949.369 .0250363
949.996 .0250274
950.624 .0250188
951.251 .0250104
951.878 .0250022
952.504 .0249941
953.130 .0249860
953.755 .0249780
954.380 .0249700
955.005 .0249621
955.629 .0249542
956.253 .0249464
956.877 .0249387
957.500 .0249311
958.123 .0249237
958.746 .0249163
959.368 .0249092
959.990 .0249023
960.611 .0248957
961.232 .0248895
961.853 .0248836
962.473 .0248781
963.093 .0248729
963.712 .0248682
964.331 .0248638
964.950 .0248597
965.569 .0248560
966.187 .0248524
966.804 .0248491
967.422 .0248459
968.039 .0248427
968.655 .0248394
969.272 .0248362
969.887 .0248327
970.503 .0248291
971.118 .0248254
971.733 .0248213
972.347 .0248170
972.961 .0248125
973.575 .0248078
974.188 .0248027
974.801 .0247973
975.414 .0247915
976.026 .0247852
976.638 .0247785
977.250 .0247712
977.861 .0247632
978.472 .0247546
979.083 .0247453
979.693 .0247353
980.303 .0247248
980.912 .0247065
981.521 .0246951
982.130 .0246833
982.738 .0246713
983.346 .0246591
983.954 .0246469
984.562 .0246346
985.169 .0246225
985.775 .0246107
986.382 .0245993
986.988 .0245884
987.594 .0245782
988.199 .0245688
988.804 .0245602
989.409 .0245589
990.013 .0245517
990.617 .0245453
991.221 .0245398
991.824 .0245351
992.427 .0245314
993.030 .0245285
993.632 .0245265
994.234 .0245254
994.836 .0245251
995.438 .0245254
996.039 .0245264
996.640 .0245279
997.240 .0245299
997.840 .0245323
998.440 .0245351
999.040 .0245382
999.639 .0245417
1000.238 .0245454
1000.836 .0245494
1001.435 .0245535
1002.033 .0245577
1002.630 .0245619
1003.228 .0245661
1003.825 .0245701
1004.422 .0245740
1005.018 .0245777
1005.614 .0245812
1006.210 .0245846
1006.806 .0245878
1007.401 .0245908
1007.996 .0245936
1008.591 .0245961
1009.186 .0245984
1009.780 .0246003
1010.374 .0246019
1010.967 .0246032
1011.561 .0246043
1012.154 .0246052
1012.746 .0246061
1013.339 .0246071
1013.931 .0246081
1014.523 .0246095
1015.115 .0246110
1015.706 .0246129
1016.298 .0246151
1016.888 .0246177
1017.479 .0246207
1018.069 .0246243
1018.660 .0246285
1019.250 .0246333
1019.839 .0246389
1020.429 .0246451
1021.018 .0246519
1021.607 .0246594
1022.195 .0246674
1022.784 .0246758
1023.372 .0246847
1023.960 .0246938
1024.547 .0247033
1025.135 .0247131
1025.722 .0247230
1026.309 .0247332
1026.896 .0247435
1027.483 .0247538
1028.069 .0247641
1028.655 .0247744
1029.241 .0247845
1029.827 .0247944
1030.412 .0248041
1030.997 .0248135
1031.582 .0248228
1032.167 .0248318
1032.752 .0248406
1033.336 .0248491
1033.921 .0248573
1034.505 .0248651
1035.089 .0248725
1035.672 .0248794
1036.256 .0248858
1036.839 .0248917
1037.422 .0248969
1038.005 .0249017
1038.588 .0249059
1039.171 .0249096
1039.753 .0249128
1040.335 .0249155
1040.918 .0249178
1041.500 .0249197
1042.081 .0249212
1042.663 .0249223
1043.244 .0249232
1043.826 .0249240
1044.407 .0249245
1044.988 .0249251
1045.569 .0249256
1046.150 .0249262
1046.730 .0249268
1047.311 .0249275
1047.891 .0249281
1048.471 .0249287
1049.052 .0249292
1049.632 .0249296
1050.211 .0249298
1050.791 .0249299
1051.371 .0249297
1051.950 .0249293
1052.530 .0249286
1053.109 .0249276
1053.688 .0249263
1054.268 .0249247
1054.847 .0249229
1055.426 .0249209
1056.005 .0249188
1056.583 .0249167
1057.162 .0249147
1057.741 .0249127
1058.319 .0249109
1058.898 .0249092
1059.476 .0249077
1060.055 .0249062
1060.633 .0249049
1061.211 .0249037
1061.790 .0249025
1062.368 .0249015
1062.946 .0249004
1063.524 .0248993
1064.102 .0248981
1064.680 .0248965
1065.258 .0248945
1065.836 .0248920
1066.414 .0248890
1066.992 .0248855
1067.570 .0248816
1068.148 .0248774
1068.726 .0248729
1069.304 .0248684
1069.882 .0248638
1070.460 .0248593
1071.038 .0248547
1071.616 .0248501
1072.194 .0248456
1072.772 .0248410
1073.350 .0248364
1073.928 .0248320
1074.506 .0248277
1075.084 .0248236
1075.662 .0248198
1076.240 .0248164
1076.819 .0248132
1077.397 .0248104
1077.976 .0248079
1078.554 .0248057
1079.133 .0248037
1079.711 .0248020
1080.290 .0248009
1080.869 .0248005
1081.448 .0248008
1082.027 .0248021
1082.606 .0248043
1083.185 .0248074
1083.764 .0248114
1084.343 .0248162
1084.923 .0248219
1085.502 .0248284
1086.082 .0248357
1086.662 .0248442
1087.242 .0248538
1087.822 .0248647
1088.402 .0248769
1088.983 .0248904
1089.563 .0249051
1090.144 .0249208
1090.725 .0249372
1091.306 .0249542
1091.887 .0249714
1092.469 .0249890
1093.050 .0250067
1093.632 .0250247
1094.214 .0250428
1094.796 .0250611
1095.379 .0250795
1095.961 .0250979
1096.544 .0251160
1097.127 .0251337
1097.710 .0251507
1098.294 .0251671
1098.877 .0251829
1099.461 .0251984
1100.046 .0252137
1100.630 .0252293
1101.215 .0252452
1101.800 .0252616
1102.385 .0252785
1102.970 .0252958
1103.556 .0253133
1104.142 .0253307
1104.728 .0253476
1105.315 .0253640
1105.902 .0253797
1106.489 .0253949
1107.077 .0254098
1107.664 .0254249
1108.253 .0254403
1108.841 .0254563
1109.430 .0254731
1110.019 .0254906
1110.609 .0255086
1111.198 .0255273
1111.789 .0255463
1112.379 .0255660
1112.970 .0255864
1113.561 .0256079
1114.153 .0256311
1114.745 .0256565
1115.338 .0256844
1115.931 .0257150
1116.524 .0257482
1117.117 .0257839
1117.712 .0258217
1118.306 .0258612
1118.901 .0259021
1119.496 .0259441
1120.092 .0259871
1120.689 .0260312
1121.285 .0260765
1121.882 .0261235
1122.480 .0261725
1123.078 .0262236
1123.677 .0262769
1124.276 .0263325
1124.875 .0263904
1125.476 .0264505
1126.076 .0265128
1126.677 .0265773
1127.279 .0266439
1127.881 .0267127
1128.484 .0267838
1129.087 .0268149
1129.691 .0268901
1130.295 .0269677
1130.900 .0270477
1131.505 .0271301
1132.111 .0272146
1132.718 .0273010
1133.325 .0273890
1133.933 .0274784
1134.541 .0275736
1135.150 .0276678
1135.760 .0277574
1136.370 .0278438
1136.981 .0279476
1137.592 .0280433
1138.204 .0281391
1138.817 .0282429
1139.431 .0283529
1140.045 .0284695
1140.660 .0285871
1141.275 .0287015
1141.891 .0288203
1142.508 .0290603
1143.126 .0291067
1143.744 .0290537
1144.363 .0290278
1144.983 .0294326
