Measurement Sequence started on: 15-12-46-377
Integration time: 28
Scans to Average: 2 
>>>>>Begin Spectral Data<<<<<
432.689 .0000100
433.621 .0000100
434.552 .0000100
435.482 .0000100
436.410 .0000100
437.337 .0000100
438.262 .0266270
439.187 .0564679
440.110 .0936177
441.031 .1356041
441.952 .1090952
442.871 .1139413
443.789 .1184455
444.705 .1226788
445.621 .1266920
446.535 .1305251
447.447 .1328070
448.359 .1333910
449.269 .1319109
450.178 .1281255
451.086 .1221095
451.993 .1143231
452.898 .1055327
453.803 .0966105
454.706 .0883018
455.608 .0810718
456.508 .0750810
457.408 .0710187
458.306 .0679006
459.204 .0653722
460.100 .0632556
460.995 .0614461
461.888 .0598747
462.781 .0584929
463.673 .0572621
464.563 .0561541
465.452 .0551481
466.340 .0542272
467.228 .0533805
468.114 .0525992
468.999 .0518780
469.882 .0512120
470.765 .0505980
471.647 .0500328
472.528 .0495143
473.407 .0490401
474.286 .0486077
475.163 .0482152
476.040 .0478604
476.915 .0475413
477.790 .0472555
478.663 .0470015
479.535 .0467777
480.407 .0465828
481.277 .0464158
482.147 .0462749
483.015 .0461590
483.883 .0460660
484.749 .0459939
485.615 .0459410
486.479 .0459055
487.343 .0458855
488.206 .0458799
489.067 .0458877
489.928 .0459090
490.788 .0459449
491.647 .0459967
492.505 .0460657
493.362 .0461540
494.218 .0462637
495.073 .0463961
495.928 .0466852
496.781 .0468833
497.634 .0471082
498.486 .0473611
499.337 .0476434
500.187 .0479577
501.036 .0483063
501.884 .0486926
502.731 .0491194
503.578 .0495890
504.424 .0499155
505.268 .0504586
506.113 .0510534
506.956 .0517027
507.798 .0524100
508.640 .0531812
509.480 .0540238
510.320 .0549471
511.160 .0559621
511.998 .0570820
512.836 .0583232
513.672 .0597016
514.508 .0612338
515.344 .0629400
516.178 .0648410
517.012 .0669594
517.845 .0693172
518.677 .0719378
519.508 .0748389
520.339 .0780357
521.169 .0815398
521.998 .0853392
522.826 .0894067
523.654 .0936956
524.481 .0981427
525.307 .1026701
526.133 .1071881
526.958 .1115998
527.782 .1158085
528.605 .1197265
529.428 .1232747
530.250 .1263820
531.072 .1290034
531.892 .1311047
532.712 .1326605
533.532 .1336550
534.350 .1340819
535.168 .1339394
535.986 .1332293
536.802 .1319577
537.618 .1301302
538.434 .1277539
539.249 .1248594
540.063 .1214876
540.876 .1176960
541.689 .1135575
542.501 .1091569
543.313 .1045856
544.124 .0999411
544.934 .0953172
545.744 .0907961
546.553 .0864504
547.361 .0823411
548.169 .0785028
548.976 .0749576
549.783 .0717144
550.589 .0687702
551.395 .0661095
552.200 .0637133
553.004 .0615557
553.808 .0596115
554.611 .0578581
555.414 .0562749
556.216 .0548409
557.018 .0535390
557.819 .0523543
558.619 .0512723
559.419 .0502807
560.218 .0493697
561.017 .0485285
561.815 .0477486
562.613 .0470223
563.410 .0463414
564.207 .0456981
565.003 .0450861
565.799 .0445000
566.594 .0439351
567.388 .0433892
568.182 .0428602
568.976 .0423459
569.769 .0418456
570.562 .0413581
571.354 .0408827
572.145 .0404190
572.936 .0399670
573.727 .0395263
574.517 .0390969
575.307 .0386796
576.096 .0382745
576.885 .0378828
577.673 .0375060
578.461 .0371449
579.248 .0368004
580.035 .0364731
580.821 .0361631
581.607 .0358706
582.392 .0355955
583.177 .0353374
583.962 .0350957
584.746 .0348696
585.529 .0346587
586.313 .0344619
587.095 .0342784
587.878 .0341077
588.660 .0339490
589.441 .0338017
590.222 .0336651
591.003 .0335386
591.783 .0334216
592.563 .0333136
593.342 .0332137
594.121 .0331210
594.899 .0330347
595.678 .0329539
596.455 .0328781
597.233 .0328065
598.009 .0327387
598.786 .0326743
599.562 .0326131
600.338 .0325545
601.113 .0324985
601.888 .0324203
602.663 .0323691
603.437 .0323198
604.211 .0322723
604.984 .0322265
605.757 .0321824
606.530 .0321402
607.302 .0320998
608.074 .0320613
608.845 .0320247
609.616 .0319900
610.387 .0319778
611.158 .0319459
611.928 .0319158
612.697 .0318873
613.467 .0318606
614.236 .0318356
615.004 .0318121
615.773 .0317901
616.541 .0317694
617.308 .0317499
618.076 .0317314
618.843 .0317137
619.609 .0316966
620.375 .0316799
621.141 .0316633
621.907 .0316468
622.672 .0316300
623.437 .0316127
624.202 .0315949
624.966 .0315764
625.730 .0315572
626.493 .0315370
627.257 .0315159
628.020 .0314939
628.782 .0314710
629.545 .0314473
630.307 .0314225
631.068 .0313969
631.830 .0313704
632.591 .0313431
633.352 .0313150
634.112 .0312864
634.872 .0312574
635.632 .0312280
636.392 .0311986
637.151 .0311691
637.910 .0311398
638.668 .0311108
639.427 .0310820
640.185 .0310535
640.943 .0310255
641.700 .0309978
642.457 .0309706
643.214 .0309440
643.971 .0309179
644.727 .0308923
645.483 .0308674
646.239 .0308430
646.994 .0308192
647.750 .0307959
648.505 .0307731
649.259 .0307507
650.014 .0307288
650.768 .0307072
651.521 .0306859
652.275 .0306649
653.028 .0306439
653.781 .0306229
654.534 .0306018
655.286 .0305804
656.039 .0305587
656.791 .0305367
657.542 .0305142
658.294 .0304913
659.045 .0304679
659.796 .0304440
660.546 .0304197
661.297 .0303948
662.047 .0303696
662.796 .0303440
663.546 .0303180
664.295 .0302919
665.044 .0302656
665.793 .0302392
666.542 .0302129
667.290 .0301867
668.038 .0301606
668.786 .0301349
669.533 .0301093
670.281 .0300842
671.028 .0300594
671.774 .0300350
672.521 .0300110
673.267 .0299875
674.013 .0299644
674.759 .0299418
675.505 .0299196
676.250 .0298979
676.995 .0298766
677.740 .0298557
678.484 .0298353
679.229 .0298154
679.973 .0297960
680.717 .0297769
681.460 .0297582
682.204 .0297398
682.947 .0297215
683.690 .0297034
684.433 .0296853
685.175 .0296673
685.917 .0296492
686.659 .0296312
687.401 .0296132
688.142 .0295952
688.884 .0295774
689.625 .0295595
690.365 .0295418
691.106 .0295241
691.846 .0295066
692.586 .0294891
693.326 .0294716
694.066 .0294542
694.805 .0294368
695.545 .0294195
696.284 .0294021
697.022 .0293849
697.761 .0293677
698.499 .0293506
699.237 .0293336
699.975 .0293168
700.713 .0293003
701.450 .0292840
702.187 .0292678
702.924 .0292519
703.661 .0292360
704.397 .0292202
705.133 .0292044
705.869 .0291886
706.605 .0291728
707.341 .0291571
708.076 .0291415
708.811 .0291260
709.546 .0291106
710.281 .0290955
711.015 .0290804
711.749 .0290655
712.483 .0290507
713.217 .0290360
713.950 .0290212
714.684 .0290064
715.417 .0289916
716.150 .0289768
716.882 .0289619
717.615 .0289471
718.347 .0289322
719.079 .0289174
719.811 .0289025
720.542 .0288878
721.273 .0288731
722.005 .0288585
722.735 .0288440
723.466 .0288297
724.196 .0288155
724.927 .0288015
725.656 .0287876
726.386 .0287737
727.116 .0287600
727.845 .0287463
728.574 .0287327
729.303 .0287192
730.031 .0287057
730.760 .0286923
731.488 .0286789
732.216 .0286655
732.944 .0286520
733.671 .0286384
734.398 .0286247
735.125 .0286107
735.852 .0285965
736.579 .0285821
737.305 .0285674
738.031 .0285525
738.757 .0285373
739.483 .0285219
740.208 .0285062
740.933 .0284903
741.658 .0284739
742.383 .0284573
743.108 .0284404
743.832 .0284232
744.556 .0284058
745.280 .0283882
746.004 .0283705
746.727 .0283527
747.450 .0283349
748.173 .0283170
748.896 .0282991
749.618 .0282812
750.340 .0282634
751.062 .0282456
751.784 .0282279
752.506 .0282102
753.227 .0281925
753.948 .0281747
754.669 .0281569
755.389 .0281389
756.110 .0281208
756.830 .0281025
757.550 .0280840
758.269 .0280654
758.989 .0280465
759.708 .0280274
760.427 .0280080
761.146 .0279884
761.864 .0279686
762.582 .0279486
763.300 .0279284
764.018 .0279081
764.736 .0278878
765.453 .0278674
766.170 .0278471
766.887 .0278269
767.603 .0278069
768.320 .0277871
769.036 .0277678
769.751 .0277488
770.467 .0277304
771.182 .0277126
771.897 .0276954
772.612 .0276789
773.327 .0276630
774.041 .0276478
774.755 .0276331
775.469 .0276190
776.183 .0276054
776.896 .0275924
777.609 .0275800
778.322 .0275680
779.035 .0275566
779.747 .0275457
780.459 .0275352
781.171 .0275251
781.882 .0275153
782.594 .0275059
783.305 .0274968
784.016 .0274879
784.726 .0274793
785.436 .0274710
786.147 .0274594
786.856 .0274519
787.566 .0274446
788.275 .0274376
788.984 .0274309
789.693 .0274243
790.401 .0274179
791.110 .0274117
791.818 .0274055
792.525 .0273994
793.233 .0273934
793.940 .0273873
794.647 .0273842
795.353 .0273779
796.060 .0273715
796.766 .0273650
797.472 .0273584
798.177 .0273516
798.883 .0273446
799.588 .0273375
800.292 .0273301
800.997 .0273226
801.701 .0273148
802.405 .0273068
803.109 .0272986
803.812 .0272902
804.515 .0272815
805.218 .0272726
805.921 .0272634
806.623 .0272539
807.325 .0272441
808.027 .0272342
808.728 .0272241
809.429 .0272138
810.130 .0272036
810.831 .0271934
811.531 .0271834
812.231 .0271735
812.931 .0271638
813.630 .0271544
814.330 .0271453
815.029 .0271366
815.727 .0271283
816.426 .0271205
817.124 .0271131
817.821 .0271063
818.519 .0271001
819.216 .0270943
819.913 .0270891
820.609 .0270844
821.306 .0270803
822.002 .0270766
822.697 .0270735
823.393 .0270710
824.088 .0270690
824.783 .0270676
825.477 .0270667
826.171 .0270663
826.865 .0270663
827.559 .0270668
828.252 .0270677
828.945 .0270688
829.638 .0270703
830.330 .0270721
831.023 .0270740
831.714 .0270761
832.406 .0270783
833.097 .0270804
833.788 .0270824
834.479 .0270842
835.169 .0270857
835.859 .0270868
836.548 .0270874
837.238 .0270876
837.927 .0270872
838.615 .0270861
839.304 .0270844
839.992 .0270820
840.680 .0270788
841.367 .0270750
842.054 .0270704
842.741 .0270651
843.428 .0270591
844.114 .0270524
844.800 .0270451
845.485 .0270369
846.170 .0270280
846.855 .0270182
847.540 .0270076
848.224 .0269961
848.908 .0269837
849.592 .0269704
850.275 .0269564
850.958 .0269416
851.641 .0269261
852.323 .0269099
853.005 .0268931
853.687 .0268756
854.368 .0268574
855.049 .0268386
855.730 .0268192
856.410 .0267991
857.090 .0267785
857.769 .0267572
858.449 .0267356
859.128 .0267135
859.806 .0266911
860.485 .0266685
861.163 .0266458
861.840 .0266230
862.518 .0266003
863.195 .0265776
863.871 .0265551
864.548 .0265328
865.224 .0265107
865.899 .0264889
866.574 .0264675
867.249 .0264464
867.924 .0264257
868.598 .0264055
869.272 .0263858
869.946 .0263666
870.619 .0263478
871.292 .0263295
871.964 .0263117
872.636 .0262943
873.308 .0262774
873.979 .0262609
874.651 .0262449
875.321 .0262293
875.992 .0262141
876.662 .0261993
877.331 .0261848
878.001 .0261706
878.670 .0261567
879.338 .0261430
880.007 .0261295
880.675 .0261162
881.342 .0261031
882.009 .0260901
882.676 .0260773
883.343 .0260646
884.009 .0260520
884.675 .0260395
885.340 .0260270
886.005 .0260146
886.670 .0260022
887.334 .0259900
887.998 .0259780
888.662 .0259663
889.325 .0259548
889.988 .0259436
890.650 .0259328
891.312 .0259222
891.974 .0259118
892.636 .0259015
893.297 .0258913
893.957 .0258812
894.618 .0258711
895.278 .0258610
895.937 .0258508
896.596 .0258405
897.255 .0258300
897.914 .0258193
898.572 .0258081
899.230 .0257966
899.887 .0257846
900.544 .0257721
901.201 .0257590
901.857 .0257369
902.513 .0257226
903.168 .0257078
903.823 .0256927
904.478 .0256771
905.132 .0256613
905.786 .0256451
906.440 .0256287
907.093 .0256120
907.746 .0255952
908.399 .0255783
909.051 .0255614
909.703 .0255444
910.354 .0255364
911.005 .0255198
911.656 .0255033
912.306 .0254869
912.956 .0254707
913.605 .0254548
914.254 .0254393
914.903 .0254241
915.551 .0254094
916.199 .0253953
916.847 .0253818
917.494 .0253689
918.141 .0253564
918.788 .0253444
919.434 .0253328
920.079 .0253215
920.725 .0253104
921.370 .0252994
922.014 .0252886
922.658 .0252777
923.302 .0252668
923.946 .0252558
924.589 .0252448
925.231 .0252338
925.873 .0252228
926.515 .0252118
927.157 .0252008
927.798 .0251899
928.439 .0251791
929.079 .0251685
929.719 .0251581
930.359 .0251480
930.998 .0251382
931.637 .0251289
932.275 .0251199
932.913 .0251114
933.551 .0251034
934.188 .0250960
934.825 .0250891
935.462 .0250828
936.098 .0250771
936.733 .0250720
937.369 .0250677
938.004 .0250640
938.638 .0250611
939.273 .0250589
939.907 .0250574
940.540 .0250566
941.173 .0250565
941.806 .0250570
942.438 .0250581
943.070 .0250597
943.702 .0250619
944.333 .0250645
944.964 .0250674
945.594 .0250707
946.224 .0250742
946.854 .0250778
947.483 .0250815
948.112 .0250851
948.741 .0250886
949.369 .0250919
949.996 .0250951
950.624 .0250982
951.251 .0251012
951.878 .0251042
952.504 .0251070
953.130 .0251098
953.755 .0251125
954.380 .0251150
955.005 .0251174
955.629 .0251197
956.253 .0251218
956.877 .0251239
957.500 .0251260
958.123 .0251280
958.746 .0251299
959.368 .0251319
959.990 .0251338
960.611 .0251355
961.232 .0251372
961.853 .0251387
962.473 .0251402
963.093 .0251416
963.712 .0251428
964.331 .0251441
964.950 .0251453
965.569 .0251464
966.187 .0251475
966.804 .0251484
967.422 .0251492
968.039 .0251497
968.655 .0251499
969.272 .0251499
969.887 .0251495
970.503 .0251488
971.118 .0251478
971.733 .0251465
972.347 .0251449
972.961 .0251429
973.575 .0251406
974.188 .0251380
974.801 .0251351
975.414 .0251318
976.026 .0251283
976.638 .0251245
977.250 .0251204
977.861 .0251161
978.472 .0251115
979.083 .0251067
979.693 .0251016
980.303 .0250963
980.912 .0250873
981.521 .0250814
982.130 .0250752
982.738 .0250688
983.346 .0250622
983.954 .0250555
984.562 .0250486
985.169 .0250418
985.775 .0250351
986.382 .0250284
986.988 .0250218
987.594 .0250155
988.199 .0250092
988.804 .0250032
989.409 .0250007
990.013 .0249950
990.617 .0249894
991.221 .0249840
991.824 .0249788
992.427 .0249738
993.030 .0249688
993.632 .0249638
994.234 .0249587
994.836 .0249535
995.438 .0249480
996.039 .0249424
996.640 .0249366
997.240 .0249308
997.840 .0249250
998.440 .0249192
999.040 .0249135
999.639 .0249080
1000.238 .0249024
1000.836 .0248969
1001.435 .0248914
1002.033 .0248857
1002.630 .0248799
1003.228 .0248739
1003.825 .0248679
1004.422 .0248617
1005.018 .0248555
1005.614 .0248493
1006.210 .0248430
1006.806 .0248367
1007.401 .0248301
1007.996 .0248233
1008.591 .0248161
1009.186 .0248085
1009.780 .0248006
1010.374 .0247924
1010.967 .0247840
1011.561 .0247756
1012.154 .0247672
1012.746 .0247590
1013.339 .0247509
1013.931 .0247430
1014.523 .0247351
1015.115 .0247272
1015.706 .0247193
1016.298 .0247114
1016.888 .0247033
1017.479 .0246953
1018.069 .0246874
1018.660 .0246795
1019.250 .0246718
1019.839 .0246644
1020.429 .0246570
1021.018 .0246498
1021.607 .0246426
1022.195 .0246354
1022.784 .0246283
1023.372 .0246211
1023.960 .0246140
1024.547 .0246069
1025.135 .0246001
1025.722 .0245934
1026.309 .0245870
1026.896 .0245807
1027.483 .0245746
1028.069 .0245686
1028.655 .0245625
1029.241 .0245564
1029.827 .0245501
1030.412 .0245436
1030.997 .0245371
1031.582 .0245305
1032.167 .0245238
1032.752 .0245171
1033.336 .0245105
1033.921 .0245038
1034.505 .0244971
1035.089 .0244902
1035.672 .0244831
1036.256 .0244758
1036.839 .0244683
1037.422 .0244606
1038.005 .0244526
1038.588 .0244446
1039.171 .0244364
1039.753 .0244281
1040.335 .0244197
1040.918 .0244111
1041.500 .0244023
1042.081 .0243934
1042.663 .0243842
1043.244 .0243750
1043.826 .0243657
1044.407 .0243566
1044.988 .0243476
1045.569 .0243387
1046.150 .0243300
1046.730 .0243216
1047.311 .0243132
1047.891 .0243048
1048.471 .0242964
1049.052 .0242882
1049.632 .0242799
1050.211 .0242718
1050.791 .0242638
1051.371 .0242560
1051.950 .0242483
1052.530 .0242408
1053.109 .0242334
1053.688 .0242260
1054.268 .0242186
1054.847 .0242112
1055.426 .0242039
1056.005 .0241969
1056.583 .0241901
1057.162 .0241837
1057.741 .0241777
1058.319 .0241722
1058.898 .0241671
1059.476 .0241624
1060.055 .0241579
1060.633 .0241535
1061.211 .0241491
1061.790 .0241447
1062.368 .0241404
1062.946 .0241363
1063.524 .0241323
1064.102 .0241286
1064.680 .0241253
1065.258 .0241224
1065.836 .0241198
1066.414 .0241177
1066.992 .0241159
1067.570 .0241144
1068.148 .0241132
1068.726 .0241126
1069.304 .0241125
1069.882 .0241130
1070.460 .0241143
1071.038 .0241163
1071.616 .0241188
1072.194 .0241218
1072.772 .0241250
1073.350 .0241283
1073.928 .0241316
1074.506 .0241348
1075.084 .0241378
1075.662 .0241407
1076.240 .0241436
1076.819 .0241466
1077.397 .0241496
1077.976 .0241527
1078.554 .0241559
1079.133 .0241590
1079.711 .0241620
1080.290 .0241650
1080.869 .0241680
1081.448 .0241711
1082.027 .0241745
1082.606 .0241782
1083.185 .0241824
1083.764 .0241872
1084.343 .0241926
1084.923 .0241984
1085.502 .0242046
1086.082 .0242109
1086.662 .0242173
1087.242 .0242238
1087.822 .0242304
1088.402 .0242373
1088.983 .0242447
1089.563 .0242525
1090.144 .0242609
1090.725 .0242699
1091.306 .0242796
1091.887 .0242897
1092.469 .0243003
1093.050 .0243112
1093.632 .0243226
1094.214 .0243345
1094.796 .0243472
1095.379 .0243609
1095.961 .0243757
1096.544 .0243919
1097.127 .0244094
1097.710 .0244281
1098.294 .0244480
1098.877 .0244689
1099.461 .0244908
1100.046 .0245135
1100.630 .0245371
1101.215 .0245619
1101.800 .0245878
1102.385 .0246151
1102.970 .0246437
1103.556 .0246737
1104.142 .0247048
1104.728 .0247367
1105.315 .0247692
1105.902 .0248020
1106.489 .0248351
1107.077 .0248684
1107.664 .0249021
1108.253 .0249364
1108.841 .0249715
1109.430 .0250076
1110.019 .0250446
1110.609 .0250827
1111.198 .0251217
1111.789 .0251616
1112.379 .0252023
1112.970 .0252437
1113.561 .0252858
1114.153 .0253288
1114.745 .0253727
1115.338 .0254178
1115.931 .0254642
1116.524 .0255120
1117.117 .0255611
1117.712 .0256111
1118.306 .0256620
1118.901 .0257134
1119.496 .0257654
1120.092 .0258178
1120.689 .0258706
1121.285 .0259242
1121.882 .0259789
1122.480 .0260349
1123.078 .0260927
1123.677 .0261525
1124.276 .0262145
1124.875 .0262787
1125.476 .0263453
1126.076 .0264144
1126.677 .0264861
1127.279 .0265604
1127.881 .0266374
1128.484 .0267172
1129.087 .0267527
1129.691 .0268365
1130.295 .0269231
1130.900 .0270126
1131.505 .0271046
1132.111 .0271990
1132.718 .0272951
1133.325 .0273928
1133.933 .0274924
1134.541 .0275936
1135.150 .0276949
1135.760 .0277874
1136.370 .0278926
1136.981 .0279910
1137.592 .0281144
1138.204 .0282451
1138.817 .0283756
1139.431 .0285085
1140.045 .0286393
1140.660 .0287587
1141.275 .0288785
1141.891 .0290124
1142.508 .0291390
1143.126 .0292218
1143.744 .0290486
1144.363 .0294806
1144.983 .0301709
