Measurement Sequence started on: 15-12-46-377
Integration time: 28
Scans to Average: 2 
>>>>>Begin Spectral Data<<<<<
432.689 .0000100
433.621 .0000100
434.552 .0000100
435.482 .0000100
436.410 .0000100
437.337 .0000100
438.262 .0257082
439.187 .0544325
440.110 .0901635
441.031 .1304179
441.952 .1046284
442.871 .1093034
443.789 .1136623
444.705 .1177710
445.621 .1216738
446.535 .1254043
447.447 .1276331
448.359 .1282197
449.269 .1268112
450.178 .1231819
451.086 .1174034
451.993 .1099243
452.898 .1014849
453.803 .0929245
454.706 .0849566
455.608 .0780226
456.508 .0722706
457.408 .0683604
458.306 .0653352
459.204 .0628544
460.100 .0607463
460.995 .0589194
461.888 .0573116
462.781 .0558820
463.673 .0545995
464.563 .0534429
465.452 .0523948
466.340 .0514403
467.228 .0505686
468.114 .0497701
468.999 .0490372
469.882 .0483641
470.765 .0477466
471.647 .0471820
472.528 .0466694
473.407 .0462066
474.286 .0457921
475.163 .0454245
476.040 .0451003
476.915 .0448163
477.790 .0445690
478.663 .0443547
479.535 .0441703
480.407 .0440136
481.277 .0438831
482.147 .0437772
483.015 .0436957
483.883 .0436373
484.749 .0436013
485.615 .0435865
486.479 .0435909
487.343 .0436120
488.206 .0436483
489.067 .0436971
489.928 .0437571
490.788 .0438270
491.647 .0439066
492.505 .0439960
493.362 .0440966
494.218 .0442095
495.073 .0443363
495.928 .0445840
496.781 .0447556
497.634 .0449454
498.486 .0451545
499.337 .0453837
500.187 .0456339
501.036 .0459070
501.884 .0462039
502.731 .0465271
503.578 .0468800
504.424 .0471232
505.268 .0475314
506.113 .0479791
506.956 .0484711
507.798 .0490124
508.640 .0496105
509.480 .0502752
510.320 .0510181
511.160 .0518525
511.998 .0527938
512.836 .0538596
513.672 .0550669
514.508 .0564367
515.344 .0579872
516.178 .0597369
517.012 .0617062
517.845 .0639141
518.677 .0663770
519.508 .0691126
520.339 .0721348
521.169 .0754520
521.998 .0790503
522.826 .0829075
523.654 .0869802
524.481 .0912091
525.307 .0955246
526.133 .0998399
526.958 .1040597
527.782 .1080932
528.605 .1118527
529.428 .1152608
530.250 .1182515
531.072 .1207814
531.892 .1228121
532.712 .1243222
533.532 .1253011
534.350 .1257406
535.168 .1256428
535.986 .1250151
536.802 .1238592
537.618 .1221795
538.434 .1199851
539.249 .1173061
540.063 .1141808
540.876 .1106649
541.689 .1068272
542.501 .1027439
543.313 .0985039
544.124 .0942014
544.934 .0899212
545.744 .0857426
546.553 .0817326
547.361 .0779436
548.169 .0744059
548.976 .0711412
549.783 .0681556
550.589 .0654442
551.395 .0629963
552.200 .0607917
553.004 .0588051
553.808 .0570168
554.611 .0554059
555.414 .0539522
556.216 .0526362
557.018 .0514390
557.819 .0503446
558.619 .0493392
559.419 .0484117
560.218 .0475532
561.017 .0467555
561.815 .0460124
562.613 .0453178
563.410 .0446654
564.207 .0440493
565.003 .0434641
565.799 .0429048
566.594 .0423670
567.388 .0418470
568.182 .0413421
568.976 .0408507
569.769 .0403721
570.562 .0399059
571.354 .0394524
572.145 .0390116
572.936 .0385835
573.727 .0381677
574.517 .0377638
575.307 .0373719
576.096 .0369912
576.885 .0366215
577.673 .0362628
578.461 .0359149
579.248 .0355786
580.035 .0352545
580.821 .0349435
581.607 .0346463
582.392 .0343636
583.177 .0340958
583.962 .0338433
584.746 .0336062
585.529 .0333845
586.313 .0331781
587.095 .0329866
587.878 .0328096
588.660 .0326467
589.441 .0324972
590.222 .0323606
591.003 .0322362
591.783 .0321230
592.563 .0320201
593.342 .0319262
594.121 .0318403
594.899 .0317614
595.678 .0316883
596.455 .0316202
597.233 .0315560
598.009 .0314951
598.786 .0314369
599.562 .0313810
600.338 .0313269
601.113 .0312746
601.888 .0312012
602.663 .0311526
603.437 .0311054
604.211 .0310598
604.984 .0310155
605.757 .0309727
606.530 .0309313
607.302 .0308913
608.074 .0308527
608.845 .0308157
609.616 .0307802
610.387 .0307662
611.158 .0307336
611.928 .0307030
612.697 .0306744
613.467 .0306477
614.236 .0306229
615.004 .0306000
615.773 .0305786
616.541 .0305589
617.308 .0305406
618.076 .0305237
618.843 .0305080
619.609 .0304935
620.375 .0304801
621.141 .0304676
621.907 .0304558
622.672 .0304447
623.437 .0304341
624.202 .0304238
624.966 .0304137
625.730 .0304037
626.493 .0303936
627.257 .0303832
628.020 .0303724
628.782 .0303611
629.545 .0303491
630.307 .0303363
631.068 .0303226
631.830 .0303080
632.591 .0302926
633.352 .0302764
634.112 .0302594
634.872 .0302416
635.632 .0302232
636.392 .0302040
637.151 .0301840
637.910 .0301634
638.668 .0301421
639.427 .0301203
640.185 .0300980
640.943 .0300755
641.700 .0300530
642.457 .0300304
643.214 .0300078
643.971 .0299854
644.727 .0299630
645.483 .0299405
646.239 .0299179
646.994 .0298952
647.750 .0298721
648.505 .0298487
649.259 .0298251
650.014 .0298013
650.768 .0297773
651.521 .0297531
652.275 .0297287
653.028 .0297041
653.781 .0296792
654.534 .0296540
655.286 .0296283
656.039 .0296024
656.791 .0295761
657.542 .0295495
658.294 .0295226
659.045 .0294955
659.796 .0294682
660.546 .0294409
661.297 .0294134
662.047 .0293858
662.796 .0293582
663.546 .0293306
664.295 .0293032
665.044 .0292760
665.793 .0292491
666.542 .0292227
667.290 .0291967
668.038 .0291714
668.786 .0291466
669.533 .0291224
670.281 .0290990
671.028 .0290763
671.774 .0290544
672.521 .0290334
673.267 .0290132
674.013 .0289939
674.759 .0289755
675.505 .0289578
676.250 .0289408
676.995 .0289244
677.740 .0289086
678.484 .0288934
679.229 .0288788
679.973 .0288648
680.717 .0288515
681.460 .0288389
682.204 .0288270
682.947 .0288156
683.690 .0288047
684.433 .0287942
685.175 .0287841
685.917 .0287742
686.659 .0287647
687.401 .0287555
688.142 .0287465
688.884 .0287377
689.625 .0287293
690.365 .0287210
691.106 .0287129
691.846 .0287048
692.586 .0286968
693.326 .0286888
694.066 .0286808
694.805 .0286727
695.545 .0286646
696.284 .0286563
697.022 .0286479
697.761 .0286393
698.499 .0286305
699.237 .0286215
699.975 .0286122
700.713 .0286027
701.450 .0285930
702.187 .0285831
702.924 .0285730
703.661 .0285625
704.397 .0285518
705.133 .0285408
705.869 .0285294
706.605 .0285176
707.341 .0285054
708.076 .0284928
708.811 .0284797
709.546 .0284662
710.281 .0284524
711.015 .0284382
711.749 .0284237
712.483 .0284088
713.217 .0283937
713.950 .0283782
714.684 .0283624
715.417 .0283463
716.150 .0283298
716.882 .0283128
717.615 .0282953
718.347 .0282774
719.079 .0282590
719.811 .0282401
720.542 .0282207
721.273 .0282009
722.005 .0281808
722.735 .0281603
723.466 .0281395
724.196 .0281184
724.927 .0280970
725.656 .0280753
726.386 .0280535
727.116 .0280314
727.845 .0280091
728.574 .0279866
729.303 .0279640
730.031 .0279412
730.760 .0279183
731.488 .0278954
732.216 .0278724
732.944 .0278495
733.671 .0278267
734.398 .0278041
735.125 .0277816
735.852 .0277595
736.579 .0277375
737.305 .0277158
738.031 .0276943
738.757 .0276730
739.483 .0276519
740.208 .0276311
740.933 .0276105
741.658 .0275901
742.383 .0275701
743.108 .0275503
743.832 .0275307
744.556 .0275114
745.280 .0274922
746.004 .0274732
746.727 .0274542
747.450 .0274352
748.173 .0274162
748.896 .0273971
749.618 .0273780
750.340 .0273589
751.062 .0273398
751.784 .0273207
752.506 .0273018
753.227 .0272830
753.948 .0272646
754.669 .0272465
755.389 .0272289
756.110 .0272117
756.830 .0271949
757.550 .0271786
758.269 .0271627
758.989 .0271474
759.708 .0271325
760.427 .0271181
761.146 .0271043
761.864 .0270911
762.582 .0270785
763.300 .0270666
764.018 .0270554
764.736 .0270449
765.453 .0270350
766.170 .0270258
766.887 .0270172
767.603 .0270092
768.320 .0270017
769.036 .0269948
769.751 .0269883
770.467 .0269824
771.182 .0269769
771.897 .0269719
772.612 .0269673
773.327 .0269633
774.041 .0269599
774.755 .0269569
775.469 .0269545
776.183 .0269526
776.896 .0269512
777.609 .0269504
778.322 .0269501
779.035 .0269503
779.747 .0269510
780.459 .0269522
781.171 .0269538
781.882 .0269557
782.594 .0269581
783.305 .0269607
784.016 .0269635
784.726 .0269665
785.436 .0269696
786.147 .0269740
786.856 .0269770
787.566 .0269800
788.275 .0269829
788.984 .0269856
789.693 .0269880
790.401 .0269902
791.110 .0269920
791.818 .0269934
792.525 .0269944
793.233 .0269950
793.940 .0269952
794.647 .0269943
795.353 .0269940
796.060 .0269932
796.766 .0269919
797.472 .0269900
798.177 .0269876
798.883 .0269845
799.588 .0269808
800.292 .0269764
800.997 .0269713
801.701 .0269656
802.405 .0269591
803.109 .0269520
803.812 .0269441
804.515 .0269355
805.218 .0269262
805.921 .0269160
806.623 .0269051
807.325 .0268935
808.027 .0268811
808.728 .0268681
809.429 .0268544
810.130 .0268402
810.831 .0268253
811.531 .0268100
812.231 .0267940
812.931 .0267776
813.630 .0267607
814.330 .0267435
815.029 .0267260
815.727 .0267083
816.426 .0266905
817.124 .0266728
817.821 .0266550
818.519 .0266374
819.216 .0266198
819.913 .0266023
820.609 .0265848
821.306 .0265674
822.002 .0265501
822.697 .0265329
823.393 .0265159
824.088 .0264989
824.783 .0264822
825.477 .0264655
826.171 .0264488
826.865 .0264321
827.559 .0264153
828.252 .0263983
828.945 .0263811
829.638 .0263638
830.330 .0263462
831.023 .0263286
831.714 .0263107
832.406 .0262928
833.097 .0262746
833.788 .0262563
834.479 .0262378
835.169 .0262192
835.859 .0262003
836.548 .0261814
837.238 .0261623
837.927 .0261433
838.615 .0261242
839.304 .0261051
839.992 .0260860
840.680 .0260669
841.367 .0260478
842.054 .0260285
842.741 .0260093
843.428 .0259900
844.114 .0259708
844.800 .0259516
845.485 .0259325
846.170 .0259135
846.855 .0258945
847.540 .0258756
848.224 .0258567
848.908 .0258377
849.592 .0258187
850.275 .0257995
850.958 .0257803
851.641 .0257611
852.323 .0257418
853.005 .0257226
853.687 .0257034
854.368 .0256843
855.049 .0256652
855.730 .0256461
856.410 .0256271
857.090 .0256082
857.769 .0255894
858.449 .0255707
859.128 .0255522
859.806 .0255340
860.485 .0255161
861.163 .0254987
861.840 .0254817
862.518 .0254653
863.195 .0254494
863.871 .0254341
864.548 .0254195
865.224 .0254056
865.899 .0253924
866.574 .0253800
867.249 .0253684
867.924 .0253576
868.598 .0253477
869.272 .0253386
869.946 .0253302
870.619 .0253226
871.292 .0253157
871.964 .0253095
872.636 .0253040
873.308 .0252993
873.979 .0252954
874.651 .0252923
875.321 .0252901
875.992 .0252886
876.662 .0252880
877.331 .0252881
878.001 .0252889
878.670 .0252904
879.338 .0252925
880.007 .0252952
880.675 .0252986
881.342 .0253027
882.009 .0253074
882.676 .0253130
883.343 .0253192
884.009 .0253262
884.675 .0253338
885.340 .0253421
886.005 .0253509
886.670 .0253603
887.334 .0253702
887.998 .0253806
888.662 .0253915
889.325 .0254028
889.988 .0254145
890.650 .0254266
891.312 .0254390
891.974 .0254515
892.636 .0254642
893.297 .0254769
893.957 .0254896
894.618 .0255023
895.278 .0255149
895.937 .0255273
896.596 .0255395
897.255 .0255512
897.914 .0255625
898.572 .0255730
899.230 .0255829
899.887 .0255919
900.544 .0255999
901.201 .0256071
901.857 .0256138
902.513 .0256185
903.168 .0256224
903.823 .0256253
904.478 .0256273
905.132 .0256283
905.786 .0256284
906.440 .0256274
907.093 .0256255
907.746 .0256227
908.399 .0256190
909.051 .0256146
909.703 .0256095
910.354 .0256052
911.005 .0255994
911.656 .0255931
912.306 .0255864
912.956 .0255792
913.605 .0255716
914.254 .0255635
914.903 .0255551
915.551 .0255462
916.199 .0255370
916.847 .0255274
917.494 .0255175
918.141 .0255074
918.788 .0254970
919.434 .0254864
920.079 .0254755
920.725 .0254643
921.370 .0254528
922.014 .0254410
922.658 .0254289
923.302 .0254164
923.946 .0254036
924.589 .0253904
925.231 .0253769
925.873 .0253630
926.515 .0253488
927.157 .0253342
927.798 .0253192
928.439 .0253039
929.079 .0252882
929.719 .0252722
930.359 .0252557
930.998 .0252390
931.637 .0252219
932.275 .0252047
932.913 .0251873
933.551 .0251699
934.188 .0251524
934.825 .0251350
935.462 .0251177
936.098 .0251005
936.733 .0250832
937.369 .0250661
938.004 .0250489
938.638 .0250318
939.273 .0250146
939.907 .0249975
940.540 .0249803
941.173 .0249633
941.806 .0249463
942.438 .0249293
943.070 .0249124
943.702 .0248955
944.333 .0248786
944.964 .0248616
945.594 .0248445
946.224 .0248272
946.854 .0248097
947.483 .0247920
948.112 .0247741
948.741 .0247561
949.369 .0247379
949.996 .0247196
950.624 .0247010
951.251 .0246822
951.878 .0246630
952.504 .0246435
953.130 .0246236
953.755 .0246033
954.380 .0245826
955.005 .0245615
955.629 .0245401
956.253 .0245185
956.877 .0244966
957.500 .0244746
958.123 .0244525
958.746 .0244302
959.368 .0244078
959.990 .0243852
960.611 .0243626
961.232 .0243398
961.853 .0243170
962.473 .0242941
963.093 .0242712
963.712 .0242485
964.331 .0242258
964.950 .0242033
965.569 .0241808
966.187 .0241585
966.804 .0241362
967.422 .0241138
968.039 .0240915
968.655 .0240691
969.272 .0240467
969.887 .0240243
970.503 .0240020
971.118 .0239798
971.733 .0239579
972.347 .0239362
972.961 .0239148
973.575 .0238936
974.188 .0238726
974.801 .0238519
975.414 .0238314
976.026 .0238112
976.638 .0237911
977.250 .0237712
977.861 .0237516
978.472 .0237322
979.083 .0237130
979.693 .0236941
980.303 .0236754
980.912 .0236485
981.521 .0236304
982.130 .0236125
982.738 .0235948
983.346 .0235773
983.954 .0235601
984.562 .0235433
985.169 .0235268
985.775 .0235108
986.382 .0234954
986.988 .0234805
987.594 .0234662
988.199 .0234525
988.804 .0234392
989.409 .0234340
990.013 .0234216
990.617 .0234098
991.221 .0233985
991.824 .0233878
992.427 .0233778
993.030 .0233683
993.632 .0233594
994.234 .0233510
994.836 .0233432
995.438 .0233358
996.039 .0233288
996.640 .0233223
997.240 .0233164
997.840 .0233110
998.440 .0233062
999.040 .0233021
999.639 .0232987
1000.238 .0232960
1000.836 .0232939
1001.435 .0232925
1002.033 .0232918
1002.630 .0232918
1003.228 .0232923
1003.825 .0232936
1004.422 .0232955
1005.018 .0232980
1005.614 .0233011
1006.210 .0233049
1006.806 .0233092
1007.401 .0233141
1007.996 .0233196
1008.591 .0233256
1009.186 .0233321
1009.780 .0233393
1010.374 .0233470
1010.967 .0233554
1011.561 .0233645
1012.154 .0233742
1012.746 .0233847
1013.339 .0233958
1013.931 .0234076
1014.523 .0234201
1015.115 .0234332
1015.706 .0234470
1016.298 .0234614
1016.888 .0234764
1017.479 .0234919
1018.069 .0235079
1018.660 .0235245
1019.250 .0235414
1019.839 .0235588
1020.429 .0235766
1021.018 .0235948
1021.607 .0236132
1022.195 .0236320
1022.784 .0236510
1023.372 .0236702
1023.960 .0236898
1024.547 .0237096
1025.135 .0237297
1025.722 .0237500
1026.309 .0237707
1026.896 .0237916
1027.483 .0238127
1028.069 .0238340
1028.655 .0238554
1029.241 .0238768
1029.827 .0238981
1030.412 .0239193
1030.997 .0239405
1031.582 .0239614
1032.167 .0239822
1032.752 .0240029
1033.336 .0240234
1033.921 .0240437
1034.505 .0240638
1035.089 .0240837
1035.672 .0241033
1036.256 .0241225
1036.839 .0241413
1037.422 .0241596
1038.005 .0241775
1038.588 .0241950
1039.171 .0242123
1039.753 .0242295
1040.335 .0242466
1040.918 .0242636
1041.500 .0242807
1042.081 .0242976
1042.663 .0243144
1043.244 .0243310
1043.826 .0243474
1044.407 .0243637
1044.988 .0243798
1045.569 .0243958
1046.150 .0244118
1046.730 .0244279
1047.311 .0244441
1047.891 .0244603
1048.471 .0244765
1049.052 .0244926
1049.632 .0245084
1050.211 .0245238
1050.791 .0245389
1051.371 .0245535
1051.950 .0245678
1052.530 .0245816
1053.109 .0245951
1053.688 .0246084
1054.268 .0246214
1054.847 .0246342
1055.426 .0246466
1056.005 .0246586
1056.583 .0246703
1057.162 .0246815
1057.741 .0246923
1058.319 .0247028
1058.898 .0247130
1059.476 .0247228
1060.055 .0247322
1060.633 .0247414
1061.211 .0247502
1061.790 .0247587
1062.368 .0247670
1062.946 .0247749
1063.524 .0247826
1064.102 .0247899
1064.680 .0247968
1065.258 .0248035
1065.836 .0248100
1066.414 .0248162
1066.992 .0248224
1067.570 .0248287
1068.148 .0248351
1068.726 .0248419
1069.304 .0248491
1069.882 .0248569
1070.460 .0248651
1071.038 .0248737
1071.616 .0248825
1072.194 .0248914
1072.772 .0249001
1073.350 .0249085
1073.928 .0249166
1074.506 .0249244
1075.084 .0249320
1075.662 .0249396
1076.240 .0249472
1076.819 .0249549
1077.397 .0249627
1077.976 .0249706
1078.554 .0249784
1079.133 .0249860
1079.711 .0249935
1080.290 .0250009
1080.869 .0250083
1081.448 .0250160
1082.027 .0250243
1082.606 .0250332
1083.185 .0250428
1083.764 .0250533
1084.343 .0250642
1084.923 .0250755
1085.502 .0250869
1086.082 .0250981
1086.662 .0251091
1087.242 .0251196
1087.822 .0251300
1088.402 .0251404
1088.983 .0251510
1089.563 .0251618
1090.144 .0251731
1090.725 .0251847
1091.306 .0251965
1091.887 .0252083
1092.469 .0252199
1093.050 .0252312
1093.632 .0252422
1094.214 .0252530
1094.796 .0252637
1095.379 .0252746
1095.961 .0252858
1096.544 .0252973
1097.127 .0253091
1097.710 .0253211
1098.294 .0253329
1098.877 .0253443
1099.461 .0253551
1100.046 .0253651
1100.630 .0253742
1101.215 .0253824
1101.800 .0253899
1102.385 .0253969
1102.970 .0254034
1103.556 .0254095
1104.142 .0254156
1104.728 .0254215
1105.315 .0254274
1105.902 .0254333
1106.489 .0254395
1107.077 .0254461
1107.664 .0254534
1108.253 .0254615
1108.841 .0254706
1109.430 .0254809
1110.019 .0254923
1110.609 .0255051
1111.198 .0255191
1111.789 .0255345
1112.379 .0255514
1112.970 .0255697
1113.561 .0255898
1114.153 .0256113
1114.745 .0256345
1115.338 .0256593
1115.931 .0256854
1116.524 .0257129
1117.117 .0257413
1117.712 .0257706
1118.306 .0258007
1118.901 .0258314
1119.496 .0258627
1120.092 .0258950
1120.689 .0259284
1121.285 .0259630
1121.882 .0259990
1122.480 .0260366
1123.078 .0260758
1123.677 .0261167
1124.276 .0261593
1124.875 .0262035
1125.476 .0262493
1126.076 .0262966
1126.677 .0263455
1127.279 .0263962
1127.881 .0264487
1128.484 .0265032
1129.087 .0265273
1129.691 .0265840
1130.295 .0266427
1130.900 .0267036
1131.505 .0267667
1132.111 .0268321
1132.718 .0269001
1133.325 .0269709
1133.933 .0270445
1134.541 .0271181
1135.150 .0271985
1135.760 .0272831
1136.370 .0273750
1136.981 .0273625
1137.592 .0274713
1138.204 .0275868
1138.817 .0277105
1139.431 .0278343
1140.045 .0279608
1140.660 .0280888
1141.275 .0282188
1141.891 .0283424
1142.508 .0283768
1143.126 .0285945
1143.744 .0287309
1144.363 .0289546
1144.983 .0289147
