Measurement Sequence started on: 15-12-46-377
Integration time: 28
Scans to Average: 2 
>>>>>Begin Spectral Data<<<<<
432.689 .0000100
433.621 .0000100
434.552 .0000100
435.482 .0000100
436.410 .0000100
437.337 .0000100
438.262 .0274286
439.187 .0582316
440.110 .0966788
441.031 .1400877
441.952 .1124281
442.871 .1173503
443.789 .1219179
444.705 .1262073
445.621 .1302694
446.535 .1341453
447.447 .1364207
448.359 .1369403
449.269 .1353203
450.178 .1313142
451.086 .1249980
451.993 .1168508
452.898 .1076665
453.803 .0983527
454.706 .0896849
455.608 .0821490
456.508 .0759123
457.408 .0716843
458.306 .0684479
459.204 .0658345
460.100 .0636508
460.995 .0617861
461.888 .0601665
462.781 .0587432
463.673 .0574774
464.563 .0563431
465.452 .0553201
466.340 .0543921
467.228 .0535466
468.114 .0527742
468.999 .0520668
469.882 .0514180
470.765 .0508219
471.647 .0502742
472.528 .0497715
473.407 .0493103
474.286 .0488882
475.163 .0485042
476.040 .0481570
476.915 .0478450
477.790 .0475667
478.663 .0473206
479.535 .0471051
480.407 .0469183
481.277 .0467582
482.147 .0466226
483.015 .0465096
483.883 .0464175
484.749 .0463443
485.615 .0462887
486.479 .0462492
487.343 .0462243
488.206 .0462128
489.067 .0462135
489.928 .0462256
490.788 .0462490
491.647 .0462840
492.505 .0463306
493.362 .0463904
494.218 .0464643
495.073 .0465540
495.928 .0467508
496.781 .0468906
497.634 .0470513
498.486 .0472340
499.337 .0474402
500.187 .0476718
501.036 .0479312
501.884 .0482223
502.731 .0485491
503.578 .0489157
504.424 .0491898
505.268 .0496312
506.113 .0501238
506.956 .0506710
507.798 .0512778
508.640 .0519498
509.480 .0526939
510.320 .0535186
511.160 .0544348
511.998 .0554551
512.836 .0565966
513.672 .0578761
514.508 .0593139
515.344 .0609302
516.178 .0627453
517.012 .0647827
517.845 .0670649
518.677 .0696124
519.508 .0724422
520.339 .0755661
521.169 .0789917
521.998 .0826994
522.826 .0866586
523.654 .0908194
524.481 .0951198
525.307 .0994851
526.133 .1038249
526.958 .1080453
527.782 .1120568
528.605 .1157731
529.428 .1191174
530.250 .1220215
531.072 .1244415
531.892 .1263397
532.712 .1276939
533.532 .1284926
534.350 .1287319
535.168 .1284152
535.986 .1275502
536.802 .1261426
537.618 .1242019
538.434 .1217391
539.249 .1187897
540.063 .1154003
540.876 .1116327
541.689 .1075600
542.501 .1032636
543.313 .0988370
544.124 .0943754
544.934 .0899644
545.744 .0856837
546.553 .0816011
547.361 .0777707
548.169 .0742219
548.976 .0709738
549.783 .0680303
550.589 .0653832
551.395 .0630136
552.200 .0608949
553.004 .0589974
553.808 .0572953
554.611 .0557643
555.414 .0543819
556.216 .0531288
557.018 .0519860
557.819 .0509380
558.619 .0499714
559.419 .0490755
560.218 .0482420
561.017 .0474622
561.815 .0467298
562.613 .0460394
563.410 .0453849
564.207 .0447619
565.003 .0441658
565.799 .0435934
566.594 .0430415
567.388 .0425089
568.182 .0419938
568.976 .0414955
569.769 .0410140
570.562 .0405490
571.354 .0401001
572.145 .0396678
572.936 .0392513
573.727 .0388498
574.517 .0384625
575.307 .0380888
576.096 .0377273
576.885 .0373773
577.673 .0370389
578.461 .0367123
579.248 .0363982
580.035 .0360973
580.821 .0358098
581.607 .0355367
582.392 .0352785
583.177 .0350351
583.962 .0348064
584.746 .0345921
585.529 .0343916
586.313 .0342038
587.095 .0340283
587.878 .0338644
588.660 .0337115
589.441 .0335693
590.222 .0334374
591.003 .0333154
591.783 .0332028
592.563 .0330991
593.342 .0330037
594.121 .0329159
594.899 .0328351
595.678 .0327603
596.455 .0326910
597.233 .0326264
598.009 .0325661
598.786 .0325096
599.562 .0324565
600.338 .0324067
601.113 .0323599
601.888 .0322996
602.663 .0322595
603.437 .0322220
604.211 .0321868
604.984 .0321539
605.757 .0321231
606.530 .0320942
607.302 .0320670
608.074 .0320411
608.845 .0320164
609.616 .0319927
610.387 .0319832
611.158 .0319603
611.928 .0319380
612.697 .0319162
613.467 .0318948
614.236 .0318738
615.004 .0318529
615.773 .0318322
616.541 .0318113
617.308 .0317901
618.076 .0317684
618.843 .0317460
619.609 .0317229
620.375 .0316991
621.141 .0316745
621.907 .0316494
622.672 .0316236
623.437 .0315973
624.202 .0315705
624.966 .0315432
625.730 .0315154
626.493 .0314871
627.257 .0314583
628.020 .0314293
628.782 .0313999
629.545 .0313705
630.307 .0313409
631.068 .0313115
631.830 .0312821
632.591 .0312528
633.352 .0312235
634.112 .0311943
634.872 .0311651
635.632 .0311360
636.392 .0311069
637.151 .0310779
637.910 .0310490
638.668 .0310202
639.427 .0309915
640.185 .0309629
640.943 .0309343
641.700 .0309058
642.457 .0308772
643.214 .0308486
643.971 .0308200
644.727 .0307915
645.483 .0307631
646.239 .0307350
646.994 .0307071
647.750 .0306796
648.505 .0306526
649.259 .0306261
650.014 .0306002
650.768 .0305749
651.521 .0305503
652.275 .0305263
653.028 .0305031
653.781 .0304806
654.534 .0304588
655.286 .0304377
656.039 .0304172
656.791 .0303973
657.542 .0303779
658.294 .0303591
659.045 .0303407
659.796 .0303228
660.546 .0303053
661.297 .0302881
662.047 .0302713
662.796 .0302549
663.546 .0302388
664.295 .0302229
665.044 .0302073
665.793 .0301921
666.542 .0301771
667.290 .0301624
668.038 .0301482
668.786 .0301344
669.533 .0301211
670.281 .0301083
671.028 .0300959
671.774 .0300840
672.521 .0300725
673.267 .0300614
674.013 .0300505
674.759 .0300400
675.505 .0300297
676.250 .0300196
676.995 .0300098
677.740 .0300002
678.484 .0299907
679.229 .0299814
679.973 .0299721
680.717 .0299628
681.460 .0299534
682.204 .0299439
682.947 .0299340
683.690 .0299239
684.433 .0299133
685.175 .0299022
685.917 .0298907
686.659 .0298786
687.401 .0298660
688.142 .0298527
688.884 .0298388
689.625 .0298243
690.365 .0298091
691.106 .0297931
691.846 .0297764
692.586 .0297591
693.326 .0297410
694.066 .0297222
694.805 .0297028
695.545 .0296829
696.284 .0296625
697.022 .0296418
697.761 .0296207
698.499 .0295994
699.237 .0295779
699.975 .0295562
700.713 .0295342
701.450 .0295121
702.187 .0294898
702.924 .0294672
703.661 .0294445
704.397 .0294216
705.133 .0293985
705.869 .0293753
706.605 .0293518
707.341 .0293282
708.076 .0293044
708.811 .0292804
709.546 .0292563
710.281 .0292321
711.015 .0292077
711.749 .0291833
712.483 .0291587
713.217 .0291341
713.950 .0291095
714.684 .0290847
715.417 .0290598
716.150 .0290348
716.882 .0290097
717.615 .0289844
718.347 .0289590
719.079 .0289336
719.811 .0289080
720.542 .0288824
721.273 .0288569
722.005 .0288315
722.735 .0288064
723.466 .0287817
724.196 .0287576
724.927 .0287340
725.656 .0287112
726.386 .0286892
727.116 .0286680
727.845 .0286477
728.574 .0286282
729.303 .0286097
730.031 .0285920
730.760 .0285752
731.488 .0285595
732.216 .0285446
732.944 .0285307
733.671 .0285176
734.398 .0285053
735.125 .0284938
735.852 .0284828
736.579 .0284725
737.305 .0284627
738.031 .0284534
738.757 .0284445
739.483 .0284360
740.208 .0284279
740.933 .0284202
741.658 .0284130
742.383 .0284061
743.108 .0283997
743.832 .0283939
744.556 .0283885
745.280 .0283835
746.004 .0283790
746.727 .0283749
747.450 .0283712
748.173 .0283678
748.896 .0283646
749.618 .0283619
750.340 .0283595
751.062 .0283575
751.784 .0283559
752.506 .0283546
753.227 .0283538
753.948 .0283531
754.669 .0283527
755.389 .0283522
756.110 .0283517
756.830 .0283510
757.550 .0283500
758.269 .0283487
758.989 .0283470
759.708 .0283448
760.427 .0283422
761.146 .0283392
761.864 .0283356
762.582 .0283314
763.300 .0283266
764.018 .0283212
764.736 .0283152
765.453 .0283084
766.170 .0283010
766.887 .0282929
767.603 .0282842
768.320 .0282749
769.036 .0282650
769.751 .0282547
770.467 .0282440
771.182 .0282328
771.897 .0282213
772.612 .0282093
773.327 .0281969
774.041 .0281840
774.755 .0281707
775.469 .0281570
776.183 .0281428
776.896 .0281281
777.609 .0281130
778.322 .0280973
779.035 .0280811
779.747 .0280643
780.459 .0280470
781.171 .0280291
781.882 .0280106
782.594 .0279916
783.305 .0279721
784.016 .0279521
784.726 .0279316
785.436 .0279105
786.147 .0278772
786.856 .0278547
787.566 .0278316
788.275 .0278082
788.984 .0277843
789.693 .0277603
790.401 .0277360
791.110 .0277116
791.818 .0276870
792.525 .0276624
793.233 .0276376
793.940 .0276128
794.647 .0276002
795.353 .0275754
796.060 .0275507
796.766 .0275261
797.472 .0275016
798.177 .0274773
798.883 .0274531
799.588 .0274291
800.292 .0274052
800.997 .0273814
801.701 .0273579
802.405 .0273345
803.109 .0273113
803.812 .0272884
804.515 .0272659
805.218 .0272437
805.921 .0272218
806.623 .0272002
807.325 .0271789
808.027 .0271578
808.728 .0271371
809.429 .0271167
810.130 .0270967
810.831 .0270771
811.531 .0270579
812.231 .0270392
812.931 .0270208
813.630 .0270029
814.330 .0269855
815.029 .0269686
815.727 .0269521
816.426 .0269362
817.124 .0269208
817.821 .0269060
818.519 .0268918
819.216 .0268782
819.913 .0268652
820.609 .0268529
821.306 .0268411
822.002 .0268301
822.697 .0268197
823.393 .0268101
824.088 .0268013
824.783 .0267931
825.477 .0267857
826.171 .0267790
826.865 .0267730
827.559 .0267676
828.252 .0267630
828.945 .0267592
829.638 .0267561
830.330 .0267538
831.023 .0267523
831.714 .0267516
832.406 .0267516
833.097 .0267524
833.788 .0267538
834.479 .0267559
835.169 .0267586
835.859 .0267620
836.548 .0267661
837.238 .0267709
837.927 .0267765
838.615 .0267826
839.304 .0267893
839.992 .0267964
840.680 .0268039
841.367 .0268117
842.054 .0268197
842.741 .0268279
843.428 .0268362
844.114 .0268446
844.800 .0268530
845.485 .0268614
846.170 .0268695
846.855 .0268773
847.540 .0268846
848.224 .0268914
848.908 .0268976
849.592 .0269032
850.275 .0269083
850.958 .0269128
851.641 .0269169
852.323 .0269205
853.005 .0269237
853.687 .0269264
854.368 .0269286
855.049 .0269304
855.730 .0269317
856.410 .0269327
857.090 .0269334
857.769 .0269338
858.449 .0269339
859.128 .0269337
859.806 .0269332
860.485 .0269323
861.163 .0269310
861.840 .0269292
862.518 .0269269
863.195 .0269241
863.871 .0269207
864.548 .0269168
865.224 .0269124
865.899 .0269074
866.574 .0269018
867.249 .0268954
867.924 .0268883
868.598 .0268803
869.272 .0268714
869.946 .0268617
870.619 .0268510
871.292 .0268395
871.964 .0268272
872.636 .0268140
873.308 .0268001
873.979 .0267855
874.651 .0267701
875.321 .0267541
875.992 .0267373
876.662 .0267199
877.331 .0267020
878.001 .0266835
878.670 .0266645
879.338 .0266451
880.007 .0266254
880.675 .0266053
881.342 .0265849
882.009 .0265642
882.676 .0265433
883.343 .0265222
884.009 .0265007
884.675 .0264791
885.340 .0264573
886.005 .0264353
886.670 .0264130
887.334 .0263906
887.998 .0263678
888.662 .0263448
889.325 .0263214
889.988 .0262978
890.650 .0262737
891.312 .0262493
891.974 .0262246
892.636 .0261996
893.297 .0261743
893.957 .0261487
894.618 .0261229
895.278 .0260969
895.937 .0260705
896.596 .0260439
897.255 .0260169
897.914 .0259896
898.572 .0259619
899.230 .0259338
899.887 .0259054
900.544 .0258766
901.201 .0258476
901.857 .0258028
902.513 .0257733
903.168 .0257436
903.823 .0257138
904.478 .0256839
905.132 .0256540
905.786 .0256240
906.440 .0255940
907.093 .0255640
907.746 .0255342
908.399 .0255046
909.051 .0254753
909.703 .0254462
910.354 .0254329
911.005 .0254047
911.656 .0253769
912.306 .0253496
912.956 .0253228
913.605 .0252966
914.254 .0252710
914.903 .0252460
915.551 .0252219
916.199 .0251985
916.847 .0251759
917.494 .0251540
918.141 .0251330
918.788 .0251127
919.434 .0250930
920.079 .0250739
920.725 .0250553
921.370 .0250372
922.014 .0250196
922.658 .0250025
923.302 .0249858
923.946 .0249696
924.589 .0249537
925.231 .0249382
925.873 .0249231
926.515 .0249083
927.157 .0248938
927.798 .0248795
928.439 .0248654
929.079 .0248517
929.719 .0248384
930.359 .0248254
930.998 .0248129
931.637 .0248009
932.275 .0247893
932.913 .0247783
933.551 .0247678
934.188 .0247578
934.825 .0247484
935.462 .0247396
936.098 .0247313
936.733 .0247235
937.369 .0247164
938.004 .0247098
938.638 .0247039
939.273 .0246986
939.907 .0246939
940.540 .0246900
941.173 .0246866
941.806 .0246839
942.438 .0246819
943.070 .0246805
943.702 .0246797
944.333 .0246795
944.964 .0246799
945.594 .0246809
946.224 .0246826
946.854 .0246848
947.483 .0246876
948.112 .0246909
948.741 .0246947
949.369 .0246989
949.996 .0247035
950.624 .0247085
951.251 .0247138
951.878 .0247195
952.504 .0247256
953.130 .0247321
953.755 .0247390
954.380 .0247464
955.005 .0247542
955.629 .0247625
956.253 .0247712
956.877 .0247804
957.500 .0247900
958.123 .0248000
958.746 .0248104
959.368 .0248213
959.990 .0248328
960.611 .0248447
961.232 .0248571
961.853 .0248700
962.473 .0248832
963.093 .0248968
963.712 .0249107
964.331 .0249248
964.950 .0249390
965.569 .0249534
966.187 .0249679
966.804 .0249825
967.422 .0249970
968.039 .0250116
968.655 .0250261
969.272 .0250404
969.887 .0250545
970.503 .0250683
971.118 .0250817
971.733 .0250946
972.347 .0251070
972.961 .0251189
973.575 .0251301
974.188 .0251406
974.801 .0251503
975.414 .0251593
976.026 .0251674
976.638 .0251746
977.250 .0251810
977.861 .0251864
978.472 .0251910
979.083 .0251946
979.693 .0251973
980.303 .0251992
980.912 .0251986
981.521 .0251987
982.130 .0251982
982.738 .0251971
983.346 .0251956
983.954 .0251936
984.562 .0251913
985.169 .0251888
985.775 .0251861
986.382 .0251833
986.988 .0251805
987.594 .0251775
988.199 .0251746
988.804 .0251717
989.409 .0251711
990.013 .0251684
990.617 .0251658
991.221 .0251634
991.824 .0251611
992.427 .0251590
993.030 .0251570
993.632 .0251550
994.234 .0251529
994.836 .0251506
995.438 .0251482
996.039 .0251454
996.640 .0251424
997.240 .0251392
997.840 .0251357
998.440 .0251320
999.040 .0251281
999.639 .0251238
1000.238 .0251193
1000.836 .0251142
1001.435 .0251087
1002.033 .0251026
1002.630 .0250958
1003.228 .0250884
1003.825 .0250804
1004.422 .0250716
1005.018 .0250623
1005.614 .0250523
1006.210 .0250416
1006.806 .0250302
1007.401 .0250180
1007.996 .0250050
1008.591 .0249911
1009.186 .0249765
1009.780 .0249612
1010.374 .0249452
1010.967 .0249289
1011.561 .0249122
1012.154 .0248952
1012.746 .0248782
1013.339 .0248610
1013.931 .0248437
1014.523 .0248262
1015.115 .0248087
1015.706 .0247910
1016.298 .0247732
1016.888 .0247554
1017.479 .0247376
1018.069 .0247199
1018.660 .0247022
1019.250 .0246846
1019.839 .0246671
1020.429 .0246496
1021.018 .0246322
1021.607 .0246148
1022.195 .0245975
1022.784 .0245804
1023.372 .0245635
1023.960 .0245470
1024.547 .0245310
1025.135 .0245156
1025.722 .0245008
1026.309 .0244866
1026.896 .0244729
1027.483 .0244596
1028.069 .0244467
1028.655 .0244341
1029.241 .0244216
1029.827 .0244093
1030.412 .0243969
1030.997 .0243846
1031.582 .0243722
1032.167 .0243597
1032.752 .0243471
1033.336 .0243342
1033.921 .0243210
1034.505 .0243074
1035.089 .0242933
1035.672 .0242787
1036.256 .0242636
1036.839 .0242481
1037.422 .0242322
1038.005 .0242159
1038.588 .0241993
1039.171 .0241825
1039.753 .0241654
1040.335 .0241482
1040.918 .0241307
1041.500 .0241130
1042.081 .0240950
1042.663 .0240768
1043.244 .0240583
1043.826 .0240396
1044.407 .0240209
1044.988 .0240021
1045.569 .0239835
1046.150 .0239649
1046.730 .0239467
1047.311 .0239288
1047.891 .0239114
1048.471 .0238943
1049.052 .0238777
1049.632 .0238616
1050.211 .0238458
1050.791 .0238306
1051.371 .0238158
1051.950 .0238017
1052.530 .0237882
1053.109 .0237756
1053.688 .0237636
1054.268 .0237525
1054.847 .0237422
1055.426 .0237326
1056.005 .0237237
1056.583 .0237155
1057.162 .0237077
1057.741 .0237005
1058.319 .0236939
1058.898 .0236878
1059.476 .0236824
1060.055 .0236776
1060.633 .0236736
1061.211 .0236704
1061.790 .0236679
1062.368 .0236661
1062.946 .0236651
1063.524 .0236648
1064.102 .0236651
1064.680 .0236660
1065.258 .0236676
1065.836 .0236698
1066.414 .0236727
1066.992 .0236763
1067.570 .0236805
1068.148 .0236854
1068.726 .0236909
1069.304 .0236970
1069.882 .0237034
1070.460 .0237100
1071.038 .0237169
1071.616 .0237239
1072.194 .0237308
1072.772 .0237377
1073.350 .0237444
1073.928 .0237510
1074.506 .0237576
1075.084 .0237641
1075.662 .0237707
1076.240 .0237772
1076.819 .0237839
1077.397 .0237907
1077.976 .0237975
1078.554 .0238046
1079.133 .0238119
1079.711 .0238194
1080.290 .0238271
1080.869 .0238351
1081.448 .0238435
1082.027 .0238522
1082.606 .0238614
1083.185 .0238711
1083.764 .0238813
1084.343 .0238921
1084.923 .0239036
1085.502 .0239157
1086.082 .0239284
1086.662 .0239418
1087.242 .0239560
1087.822 .0239708
1088.402 .0239865
1088.983 .0240031
1089.563 .0240207
1090.144 .0240394
1090.725 .0240592
1091.306 .0240802
1091.887 .0241023
1092.469 .0241256
1093.050 .0241500
1093.632 .0241754
1094.214 .0242018
1094.796 .0242293
1095.379 .0242577
1095.961 .0242872
1096.544 .0243176
1097.127 .0243491
1097.710 .0243814
1098.294 .0244146
1098.877 .0244484
1099.461 .0244826
1100.046 .0245170
1100.630 .0245516
1101.215 .0245861
1101.800 .0246207
1102.385 .0246554
1102.970 .0246905
1103.556 .0247262
1104.142 .0247625
1104.728 .0247996
1105.315 .0248374
1105.902 .0248761
1106.489 .0249154
1107.077 .0249554
1107.664 .0249961
1108.253 .0250374
1108.841 .0250796
1109.430 .0251227
1110.019 .0251670
1110.609 .0252124
1111.198 .0252592
1111.789 .0253070
1112.379 .0253556
1112.970 .0254048
1113.561 .0254542
1114.153 .0255038
1114.745 .0255534
1115.338 .0256029
1115.931 .0256525
1116.524 .0257024
1117.117 .0257528
1117.712 .0258041
1118.306 .0258564
1118.901 .0259099
1119.496 .0259648
1120.092 .0260212
1120.689 .0260790
1121.285 .0261385
1121.882 .0262000
1122.480 .0262635
1123.078 .0263293
1123.677 .0263974
1124.276 .0264679
1124.875 .0265407
1125.476 .0266159
1126.076 .0266932
1126.677 .0267724
1127.279 .0268533
1127.881 .0269355
1128.484 .0270189
1129.087 .0270537
1129.691 .0271385
1130.295 .0272245
1130.900 .0273115
1131.505 .0273993
1132.111 .0274878
1132.718 .0275766
1133.325 .0276657
1133.933 .0277561
1134.541 .0278452
1135.150 .0279355
1135.760 .0280205
1136.370 .0281139
1136.981 .0283862
1137.592 .0284906
1138.204 .0285875
1138.817 .0286724
1139.431 .0287485
1140.045 .0288153
1140.660 .0288694
1141.275 .0289241
1141.891 .0290030
1142.508 .0290172
1143.126 .0291079
1143.744 .0290162
1144.363 .0293141
1144.983 .0300066
