Measurement Sequence started on: 15-12-46-377
Integration time: 28
Scans to Average: 2 
>>>>>Begin Spectral Data<<<<<
432.689 .0000100
433.621 .0000100
434.552 .0000100
435.482 .0000100
436.410 .0000100
437.337 .0000100
438.262 .0235234
439.187 .0497751
440.110 .0824353
441.031 .1193081
441.952 .0955437
442.871 .0997649
443.789 .1036946
444.705 .1073953
445.621 .1109084
446.535 .1142629
447.447 .1162431
448.359 .1167208
449.269 .1153736
450.178 .1119912
451.086 .1066411
451.993 .0997348
452.898 .0919545
453.803 .0840702
454.706 .0767390
455.608 .0703678
456.508 .0650948
457.408 .0615236
458.306 .0587766
459.204 .0565386
460.100 .0546525
460.995 .0530277
461.888 .0516051
462.781 .0503457
463.673 .0492240
464.563 .0482213
465.452 .0473248
466.340 .0465222
467.228 .0458044
468.114 .0451624
468.999 .0445885
469.882 .0440730
470.765 .0436087
471.647 .0431887
472.528 .0428088
473.407 .0424643
474.286 .0421530
475.163 .0418734
476.040 .0416242
476.915 .0414045
477.790 .0412122
478.663 .0410448
479.535 .0409002
480.407 .0407756
481.277 .0406683
482.147 .0405754
483.015 .0404945
483.883 .0404240
484.749 .0403630
485.615 .0403113
486.479 .0402688
487.343 .0402359
488.206 .0402137
489.067 .0402027
489.928 .0402036
490.788 .0402174
491.647 .0402446
492.505 .0402860
493.362 .0403417
494.218 .0404116
495.073 .0404954
495.928 .0406712
496.781 .0407875
497.634 .0409159
498.486 .0410570
499.337 .0412125
500.187 .0413850
501.036 .0415769
501.884 .0417915
502.731 .0420327
503.578 .0423041
504.424 .0425005
505.268 .0428296
506.113 .0431974
506.956 .0436076
507.798 .0440651
508.640 .0445761
509.480 .0451490
510.320 .0457946
511.160 .0465259
511.998 .0473584
512.836 .0483095
513.672 .0493959
514.508 .0506378
515.344 .0520545
516.178 .0536645
517.012 .0554862
517.845 .0575378
518.677 .0598353
519.508 .0623912
520.339 .0652117
521.169 .0682987
521.998 .0716312
522.826 .0751824
523.654 .0789052
524.481 .0827411
525.307 .0866211
526.133 .0904681
526.958 .0941985
527.782 .0977332
528.605 .1009962
529.428 .1039229
530.250 .1064579
531.072 .1085679
531.892 .1102214
532.712 .1114026
533.532 .1121053
534.350 .1123291
535.168 .1120755
535.986 .1113518
536.802 .1101629
537.618 .1085185
538.434 .1064289
539.249 .1039263
540.063 .1010488
540.876 .0978508
541.689 .0943966
542.501 .0907588
543.313 .0870149
544.124 .0832467
544.934 .0795271
545.744 .0759244
546.553 .0724936
547.361 .0692774
548.169 .0662956
548.976 .0635633
549.783 .0610795
550.589 .0588330
551.395 .0568054
552.200 .0549767
553.004 .0533220
553.808 .0518218
554.611 .0504573
555.414 .0492137
556.216 .0480763
557.018 .0470319
557.819 .0460687
558.619 .0451762
559.419 .0443453
560.218 .0435680
561.017 .0428366
561.815 .0421460
562.613 .0414910
563.410 .0408666
564.207 .0402693
565.003 .0396965
565.799 .0391457
566.594 .0386153
567.388 .0381046
568.182 .0376123
568.976 .0371372
569.769 .0366788
570.562 .0362362
571.354 .0358081
572.145 .0353945
572.936 .0349952
573.727 .0346102
574.517 .0342399
575.307 .0338848
576.096 .0335452
576.885 .0332222
577.673 .0329165
578.461 .0326282
579.248 .0323571
580.035 .0321031
580.821 .0318657
581.607 .0316442
582.392 .0314384
583.177 .0312474
583.962 .0310709
584.746 .0309085
585.529 .0307594
586.313 .0306226
587.095 .0304975
587.878 .0303833
588.660 .0302792
589.441 .0301844
590.222 .0300982
591.003 .0300195
591.783 .0299479
592.563 .0298826
593.342 .0298230
594.121 .0297683
594.899 .0297179
595.678 .0296709
596.455 .0296268
597.233 .0295846
598.009 .0295440
598.786 .0295042
599.562 .0294649
600.338 .0294257
601.113 .0293863
601.888 .0293258
602.663 .0292862
603.437 .0292467
604.211 .0292075
604.984 .0291687
605.757 .0291305
606.530 .0290932
607.302 .0290569
608.074 .0290217
608.845 .0289878
609.616 .0289553
610.387 .0289431
611.158 .0289128
611.928 .0288841
612.697 .0288569
613.467 .0288314
614.236 .0288076
615.004 .0287857
615.773 .0287655
616.541 .0287472
617.308 .0287307
618.076 .0287159
618.843 .0287028
619.609 .0286910
620.375 .0286805
621.141 .0286710
621.907 .0286623
622.672 .0286544
623.437 .0286470
624.202 .0286402
624.966 .0286339
625.730 .0286280
626.493 .0286225
627.257 .0286172
628.020 .0286120
628.782 .0286069
629.545 .0286018
630.307 .0285964
631.068 .0285909
631.830 .0285851
632.591 .0285789
633.352 .0285725
634.112 .0285657
634.872 .0285585
635.632 .0285508
636.392 .0285427
637.151 .0285341
637.910 .0285251
638.668 .0285156
639.427 .0285058
640.185 .0284957
640.943 .0284853
641.700 .0284746
642.457 .0284638
643.214 .0284527
643.971 .0284414
644.727 .0284298
645.483 .0284181
646.239 .0284061
646.994 .0283939
647.750 .0283814
648.505 .0283687
649.259 .0283557
650.014 .0283423
650.768 .0283286
651.521 .0283144
652.275 .0282998
653.028 .0282846
653.781 .0282689
654.534 .0282527
655.286 .0282358
656.039 .0282183
656.791 .0282002
657.542 .0281815
658.294 .0281623
659.045 .0281424
659.796 .0281221
660.546 .0281012
661.297 .0280800
662.047 .0280584
662.796 .0280366
663.546 .0280147
664.295 .0279928
665.044 .0279712
665.793 .0279500
666.542 .0279292
667.290 .0279089
668.038 .0278893
668.786 .0278704
669.533 .0278521
670.281 .0278346
671.028 .0278178
671.774 .0278018
672.521 .0277867
673.267 .0277724
674.013 .0277591
674.759 .0277467
675.505 .0277352
676.250 .0277246
676.995 .0277149
677.740 .0277060
678.484 .0276979
679.229 .0276905
679.973 .0276837
680.717 .0276775
681.460 .0276717
682.204 .0276662
682.947 .0276607
683.690 .0276553
684.433 .0276498
685.175 .0276441
685.917 .0276382
686.659 .0276324
687.401 .0276264
688.142 .0276204
688.884 .0276144
689.625 .0276083
690.365 .0276020
691.106 .0275954
691.846 .0275885
692.586 .0275812
693.326 .0275736
694.066 .0275655
694.805 .0275573
695.545 .0275489
696.284 .0275404
697.022 .0275319
697.761 .0275233
698.499 .0275147
699.237 .0275061
699.975 .0274974
700.713 .0274886
701.450 .0274797
702.187 .0274707
702.924 .0274616
703.661 .0274523
704.397 .0274430
705.133 .0274335
705.869 .0274238
706.605 .0274139
707.341 .0274037
708.076 .0273932
708.811 .0273822
709.546 .0273707
710.281 .0273586
711.015 .0273457
711.749 .0273319
712.483 .0273171
713.217 .0273013
713.950 .0272845
714.684 .0272666
715.417 .0272477
716.150 .0272279
716.882 .0272072
717.615 .0271857
718.347 .0271634
719.079 .0271403
719.811 .0271165
720.542 .0270920
721.273 .0270669
722.005 .0270413
722.735 .0270152
723.466 .0269889
724.196 .0269624
724.927 .0269359
725.656 .0269094
726.386 .0268831
727.116 .0268568
727.845 .0268308
728.574 .0268049
729.303 .0267793
730.031 .0267539
730.760 .0267290
731.488 .0267046
732.216 .0266807
732.944 .0266576
733.671 .0266352
734.398 .0266137
735.125 .0265930
735.852 .0265733
736.579 .0265545
737.305 .0265367
738.031 .0265197
738.757 .0265037
739.483 .0264885
740.208 .0264742
740.933 .0264607
741.658 .0264480
742.383 .0264359
743.108 .0264245
743.832 .0264136
744.556 .0264034
745.280 .0263936
746.004 .0263844
746.727 .0263756
747.450 .0263671
748.173 .0263589
748.896 .0263510
749.618 .0263433
750.340 .0263358
751.062 .0263283
751.784 .0263209
752.506 .0263135
753.227 .0263061
753.948 .0262986
754.669 .0262911
755.389 .0262836
756.110 .0262760
756.830 .0262682
757.550 .0262604
758.269 .0262524
758.989 .0262444
759.708 .0262363
760.427 .0262281
761.146 .0262198
761.864 .0262114
762.582 .0262030
763.300 .0261946
764.018 .0261862
764.736 .0261777
765.453 .0261692
766.170 .0261607
766.887 .0261521
767.603 .0261435
768.320 .0261347
769.036 .0261259
769.751 .0261170
770.467 .0261079
771.182 .0260986
771.897 .0260891
772.612 .0260793
773.327 .0260693
774.041 .0260589
774.755 .0260483
775.469 .0260373
776.183 .0260261
776.896 .0260146
777.609 .0260029
778.322 .0259909
779.035 .0259787
779.747 .0259662
780.459 .0259534
781.171 .0259403
781.882 .0259269
782.594 .0259132
783.305 .0258992
784.016 .0258850
784.726 .0258705
785.436 .0258558
786.147 .0258331
786.856 .0258178
787.566 .0258022
788.275 .0257862
788.984 .0257697
789.693 .0257526
790.401 .0257349
791.110 .0257165
791.818 .0256974
792.525 .0256776
793.233 .0256570
793.940 .0256356
794.647 .0256227
795.353 .0256000
796.060 .0255764
796.766 .0255521
797.472 .0255271
798.177 .0255014
798.883 .0254749
799.588 .0254478
800.292 .0254200
800.997 .0253917
801.701 .0253630
802.405 .0253338
803.109 .0253045
803.812 .0252749
804.515 .0252453
805.218 .0252156
805.921 .0251859
806.623 .0251563
807.325 .0251269
808.027 .0250977
808.728 .0250687
809.429 .0250402
810.130 .0250120
810.831 .0249844
811.531 .0249573
812.231 .0249309
812.931 .0249050
813.630 .0248797
814.330 .0248551
815.029 .0248311
815.727 .0248079
816.426 .0247854
817.124 .0247638
817.821 .0247430
818.519 .0247230
819.216 .0247038
819.913 .0246855
820.609 .0246680
821.306 .0246514
822.002 .0246357
822.697 .0246211
823.393 .0246075
824.088 .0245951
824.783 .0245840
825.477 .0245742
826.171 .0245656
826.865 .0245583
827.559 .0245522
828.252 .0245471
828.945 .0245432
829.638 .0245403
830.330 .0245384
831.023 .0245375
831.714 .0245375
832.406 .0245383
833.097 .0245398
833.788 .0245419
834.479 .0245444
835.169 .0245472
835.859 .0245502
836.548 .0245531
837.238 .0245560
837.927 .0245588
838.615 .0245613
839.304 .0245636
839.992 .0245655
840.680 .0245670
841.367 .0245681
842.054 .0245686
842.741 .0245687
843.428 .0245684
844.114 .0245676
844.800 .0245666
845.485 .0245653
846.170 .0245638
846.855 .0245621
847.540 .0245603
848.224 .0245583
848.908 .0245561
849.592 .0245538
850.275 .0245512
850.958 .0245485
851.641 .0245457
852.323 .0245426
853.005 .0245394
853.687 .0245360
854.368 .0245323
855.049 .0245284
855.730 .0245242
856.410 .0245196
857.090 .0245146
857.769 .0245092
858.449 .0245032
859.128 .0244968
859.806 .0244898
860.485 .0244822
861.163 .0244741
861.840 .0244653
862.518 .0244559
863.195 .0244460
863.871 .0244355
864.548 .0244246
865.224 .0244133
865.899 .0244016
866.574 .0243895
867.249 .0243771
867.924 .0243644
868.598 .0243513
869.272 .0243380
869.946 .0243244
870.619 .0243107
871.292 .0242969
871.964 .0242831
872.636 .0242694
873.308 .0242558
873.979 .0242422
874.651 .0242288
875.321 .0242153
875.992 .0242019
876.662 .0241885
877.331 .0241750
878.001 .0241614
878.670 .0241477
879.338 .0241338
880.007 .0241197
880.675 .0241052
881.342 .0240904
882.009 .0240751
882.676 .0240594
883.343 .0240433
884.009 .0240269
884.675 .0240101
885.340 .0239931
886.005 .0239760
886.670 .0239586
887.334 .0239410
887.998 .0239231
888.662 .0239050
889.325 .0238865
889.988 .0238678
890.650 .0238489
891.312 .0238299
891.974 .0238109
892.636 .0237920
893.297 .0237732
893.957 .0237546
894.618 .0237362
895.278 .0237179
895.937 .0236997
896.596 .0236816
897.255 .0236634
897.914 .0236452
898.572 .0236270
899.230 .0236086
899.887 .0235901
900.544 .0235714
901.201 .0235526
901.857 .0235225
902.513 .0235025
903.168 .0234821
903.823 .0234612
904.478 .0234398
905.132 .0234179
905.786 .0233954
906.440 .0233723
907.093 .0233488
907.746 .0233247
908.399 .0233001
909.051 .0232751
909.703 .0232497
910.354 .0232360
911.005 .0232105
911.656 .0231849
912.306 .0231593
912.956 .0231338
913.605 .0231086
914.254 .0230837
914.903 .0230593
915.551 .0230354
916.199 .0230121
916.847 .0229893
917.494 .0229672
918.141 .0229457
918.788 .0229249
919.434 .0229049
920.079 .0228856
920.725 .0228672
921.370 .0228496
922.014 .0228329
922.658 .0228170
923.302 .0228019
923.946 .0227875
924.589 .0227740
925.231 .0227611
925.873 .0227489
926.515 .0227375
927.157 .0227267
927.798 .0227166
928.439 .0227071
929.079 .0226983
929.719 .0226901
930.359 .0226823
930.998 .0226751
931.637 .0226684
932.275 .0226622
932.913 .0226565
933.551 .0226514
934.188 .0226468
934.825 .0226430
935.462 .0226399
936.098 .0226375
936.733 .0226357
937.369 .0226346
938.004 .0226341
938.638 .0226342
939.273 .0226348
939.907 .0226361
940.540 .0226380
941.173 .0226406
941.806 .0226440
942.438 .0226482
943.070 .0226531
943.702 .0226587
944.333 .0226649
944.964 .0226716
945.594 .0226787
946.224 .0226861
946.854 .0226937
947.483 .0227015
948.112 .0227094
948.741 .0227174
949.369 .0227254
949.996 .0227334
950.624 .0227413
951.251 .0227490
951.878 .0227564
952.504 .0227635
953.130 .0227703
953.755 .0227770
954.380 .0227834
955.005 .0227897
955.629 .0227960
956.253 .0228022
956.877 .0228083
957.500 .0228143
958.123 .0228200
958.746 .0228256
959.368 .0228310
959.990 .0228361
960.611 .0228411
961.232 .0228459
961.853 .0228506
962.473 .0228552
963.093 .0228596
963.712 .0228640
964.331 .0228681
964.950 .0228719
965.569 .0228755
966.187 .0228787
966.804 .0228815
967.422 .0228840
968.039 .0228860
968.655 .0228877
969.272 .0228889
969.887 .0228896
970.503 .0228898
971.118 .0228894
971.733 .0228884
972.347 .0228868
972.961 .0228845
973.575 .0228815
974.188 .0228779
974.801 .0228736
975.414 .0228687
976.026 .0228632
976.638 .0228570
977.250 .0228501
977.861 .0228425
978.472 .0228342
979.083 .0228252
979.693 .0228155
980.303 .0228051
980.912 .0227877
981.521 .0227760
982.130 .0227639
982.738 .0227515
983.346 .0227388
983.954 .0227259
984.562 .0227128
985.169 .0226995
985.775 .0226860
986.382 .0226723
986.988 .0226584
987.594 .0226444
988.199 .0226302
988.804 .0226159
989.409 .0226085
990.013 .0225943
990.617 .0225801
991.221 .0225660
991.824 .0225519
992.427 .0225378
993.030 .0225236
993.632 .0225092
994.234 .0224945
994.836 .0224795
995.438 .0224642
996.039 .0224486
996.640 .0224326
997.240 .0224165
997.840 .0224004
998.440 .0223843
999.040 .0223682
999.639 .0223522
1000.238 .0223362
1000.836 .0223204
1001.435 .0223046
1002.033 .0222889
1002.630 .0222732
1003.228 .0222576
1003.825 .0222422
1004.422 .0222269
1005.018 .0222119
1005.614 .0221972
1006.210 .0221827
1006.806 .0221684
1007.401 .0221543
1007.996 .0221403
1008.591 .0221263
1009.186 .0221123
1009.780 .0220984
1010.374 .0220846
1010.967 .0220709
1011.561 .0220574
1012.154 .0220442
1012.746 .0220313
1013.339 .0220189
1013.931 .0220068
1014.523 .0219951
1015.115 .0219837
1015.706 .0219726
1016.298 .0219617
1016.888 .0219511
1017.479 .0219406
1018.069 .0219303
1018.660 .0219201
1019.250 .0219101
1019.839 .0219003
1020.429 .0218905
1021.018 .0218809
1021.607 .0218714
1022.195 .0218620
1022.784 .0218525
1023.372 .0218432
1023.960 .0218339
1024.547 .0218246
1025.135 .0218155
1025.722 .0218064
1026.309 .0217975
1026.896 .0217888
1027.483 .0217803
1028.069 .0217721
1028.655 .0217642
1029.241 .0217566
1029.827 .0217493
1030.412 .0217424
1030.997 .0217358
1031.582 .0217294
1032.167 .0217233
1032.752 .0217174
1033.336 .0217116
1033.921 .0217059
1034.505 .0217002
1035.089 .0216946
1035.672 .0216891
1036.256 .0216836
1036.839 .0216783
1037.422 .0216731
1038.005 .0216682
1038.588 .0216634
1039.171 .0216587
1039.753 .0216543
1040.335 .0216499
1040.918 .0216457
1041.500 .0216417
1042.081 .0216378
1042.663 .0216343
1043.244 .0216311
1043.826 .0216284
1044.407 .0216263
1044.988 .0216246
1045.569 .0216236
1046.150 .0216230
1046.730 .0216230
1047.311 .0216234
1047.891 .0216242
1048.471 .0216255
1049.052 .0216272
1049.632 .0216294
1050.211 .0216321
1050.791 .0216355
1051.371 .0216395
1051.950 .0216440
1052.530 .0216491
1053.109 .0216547
1053.688 .0216606
1054.268 .0216667
1054.847 .0216730
1055.426 .0216794
1056.005 .0216859
1056.583 .0216926
1057.162 .0216995
1057.741 .0217066
1058.319 .0217141
1058.898 .0217219
1059.476 .0217301
1060.055 .0217386
1060.633 .0217474
1061.211 .0217564
1061.790 .0217658
1062.368 .0217756
1062.946 .0217857
1063.524 .0217963
1064.102 .0218074
1064.680 .0218191
1065.258 .0218313
1065.836 .0218440
1066.414 .0218571
1066.992 .0218706
1067.570 .0218843
1068.148 .0218983
1068.726 .0219126
1069.304 .0219271
1069.882 .0219418
1070.460 .0219568
1071.038 .0219721
1071.616 .0219876
1072.194 .0220034
1072.772 .0220193
1073.350 .0220354
1073.928 .0220515
1074.506 .0220677
1075.084 .0220839
1075.662 .0221002
1076.240 .0221166
1076.819 .0221331
1077.397 .0221496
1077.976 .0221663
1078.554 .0221830
1079.133 .0221997
1079.711 .0222164
1080.290 .0222331
1080.869 .0222499
1081.448 .0222667
1082.027 .0222836
1082.606 .0223007
1083.185 .0223179
1083.764 .0223354
1084.343 .0223533
1084.923 .0223714
1085.502 .0223900
1086.082 .0224091
1086.662 .0224287
1087.242 .0224489
1087.822 .0224696
1088.402 .0224912
1088.983 .0225134
1089.563 .0225364
1090.144 .0225601
1090.725 .0225846
1091.306 .0226097
1091.887 .0226352
1092.469 .0226611
1093.050 .0226873
1093.632 .0227139
1094.214 .0227409
1094.796 .0227682
1095.379 .0227958
1095.961 .0228236
1096.544 .0228517
1097.127 .0228797
1097.710 .0229077
1098.294 .0229355
1098.877 .0229632
1099.461 .0229907
1100.046 .0230182
1100.630 .0230458
1101.215 .0230737
1101.800 .0231020
1102.385 .0231306
1102.970 .0231595
1103.556 .0231889
1104.142 .0232185
1104.728 .0232484
1105.315 .0232787
1105.902 .0233093
1106.489 .0233404
1107.077 .0233720
1107.664 .0234041
1108.253 .0234366
1108.841 .0234697
1109.430 .0235030
1110.019 .0235364
1110.609 .0235699
1111.198 .0236032
1111.789 .0236364
1112.379 .0236695
1112.970 .0237023
1113.561 .0237350
1114.153 .0237675
1114.745 .0237998
1115.338 .0238319
1115.931 .0238639
1116.524 .0238960
1117.117 .0239283
1117.712 .0239608
1118.306 .0239938
1118.901 .0240272
1119.496 .0240611
1120.092 .0240953
1120.689 .0241294
1121.285 .0241633
1121.882 .0241970
1122.480 .0242302
1123.078 .0242633
1123.677 .0242965
1124.276 .0243300
1124.875 .0243642
1125.476 .0243994
1126.076 .0244355
1126.677 .0244727
1127.279 .0245109
1127.881 .0245498
1128.484 .0245896
1129.087 .0246064
1129.691 .0246475
1130.295 .0246897
1130.900 .0247334
1131.505 .0247792
1132.111 .0248274
1132.718 .0248782
1133.325 .0249313
1133.933 .0249875
1134.541 .0250461
1135.150 .0251067
1135.760 .0251629
1136.370 .0252177
1136.981 .0252444
1137.592 .0252935
1138.204 .0253508
1138.817 .0254168
1139.431 .0254923
1140.045 .0255798
1140.660 .0256680
1141.275 .0257544
1141.891 .0258684
1142.508 .0259709
1143.126 .0260686
1143.744 .0259972
1144.363 .0260086
1144.983 .0270320
