Measurement Sequence started on: 15-12-46-377
Integration time: 28
Scans to Average: 2 
>>>>>Begin Spectral Data<<<<<
432.689 .0000100
433.621 .0000100
434.552 .0000100
435.482 .0000100
436.410 .0000100
437.337 .0000100
438.262 .0254288
439.187 .0538620
440.110 .0891707
441.031 .1289659
441.952 .1033934
442.871 .1080226
443.789 .1123437
444.705 .1164192
445.621 .1202940
446.535 .1239999
447.447 .1262232
448.359 .1268228
449.269 .1254514
450.178 .1218858
451.086 .1161988
451.993 .1088305
452.898 .1005144
453.803 .0920794
454.706 .0842309
455.608 .0774049
456.508 .0717453
457.408 .0679051
458.306 .0649393
459.204 .0625083
460.100 .0604441
460.995 .0586549
461.888 .0570810
462.781 .0556798
463.673 .0544218
464.563 .0532851
465.452 .0522541
466.340 .0513165
467.228 .0504622
468.114 .0496835
468.999 .0489753
469.882 .0483322
470.765 .0477493
471.647 .0472228
472.528 .0467485
473.407 .0463224
474.286 .0459411
475.163 .0456014
476.040 .0452994
476.915 .0450322
477.790 .0447970
478.663 .0445915
479.535 .0444142
480.407 .0442633
481.277 .0441372
482.147 .0440342
483.015 .0439523
483.883 .0438893
484.749 .0438429
485.615 .0438110
486.479 .0437915
487.343 .0437828
488.206 .0437838
489.067 .0437934
489.928 .0438117
490.788 .0438396
491.647 .0438772
492.505 .0439258
493.362 .0439868
494.218 .0440611
495.073 .0441503
495.928 .0443403
496.781 .0444737
497.634 .0446250
498.486 .0447947
499.337 .0449840
500.187 .0451941
501.036 .0454266
501.884 .0456834
502.731 .0459687
503.578 .0462863
504.424 .0465178
505.268 .0469006
506.113 .0473321
506.956 .0478180
507.798 .0483644
508.640 .0489783
509.480 .0496682
510.320 .0504439
511.160 .0513162
511.998 .0522992
512.836 .0534106
513.672 .0546694
514.508 .0560982
515.344 .0577210
516.178 .0595627
517.012 .0616456
517.845 .0639907
518.677 .0666135
519.508 .0695246
520.339 .0727264
521.169 .0762178
521.998 .0799730
522.826 .0839560
523.654 .0881144
524.481 .0923849
525.307 .0966945
526.133 .1009622
526.958 .1051002
527.782 .1090244
528.605 .1126559
529.428 .1159248
530.250 .1187664
531.072 .1211380
531.892 .1230025
532.712 .1243352
533.532 .1251210
534.350 .1253548
535.168 .1250391
535.986 .1241847
536.802 .1228040
537.618 .1209126
538.434 .1185259
539.249 .1156833
540.063 .1124312
540.876 .1088284
541.689 .1049451
542.501 .1008591
543.313 .0966534
544.124 .0924146
544.934 .0882231
545.744 .0841511
546.553 .0802585
547.361 .0765954
548.169 .0731880
548.976 .0700538
549.783 .0671967
550.589 .0646096
551.395 .0622766
552.200 .0601754
553.004 .0582795
553.808 .0565642
554.611 .0550080
555.414 .0535923
556.216 .0522982
557.018 .0511088
557.819 .0500118
558.619 .0489945
559.419 .0480467
560.218 .0471605
561.017 .0463289
561.815 .0455458
562.613 .0448065
563.410 .0441061
564.207 .0434402
565.003 .0428054
565.799 .0421978
566.594 .0416139
567.388 .0410514
568.182 .0405083
568.976 .0399831
569.769 .0394757
570.562 .0389864
571.354 .0385157
572.145 .0380649
572.936 .0376348
573.727 .0372256
574.517 .0368368
575.307 .0364683
576.096 .0361183
576.885 .0357857
577.673 .0354691
578.461 .0351678
579.248 .0348812
580.035 .0346092
580.821 .0343517
581.607 .0341087
582.392 .0338801
583.177 .0336656
583.962 .0334647
584.746 .0332765
585.529 .0331002
586.313 .0329348
587.095 .0327795
587.878 .0326335
588.660 .0324962
589.441 .0323672
590.222 .0322460
591.003 .0321324
591.783 .0320258
592.563 .0319258
593.342 .0318318
594.121 .0317435
594.899 .0316603
595.678 .0315818
596.455 .0315076
597.233 .0314374
598.009 .0313708
598.786 .0313075
599.562 .0312472
600.338 .0311894
601.113 .0311340
601.888 .0310592
602.663 .0310090
603.437 .0309608
604.211 .0309147
604.984 .0308706
605.757 .0308286
606.530 .0307886
607.302 .0307505
608.074 .0307142
608.845 .0306794
609.616 .0306461
610.387 .0306321
611.158 .0306004
611.928 .0305700
612.697 .0305407
613.467 .0305127
614.236 .0304859
615.004 .0304602
615.773 .0304358
616.541 .0304125
617.308 .0303903
618.076 .0303693
618.843 .0303492
619.609 .0303301
620.375 .0303120
621.141 .0302947
621.907 .0302781
622.672 .0302624
623.437 .0302474
624.202 .0302330
624.966 .0302192
625.730 .0302060
626.493 .0301934
627.257 .0301811
628.020 .0301693
628.782 .0301577
629.545 .0301463
630.307 .0301348
631.068 .0301231
631.830 .0301112
632.591 .0300988
633.352 .0300861
634.112 .0300728
634.872 .0300589
635.632 .0300445
636.392 .0300296
637.151 .0300140
637.910 .0299978
638.668 .0299809
639.427 .0299634
640.185 .0299451
640.943 .0299262
641.700 .0299066
642.457 .0298866
643.214 .0298660
643.971 .0298451
644.727 .0298238
645.483 .0298023
646.239 .0297804
646.994 .0297582
647.750 .0297357
648.505 .0297127
649.259 .0296894
650.014 .0296655
650.768 .0296412
651.521 .0296164
652.275 .0295912
653.028 .0295656
653.781 .0295396
654.534 .0295133
655.286 .0294868
656.039 .0294599
656.791 .0294326
657.542 .0294051
658.294 .0293771
659.045 .0293488
659.796 .0293201
660.546 .0292910
661.297 .0292616
662.047 .0292321
662.796 .0292026
663.546 .0291732
664.295 .0291441
665.044 .0291156
665.793 .0290876
666.542 .0290604
667.290 .0290341
668.038 .0290086
668.786 .0289839
669.533 .0289600
670.281 .0289370
671.028 .0289149
671.774 .0288938
672.521 .0288737
673.267 .0288547
674.013 .0288370
674.759 .0288205
675.505 .0288052
676.250 .0287911
676.995 .0287781
677.740 .0287660
678.484 .0287548
679.229 .0287442
679.973 .0287344
680.717 .0287251
681.460 .0287163
682.204 .0287080
682.947 .0287002
683.690 .0286928
684.433 .0286857
685.175 .0286790
685.917 .0286726
686.659 .0286664
687.401 .0286605
688.142 .0286546
688.884 .0286489
689.625 .0286431
690.365 .0286373
691.106 .0286314
691.846 .0286253
692.586 .0286191
693.326 .0286127
694.066 .0286063
694.805 .0285998
695.545 .0285932
696.284 .0285867
697.022 .0285800
697.761 .0285732
698.499 .0285661
699.237 .0285587
699.975 .0285510
700.713 .0285430
701.450 .0285347
702.187 .0285262
702.924 .0285175
703.661 .0285086
704.397 .0284995
705.133 .0284901
705.869 .0284803
706.605 .0284701
707.341 .0284591
708.076 .0284475
708.811 .0284352
709.546 .0284221
710.281 .0284082
711.015 .0283936
711.749 .0283782
712.483 .0283620
713.217 .0283449
713.950 .0283271
714.684 .0283084
715.417 .0282889
716.150 .0282684
716.882 .0282471
717.615 .0282249
718.347 .0282019
719.079 .0281781
719.811 .0281535
720.542 .0281282
721.273 .0281024
722.005 .0280761
722.735 .0280496
723.466 .0280229
724.196 .0279963
724.927 .0279698
725.656 .0279434
726.386 .0279173
727.116 .0278915
727.845 .0278661
728.574 .0278410
729.303 .0278165
730.031 .0277924
730.760 .0277689
731.488 .0277461
732.216 .0277239
732.944 .0277024
733.671 .0276816
734.398 .0276614
735.125 .0276418
735.852 .0276228
736.579 .0276042
737.305 .0275860
738.031 .0275681
738.757 .0275504
739.483 .0275330
740.208 .0275158
740.933 .0274987
741.658 .0274817
742.383 .0274649
743.108 .0274482
743.832 .0274318
744.556 .0274155
745.280 .0273994
746.004 .0273835
746.727 .0273677
747.450 .0273522
748.173 .0273369
748.896 .0273219
749.618 .0273071
750.340 .0272927
751.062 .0272786
751.784 .0272649
752.506 .0272517
753.227 .0272389
753.948 .0272265
754.669 .0272148
755.389 .0272036
756.110 .0271930
756.830 .0271831
757.550 .0271739
758.269 .0271655
758.989 .0271576
759.708 .0271504
760.427 .0271438
761.146 .0271377
761.864 .0271323
762.582 .0271274
763.300 .0271230
764.018 .0271193
764.736 .0271162
765.453 .0271137
766.170 .0271118
766.887 .0271104
767.603 .0271095
768.320 .0271091
769.036 .0271091
769.751 .0271096
770.467 .0271106
771.182 .0271120
771.897 .0271138
772.612 .0271160
773.327 .0271187
774.041 .0271216
774.755 .0271250
775.469 .0271285
776.183 .0271324
776.896 .0271365
777.609 .0271407
778.322 .0271451
779.035 .0271496
779.747 .0271542
780.459 .0271587
781.171 .0271632
781.882 .0271674
782.594 .0271714
783.305 .0271750
784.016 .0271781
784.726 .0271808
785.436 .0271829
786.147 .0271831
786.856 .0271832
787.566 .0271827
788.275 .0271813
788.984 .0271790
789.693 .0271759
790.401 .0271717
791.110 .0271665
791.818 .0271603
792.525 .0271530
793.233 .0271448
793.940 .0271356
794.647 .0271284
795.353 .0271180
796.060 .0271066
796.766 .0270944
797.472 .0270812
798.177 .0270672
798.883 .0270522
799.588 .0270362
800.292 .0270193
800.997 .0270015
801.701 .0269827
802.405 .0269632
803.109 .0269428
803.812 .0269215
804.515 .0268995
805.218 .0268766
805.921 .0268529
806.623 .0268284
807.325 .0268032
808.027 .0267772
808.728 .0267507
809.429 .0267236
810.130 .0266959
810.831 .0266678
811.531 .0266394
812.231 .0266105
812.931 .0265813
813.630 .0265518
814.330 .0265222
815.029 .0264925
815.727 .0264629
816.426 .0264335
817.124 .0264045
817.821 .0263759
818.519 .0263477
819.216 .0263201
819.913 .0262930
820.609 .0262665
821.306 .0262406
822.002 .0262153
822.697 .0261907
823.393 .0261669
824.088 .0261439
824.783 .0261216
825.477 .0261001
826.171 .0260794
826.865 .0260594
827.559 .0260401
828.252 .0260216
828.945 .0260038
829.638 .0259867
830.330 .0259703
831.023 .0259546
831.714 .0259395
832.406 .0259250
833.097 .0259111
833.788 .0258976
834.479 .0258847
835.169 .0258722
835.859 .0258602
836.548 .0258487
837.238 .0258378
837.927 .0258274
838.615 .0258175
839.304 .0258081
839.992 .0257991
840.680 .0257905
841.367 .0257823
842.054 .0257744
842.741 .0257669
843.428 .0257598
844.114 .0257531
844.800 .0257469
845.485 .0257412
846.170 .0257359
846.855 .0257309
847.540 .0257262
848.224 .0257218
848.908 .0257176
849.592 .0257137
850.275 .0257099
850.958 .0257064
851.641 .0257031
852.323 .0257002
853.005 .0256976
853.687 .0256953
854.368 .0256934
855.049 .0256918
855.730 .0256906
856.410 .0256898
857.090 .0256895
857.769 .0256895
858.449 .0256901
859.128 .0256912
859.806 .0256928
860.485 .0256950
861.163 .0256977
861.840 .0257010
862.518 .0257048
863.195 .0257092
863.871 .0257140
864.548 .0257194
865.224 .0257251
865.899 .0257313
866.574 .0257378
867.249 .0257446
867.924 .0257516
868.598 .0257589
869.272 .0257664
869.946 .0257740
870.619 .0257818
871.292 .0257896
871.964 .0257975
872.636 .0258055
873.308 .0258134
873.979 .0258214
874.651 .0258293
875.321 .0258371
875.992 .0258448
876.662 .0258523
877.331 .0258596
878.001 .0258667
878.670 .0258734
879.338 .0258798
880.007 .0258859
880.675 .0258918
881.342 .0258974
882.009 .0259027
882.676 .0259079
883.343 .0259128
884.009 .0259174
884.675 .0259218
885.340 .0259259
886.005 .0259296
886.670 .0259329
887.334 .0259358
887.998 .0259382
888.662 .0259400
889.325 .0259412
889.988 .0259419
890.650 .0259421
891.312 .0259416
891.974 .0259406
892.636 .0259389
893.297 .0259365
893.957 .0259335
894.618 .0259297
895.278 .0259251
895.937 .0259197
896.596 .0259133
897.255 .0259060
897.914 .0258978
898.572 .0258886
899.230 .0258784
899.887 .0258674
900.544 .0258554
901.201 .0258424
901.857 .0258194
902.513 .0258041
903.168 .0257878
903.823 .0257706
904.478 .0257524
905.132 .0257332
905.786 .0257131
906.440 .0256921
907.093 .0256701
907.746 .0256473
908.399 .0256236
909.051 .0255991
909.703 .0255738
910.354 .0255590
911.005 .0255326
911.656 .0255055
912.306 .0254778
912.956 .0254494
913.605 .0254204
914.254 .0253909
914.903 .0253610
915.551 .0253306
916.199 .0252998
916.847 .0252687
917.494 .0252371
918.141 .0252051
918.788 .0251727
919.434 .0251398
920.079 .0251065
920.725 .0250729
921.370 .0250388
922.014 .0250044
922.658 .0249697
923.302 .0249347
923.946 .0248994
924.589 .0248638
925.231 .0248280
925.873 .0247920
926.515 .0247559
927.157 .0247197
927.798 .0246836
928.439 .0246476
929.079 .0246119
929.719 .0245767
930.359 .0245419
930.998 .0245077
931.637 .0244741
932.275 .0244411
932.913 .0244089
933.551 .0243774
934.188 .0243468
934.825 .0243171
935.462 .0242884
936.098 .0242607
936.733 .0242341
937.369 .0242086
938.004 .0241842
938.638 .0241608
939.273 .0241385
939.907 .0241172
940.540 .0240969
941.173 .0240777
941.806 .0240596
942.438 .0240426
943.070 .0240266
943.702 .0240116
944.333 .0239974
944.964 .0239840
945.594 .0239713
946.224 .0239591
946.854 .0239473
947.483 .0239359
948.112 .0239248
948.741 .0239141
949.369 .0239038
949.996 .0238937
950.624 .0238839
951.251 .0238743
951.878 .0238648
952.504 .0238554
953.130 .0238460
953.755 .0238368
954.380 .0238277
955.005 .0238189
955.629 .0238104
956.253 .0238023
956.877 .0237947
957.500 .0237876
958.123 .0237810
958.746 .0237748
959.368 .0237691
959.990 .0237638
960.611 .0237590
961.232 .0237547
961.853 .0237510
962.473 .0237480
963.093 .0237457
963.712 .0237441
964.331 .0237432
964.950 .0237430
965.569 .0237434
966.187 .0237444
966.804 .0237459
967.422 .0237480
968.039 .0237506
968.655 .0237538
969.272 .0237576
969.887 .0237620
970.503 .0237670
971.118 .0237725
971.733 .0237786
972.347 .0237851
972.961 .0237922
973.575 .0237996
974.188 .0238074
974.801 .0238156
975.414 .0238240
976.026 .0238328
976.638 .0238417
977.250 .0238509
977.861 .0238602
978.472 .0238696
979.083 .0238792
979.693 .0238889
980.303 .0238986
980.912 .0239131
981.521 .0239227
982.130 .0239324
982.738 .0239419
983.346 .0239515
983.954 .0239611
984.562 .0239707
985.169 .0239805
985.775 .0239905
986.382 .0240008
986.988 .0240115
987.594 .0240224
988.199 .0240337
988.804 .0240452
989.409 .0240521
990.013 .0240642
990.617 .0240766
991.221 .0240894
991.824 .0241025
992.427 .0241161
993.030 .0241300
993.632 .0241444
994.234 .0241591
994.836 .0241741
995.438 .0241895
996.039 .0242052
996.640 .0242212
997.240 .0242374
997.840 .0242540
998.440 .0242708
999.040 .0242879
999.639 .0243052
1000.238 .0243226
1000.836 .0243401
1001.435 .0243576
1002.033 .0243749
1002.630 .0243921
1003.228 .0244090
1003.825 .0244256
1004.422 .0244419
1005.018 .0244578
1005.614 .0244734
1006.210 .0244886
1006.806 .0245034
1007.401 .0245177
1007.996 .0245315
1008.591 .0245449
1009.186 .0245577
1009.780 .0245702
1010.374 .0245824
1010.967 .0245942
1011.561 .0246059
1012.154 .0246174
1012.746 .0246286
1013.339 .0246396
1013.931 .0246504
1014.523 .0246607
1015.115 .0246707
1015.706 .0246802
1016.298 .0246895
1016.888 .0246984
1017.479 .0247071
1018.069 .0247157
1018.660 .0247243
1019.250 .0247328
1019.839 .0247411
1020.429 .0247494
1021.018 .0247575
1021.607 .0247654
1022.195 .0247731
1022.784 .0247806
1023.372 .0247881
1023.960 .0247954
1024.547 .0248028
1025.135 .0248102
1025.722 .0248176
1026.309 .0248249
1026.896 .0248320
1027.483 .0248388
1028.069 .0248451
1028.655 .0248509
1029.241 .0248560
1029.827 .0248606
1030.412 .0248645
1030.997 .0248679
1031.582 .0248708
1032.167 .0248732
1032.752 .0248751
1033.336 .0248766
1033.921 .0248774
1034.505 .0248775
1035.089 .0248768
1035.672 .0248752
1036.256 .0248726
1036.839 .0248690
1037.422 .0248645
1038.005 .0248590
1038.588 .0248524
1039.171 .0248450
1039.753 .0248364
1040.335 .0248269
1040.918 .0248161
1041.500 .0248042
1042.081 .0247910
1042.663 .0247766
1043.244 .0247610
1043.826 .0247444
1044.407 .0247269
1044.988 .0247086
1045.569 .0246897
1046.150 .0246702
1046.730 .0246502
1047.311 .0246299
1047.891 .0246092
1048.471 .0245881
1049.052 .0245669
1049.632 .0245453
1050.211 .0245237
1050.791 .0245020
1051.371 .0244803
1051.950 .0244586
1052.530 .0244370
1053.109 .0244155
1053.688 .0243940
1054.268 .0243727
1054.847 .0243515
1055.426 .0243305
1056.005 .0243099
1056.583 .0242897
1057.162 .0242699
1057.741 .0242506
1058.319 .0242318
1058.898 .0242134
1059.476 .0241955
1060.055 .0241780
1060.633 .0241609
1061.211 .0241442
1061.790 .0241279
1062.368 .0241120
1062.946 .0240966
1063.524 .0240818
1064.102 .0240675
1064.680 .0240537
1065.258 .0240403
1065.836 .0240272
1066.414 .0240143
1066.992 .0240015
1067.570 .0239889
1068.148 .0239763
1068.726 .0239638
1069.304 .0239514
1069.882 .0239392
1070.460 .0239272
1071.038 .0239154
1071.616 .0239037
1072.194 .0238921
1072.772 .0238803
1073.350 .0238684
1073.928 .0238563
1074.506 .0238440
1075.084 .0238315
1075.662 .0238190
1076.240 .0238066
1076.819 .0237941
1077.397 .0237818
1077.976 .0237695
1078.554 .0237572
1079.133 .0237449
1079.711 .0237324
1080.290 .0237197
1080.869 .0237068
1081.448 .0236937
1082.027 .0236806
1082.606 .0236676
1083.185 .0236547
1083.764 .0236421
1084.343 .0236297
1084.923 .0236177
1085.502 .0236062
1086.082 .0235952
1086.662 .0235848
1087.242 .0235753
1087.822 .0235667
1088.402 .0235592
1088.983 .0235531
1089.563 .0235485
1090.144 .0235457
1090.725 .0235446
1091.306 .0235454
1091.887 .0235481
1092.469 .0235525
1093.050 .0235586
1093.632 .0235663
1094.214 .0235756
1094.796 .0235863
1095.379 .0235984
1095.961 .0236120
1096.544 .0236269
1097.127 .0236434
1097.710 .0236613
1098.294 .0236805
1098.877 .0237011
1099.461 .0237227
1100.046 .0237451
1100.630 .0237683
1101.215 .0237919
1101.800 .0238159
1102.385 .0238400
1102.970 .0238641
1103.556 .0238882
1104.142 .0239123
1104.728 .0239362
1105.315 .0239600
1105.902 .0239835
1106.489 .0240066
1107.077 .0240293
1107.664 .0240513
1108.253 .0240728
1108.841 .0240938
1109.430 .0241145
1110.019 .0241352
1110.609 .0241562
1111.198 .0241778
1111.789 .0242005
1112.379 .0242244
1112.970 .0242497
1113.561 .0242765
1114.153 .0243045
1114.745 .0243338
1115.338 .0243644
1115.931 .0243965
1116.524 .0244300
1117.117 .0244655
1117.712 .0245032
1118.306 .0245435
1118.901 .0245866
1119.496 .0246327
1120.092 .0246819
1120.689 .0247342
1121.285 .0247894
1121.882 .0248473
1122.480 .0249080
1123.078 .0249715
1123.677 .0250380
1124.276 .0251079
1124.875 .0251811
1125.476 .0252579
1126.076 .0253381
1126.677 .0254214
1127.279 .0255073
1127.881 .0255953
1128.484 .0256847
1129.087 .0257258
1129.691 .0258169
1130.295 .0259082
1130.900 .0259996
1131.505 .0260912
1132.111 .0261831
1132.718 .0262754
1133.325 .0263686
1133.933 .0264624
1134.541 .0265592
1135.150 .0266517
1135.760 .0267462
1136.370 .0268487
1136.981 .0270690
1137.592 .0271513
1138.204 .0272284
1138.817 .0273013
1139.431 .0273786
1140.045 .0274563
1140.660 .0275382
1141.275 .0276313
1141.891 .0277216
1142.508 .0278830
1143.126 .0278424
1143.744 .0279851
1144.363 .0282998
1144.983 .0280984
