Measurement Sequence started on: 15-12-46-377
Integration time: 28
Scans to Average: 2 
>>>>>Begin Spectral Data<<<<<
432.689 .0000100
433.621 .0000100
434.552 .0000100
435.482 .0000100
436.410 .0000100
437.337 .0000100
438.262 .0256684
439.187 .0544827
440.110 .0903008
441.031 .1307385
441.952 .1054091
442.871 .1101633
443.789 .1145906
444.705 .1187572
445.621 .1227081
446.535 .1264780
447.447 .1287436
448.359 .1293603
449.269 .1279793
450.178 .1243722
451.086 .1186087
451.993 .1111350
452.898 .1026911
453.803 .0941169
454.706 .0861287
455.608 .0791715
456.508 .0733978
457.408 .0694713
458.306 .0664433
459.204 .0639712
460.100 .0618869
460.995 .0600977
461.888 .0585396
462.781 .0571694
463.673 .0559545
464.563 .0548695
465.452 .0538951
466.340 .0530138
467.228 .0522130
468.114 .0514833
468.999 .0508172
469.882 .0502076
470.765 .0496488
471.647 .0491362
472.528 .0486656
473.407 .0482333
474.286 .0478370
475.163 .0474753
476.040 .0471468
476.915 .0468498
477.790 .0465837
478.663 .0463468
479.535 .0461381
480.407 .0459556
481.277 .0457981
482.147 .0456633
483.015 .0455493
483.883 .0454543
484.749 .0453770
485.615 .0453166
486.479 .0452732
487.343 .0452463
488.206 .0452368
489.067 .0452448
489.928 .0452705
490.788 .0453134
491.647 .0453739
492.505 .0454515
493.362 .0455463
494.218 .0456581
495.073 .0457878
495.928 .0460524
496.781 .0462325
497.634 .0464343
498.486 .0466600
499.337 .0469120
500.187 .0471923
501.036 .0475032
501.884 .0478476
502.731 .0482285
503.578 .0486491
504.424 .0489448
505.268 .0494400
506.113 .0499863
506.956 .0505877
507.798 .0512495
508.640 .0519778
509.480 .0527807
510.320 .0536667
511.160 .0546451
511.998 .0557273
512.836 .0569278
513.672 .0582621
514.508 .0597469
515.344 .0614049
516.178 .0632575
517.012 .0653266
517.845 .0676344
518.677 .0701991
519.508 .0730359
520.339 .0761523
521.169 .0795493
521.998 .0832050
522.826 .0870854
523.654 .0911426
524.481 .0953140
525.307 .0995312
526.133 .1037144
526.958 .1077785
527.782 .1116411
528.605 .1152251
529.428 .1184590
530.250 .1212793
531.072 .1236426
531.892 .1255123
532.712 .1268609
533.532 .1276716
534.350 .1279380
535.168 .1276610
535.986 .1268475
536.802 .1255052
537.618 .1236441
538.434 .1212802
539.249 .1184480
540.063 .1151921
540.876 .1115702
541.689 .1076517
542.501 .1035112
543.313 .0992304
544.124 .0948953
544.934 .0905863
545.744 .0863775
546.553 .0823355
547.361 .0785151
548.169 .0749479
548.976 .0716578
549.783 .0686527
550.589 .0659287
551.395 .0634710
552.200 .0612562
553.004 .0592588
553.808 .0574548
554.611 .0558239
555.414 .0543466
556.216 .0530065
557.018 .0517884
557.819 .0506777
558.619 .0496624
559.419 .0487306
560.218 .0478726
561.017 .0470789
561.815 .0463422
562.613 .0456553
563.410 .0450114
564.207 .0444038
565.003 .0438275
565.799 .0432776
566.594 .0427501
567.388 .0422422
568.182 .0417518
568.976 .0412775
569.769 .0408176
570.562 .0403708
571.354 .0399367
572.145 .0395150
572.936 .0391051
573.727 .0387071
574.517 .0383212
575.307 .0379475
576.096 .0375863
576.885 .0372383
577.673 .0369038
578.461 .0365832
579.248 .0362770
580.035 .0359852
580.821 .0357083
581.607 .0354464
582.392 .0351995
583.177 .0349676
583.962 .0347508
584.746 .0345485
585.529 .0343603
586.313 .0341858
587.095 .0340240
587.878 .0338740
588.660 .0337350
589.441 .0336061
590.222 .0334861
591.003 .0333747
591.783 .0332710
592.563 .0331744
593.342 .0330843
594.121 .0330000
594.899 .0329210
595.678 .0328465
596.455 .0327760
597.233 .0327086
598.009 .0326440
598.786 .0325816
599.562 .0325210
600.338 .0324617
601.113 .0324038
601.888 .0323214
602.663 .0322669
603.437 .0322138
604.211 .0321623
604.984 .0321123
605.757 .0320640
606.530 .0320174
607.302 .0319726
608.074 .0319295
608.845 .0318883
609.616 .0318488
610.387 .0318334
611.158 .0317965
611.928 .0317614
612.697 .0317280
613.467 .0316963
614.236 .0316662
615.004 .0316376
615.773 .0316104
616.541 .0315846
617.308 .0315599
618.076 .0315363
618.843 .0315137
619.609 .0314917
620.375 .0314703
621.141 .0314493
621.907 .0314285
622.672 .0314079
623.437 .0313873
624.202 .0313667
624.966 .0313461
625.730 .0313253
626.493 .0313043
627.257 .0312831
628.020 .0312617
628.782 .0312399
629.545 .0312177
630.307 .0311952
631.068 .0311724
631.830 .0311493
632.591 .0311260
633.352 .0311025
634.112 .0310790
634.872 .0310555
635.632 .0310320
636.392 .0310085
637.151 .0309852
637.910 .0309620
638.668 .0309390
639.427 .0309162
640.185 .0308937
640.943 .0308715
641.700 .0308497
642.457 .0308282
643.214 .0308071
643.971 .0307862
644.727 .0307656
645.483 .0307451
646.239 .0307246
646.994 .0307043
647.750 .0306839
648.505 .0306636
649.259 .0306431
650.014 .0306225
650.768 .0306016
651.521 .0305805
652.275 .0305589
653.028 .0305369
653.781 .0305143
654.534 .0304912
655.286 .0304676
656.039 .0304435
656.791 .0304191
657.542 .0303943
658.294 .0303693
659.045 .0303441
659.796 .0303187
660.546 .0302930
661.297 .0302671
662.047 .0302410
662.796 .0302148
663.546 .0301886
664.295 .0301625
665.044 .0301367
665.793 .0301113
666.542 .0300865
667.290 .0300623
668.038 .0300388
668.786 .0300159
669.533 .0299937
670.281 .0299722
671.028 .0299514
671.774 .0299312
672.521 .0299118
673.267 .0298931
674.013 .0298751
674.759 .0298577
675.505 .0298410
676.250 .0298248
676.995 .0298091
677.740 .0297940
678.484 .0297792
679.229 .0297649
679.973 .0297508
680.717 .0297369
681.460 .0297231
682.204 .0297093
682.947 .0296953
683.690 .0296810
684.433 .0296664
685.175 .0296514
685.917 .0296361
686.659 .0296206
687.401 .0296048
688.142 .0295888
688.884 .0295726
689.625 .0295562
690.365 .0295395
691.106 .0295226
691.846 .0295054
692.586 .0294879
693.326 .0294703
694.066 .0294526
694.805 .0294349
695.545 .0294174
696.284 .0294001
697.022 .0293831
697.761 .0293665
698.499 .0293501
699.237 .0293341
699.975 .0293182
700.713 .0293027
701.450 .0292873
702.187 .0292721
702.924 .0292572
703.661 .0292424
704.397 .0292277
705.133 .0292132
705.869 .0291988
706.605 .0291843
707.341 .0291699
708.076 .0291552
708.811 .0291403
709.546 .0291252
710.281 .0291096
711.015 .0290936
711.749 .0290772
712.483 .0290602
713.217 .0290428
713.950 .0290249
714.684 .0290064
715.417 .0289874
716.150 .0289678
716.882 .0289478
717.615 .0289273
718.347 .0289064
719.079 .0288850
719.811 .0288633
720.542 .0288414
721.273 .0288193
722.005 .0287971
722.735 .0287749
723.466 .0287528
724.196 .0287309
724.927 .0287092
725.656 .0286878
726.386 .0286667
727.116 .0286459
727.845 .0286256
728.574 .0286056
729.303 .0285861
730.031 .0285672
730.760 .0285488
731.488 .0285311
732.216 .0285140
732.944 .0284976
733.671 .0284817
734.398 .0284664
735.125 .0284515
735.852 .0284371
736.579 .0284231
737.305 .0284093
738.031 .0283959
738.757 .0283829
739.483 .0283701
740.208 .0283576
740.933 .0283453
741.658 .0283331
742.383 .0283210
743.108 .0283090
743.832 .0282969
744.556 .0282848
745.280 .0282726
746.004 .0282604
746.727 .0282480
747.450 .0282356
748.173 .0282232
748.896 .0282106
749.618 .0281981
750.340 .0281857
751.062 .0281733
751.784 .0281611
752.506 .0281490
753.227 .0281371
753.948 .0281254
754.669 .0281139
755.389 .0281025
756.110 .0280913
756.830 .0280802
757.550 .0280692
758.269 .0280585
758.989 .0280481
759.708 .0280380
760.427 .0280282
761.146 .0280187
761.864 .0280095
762.582 .0280005
763.300 .0279916
764.018 .0279828
764.736 .0279740
765.453 .0279653
766.170 .0279566
766.887 .0279479
767.603 .0279393
768.320 .0279308
769.036 .0279224
769.751 .0279141
770.467 .0279058
771.182 .0278976
771.897 .0278894
772.612 .0278812
773.327 .0278731
774.041 .0278650
774.755 .0278570
775.469 .0278491
776.183 .0278415
776.896 .0278341
777.609 .0278270
778.322 .0278202
779.035 .0278138
779.747 .0278075
780.459 .0278015
781.171 .0277957
781.882 .0277900
782.594 .0277843
783.305 .0277787
784.016 .0277730
784.726 .0277672
785.436 .0277612
786.147 .0277514
786.856 .0277446
787.566 .0277376
788.275 .0277302
788.984 .0277225
789.693 .0277144
790.401 .0277058
791.110 .0276967
791.818 .0276872
792.525 .0276771
793.233 .0276665
793.940 .0276555
794.647 .0276485
795.353 .0276368
796.060 .0276245
796.766 .0276117
797.472 .0275982
798.177 .0275842
798.883 .0275695
799.588 .0275543
800.292 .0275384
800.997 .0275220
801.701 .0275051
802.405 .0274878
803.109 .0274701
803.812 .0274521
804.515 .0274337
805.218 .0274151
805.921 .0273961
806.623 .0273769
807.325 .0273575
808.027 .0273378
808.728 .0273181
809.429 .0272982
810.130 .0272783
810.831 .0272584
811.531 .0272385
812.231 .0272186
812.931 .0271989
813.630 .0271792
814.330 .0271598
815.029 .0271405
815.727 .0271216
816.426 .0271030
817.124 .0270849
817.821 .0270673
818.519 .0270502
819.216 .0270338
819.913 .0270179
820.609 .0270027
821.306 .0269880
822.002 .0269739
822.697 .0269604
823.393 .0269475
824.088 .0269352
824.783 .0269235
825.477 .0269123
826.171 .0269016
826.865 .0268914
827.559 .0268816
828.252 .0268722
828.945 .0268633
829.638 .0268548
830.330 .0268467
831.023 .0268392
831.714 .0268320
832.406 .0268254
833.097 .0268193
833.788 .0268137
834.479 .0268085
835.169 .0268037
835.859 .0267994
836.548 .0267953
837.238 .0267916
837.927 .0267882
838.615 .0267850
839.304 .0267819
839.992 .0267790
840.680 .0267762
841.367 .0267734
842.054 .0267707
842.741 .0267681
843.428 .0267654
844.114 .0267627
844.800 .0267599
845.485 .0267570
846.170 .0267539
846.855 .0267507
847.540 .0267472
848.224 .0267434
848.908 .0267394
849.592 .0267350
850.275 .0267303
850.958 .0267252
851.641 .0267199
852.323 .0267142
853.005 .0267083
853.687 .0267021
854.368 .0266957
855.049 .0266891
855.730 .0266824
856.410 .0266755
857.090 .0266685
857.769 .0266614
858.449 .0266542
859.128 .0266471
859.806 .0266401
860.485 .0266331
861.163 .0266264
861.840 .0266198
862.518 .0266134
863.195 .0266072
863.871 .0266012
864.548 .0265953
865.224 .0265895
865.899 .0265839
866.574 .0265783
867.249 .0265728
867.924 .0265674
868.598 .0265621
869.272 .0265569
869.946 .0265518
870.619 .0265469
871.292 .0265420
871.964 .0265371
872.636 .0265323
873.308 .0265275
873.979 .0265227
874.651 .0265179
875.321 .0265132
875.992 .0265084
876.662 .0265036
877.331 .0264988
878.001 .0264940
878.670 .0264890
879.338 .0264840
880.007 .0264789
880.675 .0264737
881.342 .0264685
882.009 .0264632
882.676 .0264580
883.343 .0264529
884.009 .0264479
884.675 .0264431
885.340 .0264383
886.005 .0264336
886.670 .0264290
887.334 .0264244
887.998 .0264197
888.662 .0264151
889.325 .0264105
889.988 .0264058
890.650 .0264012
891.312 .0263966
891.974 .0263918
892.636 .0263869
893.297 .0263818
893.957 .0263764
894.618 .0263705
895.278 .0263643
895.937 .0263576
896.596 .0263505
897.255 .0263428
897.914 .0263346
898.572 .0263257
899.230 .0263161
899.887 .0263056
900.544 .0262942
901.201 .0262818
901.857 .0262586
902.513 .0262435
903.168 .0262273
903.823 .0262101
904.478 .0261918
905.132 .0261725
905.786 .0261523
906.440 .0261310
907.093 .0261089
907.746 .0260860
908.399 .0260623
909.051 .0260381
909.703 .0260134
910.354 .0259998
911.005 .0259749
911.656 .0259497
912.306 .0259244
912.956 .0258989
913.605 .0258732
914.254 .0258475
914.903 .0258217
915.551 .0257959
916.199 .0257702
916.847 .0257445
917.494 .0257189
918.141 .0256935
918.788 .0256682
919.434 .0256431
920.079 .0256181
920.725 .0255932
921.370 .0255683
922.014 .0255435
922.658 .0255188
923.302 .0254942
923.946 .0254697
924.589 .0254453
925.231 .0254211
925.873 .0253969
926.515 .0253729
927.157 .0253490
927.798 .0253253
928.439 .0253016
929.079 .0252781
929.719 .0252548
930.359 .0252317
930.998 .0252089
931.637 .0251865
932.275 .0251645
932.913 .0251431
933.551 .0251223
934.188 .0251023
934.825 .0250830
935.462 .0250646
936.098 .0250471
936.733 .0250304
937.369 .0250147
938.004 .0249998
938.638 .0249858
939.273 .0249728
939.907 .0249606
940.540 .0249493
941.173 .0249388
941.806 .0249291
942.438 .0249200
943.070 .0249116
943.702 .0249037
944.333 .0248963
944.964 .0248894
945.594 .0248827
946.224 .0248765
946.854 .0248706
947.483 .0248651
948.112 .0248599
948.741 .0248551
949.369 .0248505
949.996 .0248462
950.624 .0248421
951.251 .0248380
951.878 .0248340
952.504 .0248300
953.130 .0248260
953.755 .0248220
954.380 .0248181
955.005 .0248142
955.629 .0248106
956.253 .0248071
956.877 .0248037
957.500 .0248005
958.123 .0247975
958.746 .0247946
959.368 .0247920
959.990 .0247895
960.611 .0247875
961.232 .0247857
961.853 .0247845
962.473 .0247837
963.093 .0247833
963.712 .0247834
964.331 .0247838
964.950 .0247845
965.569 .0247856
966.187 .0247869
966.804 .0247885
967.422 .0247905
968.039 .0247929
968.655 .0247956
969.272 .0247987
969.887 .0248020
970.503 .0248056
971.118 .0248093
971.733 .0248130
972.347 .0248168
972.961 .0248207
973.575 .0248245
974.188 .0248285
974.801 .0248324
975.414 .0248364
976.026 .0248404
976.638 .0248443
977.250 .0248481
977.861 .0248515
978.472 .0248546
979.083 .0248574
979.693 .0248597
980.303 .0248618
980.912 .0248629
981.521 .0248642
982.130 .0248652
982.738 .0248660
983.346 .0248665
983.954 .0248668
984.562 .0248670
985.169 .0248670
985.775 .0248669
986.382 .0248670
986.988 .0248671
987.594 .0248675
988.199 .0248681
988.804 .0248690
989.409 .0248706
990.013 .0248721
990.617 .0248738
991.221 .0248758
991.824 .0248782
992.427 .0248809
993.030 .0248839
993.632 .0248874
994.234 .0248912
994.836 .0248955
995.438 .0249000
996.039 .0249049
996.640 .0249100
997.240 .0249154
997.840 .0249208
998.440 .0249264
999.040 .0249320
999.639 .0249377
1000.238 .0249435
1000.836 .0249494
1001.435 .0249553
1002.033 .0249612
1002.630 .0249672
1003.228 .0249730
1003.825 .0249787
1004.422 .0249842
1005.018 .0249894
1005.614 .0249943
1006.210 .0249989
1006.806 .0250031
1007.401 .0250070
1007.996 .0250107
1008.591 .0250140
1009.186 .0250170
1009.780 .0250196
1010.374 .0250219
1010.967 .0250236
1011.561 .0250250
1012.154 .0250258
1012.746 .0250263
1013.339 .0250265
1013.931 .0250264
1014.523 .0250262
1015.115 .0250260
1015.706 .0250257
1016.298 .0250255
1016.888 .0250254
1017.479 .0250253
1018.069 .0250252
1018.660 .0250250
1019.250 .0250247
1019.839 .0250243
1020.429 .0250238
1021.018 .0250232
1021.607 .0250226
1022.195 .0250219
1022.784 .0250212
1023.372 .0250204
1023.960 .0250195
1024.547 .0250186
1025.135 .0250176
1025.722 .0250165
1026.309 .0250154
1026.896 .0250142
1027.483 .0250130
1028.069 .0250119
1028.655 .0250108
1029.241 .0250098
1029.827 .0250088
1030.412 .0250079
1030.997 .0250071
1031.582 .0250062
1032.167 .0250053
1032.752 .0250042
1033.336 .0250029
1033.921 .0250013
1034.505 .0249993
1035.089 .0249967
1035.672 .0249937
1036.256 .0249900
1036.839 .0249857
1037.422 .0249807
1038.005 .0249751
1038.588 .0249688
1039.171 .0249621
1039.753 .0249547
1040.335 .0249468
1040.918 .0249383
1041.500 .0249293
1042.081 .0249197
1042.663 .0249096
1043.244 .0248990
1043.826 .0248882
1044.407 .0248773
1044.988 .0248665
1045.569 .0248557
1046.150 .0248451
1046.730 .0248346
1047.311 .0248241
1047.891 .0248136
1048.471 .0248030
1049.052 .0247922
1049.632 .0247813
1050.211 .0247703
1050.791 .0247595
1051.371 .0247488
1051.950 .0247385
1052.530 .0247286
1053.109 .0247192
1053.688 .0247100
1054.268 .0247012
1054.847 .0246925
1055.426 .0246840
1056.005 .0246757
1056.583 .0246675
1057.162 .0246595
1057.741 .0246518
1058.319 .0246444
1058.898 .0246372
1059.476 .0246301
1060.055 .0246230
1060.633 .0246155
1061.211 .0246076
1061.790 .0245990
1062.368 .0245898
1062.946 .0245800
1063.524 .0245696
1064.102 .0245589
1064.680 .0245480
1065.258 .0245369
1065.836 .0245257
1066.414 .0245144
1066.992 .0245029
1067.570 .0244914
1068.148 .0244799
1068.726 .0244684
1069.304 .0244574
1069.882 .0244468
1070.460 .0244370
1071.038 .0244281
1071.616 .0244202
1072.194 .0244132
1072.772 .0244069
1073.350 .0244012
1073.928 .0243959
1074.506 .0243909
1075.084 .0243862
1075.662 .0243819
1076.240 .0243782
1076.819 .0243751
1077.397 .0243729
1077.976 .0243716
1078.554 .0243712
1079.133 .0243715
1079.711 .0243723
1080.290 .0243736
1080.869 .0243752
1081.448 .0243771
1082.027 .0243795
1082.606 .0243823
1083.185 .0243858
1083.764 .0243899
1084.343 .0243948
1084.923 .0244003
1085.502 .0244065
1086.082 .0244130
1086.662 .0244200
1087.242 .0244271
1087.822 .0244345
1088.402 .0244421
1088.983 .0244501
1089.563 .0244585
1090.144 .0244676
1090.725 .0244772
1091.306 .0244877
1091.887 .0244987
1092.469 .0245104
1093.050 .0245226
1093.632 .0245353
1094.214 .0245483
1094.796 .0245617
1095.379 .0245754
1095.961 .0245894
1096.544 .0246037
1097.127 .0246183
1097.710 .0246332
1098.294 .0246485
1098.877 .0246642
1099.461 .0246804
1100.046 .0246972
1100.630 .0247148
1101.215 .0247331
1101.800 .0247522
1102.385 .0247721
1102.970 .0247928
1103.556 .0248143
1104.142 .0248365
1104.728 .0248596
1105.315 .0248836
1105.902 .0249086
1106.489 .0249349
1107.077 .0249626
1107.664 .0249919
1108.253 .0250227
1108.841 .0250549
1109.430 .0250885
1110.019 .0251233
1110.609 .0251592
1111.198 .0251961
1111.789 .0252341
1112.379 .0252731
1112.970 .0253131
1113.561 .0253542
1114.153 .0253964
1114.745 .0254399
1115.338 .0254844
1115.931 .0255301
1116.524 .0255767
1117.117 .0256241
1117.712 .0256725
1118.306 .0257218
1118.901 .0257724
1119.496 .0258242
1120.092 .0258775
1120.689 .0259321
1121.285 .0259882
1121.882 .0260457
1122.480 .0261043
1123.078 .0261640
1123.677 .0262248
1124.276 .0262866
1124.875 .0263496
1125.476 .0264140
1126.076 .0264803
1126.677 .0265488
1127.279 .0266200
1127.881 .0266939
1128.484 .0267708
1129.087 .0268017
1129.691 .0268829
1130.295 .0269673
1130.900 .0270548
1131.505 .0271456
1132.111 .0272397
1132.718 .0273374
1133.325 .0274388
1133.933 .0275436
1134.541 .0276555
1135.150 .0277707
1135.760 .0278887
1136.370 .0280087
1136.981 .0280913
1137.592 .0282213
1138.204 .0283512
1138.817 .0284789
1139.431 .0286086
1140.045 .0287428
1140.660 .0288855
1141.275 .0290347
1141.891 .0291725
1142.508 .0294217
1143.126 .0295753
1143.744 .0297163
1144.363 .0298494
1144.983 .0295080
