Measurement Sequence started on: 15-12-46-377
Integration time: 28
Scans to Average: 2 
>>>>>Begin Spectral Data<<<<<
432.689 .0000100
433.621 .0000100
434.552 .0000100
435.482 .0000100
436.410 .0000100
437.337 .0000100
438.262 .0275936
439.187 .0585283
440.110 .0970518
441.031 .1405614
441.952 .1133322
442.871 .1184175
443.789 .1231477
444.705 .1275942
445.621 .1318071
446.535 .1358244
447.447 .1382226
448.359 .1388495
449.269 .1373267
450.178 .1334070
451.086 .1271650
451.993 .1190794
452.898 .1099457
453.803 .1006676
454.706 .0920159
455.608 .0844723
456.508 .0782034
457.408 .0739243
458.306 .0706151
459.204 .0679112
460.100 .0656302
460.995 .0636695
461.888 .0619605
462.781 .0604550
463.673 .0591172
464.563 .0579206
465.452 .0568434
466.340 .0558673
467.228 .0549793
468.114 .0541704
468.999 .0534329
469.882 .0527599
470.765 .0521459
471.647 .0515860
472.528 .0510755
473.407 .0506099
474.286 .0501853
475.163 .0497987
476.040 .0494475
476.915 .0491292
477.790 .0488421
478.663 .0485844
479.535 .0483552
480.407 .0481537
481.277 .0479782
482.147 .0478274
483.015 .0476991
483.883 .0475915
484.749 .0475031
485.615 .0474325
486.479 .0473790
487.343 .0473424
488.206 .0473232
489.067 .0473215
489.928 .0473383
490.788 .0473748
491.647 .0474322
492.505 .0475115
493.362 .0476138
494.218 .0477390
495.073 .0478878
495.928 .0481983
496.781 .0484082
497.634 .0486426
498.486 .0489024
499.337 .0491895
500.187 .0495057
501.036 .0498526
501.884 .0502327
502.731 .0506494
503.578 .0511046
504.424 .0514119
505.268 .0519339
506.113 .0525023
506.956 .0531196
507.798 .0537911
508.640 .0545238
509.480 .0553268
510.320 .0562117
511.160 .0571918
511.998 .0582839
512.836 .0595073
513.672 .0608803
514.508 .0624234
515.344 .0641583
516.178 .0661053
517.012 .0682879
517.845 .0707295
518.677 .0734513
519.508 .0764737
520.339 .0798090
521.169 .0834653
521.998 .0874226
522.826 .0916487
523.654 .0960882
524.481 .1006739
525.307 .1053228
526.133 .1099375
526.958 .1144182
527.782 .1186726
528.605 .1226139
529.428 .1261678
530.250 .1292677
531.072 .1318735
531.892 .1339508
532.712 .1354786
533.532 .1364408
534.350 .1368294
535.168 .1366419
535.986 .1358794
536.802 .1345397
537.618 .1326284
538.434 .1301545
539.249 .1271560
540.063 .1236818
540.876 .1197993
541.689 .1155867
542.501 .1111349
543.313 .1065439
544.124 .1019125
544.934 .0973273
545.744 .0928667
546.553 .0885942
547.361 .0845612
548.169 .0807934
548.976 .0773086
549.783 .0741099
550.589 .0711958
551.395 .0685519
552.200 .0661580
553.004 .0639915
553.808 .0620324
554.611 .0602601
555.414 .0586549
556.216 .0571961
557.018 .0558629
557.819 .0546396
558.619 .0535113
559.419 .0524638
560.218 .0514866
561.017 .0505712
561.815 .0497104
562.613 .0488993
563.410 .0481321
564.207 .0474033
565.003 .0467093
565.799 .0460457
566.594 .0454079
567.388 .0447923
568.182 .0441956
568.976 .0436159
569.769 .0430519
570.562 .0425034
571.354 .0419705
572.145 .0414536
572.936 .0409536
573.727 .0404712
574.517 .0400064
575.307 .0395600
576.096 .0391319
576.885 .0387229
577.673 .0383326
578.461 .0379614
579.248 .0376091
580.035 .0372756
580.821 .0369607
581.607 .0366642
582.392 .0363857
583.177 .0361251
583.962 .0358820
584.746 .0356563
585.529 .0354475
586.313 .0352549
587.095 .0350776
587.878 .0349148
588.660 .0347654
589.441 .0346283
590.222 .0345024
591.003 .0343870
591.783 .0342810
592.563 .0341835
593.342 .0340934
594.121 .0340097
594.899 .0339315
595.678 .0338579
596.455 .0337884
597.233 .0337224
598.009 .0336595
598.786 .0335996
599.562 .0335422
600.338 .0334873
601.113 .0334346
601.888 .0333622
602.663 .0333141
603.437 .0332677
604.211 .0332227
604.984 .0331791
605.757 .0331367
606.530 .0330955
607.302 .0330555
608.074 .0330167
608.845 .0329792
609.616 .0329428
610.387 .0329272
611.158 .0328925
611.928 .0328591
612.697 .0328267
613.467 .0327953
614.236 .0327648
615.004 .0327353
615.773 .0327065
616.541 .0326784
617.308 .0326510
618.076 .0326240
618.843 .0325974
619.609 .0325712
620.375 .0325453
621.141 .0325196
621.907 .0324941
622.672 .0324687
623.437 .0324434
624.202 .0324182
624.966 .0323930
625.730 .0323676
626.493 .0323420
627.257 .0323162
628.020 .0322899
628.782 .0322633
629.545 .0322362
630.307 .0322087
631.068 .0321809
631.830 .0321528
632.591 .0321244
633.352 .0320959
634.112 .0320671
634.872 .0320383
635.632 .0320094
636.392 .0319806
637.151 .0319517
637.910 .0319230
638.668 .0318942
639.427 .0318655
640.185 .0318368
640.943 .0318082
641.700 .0317795
642.457 .0317507
643.214 .0317219
643.971 .0316931
644.727 .0316643
645.483 .0316354
646.239 .0316066
646.994 .0315779
647.750 .0315491
648.505 .0315205
649.259 .0314917
650.014 .0314629
650.768 .0314341
651.521 .0314050
652.275 .0313759
653.028 .0313466
653.781 .0313171
654.534 .0312874
655.286 .0312577
656.039 .0312279
656.791 .0311980
657.542 .0311683
658.294 .0311386
659.045 .0311091
659.796 .0310798
660.546 .0310508
661.297 .0310220
662.047 .0309937
662.796 .0309657
663.546 .0309380
664.295 .0309107
665.044 .0308839
665.793 .0308574
666.542 .0308314
667.290 .0308060
668.038 .0307812
668.786 .0307570
669.533 .0307335
670.281 .0307107
671.028 .0306885
671.774 .0306669
672.521 .0306458
673.267 .0306249
674.013 .0306044
674.759 .0305840
675.505 .0305639
676.250 .0305439
676.995 .0305241
677.740 .0305044
678.484 .0304850
679.229 .0304657
679.973 .0304465
680.717 .0304275
681.460 .0304086
682.204 .0303897
682.947 .0303708
683.690 .0303518
684.433 .0303326
685.175 .0303132
685.917 .0302936
686.659 .0302739
687.401 .0302541
688.142 .0302342
688.884 .0302142
689.625 .0301943
690.365 .0301745
691.106 .0301549
691.846 .0301353
692.586 .0301158
693.326 .0300965
694.066 .0300773
694.805 .0300582
695.545 .0300393
696.284 .0300205
697.022 .0300020
697.761 .0299838
698.499 .0299659
699.237 .0299482
699.975 .0299310
700.713 .0299140
701.450 .0298974
702.187 .0298811
702.924 .0298649
703.661 .0298487
704.397 .0298326
705.133 .0298164
705.869 .0298000
706.605 .0297834
707.341 .0297667
708.076 .0297496
708.811 .0297324
709.546 .0297149
710.281 .0296971
711.015 .0296789
711.749 .0296604
712.483 .0296414
713.217 .0296219
713.950 .0296020
714.684 .0295817
715.417 .0295610
716.150 .0295399
716.882 .0295185
717.615 .0294967
718.347 .0294747
719.079 .0294524
719.811 .0294299
720.542 .0294073
721.273 .0293846
722.005 .0293619
722.735 .0293394
723.466 .0293171
724.196 .0292951
724.927 .0292733
725.656 .0292518
726.386 .0292306
727.116 .0292097
727.845 .0291892
728.574 .0291690
729.303 .0291492
730.031 .0291299
730.760 .0291110
731.488 .0290926
732.216 .0290747
732.944 .0290572
733.671 .0290402
734.398 .0290236
735.125 .0290075
735.852 .0289917
736.579 .0289762
737.305 .0289611
738.031 .0289464
738.757 .0289319
739.483 .0289177
740.208 .0289038
740.933 .0288902
741.658 .0288769
742.383 .0288640
743.108 .0288515
743.832 .0288393
744.556 .0288275
745.280 .0288159
746.004 .0288045
746.727 .0287932
747.450 .0287818
748.173 .0287703
748.896 .0287585
749.618 .0287465
750.340 .0287342
751.062 .0287216
751.784 .0287087
752.506 .0286956
753.227 .0286822
753.948 .0286686
754.669 .0286547
755.389 .0286406
756.110 .0286261
756.830 .0286114
757.550 .0285964
758.269 .0285812
758.989 .0285659
759.708 .0285506
760.427 .0285352
761.146 .0285199
761.864 .0285048
762.582 .0284900
763.300 .0284754
764.018 .0284611
764.736 .0284471
765.453 .0284334
766.170 .0284200
766.887 .0284069
767.603 .0283942
768.320 .0283818
769.036 .0283697
769.751 .0283581
770.467 .0283470
771.182 .0283364
771.897 .0283264
772.612 .0283170
773.327 .0283082
774.041 .0283000
774.755 .0282923
775.469 .0282851
776.183 .0282784
776.896 .0282723
777.609 .0282666
778.322 .0282616
779.035 .0282571
779.747 .0282531
780.459 .0282498
781.171 .0282471
781.882 .0282449
782.594 .0282433
783.305 .0282420
784.016 .0282411
784.726 .0282405
785.436 .0282401
786.147 .0282399
786.856 .0282396
787.566 .0282392
788.275 .0282387
788.984 .0282381
789.693 .0282373
790.401 .0282362
791.110 .0282347
791.818 .0282327
792.525 .0282302
793.233 .0282269
793.940 .0282229
794.647 .0282187
795.353 .0282135
796.060 .0282074
796.766 .0282006
797.472 .0281931
798.177 .0281850
798.883 .0281762
799.588 .0281669
800.292 .0281571
800.997 .0281467
801.701 .0281358
802.405 .0281244
803.109 .0281124
803.812 .0281000
804.515 .0280870
805.218 .0280735
805.921 .0280596
806.623 .0280453
807.325 .0280307
808.027 .0280157
808.728 .0280004
809.429 .0279848
810.130 .0279690
810.831 .0279530
811.531 .0279369
812.231 .0279207
812.931 .0279045
813.630 .0278883
814.330 .0278721
815.029 .0278561
815.727 .0278402
816.426 .0278243
817.124 .0278086
817.821 .0277929
818.519 .0277774
819.216 .0277621
819.913 .0277470
820.609 .0277323
821.306 .0277178
822.002 .0277038
822.697 .0276902
823.393 .0276770
824.088 .0276642
824.783 .0276518
825.477 .0276398
826.171 .0276280
826.865 .0276165
827.559 .0276052
828.252 .0275942
828.945 .0275835
829.638 .0275731
830.330 .0275630
831.023 .0275531
831.714 .0275434
832.406 .0275338
833.097 .0275242
833.788 .0275146
834.479 .0275049
835.169 .0274951
835.859 .0274852
836.548 .0274751
837.238 .0274650
837.927 .0274547
838.615 .0274443
839.304 .0274336
839.992 .0274227
840.680 .0274116
841.367 .0274001
842.054 .0273883
842.741 .0273762
843.428 .0273640
844.114 .0273515
844.800 .0273389
845.485 .0273260
846.170 .0273129
846.855 .0272994
847.540 .0272856
848.224 .0272713
848.908 .0272565
849.592 .0272414
850.275 .0272258
850.958 .0272098
851.641 .0271936
852.323 .0271771
853.005 .0271603
853.687 .0271432
854.368 .0271258
855.049 .0271081
855.730 .0270900
856.410 .0270716
857.090 .0270529
857.769 .0270339
858.449 .0270147
859.128 .0269954
859.806 .0269760
860.485 .0269566
861.163 .0269373
861.840 .0269181
862.518 .0268991
863.195 .0268804
863.871 .0268620
864.548 .0268440
865.224 .0268264
865.899 .0268093
866.574 .0267927
867.249 .0267765
867.924 .0267607
868.598 .0267455
869.272 .0267308
869.946 .0267166
870.619 .0267030
871.292 .0266900
871.964 .0266776
872.636 .0266659
873.308 .0266549
873.979 .0266445
874.651 .0266348
875.321 .0266257
875.992 .0266174
876.662 .0266097
877.331 .0266026
878.001 .0265961
878.670 .0265902
879.338 .0265849
880.007 .0265801
880.675 .0265758
881.342 .0265721
882.009 .0265688
882.676 .0265661
883.343 .0265639
884.009 .0265622
884.675 .0265610
885.340 .0265603
886.005 .0265601
886.670 .0265602
887.334 .0265609
887.998 .0265619
888.662 .0265635
889.325 .0265655
889.988 .0265681
890.650 .0265712
891.312 .0265748
891.974 .0265789
892.636 .0265834
893.297 .0265882
893.957 .0265933
894.618 .0265985
895.278 .0266038
895.937 .0266091
896.596 .0266142
897.255 .0266192
897.914 .0266238
898.572 .0266280
899.230 .0266317
899.887 .0266348
900.544 .0266372
901.201 .0266390
901.857 .0266380
902.513 .0266376
903.168 .0266364
903.823 .0266344
904.478 .0266314
905.132 .0266276
905.786 .0266229
906.440 .0266173
907.093 .0266109
907.746 .0266037
908.399 .0265959
909.051 .0265874
909.703 .0265785
910.354 .0265728
911.005 .0265636
911.656 .0265542
912.306 .0265445
912.956 .0265347
913.605 .0265248
914.254 .0265148
914.903 .0265049
915.551 .0264950
916.199 .0264851
916.847 .0264754
917.494 .0264658
918.141 .0264562
918.788 .0264467
919.434 .0264372
920.079 .0264276
920.725 .0264179
921.370 .0264082
922.014 .0263982
922.658 .0263880
923.302 .0263775
923.946 .0263668
924.589 .0263557
925.231 .0263443
925.873 .0263326
926.515 .0263204
927.157 .0263079
927.798 .0262950
928.439 .0262817
929.079 .0262680
929.719 .0262540
930.359 .0262397
930.998 .0262252
931.637 .0262104
932.275 .0261955
932.913 .0261805
933.551 .0261654
934.188 .0261504
934.825 .0261355
935.462 .0261210
936.098 .0261068
936.733 .0260931
937.369 .0260799
938.004 .0260673
938.638 .0260553
939.273 .0260440
939.907 .0260335
940.540 .0260236
941.173 .0260146
941.806 .0260063
942.438 .0259989
943.070 .0259923
943.702 .0259864
944.333 .0259811
944.964 .0259762
945.594 .0259715
946.224 .0259670
946.854 .0259625
947.483 .0259580
948.112 .0259533
948.741 .0259486
949.369 .0259437
949.996 .0259388
950.624 .0259338
951.251 .0259286
951.878 .0259231
952.504 .0259174
953.130 .0259111
953.755 .0259044
954.380 .0258972
955.005 .0258895
955.629 .0258814
956.253 .0258729
956.877 .0258639
957.500 .0258545
958.123 .0258447
958.746 .0258344
959.368 .0258236
959.990 .0258122
960.611 .0258004
961.232 .0257882
961.853 .0257755
962.473 .0257626
963.093 .0257494
963.712 .0257361
964.331 .0257226
964.950 .0257089
965.569 .0256950
966.187 .0256809
966.804 .0256665
967.422 .0256518
968.039 .0256368
968.655 .0256215
969.272 .0256059
969.887 .0255901
970.503 .0255741
971.118 .0255578
971.733 .0255411
972.347 .0255242
972.961 .0255068
973.575 .0254891
974.188 .0254709
974.801 .0254523
975.414 .0254333
976.026 .0254138
976.638 .0253941
977.250 .0253740
977.861 .0253536
978.472 .0253329
979.083 .0253120
979.693 .0252908
980.303 .0252695
980.912 .0252367
981.521 .0252150
982.130 .0251932
982.738 .0251713
983.346 .0251495
983.954 .0251279
984.562 .0251064
985.169 .0250852
985.775 .0250643
986.382 .0250438
986.988 .0250237
987.594 .0250041
988.199 .0249851
988.804 .0249665
989.409 .0249590
990.013 .0249413
990.617 .0249242
991.221 .0249076
991.824 .0248916
992.427 .0248760
993.030 .0248610
993.632 .0248462
994.234 .0248318
994.836 .0248177
995.438 .0248038
996.039 .0247902
996.640 .0247769
997.240 .0247639
997.840 .0247512
998.440 .0247389
999.040 .0247270
999.639 .0247153
1000.238 .0247039
1000.836 .0246928
1001.435 .0246818
1002.033 .0246711
1002.630 .0246606
1003.228 .0246503
1003.825 .0246404
1004.422 .0246309
1005.018 .0246217
1005.614 .0246130
1006.210 .0246047
1006.806 .0245968
1007.401 .0245892
1007.996 .0245819
1008.591 .0245751
1009.186 .0245687
1009.780 .0245628
1010.374 .0245575
1010.967 .0245528
1011.561 .0245488
1012.154 .0245454
1012.746 .0245427
1013.339 .0245407
1013.931 .0245392
1014.523 .0245383
1015.115 .0245378
1015.706 .0245379
1016.298 .0245386
1016.888 .0245399
1017.479 .0245417
1018.069 .0245440
1018.660 .0245469
1019.250 .0245502
1019.839 .0245539
1020.429 .0245578
1021.018 .0245618
1021.607 .0245661
1022.195 .0245704
1022.784 .0245748
1023.372 .0245793
1023.960 .0245839
1024.547 .0245887
1025.135 .0245937
1025.722 .0245988
1026.309 .0246040
1026.896 .0246094
1027.483 .0246149
1028.069 .0246205
1028.655 .0246265
1029.241 .0246327
1029.827 .0246393
1030.412 .0246462
1030.997 .0246536
1031.582 .0246614
1032.167 .0246696
1032.752 .0246782
1033.336 .0246872
1033.921 .0246964
1034.505 .0247059
1035.089 .0247154
1035.672 .0247251
1036.256 .0247348
1036.839 .0247443
1037.422 .0247538
1038.005 .0247630
1038.588 .0247719
1039.171 .0247805
1039.753 .0247888
1040.335 .0247969
1040.918 .0248045
1041.500 .0248119
1042.081 .0248189
1042.663 .0248256
1043.244 .0248320
1043.826 .0248382
1044.407 .0248441
1044.988 .0248498
1045.569 .0248553
1046.150 .0248608
1046.730 .0248663
1047.311 .0248719
1047.891 .0248775
1048.471 .0248832
1049.052 .0248889
1049.632 .0248947
1050.211 .0249006
1050.791 .0249065
1051.371 .0249127
1051.950 .0249190
1052.530 .0249256
1053.109 .0249325
1053.688 .0249397
1054.268 .0249474
1054.847 .0249556
1055.426 .0249643
1056.005 .0249735
1056.583 .0249833
1057.162 .0249935
1057.741 .0250043
1058.319 .0250156
1058.898 .0250273
1059.476 .0250394
1060.055 .0250515
1060.633 .0250638
1061.211 .0250761
1061.790 .0250881
1062.368 .0250999
1062.946 .0251115
1063.524 .0251226
1064.102 .0251333
1064.680 .0251436
1065.258 .0251534
1065.836 .0251629
1066.414 .0251720
1066.992 .0251807
1067.570 .0251891
1068.148 .0251970
1068.726 .0252046
1069.304 .0252120
1069.882 .0252192
1070.460 .0252262
1071.038 .0252332
1071.616 .0252401
1072.194 .0252470
1072.772 .0252540
1073.350 .0252609
1073.928 .0252678
1074.506 .0252747
1075.084 .0252817
1075.662 .0252887
1076.240 .0252960
1076.819 .0253037
1077.397 .0253119
1077.976 .0253209
1078.554 .0253307
1079.133 .0253415
1079.711 .0253532
1080.290 .0253659
1080.869 .0253795
1081.448 .0253938
1082.027 .0254088
1082.606 .0254245
1083.185 .0254408
1083.764 .0254576
1084.343 .0254750
1084.923 .0254929
1085.502 .0255114
1086.082 .0255305
1086.662 .0255501
1087.242 .0255701
1087.822 .0255904
1088.402 .0256110
1088.983 .0256318
1089.563 .0256529
1090.144 .0256742
1090.725 .0256960
1091.306 .0257182
1091.887 .0257412
1092.469 .0257649
1093.050 .0257895
1093.632 .0258149
1094.214 .0258409
1094.796 .0258674
1095.379 .0258941
1095.961 .0259206
1096.544 .0259469
1097.127 .0259727
1097.710 .0259982
1098.294 .0260233
1098.877 .0260482
1099.461 .0260731
1100.046 .0260983
1100.630 .0261238
1101.215 .0261498
1101.800 .0261762
1102.385 .0262031
1102.970 .0262305
1103.556 .0262585
1104.142 .0262873
1104.728 .0263169
1105.315 .0263477
1105.902 .0263797
1106.489 .0264131
1107.077 .0264479
1107.664 .0264841
1108.253 .0265213
1108.841 .0265592
1109.430 .0265975
1110.019 .0266361
1110.609 .0266747
1111.198 .0267136
1111.789 .0267527
1112.379 .0267923
1112.970 .0268327
1113.561 .0268739
1114.153 .0269159
1114.745 .0269588
1115.338 .0270025
1115.931 .0270468
1116.524 .0270918
1117.117 .0271373
1117.712 .0271834
1118.306 .0272305
1118.901 .0272788
1119.496 .0273282
1120.092 .0273789
1120.689 .0274305
1121.285 .0274827
1121.882 .0275351
1122.480 .0275871
1123.078 .0276384
1123.677 .0276886
1124.276 .0277377
1124.875 .0277856
1125.476 .0278327
1126.076 .0278798
1126.677 .0279273
1127.279 .0279757
1127.881 .0280255
1128.484 .0280767
1129.087 .0281014
1129.691 .0281546
1130.295 .0282098
1130.900 .0282677
1131.505 .0283288
1132.111 .0283941
1132.718 .0284644
1133.325 .0285402
1133.933 .0286227
1134.541 .0287109
1135.150 .0288130
1135.760 .0289158
1136.370 .0290169
1136.981 .0288289
1137.592 .0289243
1138.204 .0290301
1138.817 .0291494
1139.431 .0292856
1140.045 .0294452
1140.660 .0296255
1141.275 .0298182
1141.891 .0300476
1142.508 .0302521
1143.126 .0306909
1143.744 .0307744
1144.363 .0307960
1144.983 .0316160
