Measurement Sequence started on: 15-12-46-377
Integration time: 28
Scans to Average: 2 
>>>>>Begin Spectral Data<<<<<
432.689 .0000100
433.621 .0000100
434.552 .0000100
435.482 .0000100
436.410 .0000100
437.337 .0000100
438.262 .0275123
439.187 .0581450
440.110 .0962152
441.031 .1391233
441.952 .1108587
442.871 .1156946
443.789 .1201865
444.705 .1244060
445.621 .1284026
446.535 .1322155
447.447 .1344248
448.359 .1348887
449.269 .1332337
450.178 .1292207
451.086 .1229305
451.993 .1148450
452.898 .1057571
453.803 .0965645
454.706 .0880296
455.608 .0806238
456.508 .0745022
457.408 .0703711
458.306 .0672007
459.204 .0646252
460.100 .0624610
460.995 .0606032
461.888 .0589822
462.781 .0575512
463.673 .0562743
464.563 .0551276
465.452 .0540916
466.340 .0531521
467.228 .0522964
468.114 .0515165
468.999 .0508048
469.882 .0501540
470.765 .0495583
471.647 .0490128
472.528 .0485132
473.407 .0480567
474.286 .0476407
475.163 .0472652
476.040 .0469291
476.915 .0466325
477.790 .0463741
478.663 .0461524
479.535 .0459644
480.407 .0458071
481.277 .0456762
482.147 .0455680
483.015 .0454790
483.883 .0454067
484.749 .0453490
485.615 .0453048
486.479 .0452735
487.343 .0452549
488.206 .0452495
489.067 .0452571
489.928 .0452774
490.788 .0453111
491.647 .0453575
492.505 .0454171
493.362 .0454904
494.218 .0455787
495.073 .0456834
495.928 .0459113
496.781 .0460669
497.634 .0462439
498.486 .0464444
499.337 .0466705
500.187 .0469250
501.036 .0472102
501.884 .0475296
502.731 .0478873
503.578 .0482868
504.424 .0485761
505.268 .0490509
506.113 .0495776
506.956 .0501605
507.798 .0508043
508.640 .0515154
509.480 .0523028
510.320 .0531767
511.160 .0541488
511.998 .0552346
512.836 .0564524
513.672 .0578220
514.508 .0593680
515.344 .0611157
516.178 .0630896
517.012 .0653160
517.845 .0678186
518.677 .0706165
519.508 .0737235
520.339 .0771438
521.169 .0808739
521.998 .0848850
522.826 .0891414
523.654 .0935872
524.481 .0981612
525.307 .1027919
526.133 .1073953
526.958 .1118824
527.782 .1161640
528.605 .1201528
529.428 .1237671
530.250 .1269300
531.072 .1295874
531.892 .1316894
532.712 .1332060
533.532 .1341190
534.350 .1344235
535.168 .1341257
535.986 .1332386
536.802 .1317754
537.618 .1297545
538.434 .1271964
539.249 .1241459
540.063 .1206511
540.876 .1167756
541.689 .1125883
542.501 .1081649
543.313 .1035910
544.124 .0989552
544.934 .0943434
545.744 .0898384
546.553 .0855130
547.361 .0814333
548.169 .0776382
548.976 .0741582
549.783 .0710011
550.589 .0681621
551.395 .0656197
552.200 .0633428
553.004 .0612974
553.808 .0594530
554.611 .0577834
555.414 .0562675
556.216 .0548854
557.018 .0536209
557.819 .0524618
558.619 .0513959
559.419 .0504126
560.218 .0495031
561.017 .0486571
561.815 .0478661
562.613 .0471217
563.410 .0464157
564.207 .0457399
565.003 .0450888
565.799 .0444575
566.594 .0438420
567.388 .0432406
568.182 .0426520
568.976 .0420760
569.769 .0415132
570.562 .0409645
571.354 .0404305
572.145 .0399122
572.936 .0394103
573.727 .0389247
574.517 .0384554
575.307 .0380027
576.096 .0375668
576.885 .0371483
577.673 .0367482
578.461 .0363673
579.248 .0360062
580.035 .0356658
580.821 .0353464
581.607 .0350478
582.392 .0347698
583.177 .0345117
583.962 .0342729
584.746 .0340522
585.529 .0338489
586.313 .0336615
587.095 .0334893
587.878 .0333313
588.660 .0331868
589.441 .0330546
590.222 .0329343
591.003 .0328249
591.783 .0327258
592.563 .0326359
593.342 .0325542
594.121 .0324795
594.899 .0324108
595.678 .0323472
596.455 .0322878
597.233 .0322318
598.009 .0321785
598.786 .0321276
599.562 .0320785
600.338 .0320311
601.113 .0319850
601.888 .0319183
602.663 .0318744
603.437 .0318314
604.211 .0317893
604.984 .0317480
605.757 .0317076
606.530 .0316682
607.302 .0316298
608.074 .0315926
608.845 .0315566
609.616 .0315221
610.387 .0315087
611.158 .0314765
611.928 .0314458
612.697 .0314166
613.467 .0313890
614.236 .0313628
615.004 .0313380
615.773 .0313146
616.541 .0312925
617.308 .0312716
618.076 .0312518
618.843 .0312331
619.609 .0312153
620.375 .0311981
621.141 .0311812
621.907 .0311644
622.672 .0311473
623.437 .0311297
624.202 .0311114
624.966 .0310923
625.730 .0310723
626.493 .0310515
627.257 .0310298
628.020 .0310071
628.782 .0309836
629.545 .0309591
630.307 .0309335
631.068 .0309067
631.830 .0308786
632.591 .0308494
633.352 .0308190
634.112 .0307878
634.872 .0307560
635.632 .0307238
636.392 .0306915
637.151 .0306593
637.910 .0306274
638.668 .0305960
639.427 .0305651
640.185 .0305348
640.943 .0305054
641.700 .0304768
642.457 .0304493
643.214 .0304228
643.971 .0303974
644.727 .0303731
645.483 .0303499
646.239 .0303278
646.994 .0303066
647.750 .0302864
648.505 .0302670
649.259 .0302483
650.014 .0302303
650.768 .0302128
651.521 .0301956
652.275 .0301787
653.028 .0301619
653.781 .0301450
654.534 .0301280
655.286 .0301109
656.039 .0300934
656.791 .0300758
657.542 .0300578
658.294 .0300395
659.045 .0300209
659.796 .0300019
660.546 .0299826
661.297 .0299628
662.047 .0299427
662.796 .0299221
663.546 .0299011
664.295 .0298799
665.044 .0298584
665.793 .0298368
666.542 .0298153
667.290 .0297940
668.038 .0297728
668.786 .0297519
669.533 .0297313
670.281 .0297109
671.028 .0296908
671.774 .0296709
672.521 .0296514
673.267 .0296321
674.013 .0296132
674.759 .0295947
675.505 .0295765
676.250 .0295588
676.995 .0295414
677.740 .0295243
678.484 .0295075
679.229 .0294909
679.973 .0294747
680.717 .0294586
681.460 .0294429
682.204 .0294274
682.947 .0294122
683.690 .0293972
684.433 .0293824
685.175 .0293677
685.917 .0293531
686.659 .0293385
687.401 .0293240
688.142 .0293094
688.884 .0292948
689.625 .0292801
690.365 .0292655
691.106 .0292507
691.846 .0292358
692.586 .0292206
693.326 .0292053
694.066 .0291897
694.805 .0291737
695.545 .0291575
696.284 .0291410
697.022 .0291242
697.761 .0291071
698.499 .0290898
699.237 .0290723
699.975 .0290546
700.713 .0290368
701.450 .0290189
702.187 .0290008
702.924 .0289827
703.661 .0289645
704.397 .0289462
705.133 .0289277
705.869 .0289090
706.605 .0288900
707.341 .0288709
708.076 .0288515
708.811 .0288319
709.546 .0288121
710.281 .0287921
711.015 .0287718
711.749 .0287513
712.483 .0287305
713.217 .0287093
713.950 .0286878
714.684 .0286658
715.417 .0286435
716.150 .0286207
716.882 .0285975
717.615 .0285739
718.347 .0285500
719.079 .0285257
719.811 .0285010
720.542 .0284761
721.273 .0284509
722.005 .0284256
722.735 .0284003
723.466 .0283750
724.196 .0283499
724.927 .0283251
725.656 .0283007
726.386 .0282768
727.116 .0282534
727.845 .0282306
728.574 .0282085
729.303 .0281871
730.031 .0281665
730.760 .0281468
731.488 .0281281
732.216 .0281104
732.944 .0280939
733.671 .0280784
734.398 .0280640
735.125 .0280508
735.852 .0280386
736.579 .0280274
737.305 .0280172
738.031 .0280079
738.757 .0279995
739.483 .0279918
740.208 .0279849
740.933 .0279785
741.658 .0279727
742.383 .0279672
743.108 .0279621
743.832 .0279573
744.556 .0279527
745.280 .0279484
746.004 .0279442
746.727 .0279402
747.450 .0279363
748.173 .0279323
748.896 .0279283
749.618 .0279242
750.340 .0279199
751.062 .0279154
751.784 .0279106
752.506 .0279057
753.227 .0279007
753.948 .0278954
754.669 .0278900
755.389 .0278844
756.110 .0278787
756.830 .0278726
757.550 .0278664
758.269 .0278599
758.989 .0278532
759.708 .0278462
760.427 .0278391
761.146 .0278317
761.864 .0278241
762.582 .0278164
763.300 .0278085
764.018 .0278005
764.736 .0277925
765.453 .0277843
766.170 .0277762
766.887 .0277680
767.603 .0277599
768.320 .0277519
769.036 .0277438
769.751 .0277358
770.467 .0277278
771.182 .0277198
771.897 .0277119
772.612 .0277039
773.327 .0276960
774.041 .0276882
774.755 .0276805
775.469 .0276729
776.183 .0276653
776.896 .0276578
777.609 .0276503
778.322 .0276428
779.035 .0276352
779.747 .0276275
780.459 .0276197
781.171 .0276118
781.882 .0276035
782.594 .0275950
783.305 .0275862
784.016 .0275769
784.726 .0275671
785.436 .0275569
786.147 .0275394
786.856 .0275276
787.566 .0275153
788.275 .0275023
788.984 .0274887
789.693 .0274744
790.401 .0274596
791.110 .0274440
791.818 .0274278
792.525 .0274109
793.233 .0273934
793.940 .0273752
794.647 .0273643
795.353 .0273453
796.060 .0273256
796.766 .0273053
797.472 .0272844
798.177 .0272630
798.883 .0272410
799.588 .0272185
800.292 .0271955
800.997 .0271722
801.701 .0271485
802.405 .0271246
803.109 .0271004
803.812 .0270761
804.515 .0270516
805.218 .0270270
805.921 .0270024
806.623 .0269778
807.325 .0269532
808.027 .0269288
808.728 .0269044
809.429 .0268802
810.130 .0268562
810.831 .0268323
811.531 .0268086
812.231 .0267852
812.931 .0267620
813.630 .0267390
814.330 .0267164
815.029 .0266941
815.727 .0266724
816.426 .0266511
817.124 .0266304
817.821 .0266102
818.519 .0265908
819.216 .0265720
819.913 .0265539
820.609 .0265366
821.306 .0265201
822.002 .0265045
822.697 .0264897
823.393 .0264759
824.088 .0264631
824.783 .0264512
825.477 .0264402
826.171 .0264302
826.865 .0264212
827.559 .0264130
828.252 .0264058
828.945 .0263996
829.638 .0263943
830.330 .0263901
831.023 .0263868
831.714 .0263844
832.406 .0263829
833.097 .0263824
833.788 .0263826
834.479 .0263835
835.169 .0263851
835.859 .0263875
836.548 .0263904
837.238 .0263939
837.927 .0263979
838.615 .0264023
839.304 .0264071
839.992 .0264122
840.680 .0264175
841.367 .0264230
842.054 .0264286
842.741 .0264342
843.428 .0264398
844.114 .0264455
844.800 .0264511
845.485 .0264565
846.170 .0264617
846.855 .0264666
847.540 .0264711
848.224 .0264752
848.908 .0264787
849.592 .0264817
850.275 .0264842
850.958 .0264861
851.641 .0264875
852.323 .0264883
853.005 .0264884
853.687 .0264880
854.368 .0264870
855.049 .0264854
855.730 .0264833
856.410 .0264807
857.090 .0264776
857.769 .0264743
858.449 .0264706
859.128 .0264666
859.806 .0264625
860.485 .0264581
861.163 .0264537
861.840 .0264490
862.518 .0264443
863.195 .0264396
863.871 .0264348
864.548 .0264301
865.224 .0264253
865.899 .0264205
866.574 .0264158
867.249 .0264109
867.924 .0264061
868.598 .0264012
869.272 .0263962
869.946 .0263912
870.619 .0263860
871.292 .0263807
871.964 .0263753
872.636 .0263698
873.308 .0263641
873.979 .0263582
874.651 .0263521
875.321 .0263458
875.992 .0263391
876.662 .0263322
877.331 .0263250
878.001 .0263174
878.670 .0263097
879.338 .0263016
880.007 .0262934
880.675 .0262850
881.342 .0262765
882.009 .0262678
882.676 .0262589
883.343 .0262498
884.009 .0262406
884.675 .0262312
885.340 .0262216
886.005 .0262118
886.670 .0262020
887.334 .0261922
887.998 .0261822
888.662 .0261722
889.325 .0261621
889.988 .0261518
890.650 .0261414
891.312 .0261307
891.974 .0261198
892.636 .0261086
893.297 .0260971
893.957 .0260853
894.618 .0260732
895.278 .0260606
895.937 .0260476
896.596 .0260340
897.255 .0260198
897.914 .0260048
898.572 .0259892
899.230 .0259727
899.887 .0259554
900.544 .0259374
901.201 .0259185
901.857 .0258861
902.513 .0258648
903.168 .0258426
903.823 .0258194
904.478 .0257953
905.132 .0257703
905.786 .0257443
906.440 .0257175
907.093 .0256899
907.746 .0256616
908.399 .0256327
909.051 .0256033
909.703 .0255734
910.354 .0255571
911.005 .0255268
911.656 .0254962
912.306 .0254652
912.956 .0254340
913.605 .0254027
914.254 .0253713
914.903 .0253400
915.551 .0253088
916.199 .0252778
916.847 .0252469
917.494 .0252164
918.141 .0251861
918.788 .0251560
919.434 .0251263
920.079 .0250968
920.725 .0250675
921.370 .0250386
922.014 .0250100
922.658 .0249816
923.302 .0249536
923.946 .0249259
924.589 .0248985
925.231 .0248714
925.873 .0248445
926.515 .0248180
927.157 .0247917
927.798 .0247657
928.439 .0247400
929.079 .0247148
929.719 .0246899
930.359 .0246656
930.998 .0246419
931.637 .0246188
932.275 .0245965
932.913 .0245748
933.551 .0245540
934.188 .0245340
934.825 .0245149
935.462 .0244969
936.098 .0244798
936.733 .0244639
937.369 .0244491
938.004 .0244355
938.638 .0244231
939.273 .0244119
939.907 .0244020
940.540 .0243933
941.173 .0243857
941.806 .0243794
942.438 .0243742
943.070 .0243701
943.702 .0243671
944.333 .0243652
944.964 .0243644
945.594 .0243644
946.224 .0243654
946.854 .0243671
947.483 .0243695
948.112 .0243726
948.741 .0243761
949.369 .0243802
949.996 .0243846
950.624 .0243895
951.251 .0243947
951.878 .0244002
952.504 .0244060
953.130 .0244121
953.755 .0244184
954.380 .0244248
955.005 .0244314
955.629 .0244380
956.253 .0244448
956.877 .0244517
957.500 .0244588
958.123 .0244659
958.746 .0244733
959.368 .0244809
959.990 .0244887
960.611 .0244967
961.232 .0245049
961.853 .0245132
962.473 .0245217
963.093 .0245304
963.712 .0245392
964.331 .0245481
964.950 .0245573
965.569 .0245666
966.187 .0245761
966.804 .0245858
967.422 .0245955
968.039 .0246053
968.655 .0246150
969.272 .0246247
969.887 .0246342
970.503 .0246437
971.118 .0246530
971.733 .0246622
972.347 .0246713
972.961 .0246803
973.575 .0246892
974.188 .0246978
974.801 .0247063
975.414 .0247144
976.026 .0247222
976.638 .0247296
977.250 .0247365
977.861 .0247429
978.472 .0247489
979.083 .0247545
979.693 .0247597
980.303 .0247645
980.912 .0247702
981.521 .0247742
982.130 .0247780
982.738 .0247815
983.346 .0247847
983.954 .0247877
984.562 .0247906
985.169 .0247933
985.775 .0247960
986.382 .0247988
986.988 .0248018
987.594 .0248048
988.199 .0248079
988.804 .0248112
989.409 .0248133
990.013 .0248167
990.617 .0248201
991.221 .0248233
991.824 .0248265
992.427 .0248294
993.030 .0248322
993.632 .0248348
994.234 .0248373
994.836 .0248396
995.438 .0248417
996.039 .0248437
996.640 .0248456
997.240 .0248474
997.840 .0248491
998.440 .0248508
999.040 .0248524
999.639 .0248540
1000.238 .0248556
1000.836 .0248573
1001.435 .0248589
1002.033 .0248606
1002.630 .0248623
1003.228 .0248639
1003.825 .0248656
1004.422 .0248671
1005.018 .0248685
1005.614 .0248697
1006.210 .0248707
1006.806 .0248715
1007.401 .0248721
1007.996 .0248725
1008.591 .0248727
1009.186 .0248728
1009.780 .0248727
1010.374 .0248725
1010.967 .0248722
1011.561 .0248718
1012.154 .0248713
1012.746 .0248706
1013.339 .0248697
1013.931 .0248686
1014.523 .0248672
1015.115 .0248656
1015.706 .0248636
1016.298 .0248612
1016.888 .0248583
1017.479 .0248551
1018.069 .0248514
1018.660 .0248474
1019.250 .0248429
1019.839 .0248381
1020.429 .0248329
1021.018 .0248274
1021.607 .0248217
1022.195 .0248157
1022.784 .0248095
1023.372 .0248030
1023.960 .0247962
1024.547 .0247893
1025.135 .0247822
1025.722 .0247750
1026.309 .0247678
1026.896 .0247606
1027.483 .0247534
1028.069 .0247462
1028.655 .0247391
1029.241 .0247319
1029.827 .0247247
1030.412 .0247175
1030.997 .0247102
1031.582 .0247027
1032.167 .0246951
1032.752 .0246874
1033.336 .0246796
1033.921 .0246716
1034.505 .0246633
1035.089 .0246546
1035.672 .0246454
1036.256 .0246356
1036.839 .0246251
1037.422 .0246139
1038.005 .0246019
1038.588 .0245890
1039.171 .0245753
1039.753 .0245607
1040.335 .0245454
1040.918 .0245293
1041.500 .0245125
1042.081 .0244951
1042.663 .0244771
1043.244 .0244585
1043.826 .0244395
1044.407 .0244202
1044.988 .0244005
1045.569 .0243805
1046.150 .0243602
1046.730 .0243397
1047.311 .0243189
1047.891 .0242979
1048.471 .0242768
1049.052 .0242556
1049.632 .0242342
1050.211 .0242128
1050.791 .0241914
1051.371 .0241700
1051.950 .0241488
1052.530 .0241276
1053.109 .0241067
1053.688 .0240860
1054.268 .0240658
1054.847 .0240460
1055.426 .0240268
1056.005 .0240085
1056.583 .0239910
1057.162 .0239745
1057.741 .0239589
1058.319 .0239442
1058.898 .0239304
1059.476 .0239173
1060.055 .0239048
1060.633 .0238929
1061.211 .0238814
1061.790 .0238703
1062.368 .0238597
1062.946 .0238495
1063.524 .0238399
1064.102 .0238310
1064.680 .0238226
1065.258 .0238148
1065.836 .0238074
1066.414 .0238006
1066.992 .0237941
1067.570 .0237880
1068.148 .0237821
1068.726 .0237766
1069.304 .0237716
1069.882 .0237670
1070.460 .0237631
1071.038 .0237597
1071.616 .0237570
1072.194 .0237547
1072.772 .0237529
1073.350 .0237512
1073.928 .0237496
1074.506 .0237479
1075.084 .0237462
1075.662 .0237445
1076.240 .0237429
1076.819 .0237415
1077.397 .0237406
1077.976 .0237402
1078.554 .0237405
1079.133 .0237415
1079.711 .0237431
1080.290 .0237454
1080.869 .0237483
1081.448 .0237518
1082.027 .0237558
1082.606 .0237605
1083.185 .0237659
1083.764 .0237721
1084.343 .0237793
1084.923 .0237875
1085.502 .0237965
1086.082 .0238064
1086.662 .0238169
1087.242 .0238279
1087.822 .0238393
1088.402 .0238509
1088.983 .0238628
1089.563 .0238749
1090.144 .0238874
1090.725 .0239005
1091.306 .0239144
1091.887 .0239289
1092.469 .0239443
1093.050 .0239604
1093.632 .0239772
1094.214 .0239945
1094.796 .0240124
1095.379 .0240308
1095.961 .0240499
1096.544 .0240700
1097.127 .0240911
1097.710 .0241134
1098.294 .0241371
1098.877 .0241622
1099.461 .0241887
1100.046 .0242163
1100.630 .0242449
1101.215 .0242743
1101.800 .0243044
1102.385 .0243352
1102.970 .0243666
1103.556 .0243987
1104.142 .0244315
1104.728 .0244650
1105.315 .0244994
1105.902 .0245346
1106.489 .0245706
1107.077 .0246072
1107.664 .0246444
1108.253 .0246819
1108.841 .0247199
1109.430 .0247581
1110.019 .0247966
1110.609 .0248356
1111.198 .0248752
1111.789 .0249153
1112.379 .0249562
1112.970 .0249979
1113.561 .0250402
1114.153 .0250831
1114.745 .0251267
1115.338 .0251709
1115.931 .0252158
1116.524 .0252617
1117.117 .0253086
1117.712 .0253569
1118.306 .0254066
1118.901 .0254576
1119.496 .0255100
1120.092 .0255638
1120.689 .0256188
1121.285 .0256751
1121.882 .0257329
1122.480 .0257922
1123.078 .0258532
1123.677 .0259162
1124.276 .0259812
1124.875 .0260482
1125.476 .0261172
1126.076 .0261879
1126.677 .0262602
1127.279 .0263342
1127.881 .0264099
1128.484 .0264874
1129.087 .0265247
1129.691 .0266052
1130.295 .0266876
1130.900 .0267723
1131.505 .0268592
1132.111 .0269486
1132.718 .0270402
1133.325 .0271341
1133.933 .0272293
1134.541 .0273260
1135.150 .0274302
1135.760 .0275311
1136.370 .0276372
1136.981 .0276436
1137.592 .0277479
1138.204 .0278621
1138.817 .0279851
1139.431 .0281148
1140.045 .0282521
1140.660 .0283908
1141.275 .0285318
1141.891 .0286493
1142.508 .0287799
1143.126 .0290738
1143.744 .0290689
1144.363 .0292945
1144.983 .0287165
