Measurement Sequence started on: 15-12-46-377
Integration time: 28
Scans to Average: 2 
>>>>>Begin Spectral Data<<<<<
432.689 .0000100
433.621 .0000100
434.552 .0000100
435.482 .0000100
436.410 .0000100
437.337 .0000100
438.262 .0283215
439.187 .0600765
440.110 .0995871
441.031 .1442763
441.952 .1166416
442.871 .1218793
443.789 .1267403
444.705 .1313006
445.621 .1356121
446.535 .1397146
447.447 .1421477
448.359 .1427532
449.269 .1411432
450.178 .1370593
451.086 .1305745
451.993 .1221784
452.898 .1126861
453.803 .1030256
454.706 .0939908
455.608 .0860804
456.508 .0794720
457.408 .0749055
458.306 .0713409
459.204 .0684065
460.100 .0659198
460.995 .0637764
461.888 .0619032
462.781 .0602507
463.673 .0587816
464.563 .0574686
465.452 .0562908
466.340 .0552300
467.228 .0542741
468.114 .0534131
468.999 .0526387
469.882 .0519419
470.765 .0513152
471.647 .0507513
472.528 .0502433
473.407 .0497839
474.286 .0493680
475.163 .0489904
476.040 .0486472
476.915 .0483358
477.790 .0480544
478.663 .0478014
479.535 .0475765
480.407 .0473781
481.277 .0472055
482.147 .0470569
483.015 .0469308
483.883 .0468255
484.749 .0467399
485.615 .0466731
486.479 .0466245
487.343 .0465943
488.206 .0465831
489.067 .0465907
489.928 .0466178
490.788 .0466645
491.647 .0467305
492.505 .0468150
493.362 .0469180
494.218 .0470382
495.073 .0471758
495.928 .0474417
496.781 .0476251
497.634 .0478282
498.486 .0480523
499.337 .0482994
500.187 .0485725
501.036 .0488738
501.884 .0492056
502.731 .0495716
503.578 .0499741
504.424 .0502575
505.268 .0507264
506.113 .0512393
506.956 .0517984
507.798 .0524080
508.640 .0530740
509.480 .0538047
510.320 .0546099
511.160 .0555020
511.998 .0564942
512.836 .0576029
513.672 .0588454
514.508 .0602400
515.344 .0618066
516.178 .0635652
517.012 .0655366
517.845 .0677400
518.677 .0701931
519.508 .0729114
520.339 .0759036
521.169 .0791758
521.998 .0827091
522.826 .0864736
523.654 .0904229
524.481 .0944978
525.307 .0986272
526.133 .1027313
526.958 .1067225
527.782 .1105170
528.605 .1140342
529.428 .1172041
530.250 .1199633
531.072 .1222708
531.892 .1240921
532.712 .1254045
533.532 .1261948
534.350 .1264588
535.168 .1261970
535.986 .1254186
536.802 .1241287
537.618 .1223370
538.434 .1200531
539.249 .1173093
540.063 .1141498
540.876 .1106325
541.689 .1068266
542.501 .1028104
543.313 .0986666
544.124 .0944827
544.934 .0903377
545.744 .0863049
546.553 .0824451
547.361 .0788092
548.169 .0754246
548.976 .0723102
549.783 .0694714
550.589 .0669032
551.395 .0645896
552.200 .0625097
553.004 .0606359
553.808 .0589451
554.611 .0574153
555.414 .0560276
556.216 .0547640
557.018 .0536071
557.819 .0525414
558.619 .0515536
559.419 .0506319
560.218 .0497673
561.017 .0489516
561.815 .0481797
562.613 .0474475
563.410 .0467509
564.207 .0460859
565.003 .0454487
565.799 .0448356
566.594 .0442428
567.388 .0436665
568.182 .0431046
568.976 .0425551
569.769 .0420172
570.562 .0414910
571.354 .0409771
572.145 .0404769
572.936 .0399923
573.727 .0395242
574.517 .0390741
575.307 .0386426
576.096 .0382300
576.885 .0378366
577.673 .0374622
578.461 .0371064
579.248 .0367683
580.035 .0364472
580.821 .0361425
581.607 .0358536
582.392 .0355804
583.177 .0353227
583.962 .0350806
584.746 .0348542
585.529 .0346433
586.313 .0344474
587.095 .0342659
587.878 .0340981
588.660 .0339427
589.441 .0337988
590.222 .0336653
591.003 .0335416
591.783 .0334270
592.563 .0333212
593.342 .0332237
594.121 .0331339
594.899 .0330515
595.678 .0329758
596.455 .0329062
597.233 .0328418
598.009 .0327821
598.786 .0327264
599.562 .0326741
600.338 .0326249
601.113 .0325785
601.888 .0325187
602.663 .0324789
603.437 .0324417
604.211 .0324067
604.984 .0323740
605.757 .0323431
606.530 .0323140
607.302 .0322863
608.074 .0322600
608.845 .0322348
609.616 .0322106
610.387 .0322004
611.158 .0321773
611.928 .0321551
612.697 .0321335
613.467 .0321127
614.236 .0320924
615.004 .0320725
615.773 .0320530
616.541 .0320338
617.308 .0320146
618.076 .0319954
618.843 .0319759
619.609 .0319560
620.375 .0319356
621.141 .0319147
621.907 .0318932
622.672 .0318712
623.437 .0318487
624.202 .0318255
624.966 .0318019
625.730 .0317776
626.493 .0317527
627.257 .0317271
628.020 .0317007
628.782 .0316736
629.545 .0316458
630.307 .0316174
631.068 .0315884
631.830 .0315591
632.591 .0315295
633.352 .0314997
634.112 .0314699
634.872 .0314401
635.632 .0314105
636.392 .0313813
637.151 .0313526
637.910 .0313244
638.668 .0312968
639.427 .0312700
640.185 .0312439
640.943 .0312187
641.700 .0311942
642.457 .0311706
643.214 .0311477
643.971 .0311257
644.727 .0311046
645.483 .0310843
646.239 .0310649
646.994 .0310463
647.750 .0310285
648.505 .0310112
649.259 .0309945
650.014 .0309780
650.768 .0309616
651.521 .0309453
652.275 .0309289
653.028 .0309122
653.781 .0308954
654.534 .0308782
655.286 .0308608
656.039 .0308430
656.791 .0308248
657.542 .0308063
658.294 .0307875
659.045 .0307684
659.796 .0307491
660.546 .0307297
661.297 .0307101
662.047 .0306905
662.796 .0306708
663.546 .0306511
664.295 .0306314
665.044 .0306116
665.793 .0305920
666.542 .0305726
667.290 .0305535
668.038 .0305349
668.786 .0305168
669.533 .0304993
670.281 .0304825
671.028 .0304662
671.774 .0304503
672.521 .0304349
673.267 .0304197
674.013 .0304048
674.759 .0303901
675.505 .0303756
676.250 .0303612
676.995 .0303470
677.740 .0303330
678.484 .0303191
679.229 .0303053
679.973 .0302916
680.717 .0302779
681.460 .0302641
682.204 .0302502
682.947 .0302360
683.690 .0302215
684.433 .0302067
685.175 .0301915
685.917 .0301759
686.659 .0301599
687.401 .0301435
688.142 .0301266
688.884 .0301094
689.625 .0300918
690.365 .0300738
691.106 .0300554
691.846 .0300366
692.586 .0300174
693.326 .0299978
694.066 .0299779
694.805 .0299575
695.545 .0299367
696.284 .0299155
697.022 .0298939
697.761 .0298719
698.499 .0298495
699.237 .0298268
699.975 .0298038
700.713 .0297807
701.450 .0297574
702.187 .0297340
702.924 .0297105
703.661 .0296869
704.397 .0296632
705.133 .0296393
705.869 .0296152
706.605 .0295909
707.341 .0295665
708.076 .0295421
708.811 .0295177
709.546 .0294934
710.281 .0294692
711.015 .0294453
711.749 .0294216
712.483 .0293983
713.217 .0293754
713.950 .0293529
714.684 .0293309
715.417 .0293093
716.150 .0292882
716.882 .0292676
717.615 .0292474
718.347 .0292276
719.079 .0292083
719.811 .0291894
720.542 .0291710
721.273 .0291531
722.005 .0291359
722.735 .0291192
723.466 .0291031
724.196 .0290877
724.927 .0290729
725.656 .0290586
726.386 .0290449
727.116 .0290316
727.845 .0290188
728.574 .0290063
729.303 .0289942
730.031 .0289825
730.760 .0289712
731.488 .0289602
732.216 .0289495
732.944 .0289392
733.671 .0289293
734.398 .0289196
735.125 .0289103
735.852 .0289012
736.579 .0288923
737.305 .0288836
738.031 .0288750
738.757 .0288666
739.483 .0288582
740.208 .0288499
740.933 .0288417
741.658 .0288337
742.383 .0288258
743.108 .0288181
743.832 .0288106
744.556 .0288033
745.280 .0287962
746.004 .0287892
746.727 .0287824
747.450 .0287757
748.173 .0287691
748.896 .0287625
749.618 .0287560
750.340 .0287496
751.062 .0287433
751.784 .0287372
752.506 .0287311
753.227 .0287252
753.948 .0287194
754.669 .0287136
755.389 .0287079
756.110 .0287022
756.830 .0286964
757.550 .0286906
758.269 .0286845
758.989 .0286782
759.708 .0286716
760.427 .0286646
761.146 .0286571
761.864 .0286490
762.582 .0286405
763.300 .0286314
764.018 .0286218
764.736 .0286118
765.453 .0286012
766.170 .0285901
766.887 .0285785
767.603 .0285662
768.320 .0285534
769.036 .0285399
769.751 .0285259
770.467 .0285113
771.182 .0284962
771.897 .0284807
772.612 .0284647
773.327 .0284484
774.041 .0284316
774.755 .0284145
775.469 .0283969
776.183 .0283789
776.896 .0283605
777.609 .0283416
778.322 .0283223
779.035 .0283027
779.747 .0282826
780.459 .0282622
781.171 .0282415
781.882 .0282205
782.594 .0281992
783.305 .0281775
784.016 .0281557
784.726 .0281336
785.436 .0281114
786.147 .0280775
786.856 .0280551
787.566 .0280326
788.275 .0280100
788.984 .0279875
789.693 .0279649
790.401 .0279424
791.110 .0279200
791.818 .0278978
792.525 .0278756
793.233 .0278537
793.940 .0278320
794.647 .0278217
795.353 .0278004
796.060 .0277792
796.766 .0277584
797.472 .0277378
798.177 .0277175
798.883 .0276975
799.588 .0276777
800.292 .0276582
800.997 .0276391
801.701 .0276203
802.405 .0276017
803.109 .0275836
803.812 .0275657
804.515 .0275481
805.218 .0275309
805.921 .0275139
806.623 .0274973
807.325 .0274809
808.027 .0274648
808.728 .0274491
809.429 .0274336
810.130 .0274186
810.831 .0274039
811.531 .0273898
812.231 .0273761
812.931 .0273629
813.630 .0273502
814.330 .0273381
815.029 .0273266
815.727 .0273158
816.426 .0273056
817.124 .0272962
817.821 .0272875
818.519 .0272796
819.216 .0272724
819.913 .0272660
820.609 .0272603
821.306 .0272553
822.002 .0272509
822.697 .0272472
823.393 .0272441
824.088 .0272416
824.783 .0272397
825.477 .0272385
826.171 .0272378
826.865 .0272377
827.559 .0272381
828.252 .0272388
828.945 .0272399
829.638 .0272413
830.330 .0272430
831.023 .0272449
831.714 .0272471
832.406 .0272495
833.097 .0272521
833.788 .0272549
834.479 .0272578
835.169 .0272609
835.859 .0272641
836.548 .0272674
837.238 .0272708
837.927 .0272743
838.615 .0272779
839.304 .0272816
839.992 .0272854
840.680 .0272892
841.367 .0272931
842.054 .0272969
842.741 .0273006
843.428 .0273044
844.114 .0273080
844.800 .0273117
845.485 .0273153
846.170 .0273189
846.855 .0273223
847.540 .0273256
848.224 .0273285
848.908 .0273311
849.592 .0273332
850.275 .0273349
850.958 .0273359
851.641 .0273363
852.323 .0273362
853.005 .0273355
853.687 .0273341
854.368 .0273323
855.049 .0273298
855.730 .0273268
856.410 .0273231
857.090 .0273189
857.769 .0273140
858.449 .0273085
859.128 .0273024
859.806 .0272956
860.485 .0272883
861.163 .0272804
861.840 .0272718
862.518 .0272627
863.195 .0272530
863.871 .0272428
864.548 .0272319
865.224 .0272205
865.899 .0272085
866.574 .0271960
867.249 .0271830
867.924 .0271694
868.598 .0271553
869.272 .0271407
869.946 .0271255
870.619 .0271097
871.292 .0270933
871.964 .0270763
872.636 .0270587
873.308 .0270406
873.979 .0270220
874.651 .0270028
875.321 .0269832
875.992 .0269631
876.662 .0269424
877.331 .0269212
878.001 .0268995
878.670 .0268772
879.338 .0268543
880.007 .0268310
880.675 .0268073
881.342 .0267832
882.009 .0267587
882.676 .0267340
883.343 .0267091
884.009 .0266839
884.675 .0266586
885.340 .0266331
886.005 .0266074
886.670 .0265815
887.334 .0265556
887.998 .0265296
888.662 .0265036
889.325 .0264776
889.988 .0264514
890.650 .0264253
891.312 .0263990
891.974 .0263727
892.636 .0263464
893.297 .0263201
893.957 .0262939
894.618 .0262678
895.278 .0262418
895.937 .0262160
896.596 .0261903
897.255 .0261648
897.914 .0261393
898.572 .0261138
899.230 .0260882
899.887 .0260627
900.544 .0260370
901.201 .0260114
901.857 .0259727
902.513 .0259472
903.168 .0259218
903.823 .0258966
904.478 .0258715
905.132 .0258464
905.786 .0258214
906.440 .0257966
907.093 .0257718
907.746 .0257472
908.399 .0257229
909.051 .0256990
909.703 .0256756
910.354 .0256652
911.005 .0256428
911.656 .0256210
912.306 .0255999
912.956 .0255794
913.605 .0255596
914.254 .0255404
914.903 .0255218
915.551 .0255040
916.199 .0254870
916.847 .0254707
917.494 .0254552
918.141 .0254404
918.788 .0254264
919.434 .0254131
920.079 .0254004
920.725 .0253883
921.370 .0253767
922.014 .0253656
922.658 .0253549
923.302 .0253446
923.946 .0253349
924.589 .0253255
925.231 .0253166
925.873 .0253081
926.515 .0253000
927.157 .0252923
927.798 .0252848
928.439 .0252776
929.079 .0252707
929.719 .0252640
930.359 .0252575
930.998 .0252511
931.637 .0252450
932.275 .0252391
932.913 .0252335
933.551 .0252282
934.188 .0252233
934.825 .0252187
935.462 .0252146
936.098 .0252109
936.733 .0252076
937.369 .0252048
938.004 .0252024
938.638 .0252005
939.273 .0251991
939.907 .0251983
940.540 .0251981
941.173 .0251985
941.806 .0251996
942.438 .0252014
943.070 .0252038
943.702 .0252068
944.333 .0252104
944.964 .0252144
945.594 .0252189
946.224 .0252237
946.854 .0252288
947.483 .0252343
948.112 .0252401
948.741 .0252463
949.369 .0252528
949.996 .0252597
950.624 .0252668
951.251 .0252743
951.878 .0252819
952.504 .0252896
953.130 .0252974
953.755 .0253054
954.380 .0253133
955.005 .0253214
955.629 .0253296
956.253 .0253378
956.877 .0253462
957.500 .0253547
958.123 .0253631
958.746 .0253716
959.368 .0253800
959.990 .0253883
960.611 .0253965
961.232 .0254046
961.853 .0254128
962.473 .0254209
963.093 .0254291
963.712 .0254373
964.331 .0254457
964.950 .0254542
965.569 .0254627
966.187 .0254712
966.804 .0254797
967.422 .0254879
968.039 .0254960
968.655 .0255039
969.272 .0255115
969.887 .0255189
970.503 .0255260
971.118 .0255328
971.733 .0255392
972.347 .0255452
972.961 .0255506
973.575 .0255554
974.188 .0255595
974.801 .0255628
975.414 .0255653
976.026 .0255670
976.638 .0255679
977.250 .0255680
977.861 .0255674
978.472 .0255660
979.083 .0255639
979.693 .0255611
980.303 .0255574
980.912 .0255484
981.521 .0255429
982.130 .0255366
982.738 .0255298
983.346 .0255223
983.954 .0255145
984.562 .0255063
985.169 .0254980
985.775 .0254895
986.382 .0254808
986.988 .0254721
987.594 .0254633
988.199 .0254543
988.804 .0254452
989.409 .0254415
990.013 .0254326
990.617 .0254238
991.221 .0254152
991.824 .0254069
992.427 .0253990
993.030 .0253914
993.632 .0253840
994.234 .0253769
994.836 .0253698
995.438 .0253626
996.039 .0253554
996.640 .0253479
997.240 .0253404
997.840 .0253326
998.440 .0253247
999.040 .0253167
999.639 .0253084
1000.238 .0252998
1000.836 .0252908
1001.435 .0252813
1002.033 .0252711
1002.630 .0252602
1003.228 .0252485
1003.825 .0252358
1004.422 .0252224
1005.018 .0252082
1005.614 .0251933
1006.210 .0251777
1006.806 .0251616
1007.401 .0251447
1007.996 .0251273
1008.591 .0251092
1009.186 .0250904
1009.780 .0250710
1010.374 .0250509
1010.967 .0250303
1011.561 .0250092
1012.154 .0249878
1012.746 .0249661
1013.339 .0249444
1013.931 .0249227
1014.523 .0249011
1015.115 .0248797
1015.706 .0248585
1016.298 .0248375
1016.888 .0248169
1017.479 .0247966
1018.069 .0247766
1018.660 .0247571
1019.250 .0247380
1019.839 .0247193
1020.429 .0247011
1021.018 .0246835
1021.607 .0246663
1022.195 .0246495
1022.784 .0246333
1023.372 .0246175
1023.960 .0246021
1024.547 .0245872
1025.135 .0245725
1025.722 .0245582
1026.309 .0245441
1026.896 .0245302
1027.483 .0245166
1028.069 .0245031
1028.655 .0244898
1029.241 .0244767
1029.827 .0244638
1030.412 .0244509
1030.997 .0244383
1031.582 .0244258
1032.167 .0244135
1032.752 .0244013
1033.336 .0243893
1033.921 .0243773
1034.505 .0243654
1035.089 .0243534
1035.672 .0243415
1036.256 .0243295
1036.839 .0243174
1037.422 .0243053
1038.005 .0242933
1038.588 .0242813
1039.171 .0242693
1039.753 .0242575
1040.335 .0242458
1040.918 .0242342
1041.500 .0242226
1042.081 .0242109
1042.663 .0241992
1043.244 .0241874
1043.826 .0241758
1044.407 .0241642
1044.988 .0241530
1045.569 .0241421
1046.150 .0241317
1046.730 .0241219
1047.311 .0241125
1047.891 .0241036
1048.471 .0240951
1049.052 .0240869
1049.632 .0240789
1050.211 .0240712
1050.791 .0240639
1051.371 .0240570
1051.950 .0240507
1052.530 .0240450
1053.109 .0240398
1053.688 .0240353
1054.268 .0240312
1054.847 .0240276
1055.426 .0240244
1056.005 .0240215
1056.583 .0240190
1057.162 .0240168
1057.741 .0240150
1058.319 .0240137
1058.898 .0240130
1059.476 .0240130
1060.055 .0240136
1060.633 .0240148
1061.211 .0240165
1061.790 .0240186
1062.368 .0240211
1062.946 .0240240
1063.524 .0240272
1064.102 .0240308
1064.680 .0240347
1065.258 .0240389
1065.836 .0240435
1066.414 .0240484
1066.992 .0240536
1067.570 .0240590
1068.148 .0240646
1068.726 .0240704
1069.304 .0240764
1069.882 .0240826
1070.460 .0240891
1071.038 .0240960
1071.616 .0241034
1072.194 .0241113
1072.772 .0241195
1073.350 .0241281
1073.928 .0241372
1074.506 .0241467
1075.084 .0241566
1075.662 .0241670
1076.240 .0241777
1076.819 .0241889
1077.397 .0242005
1077.976 .0242125
1078.554 .0242249
1079.133 .0242376
1079.711 .0242506
1080.290 .0242639
1080.869 .0242775
1081.448 .0242914
1082.027 .0243058
1082.606 .0243207
1083.185 .0243360
1083.764 .0243518
1084.343 .0243681
1084.923 .0243848
1085.502 .0244019
1086.082 .0244195
1086.662 .0244378
1087.242 .0244568
1087.822 .0244766
1088.402 .0244974
1088.983 .0245193
1089.563 .0245422
1090.144 .0245661
1090.725 .0245911
1091.306 .0246170
1091.887 .0246440
1092.469 .0246719
1093.050 .0247009
1093.632 .0247311
1094.214 .0247623
1094.796 .0247946
1095.379 .0248277
1095.961 .0248616
1096.544 .0248961
1097.127 .0249310
1097.710 .0249663
1098.294 .0250017
1098.877 .0250375
1099.461 .0250738
1100.046 .0251106
1100.630 .0251479
1101.215 .0251859
1101.800 .0252244
1102.385 .0252631
1102.970 .0253020
1103.556 .0253407
1104.142 .0253793
1104.728 .0254179
1105.315 .0254566
1105.902 .0254957
1106.489 .0255355
1107.077 .0255761
1107.664 .0256175
1108.253 .0256597
1108.841 .0257024
1109.430 .0257452
1110.019 .0257880
1110.609 .0258307
1111.198 .0258736
1111.789 .0259170
1112.379 .0259613
1112.970 .0260072
1113.561 .0260548
1114.153 .0261043
1114.745 .0261557
1115.338 .0262089
1115.931 .0262633
1116.524 .0263189
1117.117 .0263754
1117.712 .0264331
1118.306 .0264920
1118.901 .0265524
1119.496 .0266150
1120.092 .0266798
1120.689 .0267468
1121.285 .0268158
1121.882 .0268865
1122.480 .0269582
1123.078 .0270306
1123.677 .0271034
1124.276 .0271765
1124.875 .0272501
1125.476 .0273243
1126.076 .0273995
1126.677 .0274761
1127.279 .0275546
1127.881 .0276349
1128.484 .0277169
1129.087 .0277571
1129.691 .0278410
1130.295 .0279255
1130.900 .0280106
1131.505 .0280961
1132.111 .0281819
1132.718 .0282681
1133.325 .0283550
1133.933 .0284420
1134.541 .0285317
1135.150 .0286180
1135.760 .0287061
1136.370 .0287991
1136.981 .0289093
1137.592 .0290100
1138.204 .0291104
1138.817 .0292095
1139.431 .0293086
1140.045 .0294015
1140.660 .0294932
1141.275 .0295855
1141.891 .0296575
1142.508 .0298018
1143.126 .0297806
1143.744 .0299066
1144.363 .0301279
1144.983 .0296501
