Measurement Sequence started on: 15-12-46-377
Integration time: 28
Scans to Average: 2 
>>>>>Begin Spectral Data<<<<<
432.689 .0000100
433.621 .0000100
434.552 .0000100
435.482 .0000100
436.410 .0000100
437.337 .0000100
438.262 .0284077
439.187 .0602332
440.110 .0997859
441.031 .1444265
441.952 .1161997
442.871 .1214356
443.789 .1263258
444.705 .1309434
445.621 .1353399
446.535 .1395524
447.447 .1421124
448.359 .1428592
449.269 .1414022
450.178 .1374840
451.086 .1311816
451.993 .1229848
452.898 .1137121
453.803 .1042905
454.706 .0955110
455.608 .0878646
456.508 .0815173
457.408 .0772003
458.306 .0738594
459.204 .0711127
460.100 .0687706
460.995 .0667259
461.888 .0649090
462.781 .0632715
463.673 .0617810
464.563 .0604153
465.452 .0591596
466.340 .0580026
467.228 .0569384
468.114 .0559611
468.999 .0550667
469.882 .0542494
470.765 .0535038
471.647 .0528242
472.528 .0522061
473.407 .0516449
474.286 .0511375
475.163 .0506816
476.040 .0502758
476.915 .0499181
477.790 .0496072
478.663 .0493405
479.535 .0491157
480.407 .0489289
481.277 .0487763
482.147 .0486533
483.015 .0485554
483.883 .0484785
484.749 .0484197
485.615 .0483772
486.479 .0483505
487.343 .0483395
488.206 .0483451
489.067 .0483681
489.928 .0484100
490.788 .0484715
491.647 .0485535
492.505 .0486562
493.362 .0487798
494.218 .0489240
495.073 .0490888
495.928 .0494157
496.781 .0496340
497.634 .0498748
498.486 .0501392
499.337 .0504292
500.187 .0507464
501.036 .0510928
501.884 .0514709
502.731 .0518830
503.578 .0523315
504.424 .0526289
505.268 .0531449
506.113 .0537090
506.956 .0543270
507.798 .0550055
508.640 .0557530
509.480 .0565797
510.320 .0574981
511.160 .0585215
511.998 .0596662
512.836 .0609515
513.672 .0623983
514.508 .0640313
515.344 .0658745
516.178 .0679527
517.012 .0702912
517.845 .0729114
518.677 .0758303
519.508 .0790568
520.339 .0825940
521.169 .0864360
521.998 .0905564
522.826 .0949155
523.654 .0994585
524.481 .1041198
525.307 .1088227
526.133 .1134767
526.958 .1179860
527.782 .1222559
528.605 .1261983
529.428 .1297322
530.250 .1327862
531.072 .1353111
531.892 .1372697
532.712 .1386392
533.532 .1394082
534.350 .1395736
535.168 .1391426
535.986 .1381256
536.802 .1365351
537.618 .1343851
538.434 .1316950
539.249 .1285051
540.063 .1248661
540.876 .1208417
541.689 .1165056
542.501 .1119409
543.313 .1072400
544.124 .1024994
544.934 .0978093
545.744 .0932516
546.553 .0888984
547.361 .0848078
548.169 .0810118
548.976 .0775271
549.783 .0743554
550.589 .0714855
551.395 .0688950
552.200 .0665560
553.004 .0644389
553.808 .0625206
554.611 .0607812
555.414 .0592037
556.216 .0577703
557.018 .0564653
557.819 .0552738
558.619 .0541806
559.419 .0531716
560.218 .0522349
561.017 .0513586
561.815 .0505344
562.613 .0497545
563.410 .0490116
564.207 .0482996
565.003 .0476145
565.799 .0469516
566.594 .0463076
567.388 .0456801
568.182 .0450677
568.976 .0444692
569.769 .0438851
570.562 .0433151
571.354 .0427596
572.145 .0422199
572.936 .0416968
573.727 .0411905
574.517 .0407019
575.307 .0402313
576.096 .0397793
576.885 .0393461
577.673 .0389327
578.461 .0385388
579.248 .0381650
580.035 .0378115
580.821 .0374784
581.607 .0371655
582.392 .0368729
583.177 .0366002
583.962 .0363471
584.746 .0361132
585.529 .0358977
586.313 .0356998
587.095 .0355186
587.878 .0353532
588.660 .0352022
589.441 .0350642
590.222 .0349381
591.003 .0348225
591.783 .0347167
592.563 .0346194
593.342 .0345300
594.121 .0344477
594.899 .0343718
595.678 .0343018
596.455 .0342368
597.233 .0341760
598.009 .0341188
598.786 .0340643
599.562 .0340118
600.338 .0339608
601.113 .0339108
601.888 .0338369
602.663 .0337881
603.437 .0337398
604.211 .0336918
604.984 .0336441
605.757 .0335968
606.530 .0335499
607.302 .0335035
608.074 .0334576
608.845 .0334122
609.616 .0333675
610.387 .0333476
611.158 .0333044
611.928 .0332620
612.697 .0332205
613.467 .0331801
614.236 .0331408
615.004 .0331026
615.773 .0330655
616.541 .0330295
617.308 .0329945
618.076 .0329606
618.843 .0329277
619.609 .0328956
620.375 .0328642
621.141 .0328333
621.907 .0328029
622.672 .0327727
623.437 .0327425
624.202 .0327123
624.966 .0326819
625.730 .0326513
626.493 .0326203
627.257 .0325889
628.020 .0325572
628.782 .0325252
629.545 .0324929
630.307 .0324602
631.068 .0324272
631.830 .0323939
632.591 .0323603
633.352 .0323265
634.112 .0322926
634.872 .0322587
635.632 .0322248
636.392 .0321910
637.151 .0321576
637.910 .0321245
638.668 .0320919
639.427 .0320599
640.185 .0320286
640.943 .0319982
641.700 .0319685
642.457 .0319399
643.214 .0319123
643.971 .0318857
644.727 .0318601
645.483 .0318356
646.239 .0318120
646.994 .0317893
647.750 .0317674
648.505 .0317464
649.259 .0317261
650.014 .0317066
650.768 .0316877
651.521 .0316694
652.275 .0316516
653.028 .0316342
653.781 .0316170
654.534 .0316001
655.286 .0315832
656.039 .0315664
656.791 .0315495
657.542 .0315326
658.294 .0315156
659.045 .0314983
659.796 .0314807
660.546 .0314628
661.297 .0314444
662.047 .0314257
662.796 .0314066
663.546 .0313871
664.295 .0313672
665.044 .0313470
665.793 .0313265
666.542 .0313056
667.290 .0312842
668.038 .0312624
668.786 .0312402
669.533 .0312175
670.281 .0311943
671.028 .0311708
671.774 .0311470
672.521 .0311230
673.267 .0310987
674.013 .0310743
674.759 .0310496
675.505 .0310248
676.250 .0309997
676.995 .0309744
677.740 .0309488
678.484 .0309230
679.229 .0308971
679.973 .0308709
680.717 .0308446
681.460 .0308183
682.204 .0307920
682.947 .0307657
683.690 .0307395
684.433 .0307133
685.175 .0306872
685.917 .0306611
686.659 .0306351
687.401 .0306091
688.142 .0305831
688.884 .0305571
689.625 .0305311
690.365 .0305050
691.106 .0304789
691.846 .0304528
692.586 .0304267
693.326 .0304009
694.066 .0303752
694.805 .0303499
695.545 .0303249
696.284 .0303003
697.022 .0302761
697.761 .0302523
698.499 .0302289
699.237 .0302060
699.975 .0301835
700.713 .0301614
701.450 .0301398
702.187 .0301189
702.924 .0300985
703.661 .0300789
704.397 .0300601
705.133 .0300420
705.869 .0300246
706.605 .0300079
707.341 .0299919
708.076 .0299763
708.811 .0299611
709.546 .0299463
710.281 .0299318
711.015 .0299175
711.749 .0299034
712.483 .0298895
713.217 .0298758
713.950 .0298622
714.684 .0298487
715.417 .0298351
716.150 .0298215
716.882 .0298078
717.615 .0297939
718.347 .0297797
719.079 .0297653
719.811 .0297507
720.542 .0297359
721.273 .0297210
722.005 .0297059
722.735 .0296908
723.466 .0296758
724.196 .0296609
724.927 .0296462
725.656 .0296317
726.386 .0296173
727.116 .0296031
727.845 .0295892
728.574 .0295754
729.303 .0295617
730.031 .0295482
730.760 .0295349
731.488 .0295219
732.216 .0295090
732.944 .0294964
733.671 .0294842
734.398 .0294722
735.125 .0294606
735.852 .0294493
736.579 .0294383
737.305 .0294275
738.031 .0294171
738.757 .0294068
739.483 .0293968
740.208 .0293869
740.933 .0293772
741.658 .0293676
742.383 .0293581
743.108 .0293487
743.832 .0293393
744.556 .0293298
745.280 .0293201
746.004 .0293102
746.727 .0293000
747.450 .0292895
748.173 .0292785
748.896 .0292669
749.618 .0292549
750.340 .0292423
751.062 .0292292
751.784 .0292155
752.506 .0292012
753.227 .0291862
753.948 .0291706
754.669 .0291542
755.389 .0291369
756.110 .0291188
756.830 .0290999
757.550 .0290802
758.269 .0290597
758.989 .0290386
759.708 .0290168
760.427 .0289944
761.146 .0289716
761.864 .0289482
762.582 .0289244
763.300 .0289003
764.018 .0288759
764.736 .0288512
765.453 .0288263
766.170 .0288015
766.887 .0287766
767.603 .0287519
768.320 .0287273
769.036 .0287030
769.751 .0286791
770.467 .0286556
771.182 .0286327
771.897 .0286104
772.612 .0285887
773.327 .0285677
774.041 .0285475
774.755 .0285280
775.469 .0285093
776.183 .0284912
776.896 .0284739
777.609 .0284573
778.322 .0284415
779.035 .0284265
779.747 .0284122
780.459 .0283988
781.171 .0283860
781.882 .0283739
782.594 .0283624
783.305 .0283513
784.016 .0283406
784.726 .0283302
785.436 .0283201
786.147 .0283052
786.856 .0282953
787.566 .0282854
788.275 .0282756
788.984 .0282658
789.693 .0282560
790.401 .0282462
791.110 .0282364
791.818 .0282266
792.525 .0282169
793.233 .0282071
793.940 .0281975
794.647 .0281926
795.353 .0281831
796.060 .0281738
796.766 .0281644
797.472 .0281551
798.177 .0281458
798.883 .0281365
799.588 .0281272
800.292 .0281180
800.997 .0281089
801.701 .0280998
802.405 .0280908
803.109 .0280818
803.812 .0280730
804.515 .0280641
805.218 .0280551
805.921 .0280461
806.623 .0280370
807.325 .0280277
808.027 .0280182
808.728 .0280086
809.429 .0279989
810.130 .0279891
810.831 .0279793
811.531 .0279695
812.231 .0279596
812.931 .0279498
813.630 .0279401
814.330 .0279304
815.029 .0279209
815.727 .0279117
816.426 .0279027
817.124 .0278941
817.821 .0278858
818.519 .0278780
819.216 .0278708
819.913 .0278641
820.609 .0278581
821.306 .0278527
822.002 .0278481
822.697 .0278443
823.393 .0278414
824.088 .0278393
824.783 .0278380
825.477 .0278376
826.171 .0278379
826.865 .0278388
827.559 .0278403
828.252 .0278423
828.945 .0278447
829.638 .0278474
830.330 .0278503
831.023 .0278533
831.714 .0278564
832.406 .0278595
833.097 .0278626
833.788 .0278654
834.479 .0278680
835.169 .0278703
835.859 .0278721
836.548 .0278735
837.238 .0278744
837.927 .0278746
838.615 .0278743
839.304 .0278732
839.992 .0278713
840.680 .0278687
841.367 .0278652
842.054 .0278609
842.741 .0278558
843.428 .0278498
844.114 .0278429
844.800 .0278352
845.485 .0278266
846.170 .0278171
846.855 .0278068
847.540 .0277956
848.224 .0277836
848.908 .0277707
849.592 .0277570
850.275 .0277425
850.958 .0277271
851.641 .0277110
852.323 .0276941
853.005 .0276764
853.687 .0276580
854.368 .0276388
855.049 .0276189
855.730 .0275982
856.410 .0275768
857.090 .0275547
857.769 .0275320
858.449 .0275086
859.128 .0274846
859.806 .0274602
860.485 .0274353
861.163 .0274101
861.840 .0273845
862.518 .0273588
863.195 .0273330
863.871 .0273070
864.548 .0272811
865.224 .0272552
865.899 .0272294
866.574 .0272038
867.249 .0271785
867.924 .0271536
868.598 .0271292
869.272 .0271051
869.946 .0270816
870.619 .0270584
871.292 .0270358
871.964 .0270136
872.636 .0269920
873.308 .0269709
873.979 .0269503
874.651 .0269304
875.321 .0269112
875.992 .0268926
876.662 .0268747
877.331 .0268573
878.001 .0268404
878.670 .0268240
879.338 .0268079
880.007 .0267923
880.675 .0267771
881.342 .0267623
882.009 .0267479
882.676 .0267340
883.343 .0267205
884.009 .0267074
884.675 .0266947
885.340 .0266824
886.005 .0266704
886.670 .0266587
887.334 .0266473
887.998 .0266363
888.662 .0266258
889.325 .0266156
889.988 .0266059
890.650 .0265966
891.312 .0265876
891.974 .0265790
892.636 .0265706
893.297 .0265624
893.957 .0265544
894.618 .0265465
895.278 .0265387
895.937 .0265310
896.596 .0265232
897.255 .0265153
897.914 .0265073
898.572 .0264990
899.230 .0264905
899.887 .0264815
900.544 .0264721
901.201 .0264622
901.857 .0264452
902.513 .0264341
903.168 .0264226
903.823 .0264106
904.478 .0263982
905.132 .0263854
905.786 .0263723
906.440 .0263587
907.093 .0263447
907.746 .0263305
908.399 .0263161
909.051 .0263015
909.703 .0262868
910.354 .0262798
911.005 .0262655
911.656 .0262513
912.306 .0262374
912.956 .0262237
913.605 .0262103
914.254 .0261972
914.903 .0261845
915.551 .0261721
916.199 .0261602
916.847 .0261486
917.494 .0261375
918.141 .0261267
918.788 .0261164
919.434 .0261063
920.079 .0260966
920.725 .0260871
921.370 .0260779
922.014 .0260689
922.658 .0260600
923.302 .0260513
923.946 .0260429
924.589 .0260345
925.231 .0260264
925.873 .0260184
926.515 .0260105
927.157 .0260028
927.798 .0259951
928.439 .0259876
929.079 .0259802
929.719 .0259731
930.359 .0259663
930.998 .0259597
931.637 .0259536
932.275 .0259480
932.913 .0259428
933.551 .0259383
934.188 .0259343
934.825 .0259310
935.462 .0259284
936.098 .0259265
936.733 .0259253
937.369 .0259249
938.004 .0259252
938.638 .0259262
939.273 .0259280
939.907 .0259303
940.540 .0259333
941.173 .0259368
941.806 .0259407
942.438 .0259450
943.070 .0259497
943.702 .0259546
944.333 .0259597
944.964 .0259649
945.594 .0259703
946.224 .0259756
946.854 .0259809
947.483 .0259862
948.112 .0259912
948.741 .0259961
949.369 .0260006
949.996 .0260049
950.624 .0260088
951.251 .0260123
951.878 .0260153
952.504 .0260180
953.130 .0260202
953.755 .0260219
954.380 .0260233
955.005 .0260242
955.629 .0260247
956.253 .0260246
956.877 .0260241
957.500 .0260232
958.123 .0260218
958.746 .0260200
959.368 .0260179
959.990 .0260155
960.611 .0260130
961.232 .0260104
961.853 .0260076
962.473 .0260047
963.093 .0260014
963.712 .0259979
964.331 .0259941
964.950 .0259898
965.569 .0259851
966.187 .0259799
966.804 .0259743
967.422 .0259681
968.039 .0259614
968.655 .0259541
969.272 .0259462
969.887 .0259377
970.503 .0259284
971.118 .0259185
971.733 .0259080
972.347 .0258968
972.961 .0258852
973.575 .0258731
974.188 .0258607
974.801 .0258479
975.414 .0258348
976.026 .0258213
976.638 .0258073
977.250 .0257929
977.861 .0257780
978.472 .0257626
979.083 .0257468
979.693 .0257305
980.303 .0257138
980.912 .0256878
981.521 .0256704
982.130 .0256528
982.738 .0256348
983.346 .0256166
983.954 .0255981
984.562 .0255793
985.169 .0255604
985.775 .0255412
986.382 .0255220
986.988 .0255029
987.594 .0254839
988.199 .0254650
988.804 .0254464
989.409 .0254371
990.013 .0254188
990.617 .0254006
991.221 .0253825
991.824 .0253644
992.427 .0253464
993.030 .0253283
993.632 .0253102
994.234 .0252920
994.836 .0252739
995.438 .0252558
996.039 .0252378
996.640 .0252198
997.240 .0252020
997.840 .0251842
998.440 .0251665
999.040 .0251489
999.639 .0251314
1000.238 .0251142
1000.836 .0250971
1001.435 .0250803
1002.033 .0250639
1002.630 .0250478
1003.228 .0250322
1003.825 .0250169
1004.422 .0250020
1005.018 .0249874
1005.614 .0249731
1006.210 .0249590
1006.806 .0249451
1007.401 .0249314
1007.996 .0249180
1008.591 .0249048
1009.186 .0248918
1009.780 .0248791
1010.374 .0248666
1010.967 .0248545
1011.561 .0248427
1012.154 .0248311
1012.746 .0248199
1013.339 .0248089
1013.931 .0247983
1014.523 .0247880
1015.115 .0247780
1015.706 .0247683
1016.298 .0247590
1016.888 .0247500
1017.479 .0247413
1018.069 .0247330
1018.660 .0247251
1019.250 .0247175
1019.839 .0247101
1020.429 .0247031
1021.018 .0246963
1021.607 .0246899
1022.195 .0246837
1022.784 .0246778
1023.372 .0246723
1023.960 .0246671
1024.547 .0246624
1025.135 .0246580
1025.722 .0246541
1026.309 .0246506
1026.896 .0246474
1027.483 .0246446
1028.069 .0246421
1028.655 .0246399
1029.241 .0246380
1029.827 .0246362
1030.412 .0246346
1030.997 .0246333
1031.582 .0246322
1032.167 .0246313
1032.752 .0246306
1033.336 .0246302
1033.921 .0246300
1034.505 .0246299
1035.089 .0246300
1035.672 .0246303
1036.256 .0246307
1036.839 .0246312
1037.422 .0246319
1038.005 .0246327
1038.588 .0246337
1039.171 .0246347
1039.753 .0246359
1040.335 .0246370
1040.918 .0246382
1041.500 .0246394
1042.081 .0246405
1042.663 .0246415
1043.244 .0246425
1043.826 .0246435
1044.407 .0246446
1044.988 .0246458
1045.569 .0246472
1046.150 .0246490
1046.730 .0246510
1047.311 .0246534
1047.891 .0246561
1048.471 .0246590
1049.052 .0246624
1049.632 .0246660
1050.211 .0246701
1050.791 .0246745
1051.371 .0246793
1051.950 .0246844
1052.530 .0246899
1053.109 .0246957
1053.688 .0247017
1054.268 .0247079
1054.847 .0247143
1055.426 .0247207
1056.005 .0247273
1056.583 .0247340
1057.162 .0247407
1057.741 .0247476
1058.319 .0247545
1058.898 .0247614
1059.476 .0247683
1060.055 .0247751
1060.633 .0247818
1061.211 .0247884
1061.790 .0247949
1062.368 .0248013
1062.946 .0248078
1063.524 .0248143
1064.102 .0248210
1064.680 .0248278
1065.258 .0248348
1065.836 .0248421
1066.414 .0248494
1066.992 .0248571
1067.570 .0248649
1068.148 .0248731
1068.726 .0248819
1069.304 .0248912
1069.882 .0249012
1070.460 .0249119
1071.038 .0249231
1071.616 .0249349
1072.194 .0249470
1072.772 .0249594
1073.350 .0249718
1073.928 .0249844
1074.506 .0249972
1075.084 .0250103
1075.662 .0250239
1076.240 .0250382
1076.819 .0250532
1077.397 .0250690
1077.976 .0250855
1078.554 .0251026
1079.133 .0251203
1079.711 .0251382
1080.290 .0251565
1080.869 .0251750
1081.448 .0251939
1082.027 .0252132
1082.606 .0252331
1083.185 .0252537
1083.764 .0252748
1084.343 .0252967
1084.923 .0253191
1085.502 .0253418
1086.082 .0253648
1086.662 .0253881
1087.242 .0254117
1087.822 .0254356
1088.402 .0254601
1088.983 .0254852
1089.563 .0255112
1090.144 .0255381
1090.725 .0255658
1091.306 .0255944
1091.887 .0256237
1092.469 .0256534
1093.050 .0256834
1093.632 .0257136
1094.214 .0257436
1094.796 .0257736
1095.379 .0258035
1095.961 .0258333
1096.544 .0258630
1097.127 .0258928
1097.710 .0259226
1098.294 .0259524
1098.877 .0259824
1099.461 .0260125
1100.046 .0260428
1100.630 .0260734
1101.215 .0261043
1101.800 .0261355
1102.385 .0261671
1102.970 .0261992
1103.556 .0262317
1104.142 .0262645
1104.728 .0262976
1105.315 .0263309
1105.902 .0263644
1106.489 .0263980
1107.077 .0264316
1107.664 .0264652
1108.253 .0264986
1108.841 .0265318
1109.430 .0265651
1110.019 .0265985
1110.609 .0266321
1111.198 .0266662
1111.789 .0267008
1112.379 .0267362
1112.970 .0267726
1113.561 .0268100
1114.153 .0268486
1114.745 .0268886
1115.338 .0269300
1115.931 .0269728
1116.524 .0270170
1117.117 .0270626
1117.712 .0271096
1118.306 .0271579
1118.901 .0272071
1119.496 .0272568
1120.092 .0273071
1120.689 .0273577
1121.285 .0274085
1121.882 .0274596
1122.480 .0275110
1123.078 .0275629
1123.677 .0276155
1124.276 .0276689
1124.875 .0277234
1125.476 .0277793
1126.076 .0278368
1126.677 .0278961
1127.279 .0279573
1127.881 .0280206
1128.484 .0280865
1129.087 .0281175
1129.691 .0281872
1130.295 .0282598
1130.900 .0283356
1131.505 .0284147
1132.111 .0284972
1132.718 .0285831
1133.325 .0286720
1133.933 .0287637
1134.541 .0288616
1135.150 .0289629
1135.760 .0290655
1136.370 .0291640
1136.981 .0290916
1137.592 .0292094
1138.204 .0293340
1138.817 .0294679
1139.431 .0296148
1140.045 .0297679
1140.660 .0299285
1141.275 .0300859
1141.891 .0302364
1142.508 .0304919
1143.126 .0306708
1143.744 .0307851
1144.363 .0307471
1144.983 .0306937
