Measurement Sequence started on: 15-12-46-377
Integration time: 28
Scans to Average: 2 
>>>>>Begin Spectral Data<<<<<
432.689 .0000100
433.621 .0000100
434.552 .0000100
435.482 .0000100
436.410 .0000100
437.337 .0000100
438.262 .0276554
439.187 .0583754
440.110 .0965485
441.031 .1395070
441.952 .1110737
442.871 .1159510
443.789 .1204948
444.705 .1247763
445.621 .1288448
446.535 .1327376
447.447 .1350269
448.359 .1355719
449.269 .1339979
450.178 .1300659
451.086 .1238578
451.993 .1158564
452.898 .1068561
453.803 .0977541
454.706 .0893108
455.608 .0819942
456.508 .0759563
457.408 .0719026
458.306 .0687961
459.204 .0662711
460.100 .0641434
460.995 .0623114
461.888 .0607062
462.781 .0592813
463.673 .0580016
464.563 .0568423
465.452 .0557849
466.340 .0548143
467.228 .0539202
468.114 .0530943
468.999 .0523307
469.882 .0516252
470.765 .0509738
471.647 .0503738
472.528 .0498230
473.407 .0493187
474.286 .0488585
475.163 .0484409
476.040 .0480636
476.915 .0477250
477.790 .0474235
478.663 .0471584
479.535 .0469284
480.407 .0467330
481.277 .0465709
482.147 .0464407
483.015 .0463409
483.883 .0462698
484.749 .0462253
485.615 .0462063
486.479 .0462108
487.343 .0462380
488.206 .0462871
489.067 .0463570
489.928 .0464475
490.788 .0465581
491.647 .0466888
492.505 .0468385
493.362 .0470068
494.218 .0471926
495.073 .0473953
495.928 .0477540
496.781 .0479973
497.634 .0482574
498.486 .0485352
499.337 .0488324
500.187 .0491515
501.036 .0494957
501.884 .0498682
502.731 .0502730
503.578 .0507143
504.424 .0510152
505.268 .0515280
506.113 .0520903
506.956 .0527062
507.798 .0533822
508.640 .0541243
509.480 .0549418
510.320 .0558466
511.160 .0568514
511.998 .0579724
512.836 .0592282
513.672 .0606369
514.508 .0622195
515.344 .0639979
516.178 .0659945
517.012 .0682323
517.845 .0707301
518.677 .0735073
519.508 .0765772
520.339 .0799483
521.169 .0836236
521.998 .0875807
522.826 .0917884
523.654 .0961934
524.481 .1007258
525.307 .1053075
526.133 .1098458
526.958 .1142464
527.782 .1184147
528.605 .1222658
529.428 .1257235
530.250 .1287218
531.072 .1312205
531.892 .1331845
532.712 .1345901
533.532 .1354256
534.350 .1356823
535.168 .1353642
535.986 .1344748
536.802 .1330213
537.618 .1310146
538.434 .1284693
539.249 .1254229
540.063 .1219203
540.876 .1180245
541.689 .1138153
542.501 .1093749
543.313 .1047979
544.124 .1001778
544.934 .0956041
545.744 .0911548
546.553 .0868966
547.361 .0828821
548.169 .0791387
548.976 .0756860
549.783 .0725291
550.589 .0696589
551.395 .0670620
552.200 .0647145
553.004 .0625904
553.808 .0606670
554.611 .0589216
555.414 .0573328
556.216 .0558816
557.018 .0545507
557.819 .0533249
558.619 .0521902
559.419 .0511367
560.218 .0501563
561.017 .0492403
561.815 .0483825
562.613 .0475767
563.410 .0468165
564.207 .0460967
565.003 .0454116
565.799 .0447559
566.594 .0441255
567.388 .0435185
568.182 .0429324
568.976 .0423664
569.769 .0418209
570.562 .0412954
571.354 .0407891
572.145 .0403024
572.936 .0398347
573.727 .0393855
574.517 .0389547
575.307 .0385420
576.096 .0381466
576.885 .0377687
577.673 .0374085
578.461 .0370662
579.248 .0367423
580.035 .0364367
580.821 .0361493
581.607 .0358802
582.392 .0356287
583.177 .0353943
583.962 .0351759
584.746 .0349730
585.529 .0347848
586.313 .0346102
587.095 .0344486
587.878 .0342996
588.660 .0341629
589.441 .0340378
590.222 .0339238
591.003 .0338204
591.783 .0337267
592.563 .0336418
593.342 .0335649
594.121 .0334948
594.899 .0334306
595.678 .0333713
596.455 .0333161
597.233 .0332642
598.009 .0332150
598.786 .0331681
599.562 .0331229
600.338 .0330793
601.113 .0330369
601.888 .0329766
602.663 .0329368
603.437 .0328983
604.211 .0328608
604.984 .0328245
605.757 .0327892
606.530 .0327550
607.302 .0327217
608.074 .0326894
608.845 .0326581
609.616 .0326277
610.387 .0326156
611.158 .0325868
611.928 .0325592
612.697 .0325328
613.467 .0325076
614.236 .0324835
615.004 .0324603
615.773 .0324378
616.541 .0324157
617.308 .0323939
618.076 .0323723
618.843 .0323506
619.609 .0323289
620.375 .0323070
621.141 .0322849
621.907 .0322622
622.672 .0322391
623.437 .0322152
624.202 .0321905
624.966 .0321649
625.730 .0321384
626.493 .0321111
627.257 .0320829
628.020 .0320541
628.782 .0320245
629.545 .0319942
630.307 .0319632
631.068 .0319314
631.830 .0318989
632.591 .0318658
633.352 .0318323
634.112 .0317985
634.872 .0317646
635.632 .0317309
636.392 .0316975
637.151 .0316646
637.910 .0316321
638.668 .0316002
639.427 .0315689
640.185 .0315382
640.943 .0315083
641.700 .0314793
642.457 .0314513
643.214 .0314246
643.971 .0313991
644.727 .0313749
645.483 .0313520
646.239 .0313302
646.994 .0313094
647.750 .0312896
648.505 .0312706
649.259 .0312524
650.014 .0312349
650.768 .0312180
651.521 .0312018
652.275 .0311861
653.028 .0311707
653.781 .0311555
654.534 .0311403
655.286 .0311252
656.039 .0311099
656.791 .0310944
657.542 .0310787
658.294 .0310628
659.045 .0310465
659.796 .0310298
660.546 .0310127
661.297 .0309951
662.047 .0309770
662.796 .0309583
663.546 .0309392
664.295 .0309196
665.044 .0308996
665.793 .0308793
666.542 .0308589
667.290 .0308382
668.038 .0308173
668.786 .0307964
669.533 .0307753
670.281 .0307542
671.028 .0307331
671.774 .0307119
672.521 .0306909
673.267 .0306700
674.013 .0306494
674.759 .0306291
675.505 .0306091
676.250 .0305895
676.995 .0305701
677.740 .0305510
678.484 .0305321
679.229 .0305133
679.973 .0304947
680.717 .0304762
681.460 .0304577
682.204 .0304393
682.947 .0304210
683.690 .0304028
684.433 .0303846
685.175 .0303665
685.917 .0303484
686.659 .0303302
687.401 .0303120
688.142 .0302936
688.884 .0302752
689.625 .0302567
690.365 .0302380
691.106 .0302192
691.846 .0302002
692.586 .0301811
693.326 .0301618
694.066 .0301423
694.805 .0301227
695.545 .0301029
696.284 .0300830
697.022 .0300630
697.761 .0300429
698.499 .0300227
699.237 .0300025
699.975 .0299821
700.713 .0299618
701.450 .0299414
702.187 .0299211
702.924 .0299010
703.661 .0298810
704.397 .0298612
705.133 .0298416
705.869 .0298222
706.605 .0298030
707.341 .0297839
708.076 .0297648
708.811 .0297460
709.546 .0297272
710.281 .0297086
711.015 .0296903
711.749 .0296722
712.483 .0296545
713.217 .0296372
713.950 .0296202
714.684 .0296035
715.417 .0295872
716.150 .0295711
716.882 .0295552
717.615 .0295396
718.347 .0295241
719.079 .0295086
719.811 .0294933
720.542 .0294780
721.273 .0294629
722.005 .0294478
722.735 .0294329
723.466 .0294182
724.196 .0294037
724.927 .0293895
725.656 .0293756
726.386 .0293621
727.116 .0293489
727.845 .0293360
728.574 .0293234
729.303 .0293111
730.031 .0292992
730.760 .0292877
731.488 .0292767
732.216 .0292663
732.944 .0292566
733.671 .0292475
734.398 .0292391
735.125 .0292314
735.852 .0292244
736.579 .0292179
737.305 .0292121
738.031 .0292067
738.757 .0292018
739.483 .0291973
740.208 .0291930
740.933 .0291890
741.658 .0291852
742.383 .0291814
743.108 .0291775
743.832 .0291735
744.556 .0291692
745.280 .0291646
746.004 .0291596
746.727 .0291540
747.450 .0291478
748.173 .0291409
748.896 .0291333
749.618 .0291247
750.340 .0291153
751.062 .0291050
751.784 .0290938
752.506 .0290817
753.227 .0290688
753.948 .0290550
754.669 .0290405
755.389 .0290254
756.110 .0290096
756.830 .0289933
757.550 .0289766
758.269 .0289594
758.989 .0289418
759.708 .0289239
760.427 .0289056
761.146 .0288871
761.864 .0288683
762.582 .0288493
763.300 .0288302
764.018 .0288109
764.736 .0287916
765.453 .0287724
766.170 .0287533
766.887 .0287343
767.603 .0287156
768.320 .0286971
769.036 .0286789
769.751 .0286610
770.467 .0286434
771.182 .0286261
771.897 .0286090
772.612 .0285923
773.327 .0285757
774.041 .0285594
774.755 .0285435
775.469 .0285277
776.183 .0285124
776.896 .0284973
777.609 .0284826
778.322 .0284682
779.035 .0284542
779.747 .0284404
780.459 .0284269
781.171 .0284137
781.882 .0284007
782.594 .0283879
783.305 .0283752
784.016 .0283628
784.726 .0283506
785.436 .0283386
786.147 .0283212
786.856 .0283096
787.566 .0282980
788.275 .0282866
788.984 .0282753
789.693 .0282642
790.401 .0282531
791.110 .0282422
791.818 .0282313
792.525 .0282205
793.233 .0282098
793.940 .0281992
794.647 .0281942
795.353 .0281837
796.060 .0281733
796.766 .0281630
797.472 .0281528
798.177 .0281426
798.883 .0281326
799.588 .0281226
800.292 .0281127
800.997 .0281028
801.701 .0280929
802.405 .0280831
803.109 .0280732
803.812 .0280634
804.515 .0280536
805.218 .0280437
805.921 .0280339
806.623 .0280240
807.325 .0280141
808.027 .0280042
808.728 .0279942
809.429 .0279843
810.130 .0279744
810.831 .0279646
811.531 .0279548
812.231 .0279452
812.931 .0279357
813.630 .0279263
814.330 .0279171
815.029 .0279081
815.727 .0278993
816.426 .0278907
817.124 .0278825
817.821 .0278746
818.519 .0278670
819.216 .0278598
819.913 .0278529
820.609 .0278465
821.306 .0278405
822.002 .0278349
822.697 .0278298
823.393 .0278252
824.088 .0278211
824.783 .0278175
825.477 .0278145
826.171 .0278118
826.865 .0278095
827.559 .0278075
828.252 .0278058
828.945 .0278043
829.638 .0278031
830.330 .0278022
831.023 .0278014
831.714 .0278009
832.406 .0278005
833.097 .0278002
833.788 .0277999
834.479 .0277994
835.169 .0277989
835.859 .0277981
836.548 .0277971
837.238 .0277959
837.927 .0277944
838.615 .0277927
839.304 .0277907
839.992 .0277884
840.680 .0277857
841.367 .0277825
842.054 .0277789
842.741 .0277748
843.428 .0277702
844.114 .0277652
844.800 .0277596
845.485 .0277536
846.170 .0277470
846.855 .0277397
847.540 .0277317
848.224 .0277229
848.908 .0277132
849.592 .0277028
850.275 .0276917
850.958 .0276798
851.641 .0276673
852.323 .0276541
853.005 .0276404
853.687 .0276262
854.368 .0276114
855.049 .0275960
855.730 .0275800
856.410 .0275634
857.090 .0275464
857.769 .0275288
858.449 .0275109
859.128 .0274926
859.806 .0274740
860.485 .0274553
861.163 .0274364
861.840 .0274174
862.518 .0273984
863.195 .0273795
863.871 .0273606
864.548 .0273418
865.224 .0273231
865.899 .0273046
866.574 .0272862
867.249 .0272679
867.924 .0272498
868.598 .0272318
869.272 .0272141
869.946 .0271965
870.619 .0271793
871.292 .0271623
871.964 .0271457
872.636 .0271294
873.308 .0271135
873.979 .0270978
874.651 .0270825
875.321 .0270673
875.992 .0270523
876.662 .0270375
877.331 .0270228
878.001 .0270082
878.670 .0269938
879.338 .0269795
880.007 .0269654
880.675 .0269515
881.342 .0269379
882.009 .0269246
882.676 .0269116
883.343 .0268990
884.009 .0268867
884.675 .0268747
885.340 .0268630
886.005 .0268516
886.670 .0268406
887.334 .0268298
887.998 .0268194
888.662 .0268092
889.325 .0267995
889.988 .0267901
890.650 .0267812
891.312 .0267727
891.974 .0267646
892.636 .0267569
893.297 .0267497
893.957 .0267427
894.618 .0267359
895.278 .0267294
895.937 .0267229
896.596 .0267165
897.255 .0267101
897.914 .0267037
898.572 .0266973
899.230 .0266908
899.887 .0266842
900.544 .0266775
901.201 .0266706
901.857 .0266587
902.513 .0266510
903.168 .0266428
903.823 .0266344
904.478 .0266255
905.132 .0266161
905.786 .0266064
906.440 .0265963
907.093 .0265858
907.746 .0265750
908.399 .0265641
909.051 .0265529
909.703 .0265417
910.354 .0265358
911.005 .0265247
911.656 .0265135
912.306 .0265022
912.956 .0264908
913.605 .0264792
914.254 .0264676
914.903 .0264559
915.551 .0264440
916.199 .0264321
916.847 .0264200
917.494 .0264080
918.141 .0263958
918.788 .0263835
919.434 .0263711
920.079 .0263585
920.725 .0263458
921.370 .0263328
922.014 .0263198
922.658 .0263067
923.302 .0262936
923.946 .0262805
924.589 .0262674
925.231 .0262544
925.873 .0262415
926.515 .0262286
927.157 .0262158
927.798 .0262031
928.439 .0261905
929.079 .0261780
929.719 .0261659
930.359 .0261541
930.998 .0261428
931.637 .0261321
932.275 .0261220
932.913 .0261126
933.551 .0261038
934.188 .0260957
934.825 .0260884
935.462 .0260818
936.098 .0260760
936.733 .0260710
937.369 .0260668
938.004 .0260635
938.638 .0260610
939.273 .0260593
939.907 .0260583
940.540 .0260579
941.173 .0260579
941.806 .0260584
942.438 .0260591
943.070 .0260600
943.702 .0260611
944.333 .0260623
944.964 .0260635
945.594 .0260647
946.224 .0260658
946.854 .0260667
947.483 .0260673
948.112 .0260677
948.741 .0260677
949.369 .0260673
949.996 .0260666
950.624 .0260656
951.251 .0260641
951.878 .0260624
952.504 .0260602
953.130 .0260577
953.755 .0260547
954.380 .0260513
955.005 .0260476
955.629 .0260434
956.253 .0260388
956.877 .0260338
957.500 .0260284
958.123 .0260228
958.746 .0260169
959.368 .0260108
959.990 .0260046
960.611 .0259984
961.232 .0259920
961.853 .0259857
962.473 .0259795
963.093 .0259733
963.712 .0259672
964.331 .0259612
964.950 .0259553
965.569 .0259497
966.187 .0259441
966.804 .0259387
967.422 .0259333
968.039 .0259279
968.655 .0259224
969.272 .0259167
969.887 .0259108
970.503 .0259046
971.118 .0258980
971.733 .0258911
972.347 .0258838
972.961 .0258762
973.575 .0258681
974.188 .0258596
974.801 .0258505
975.414 .0258409
976.026 .0258305
976.638 .0258195
977.250 .0258077
977.861 .0257952
978.472 .0257820
979.083 .0257683
979.693 .0257539
980.303 .0257390
980.912 .0257137
981.521 .0256974
982.130 .0256804
982.738 .0256628
983.346 .0256447
983.954 .0256262
984.562 .0256074
985.169 .0255885
985.775 .0255697
986.382 .0255512
986.988 .0255331
987.594 .0255153
988.199 .0254979
988.804 .0254810
989.409 .0254743
990.013 .0254581
990.617 .0254423
991.221 .0254269
991.824 .0254122
992.427 .0253982
993.030 .0253848
993.632 .0253721
994.234 .0253600
994.836 .0253484
995.438 .0253371
996.039 .0253261
996.640 .0253154
997.240 .0253049
997.840 .0252948
998.440 .0252850
999.040 .0252757
999.639 .0252669
1000.238 .0252586
1000.836 .0252508
1001.435 .0252433
1002.033 .0252361
1002.630 .0252290
1003.228 .0252220
1003.825 .0252151
1004.422 .0252081
1005.018 .0252013
1005.614 .0251946
1006.210 .0251881
1006.806 .0251818
1007.401 .0251757
1007.996 .0251698
1008.591 .0251640
1009.186 .0251584
1009.780 .0251528
1010.374 .0251473
1010.967 .0251421
1011.561 .0251371
1012.154 .0251325
1012.746 .0251283
1013.339 .0251246
1013.931 .0251214
1014.523 .0251187
1015.115 .0251163
1015.706 .0251142
1016.298 .0251124
1016.888 .0251109
1017.479 .0251096
1018.069 .0251086
1018.660 .0251079
1019.250 .0251076
1019.839 .0251076
1020.429 .0251079
1021.018 .0251086
1021.607 .0251097
1022.195 .0251109
1022.784 .0251125
1023.372 .0251142
1023.960 .0251162
1024.547 .0251185
1025.135 .0251211
1025.722 .0251240
1026.309 .0251273
1026.896 .0251308
1027.483 .0251345
1028.069 .0251382
1028.655 .0251419
1029.241 .0251454
1029.827 .0251486
1030.412 .0251516
1030.997 .0251545
1031.582 .0251572
1032.167 .0251599
1032.752 .0251627
1033.336 .0251655
1033.921 .0251684
1034.505 .0251713
1035.089 .0251741
1035.672 .0251767
1036.256 .0251790
1036.839 .0251811
1037.422 .0251829
1038.005 .0251845
1038.588 .0251860
1039.171 .0251876
1039.753 .0251893
1040.335 .0251911
1040.918 .0251930
1041.500 .0251948
1042.081 .0251965
1042.663 .0251980
1043.244 .0251992
1043.826 .0252001
1044.407 .0252008
1044.988 .0252016
1045.569 .0252024
1046.150 .0252034
1046.730 .0252048
1047.311 .0252065
1047.891 .0252087
1048.471 .0252112
1049.052 .0252140
1049.632 .0252172
1050.211 .0252206
1050.791 .0252243
1051.371 .0252285
1051.950 .0252332
1052.530 .0252385
1053.109 .0252445
1053.688 .0252511
1054.268 .0252584
1054.847 .0252661
1055.426 .0252743
1056.005 .0252827
1056.583 .0252913
1057.162 .0253000
1057.741 .0253088
1058.319 .0253177
1058.898 .0253266
1059.476 .0253354
1060.055 .0253442
1060.633 .0253528
1061.211 .0253611
1061.790 .0253690
1062.368 .0253767
1062.946 .0253840
1063.524 .0253911
1064.102 .0253979
1064.680 .0254045
1065.258 .0254109
1065.836 .0254174
1066.414 .0254236
1066.992 .0254297
1067.570 .0254356
1068.148 .0254413
1068.726 .0254469
1069.304 .0254524
1069.882 .0254580
1070.460 .0254638
1071.038 .0254699
1071.616 .0254764
1072.194 .0254833
1072.772 .0254907
1073.350 .0254984
1073.928 .0255065
1074.506 .0255148
1075.084 .0255234
1075.662 .0255324
1076.240 .0255419
1076.819 .0255521
1077.397 .0255631
1077.976 .0255748
1078.554 .0255874
1079.133 .0256007
1079.711 .0256145
1080.290 .0256286
1080.869 .0256427
1081.448 .0256569
1082.027 .0256709
1082.606 .0256847
1083.185 .0256985
1083.764 .0257122
1084.343 .0257260
1084.923 .0257398
1085.502 .0257536
1086.082 .0257674
1086.662 .0257810
1087.242 .0257944
1087.822 .0258074
1088.402 .0258201
1088.983 .0258327
1089.563 .0258452
1090.144 .0258577
1090.725 .0258703
1091.306 .0258831
1091.887 .0258962
1092.469 .0259093
1093.050 .0259226
1093.632 .0259358
1094.214 .0259490
1094.796 .0259623
1095.379 .0259757
1095.961 .0259893
1096.544 .0260034
1097.127 .0260181
1097.710 .0260336
1098.294 .0260498
1098.877 .0260668
1099.461 .0260845
1100.046 .0261028
1100.630 .0261216
1101.215 .0261407
1101.800 .0261602
1102.385 .0261801
1102.970 .0262004
1103.556 .0262213
1104.142 .0262429
1104.728 .0262652
1105.315 .0262884
1105.902 .0263123
1106.489 .0263369
1107.077 .0263623
1107.664 .0263883
1108.253 .0264150
1108.841 .0264423
1109.430 .0264702
1110.019 .0264990
1110.609 .0265287
1111.198 .0265593
1111.789 .0265906
1112.379 .0266226
1112.970 .0266549
1113.561 .0266873
1114.153 .0267197
1114.745 .0267518
1115.338 .0267837
1115.931 .0268157
1116.524 .0268480
1117.117 .0268811
1117.712 .0269154
1118.306 .0269512
1118.901 .0269886
1119.496 .0270277
1120.092 .0270684
1120.689 .0271107
1121.285 .0271547
1121.882 .0272004
1122.480 .0272480
1123.078 .0272977
1123.677 .0273500
1124.276 .0274048
1124.875 .0274625
1125.476 .0275229
1126.076 .0275858
1126.677 .0276510
1127.279 .0277181
1127.881 .0277870
1128.484 .0278579
1129.087 .0278849
1129.691 .0279592
1130.295 .0280362
1130.900 .0281164
1131.505 .0282003
1132.111 .0282879
1132.718 .0283793
1133.325 .0284744
1133.933 .0285733
1134.541 .0286763
1135.150 .0287780
1135.760 .0288810
1136.370 .0289921
1136.981 .0291172
1137.592 .0292186
1138.204 .0293221
1138.817 .0294364
1139.431 .0295598
1140.045 .0296821
1140.660 .0298059
1141.275 .0299335
1141.891 .0300723
1142.508 .0302325
1143.126 .0302507
1143.744 .0303498
1144.363 .0306462
1144.983 .0310820
