Measurement Sequence started on: 15-12-46-377
Integration time: 28
Scans to Average: 2 
>>>>>Begin Spectral Data<<<<<
432.689 .0000100
433.621 .0000100
434.552 .0000100
435.482 .0000100
436.410 .0000100
437.337 .0000100
438.262 .0277566
439.187 .0586428
440.110 .0970645
441.031 .1403435
441.952 .1121225
442.871 .1170683
443.789 .1216725
444.705 .1260073
445.621 .1301235
446.535 .1340593
447.447 .1363817
448.359 .1369472
449.269 .1353766
450.178 .1314258
451.086 .1251734
451.993 .1171025
452.898 .1080107
453.803 .0988013
454.706 .0902416
455.608 .0828069
456.508 .0766564
457.408 .0725029
458.306 .0693096
459.204 .0667111
460.100 .0645212
460.995 .0626359
461.888 .0609845
462.781 .0595182
463.673 .0582010
464.563 .0570078
465.452 .0559195
466.340 .0549220
467.228 .0540059
468.114 .0531649
468.999 .0523926
469.882 .0516834
470.765 .0510318
471.647 .0504328
472.528 .0498823
473.407 .0493763
474.286 .0489115
475.163 .0484856
476.040 .0480965
476.915 .0477435
477.790 .0474253
478.663 .0471420
479.535 .0468928
480.407 .0466770
481.277 .0464934
482.147 .0463400
483.015 .0462148
483.883 .0461157
484.749 .0460415
485.615 .0459904
486.479 .0459611
487.343 .0459529
488.206 .0459647
489.067 .0459958
489.928 .0460455
490.788 .0461131
491.647 .0461983
492.505 .0463006
493.362 .0464195
494.218 .0465548
495.073 .0467068
495.928 .0469933
496.781 .0471919
497.634 .0474098
498.486 .0476480
499.337 .0479076
500.187 .0481905
501.036 .0484989
501.884 .0488355
502.731 .0492048
503.578 .0496109
504.424 .0498977
505.268 .0503772
506.113 .0509067
506.956 .0514907
507.798 .0521345
508.640 .0528431
509.480 .0536230
510.320 .0544818
511.160 .0554295
511.998 .0564771
512.836 .0576378
513.672 .0589256
514.508 .0603580
515.344 .0619533
516.178 .0637321
517.012 .0657149
517.845 .0679229
518.677 .0703776
519.508 .0730977
520.339 .0760951
521.169 .0793790
521.998 .0829348
522.826 .0867366
523.654 .0907411
524.481 .0948948
525.307 .0991322
526.133 .1033784
526.958 .1075533
527.782 .1115759
528.605 .1153665
529.428 .1188523
530.250 .1219628
531.072 .1246471
531.892 .1268583
532.712 .1285627
533.532 .1297362
534.350 .1303675
535.168 .1304537
535.986 .1299972
536.802 .1290022
537.618 .1274772
538.434 .1254286
539.249 .1228857
540.063 .1198861
540.876 .1164826
541.689 .1127373
542.501 .1087221
543.313 .1045171
544.124 .1002062
544.934 .0958708
545.744 .0915883
546.553 .0874274
547.361 .0834515
548.169 .0797007
548.976 .0762072
549.783 .0729892
550.589 .0700521
551.395 .0673875
552.200 .0649778
553.004 .0627991
553.808 .0608268
554.611 .0590371
555.414 .0574110
556.216 .0559290
557.018 .0545742
557.819 .0533320
558.619 .0521890
559.419 .0511341
560.218 .0501566
561.017 .0492461
561.815 .0483943
562.613 .0475939
563.410 .0468368
564.207 .0461164
565.003 .0454283
565.799 .0447690
566.594 .0441350
567.388 .0435241
568.182 .0429342
568.976 .0423632
569.769 .0418097
570.562 .0412731
571.354 .0407535
572.145 .0402511
572.936 .0397669
573.727 .0393014
574.517 .0388553
575.307 .0384294
576.096 .0380229
576.885 .0376360
577.673 .0372688
578.461 .0369208
579.248 .0365914
580.035 .0362805
580.821 .0359881
581.607 .0357137
582.392 .0354572
583.177 .0352183
583.962 .0349965
584.746 .0347914
585.529 .0346020
586.313 .0344272
587.095 .0342660
587.878 .0341171
588.660 .0339792
589.441 .0338510
590.222 .0337313
591.003 .0336194
591.783 .0335146
592.563 .0334165
593.342 .0333249
594.121 .0332392
594.899 .0331591
595.678 .0330841
596.455 .0330136
597.233 .0329469
598.009 .0328835
598.786 .0328228
599.562 .0327643
600.338 .0327077
601.113 .0326529
601.888 .0325776
602.663 .0325275
603.437 .0324792
604.211 .0324328
604.984 .0323882
605.757 .0323454
606.530 .0323042
607.302 .0322646
608.074 .0322265
608.845 .0321898
609.616 .0321545
610.387 .0321395
611.158 .0321059
611.928 .0320734
612.697 .0320420
613.467 .0320115
614.236 .0319820
615.004 .0319532
615.773 .0319252
616.541 .0318977
617.308 .0318708
618.076 .0318442
618.843 .0318177
619.609 .0317913
620.375 .0317647
621.141 .0317380
621.907 .0317111
622.672 .0316841
623.437 .0316570
624.202 .0316300
624.966 .0316029
625.730 .0315758
626.493 .0315487
627.257 .0315214
628.020 .0314940
628.782 .0314665
629.545 .0314389
630.307 .0314113
631.068 .0313838
631.830 .0313565
632.591 .0313293
633.352 .0313024
634.112 .0312755
634.872 .0312487
635.632 .0312218
636.392 .0311948
637.151 .0311678
637.910 .0311409
638.668 .0311140
639.427 .0310873
640.185 .0310608
640.943 .0310345
641.700 .0310086
642.457 .0309828
643.214 .0309572
643.971 .0309320
644.727 .0309070
645.483 .0308824
646.239 .0308582
646.994 .0308344
647.750 .0308111
648.505 .0307882
649.259 .0307654
650.014 .0307429
650.768 .0307205
651.521 .0306982
652.275 .0306761
653.028 .0306542
653.781 .0306327
654.534 .0306117
655.286 .0305911
656.039 .0305710
656.791 .0305513
657.542 .0305320
658.294 .0305128
659.045 .0304938
659.796 .0304748
660.546 .0304560
661.297 .0304371
662.047 .0304183
662.796 .0303994
663.546 .0303804
664.295 .0303614
665.044 .0303422
665.793 .0303231
666.542 .0303039
667.290 .0302850
668.038 .0302662
668.786 .0302478
669.533 .0302296
670.281 .0302116
671.028 .0301939
671.774 .0301763
672.521 .0301588
673.267 .0301414
674.013 .0301240
674.759 .0301068
675.505 .0300896
676.250 .0300725
676.995 .0300555
677.740 .0300385
678.484 .0300214
679.229 .0300042
679.973 .0299867
680.717 .0299688
681.460 .0299506
682.204 .0299321
682.947 .0299131
683.690 .0298939
684.433 .0298743
685.175 .0298545
685.917 .0298344
686.659 .0298141
687.401 .0297935
688.142 .0297728
688.884 .0297519
689.625 .0297307
690.365 .0297095
691.106 .0296881
691.846 .0296666
692.586 .0296451
693.326 .0296235
694.066 .0296020
694.805 .0295805
695.545 .0295591
696.284 .0295378
697.022 .0295167
697.761 .0294959
698.499 .0294753
699.237 .0294550
699.975 .0294350
700.713 .0294152
701.450 .0293957
702.187 .0293763
702.924 .0293571
703.661 .0293380
704.397 .0293188
705.133 .0292996
705.869 .0292803
706.605 .0292609
707.341 .0292414
708.076 .0292217
708.811 .0292019
709.546 .0291821
710.281 .0291621
711.015 .0291421
711.749 .0291222
712.483 .0291022
713.217 .0290823
713.950 .0290624
714.684 .0290424
715.417 .0290225
716.150 .0290026
716.882 .0289826
717.615 .0289626
718.347 .0289425
719.079 .0289222
719.811 .0289019
720.542 .0288815
721.273 .0288610
722.005 .0288406
722.735 .0288201
723.466 .0287998
724.196 .0287796
724.927 .0287595
725.656 .0287397
726.386 .0287202
727.116 .0287009
727.845 .0286820
728.574 .0286634
729.303 .0286452
730.031 .0286274
730.760 .0286100
731.488 .0285931
732.216 .0285766
732.944 .0285605
733.671 .0285449
734.398 .0285298
735.125 .0285152
735.852 .0285011
736.579 .0284876
737.305 .0284745
738.031 .0284620
738.757 .0284499
739.483 .0284383
740.208 .0284271
740.933 .0284163
741.658 .0284059
742.383 .0283958
743.108 .0283861
743.832 .0283768
744.556 .0283678
745.280 .0283590
746.004 .0283504
746.727 .0283418
747.450 .0283332
748.173 .0283245
748.896 .0283157
749.618 .0283068
750.340 .0282977
751.062 .0282884
751.784 .0282789
752.506 .0282693
753.227 .0282594
753.948 .0282492
754.669 .0282388
755.389 .0282281
756.110 .0282172
756.830 .0282061
757.550 .0281948
758.269 .0281834
758.989 .0281719
759.708 .0281603
760.427 .0281486
761.146 .0281367
761.864 .0281247
762.582 .0281125
763.300 .0281003
764.018 .0280880
764.736 .0280756
765.453 .0280634
766.170 .0280512
766.887 .0280392
767.603 .0280274
768.320 .0280159
769.036 .0280047
769.751 .0279938
770.467 .0279832
771.182 .0279729
771.897 .0279630
772.612 .0279534
773.327 .0279441
774.041 .0279349
774.755 .0279260
775.469 .0279172
776.183 .0279086
776.896 .0279002
777.609 .0278920
778.322 .0278841
779.035 .0278765
779.747 .0278692
780.459 .0278621
781.171 .0278552
781.882 .0278484
782.594 .0278416
783.305 .0278348
784.016 .0278279
784.726 .0278210
785.436 .0278139
786.147 .0278031
786.856 .0277958
787.566 .0277884
788.275 .0277808
788.984 .0277731
789.693 .0277652
790.401 .0277570
791.110 .0277485
791.818 .0277396
792.525 .0277303
793.233 .0277204
793.940 .0277101
794.647 .0277037
795.353 .0276926
796.060 .0276810
796.766 .0276690
797.472 .0276565
798.177 .0276436
798.883 .0276302
799.588 .0276163
800.292 .0276020
800.997 .0275872
801.701 .0275719
802.405 .0275560
803.109 .0275396
803.812 .0275227
804.515 .0275052
805.218 .0274873
805.921 .0274688
806.623 .0274499
807.325 .0274306
808.027 .0274110
808.728 .0273911
809.429 .0273710
810.130 .0273508
810.831 .0273305
811.531 .0273101
812.231 .0272896
812.931 .0272691
813.630 .0272487
814.330 .0272283
815.029 .0272081
815.727 .0271881
816.426 .0271685
817.124 .0271492
817.821 .0271303
818.519 .0271119
819.216 .0270940
819.913 .0270766
820.609 .0270596
821.306 .0270432
822.002 .0270273
822.697 .0270119
823.393 .0269971
824.088 .0269829
824.783 .0269692
825.477 .0269562
826.171 .0269436
826.865 .0269315
827.559 .0269198
828.252 .0269085
828.945 .0268974
829.638 .0268867
830.330 .0268762
831.023 .0268659
831.714 .0268557
832.406 .0268456
833.097 .0268357
833.788 .0268258
834.479 .0268158
835.169 .0268059
835.859 .0267960
836.548 .0267862
837.238 .0267765
837.927 .0267670
838.615 .0267577
839.304 .0267487
839.992 .0267399
840.680 .0267314
841.367 .0267232
842.054 .0267152
842.741 .0267075
843.428 .0267001
844.114 .0266930
844.800 .0266862
845.485 .0266797
846.170 .0266734
846.855 .0266674
847.540 .0266615
848.224 .0266558
848.908 .0266502
849.592 .0266446
850.275 .0266390
850.958 .0266333
851.641 .0266275
852.323 .0266214
853.005 .0266150
853.687 .0266082
854.368 .0266010
855.049 .0265934
855.730 .0265854
856.410 .0265770
857.090 .0265683
857.769 .0265593
858.449 .0265502
859.128 .0265409
859.806 .0265314
860.485 .0265218
861.163 .0265121
861.840 .0265023
862.518 .0264926
863.195 .0264829
863.871 .0264735
864.548 .0264644
865.224 .0264557
865.899 .0264475
866.574 .0264397
867.249 .0264323
867.924 .0264254
868.598 .0264191
869.272 .0264132
869.946 .0264079
870.619 .0264032
871.292 .0263990
871.964 .0263955
872.636 .0263926
873.308 .0263901
873.979 .0263882
874.651 .0263866
875.321 .0263853
875.992 .0263844
876.662 .0263837
877.331 .0263834
878.001 .0263833
878.670 .0263834
879.338 .0263837
880.007 .0263842
880.675 .0263847
881.342 .0263853
882.009 .0263858
882.676 .0263863
883.343 .0263869
884.009 .0263874
884.675 .0263880
885.340 .0263888
886.005 .0263896
886.670 .0263905
887.334 .0263916
887.998 .0263927
888.662 .0263939
889.325 .0263951
889.988 .0263963
890.650 .0263974
891.312 .0263984
891.974 .0263993
892.636 .0264001
893.297 .0264005
893.957 .0264008
894.618 .0264007
895.278 .0264004
895.937 .0263998
896.596 .0263988
897.255 .0263974
897.914 .0263955
898.572 .0263930
899.230 .0263899
899.887 .0263861
900.544 .0263815
901.201 .0263762
901.857 .0263645
902.513 .0263570
903.168 .0263488
903.823 .0263397
904.478 .0263298
905.132 .0263191
905.786 .0263077
906.440 .0262954
907.093 .0262824
907.746 .0262687
908.399 .0262545
909.051 .0262397
909.703 .0262245
910.354 .0262157
911.005 .0262000
911.656 .0261840
912.306 .0261675
912.956 .0261507
913.605 .0261334
914.254 .0261157
914.903 .0260976
915.551 .0260791
916.199 .0260603
916.847 .0260412
917.494 .0260218
918.141 .0260021
918.788 .0259820
919.434 .0259616
920.079 .0259407
920.725 .0259195
921.370 .0258979
922.014 .0258759
922.658 .0258535
923.302 .0258308
923.946 .0258078
924.589 .0257846
925.231 .0257612
925.873 .0257375
926.515 .0257136
927.157 .0256895
927.798 .0256652
928.439 .0256406
929.079 .0256158
929.719 .0255909
930.359 .0255659
930.998 .0255409
931.637 .0255160
932.275 .0254913
932.913 .0254668
933.551 .0254428
934.188 .0254191
934.825 .0253960
935.462 .0253734
936.098 .0253513
936.733 .0253299
937.369 .0253090
938.004 .0252887
938.638 .0252691
939.273 .0252500
939.907 .0252314
940.540 .0252133
941.173 .0251956
941.806 .0251784
942.438 .0251616
943.070 .0251452
943.702 .0251292
944.333 .0251135
944.964 .0250981
945.594 .0250829
946.224 .0250679
946.854 .0250530
947.483 .0250380
948.112 .0250230
948.741 .0250079
949.369 .0249928
949.996 .0249776
950.624 .0249624
951.251 .0249473
951.878 .0249322
952.504 .0249170
953.130 .0249018
953.755 .0248865
954.380 .0248712
955.005 .0248557
955.629 .0248402
956.253 .0248247
956.877 .0248092
957.500 .0247939
958.123 .0247787
958.746 .0247637
959.368 .0247488
959.990 .0247342
960.611 .0247197
961.232 .0247054
961.853 .0246913
962.473 .0246774
963.093 .0246636
963.712 .0246501
964.331 .0246368
964.950 .0246238
965.569 .0246109
966.187 .0245983
966.804 .0245858
967.422 .0245733
968.039 .0245610
968.655 .0245486
969.272 .0245364
969.887 .0245243
970.503 .0245122
971.118 .0245004
971.733 .0244887
972.347 .0244772
972.961 .0244659
973.575 .0244547
974.188 .0244437
974.801 .0244327
975.414 .0244219
976.026 .0244111
976.638 .0244003
977.250 .0243896
977.861 .0243789
978.472 .0243682
979.083 .0243577
979.693 .0243474
980.303 .0243373
980.912 .0243237
981.521 .0243146
982.130 .0243060
982.738 .0242978
983.346 .0242901
983.954 .0242828
984.562 .0242761
985.169 .0242700
985.775 .0242645
986.382 .0242598
986.988 .0242558
987.594 .0242527
988.199 .0242504
988.804 .0242489
989.409 .0242505
990.013 .0242501
990.617 .0242504
991.221 .0242512
991.824 .0242525
992.427 .0242544
993.030 .0242568
993.632 .0242596
994.234 .0242630
994.836 .0242670
995.438 .0242714
996.039 .0242763
996.640 .0242816
997.240 .0242873
997.840 .0242933
998.440 .0242997
999.040 .0243065
999.639 .0243135
1000.238 .0243208
1000.836 .0243285
1001.435 .0243365
1002.033 .0243447
1002.630 .0243532
1003.228 .0243618
1003.825 .0243705
1004.422 .0243791
1005.018 .0243877
1005.614 .0243962
1006.210 .0244045
1006.806 .0244127
1007.401 .0244208
1007.996 .0244289
1008.591 .0244369
1009.186 .0244451
1009.780 .0244534
1010.374 .0244618
1010.967 .0244704
1011.561 .0244793
1012.154 .0244884
1012.746 .0244979
1013.339 .0245077
1013.931 .0245179
1014.523 .0245285
1015.115 .0245398
1015.706 .0245515
1016.298 .0245638
1016.888 .0245767
1017.479 .0245900
1018.069 .0246038
1018.660 .0246179
1019.250 .0246322
1019.839 .0246467
1020.429 .0246614
1021.018 .0246761
1021.607 .0246909
1022.195 .0247058
1022.784 .0247210
1023.372 .0247363
1023.960 .0247518
1024.547 .0247676
1025.135 .0247835
1025.722 .0247996
1026.309 .0248157
1026.896 .0248319
1027.483 .0248482
1028.069 .0248646
1028.655 .0248810
1029.241 .0248975
1029.827 .0249141
1030.412 .0249307
1030.997 .0249472
1031.582 .0249636
1032.167 .0249798
1032.752 .0249956
1033.336 .0250110
1033.921 .0250259
1034.505 .0250404
1035.089 .0250544
1035.672 .0250679
1036.256 .0250811
1036.839 .0250939
1037.422 .0251065
1038.005 .0251187
1038.588 .0251307
1039.171 .0251424
1039.753 .0251537
1040.335 .0251648
1040.918 .0251754
1041.500 .0251857
1042.081 .0251957
1042.663 .0252053
1043.244 .0252146
1043.826 .0252235
1044.407 .0252320
1044.988 .0252401
1045.569 .0252477
1046.150 .0252547
1046.730 .0252611
1047.311 .0252667
1047.891 .0252715
1048.471 .0252756
1049.052 .0252790
1049.632 .0252816
1050.211 .0252837
1050.791 .0252852
1051.371 .0252864
1051.950 .0252873
1052.530 .0252877
1053.109 .0252879
1053.688 .0252876
1054.268 .0252869
1054.847 .0252856
1055.426 .0252839
1056.005 .0252818
1056.583 .0252792
1057.162 .0252763
1057.741 .0252732
1058.319 .0252698
1058.898 .0252664
1059.476 .0252629
1060.055 .0252593
1060.633 .0252554
1061.211 .0252513
1061.790 .0252469
1062.368 .0252423
1062.946 .0252376
1063.524 .0252328
1064.102 .0252282
1064.680 .0252239
1065.258 .0252200
1065.836 .0252165
1066.414 .0252134
1066.992 .0252107
1067.570 .0252081
1068.148 .0252057
1068.726 .0252032
1069.304 .0252008
1069.882 .0251986
1070.460 .0251966
1071.038 .0251949
1071.616 .0251937
1072.194 .0251929
1072.772 .0251924
1073.350 .0251923
1073.928 .0251924
1074.506 .0251926
1075.084 .0251928
1075.662 .0251932
1076.240 .0251936
1076.819 .0251942
1077.397 .0251952
1077.976 .0251964
1078.554 .0251980
1079.133 .0251998
1079.711 .0252015
1080.290 .0252030
1080.869 .0252040
1081.448 .0252045
1082.027 .0252043
1082.606 .0252033
1083.185 .0252017
1083.764 .0251994
1084.343 .0251967
1084.923 .0251937
1085.502 .0251905
1086.082 .0251874
1086.662 .0251843
1087.242 .0251814
1087.822 .0251788
1088.402 .0251767
1088.983 .0251750
1089.563 .0251738
1090.144 .0251734
1090.725 .0251738
1091.306 .0251751
1091.887 .0251773
1092.469 .0251806
1093.050 .0251848
1093.632 .0251899
1094.214 .0251959
1094.796 .0252027
1095.379 .0252102
1095.961 .0252183
1096.544 .0252270
1097.127 .0252362
1097.710 .0252458
1098.294 .0252557
1098.877 .0252659
1099.461 .0252762
1100.046 .0252867
1100.630 .0252971
1101.215 .0253075
1101.800 .0253178
1102.385 .0253278
1102.970 .0253374
1103.556 .0253467
1104.142 .0253556
1104.728 .0253641
1105.315 .0253721
1105.902 .0253799
1106.489 .0253874
1107.077 .0253948
1107.664 .0254023
1108.253 .0254099
1108.841 .0254177
1109.430 .0254259
1110.019 .0254348
1110.609 .0254444
1111.198 .0254548
1111.789 .0254662
1112.379 .0254785
1112.970 .0254918
1113.561 .0255061
1114.153 .0255215
1114.745 .0255380
1115.338 .0255559
1115.931 .0255754
1116.524 .0255965
1117.117 .0256197
1117.712 .0256450
1118.306 .0256723
1118.901 .0257016
1119.496 .0257327
1120.092 .0257656
1120.689 .0258001
1121.285 .0258363
1121.882 .0258742
1122.480 .0259139
1123.078 .0259557
1123.677 .0259995
1124.276 .0260454
1124.875 .0260931
1125.476 .0261424
1126.076 .0261931
1126.677 .0262453
1127.279 .0262987
1127.881 .0263537
1128.484 .0264105
1129.087 .0264341
1129.691 .0264933
1130.295 .0265554
1130.900 .0266208
1131.505 .0266901
1132.111 .0267636
1132.718 .0268419
1133.325 .0269248
1133.933 .0270125
1134.541 .0271054
1135.150 .0272055
1135.760 .0273152
1136.370 .0274178
1136.981 .0273441
1137.592 .0274621
1138.204 .0275866
1138.817 .0277220
1139.431 .0278658
1140.045 .0280201
1140.660 .0281874
1141.275 .0283524
1141.891 .0285304
1142.508 .0287196
1143.126 .0289682
1143.744 .0292835
1144.363 .0291268
1144.983 .0295163
