Measurement Sequence started on: 15-12-46-377
Integration time: 28
Scans to Average: 2 
>>>>>Begin Spectral Data<<<<<
432.689 .0000100
433.621 .0000100
434.552 .0000100
435.482 .0000100
436.410 .0000100
437.337 .0000100
438.262 .0293756
439.187 .0623634
440.110 .1034042
441.031 .1497419
441.952 .1207070
442.871 .1261019
443.789 .1311137
444.705 .1358198
445.621 .1402747
446.535 .1445212
447.447 .1470440
448.359 .1476764
449.269 .1460151
450.178 .1417959
451.086 .1350970
451.993 .1264269
452.898 .1166324
453.803 .1066786
454.706 .0973891
455.608 .0892780
456.508 .0825248
457.408 .0778925
458.306 .0742993
459.204 .0713540
460.100 .0688606
460.995 .0667109
461.888 .0648304
462.781 .0631677
463.673 .0616834
464.563 .0603504
465.452 .0591483
466.340 .0580595
467.228 .0570723
468.114 .0561771
468.999 .0553663
469.882 .0546324
470.765 .0539676
471.647 .0533658
472.528 .0528222
473.407 .0523319
474.286 .0518916
475.163 .0514985
476.040 .0511494
476.915 .0508423
477.790 .0505736
478.663 .0503402
479.535 .0501384
480.407 .0499641
481.277 .0498136
482.147 .0496834
483.015 .0495706
483.883 .0494729
484.749 .0493891
485.615 .0493189
486.479 .0492621
487.343 .0492186
488.206 .0491889
489.067 .0491725
489.928 .0491700
490.788 .0491817
491.647 .0492074
492.505 .0492486
493.362 .0493065
494.218 .0493830
495.073 .0494804
495.928 .0497184
496.781 .0498796
497.634 .0500680
498.486 .0502846
499.337 .0505309
500.187 .0508091
501.036 .0511215
501.884 .0514708
502.731 .0518610
503.578 .0522958
504.424 .0526062
505.268 .0531235
506.113 .0536979
506.956 .0543352
507.798 .0550420
508.640 .0558264
509.480 .0566978
510.320 .0576688
511.160 .0587521
511.998 .0599609
512.836 .0613121
513.672 .0628234
514.508 .0645143
515.344 .0664046
516.178 .0685157
517.012 .0708729
517.845 .0735020
518.677 .0764255
519.508 .0796643
520.339 .0832299
521.169 .0871231
521.998 .0913186
522.826 .0957776
523.654 .1004416
524.481 .1052364
525.307 .1100818
526.133 .1148870
526.958 .1195553
527.782 .1239947
528.605 .1281171
529.428 .1318459
530.250 .1351097
531.072 .1378542
531.892 .1400319
532.712 .1416131
533.532 .1425806
534.350 .1429238
535.168 .1426419
535.986 .1417440
536.802 .1402354
537.618 .1381279
538.434 .1354416
539.249 .1322202
540.063 .1285183
540.876 .1244079
541.689 .1199712
542.501 .1152941
543.313 .1104686
544.124 .1055908
544.934 .1007470
545.744 .0960186
546.553 .0914742
547.361 .0871726
548.169 .0831547
548.976 .0794534
549.783 .0760817
550.589 .0730390
551.395 .0703127
552.200 .0678775
553.004 .0656998
553.808 .0637501
554.611 .0620007
555.414 .0604254
556.216 .0589999
557.018 .0577025
557.819 .0565137
558.619 .0554178
559.419 .0544017
560.218 .0534552
561.017 .0525679
561.815 .0517320
562.613 .0509406
563.410 .0501872
564.207 .0494666
565.003 .0487747
565.799 .0481063
566.594 .0474573
567.388 .0468244
568.182 .0462047
568.976 .0455965
569.769 .0449998
570.562 .0444145
571.354 .0438415
572.145 .0432819
572.936 .0427372
573.727 .0422083
574.517 .0416970
575.307 .0412043
576.096 .0407306
576.885 .0402764
577.673 .0398423
578.461 .0394282
579.248 .0390346
580.035 .0386616
580.821 .0383094
581.607 .0379775
582.392 .0376655
583.177 .0373732
583.962 .0371002
584.746 .0368460
585.529 .0366101
586.313 .0363918
587.095 .0361903
587.878 .0360047
588.660 .0358341
589.441 .0356774
590.222 .0355337
591.003 .0354019
591.783 .0352807
592.563 .0351694
593.342 .0350668
594.121 .0349720
594.899 .0348841
595.678 .0348022
596.455 .0347257
597.233 .0346536
598.009 .0345856
598.786 .0345211
599.562 .0344598
600.338 .0344012
601.113 .0343451
601.888 .0342685
602.663 .0342174
603.437 .0341681
604.211 .0341203
604.984 .0340739
605.757 .0340290
606.530 .0339853
607.302 .0339430
608.074 .0339019
608.845 .0338618
609.616 .0338227
610.387 .0338051
611.158 .0337671
611.928 .0337299
612.697 .0336934
613.467 .0336576
614.236 .0336224
615.004 .0335877
615.773 .0335535
616.541 .0335196
617.308 .0334861
618.076 .0334527
618.843 .0334196
619.609 .0333868
620.375 .0333542
621.141 .0333219
621.907 .0332899
622.672 .0332582
623.437 .0332268
624.202 .0331956
624.966 .0331645
625.730 .0331335
626.493 .0331026
627.257 .0330717
628.020 .0330409
628.782 .0330102
629.545 .0329796
630.307 .0329492
631.068 .0329191
631.830 .0328891
632.591 .0328591
633.352 .0328293
634.112 .0327994
634.872 .0327693
635.632 .0327391
636.392 .0327087
637.151 .0326781
637.910 .0326474
638.668 .0326167
639.427 .0325861
640.185 .0325557
640.943 .0325255
641.700 .0324958
642.457 .0324665
643.214 .0324377
643.971 .0324096
644.727 .0323820
645.483 .0323552
646.239 .0323290
646.994 .0323035
647.750 .0322787
648.505 .0322546
649.259 .0322311
650.014 .0322083
650.768 .0321861
651.521 .0321645
652.275 .0321435
653.028 .0321230
653.781 .0321031
654.534 .0320836
655.286 .0320645
656.039 .0320457
656.791 .0320269
657.542 .0320081
658.294 .0319891
659.045 .0319699
659.796 .0319503
660.546 .0319304
661.297 .0319102
662.047 .0318895
662.796 .0318685
663.546 .0318471
664.295 .0318254
665.044 .0318033
665.793 .0317809
666.542 .0317581
667.290 .0317350
668.038 .0317117
668.786 .0316881
669.533 .0316642
670.281 .0316401
671.028 .0316158
671.774 .0315912
672.521 .0315664
673.267 .0315415
674.013 .0315166
674.759 .0314917
675.505 .0314668
676.250 .0314421
676.995 .0314175
677.740 .0313930
678.484 .0313685
679.229 .0313440
679.973 .0313193
680.717 .0312944
681.460 .0312692
682.204 .0312438
682.947 .0312182
683.690 .0311924
684.433 .0311664
685.175 .0311404
685.917 .0311143
686.659 .0310882
687.401 .0310621
688.142 .0310361
688.884 .0310101
689.625 .0309843
690.365 .0309584
691.106 .0309325
691.846 .0309066
692.586 .0308808
693.326 .0308549
694.066 .0308292
694.805 .0308036
695.545 .0307784
696.284 .0307534
697.022 .0307289
697.761 .0307048
698.499 .0306809
699.237 .0306574
699.975 .0306340
700.713 .0306109
701.450 .0305880
702.187 .0305653
702.924 .0305429
703.661 .0305208
704.397 .0304990
705.133 .0304777
705.869 .0304568
706.605 .0304362
707.341 .0304159
708.076 .0303960
708.811 .0303763
709.546 .0303568
710.281 .0303375
711.015 .0303185
711.749 .0302997
712.483 .0302811
713.217 .0302629
713.950 .0302449
714.684 .0302273
715.417 .0302101
716.150 .0301931
716.882 .0301765
717.615 .0301601
718.347 .0301440
719.079 .0301280
719.811 .0301123
720.542 .0300967
721.273 .0300814
722.005 .0300664
722.735 .0300518
723.466 .0300378
724.196 .0300241
724.927 .0300110
725.656 .0299984
726.386 .0299861
727.116 .0299742
727.845 .0299626
728.574 .0299512
729.303 .0299400
730.031 .0299290
730.760 .0299184
731.488 .0299081
732.216 .0298982
732.944 .0298888
733.671 .0298798
734.398 .0298711
735.125 .0298628
735.852 .0298547
736.579 .0298467
737.305 .0298388
738.031 .0298307
738.757 .0298224
739.483 .0298139
740.208 .0298051
740.933 .0297960
741.658 .0297866
742.383 .0297769
743.108 .0297669
743.832 .0297567
744.556 .0297461
745.280 .0297350
746.004 .0297235
746.727 .0297112
747.450 .0296983
748.173 .0296844
748.896 .0296698
749.618 .0296542
750.340 .0296378
751.062 .0296206
751.784 .0296027
752.506 .0295841
753.227 .0295650
753.948 .0295453
754.669 .0295251
755.389 .0295045
756.110 .0294833
756.830 .0294616
757.550 .0294394
758.269 .0294168
758.989 .0293938
759.708 .0293706
760.427 .0293471
761.146 .0293236
761.864 .0293000
762.582 .0292766
763.300 .0292533
764.018 .0292302
764.736 .0292075
765.453 .0291851
766.170 .0291629
766.887 .0291411
767.603 .0291196
768.320 .0290985
769.036 .0290776
769.751 .0290572
770.467 .0290371
771.182 .0290175
771.897 .0289984
772.612 .0289798
773.327 .0289618
774.041 .0289444
774.755 .0289276
775.469 .0289113
776.183 .0288955
776.896 .0288803
777.609 .0288656
778.322 .0288515
779.035 .0288380
779.747 .0288250
780.459 .0288125
781.171 .0288006
781.882 .0287891
782.594 .0287781
783.305 .0287676
784.016 .0287574
784.726 .0287475
785.436 .0287380
786.147 .0287246
786.856 .0287155
787.566 .0287066
788.275 .0286979
788.984 .0286894
789.693 .0286810
790.401 .0286728
791.110 .0286646
791.818 .0286567
792.525 .0286489
793.233 .0286412
793.940 .0286338
794.647 .0286304
795.353 .0286235
796.060 .0286170
796.766 .0286107
797.472 .0286047
798.177 .0285989
798.883 .0285932
799.588 .0285877
800.292 .0285824
800.997 .0285773
801.701 .0285724
802.405 .0285677
803.109 .0285632
803.812 .0285590
804.515 .0285548
805.218 .0285507
805.921 .0285465
806.623 .0285423
807.325 .0285380
808.027 .0285335
808.728 .0285288
809.429 .0285241
810.130 .0285191
810.831 .0285140
811.531 .0285088
812.231 .0285034
812.931 .0284979
813.630 .0284922
814.330 .0284864
815.029 .0284805
815.727 .0284747
816.426 .0284689
817.124 .0284634
817.821 .0284582
818.519 .0284535
819.216 .0284492
819.913 .0284455
820.609 .0284423
821.306 .0284398
822.002 .0284378
822.697 .0284363
823.393 .0284355
824.088 .0284351
824.783 .0284352
825.477 .0284357
826.171 .0284366
826.865 .0284376
827.559 .0284388
828.252 .0284400
828.945 .0284411
829.638 .0284422
830.330 .0284431
831.023 .0284437
831.714 .0284441
832.406 .0284442
833.097 .0284438
833.788 .0284430
834.479 .0284416
835.169 .0284396
835.859 .0284369
836.548 .0284334
837.238 .0284292
837.927 .0284242
838.615 .0284185
839.304 .0284119
839.992 .0284045
840.680 .0283963
841.367 .0283873
842.054 .0283775
842.741 .0283669
843.428 .0283554
844.114 .0283433
844.800 .0283303
845.485 .0283167
846.170 .0283024
846.855 .0282874
847.540 .0282717
848.224 .0282554
848.908 .0282384
849.592 .0282207
850.275 .0282024
850.958 .0281835
851.641 .0281640
852.323 .0281439
853.005 .0281233
853.687 .0281021
854.368 .0280803
855.049 .0280580
855.730 .0280352
856.410 .0280119
857.090 .0279883
857.769 .0279643
858.449 .0279400
859.128 .0279156
859.806 .0278911
860.485 .0278665
861.163 .0278420
861.840 .0278175
862.518 .0277931
863.195 .0277688
863.871 .0277446
864.548 .0277205
865.224 .0276965
865.899 .0276727
866.574 .0276490
867.249 .0276255
867.924 .0276021
868.598 .0275789
869.272 .0275558
869.946 .0275328
870.619 .0275100
871.292 .0274873
871.964 .0274648
872.636 .0274424
873.308 .0274201
873.979 .0273981
874.651 .0273763
875.321 .0273546
875.992 .0273332
876.662 .0273119
877.331 .0272908
878.001 .0272698
878.670 .0272491
879.338 .0272285
880.007 .0272083
880.675 .0271884
881.342 .0271689
882.009 .0271498
882.676 .0271312
883.343 .0271132
884.009 .0270956
884.675 .0270786
885.340 .0270622
886.005 .0270463
886.670 .0270311
887.334 .0270165
887.998 .0270027
888.662 .0269896
889.325 .0269772
889.988 .0269655
890.650 .0269547
891.312 .0269446
891.974 .0269352
892.636 .0269266
893.297 .0269186
893.957 .0269114
894.618 .0269049
895.278 .0268989
895.937 .0268934
896.596 .0268884
897.255 .0268836
897.914 .0268791
898.572 .0268747
899.230 .0268703
899.887 .0268658
900.544 .0268613
901.201 .0268568
901.857 .0268489
902.513 .0268438
903.168 .0268385
903.823 .0268331
904.478 .0268275
905.132 .0268217
905.786 .0268158
906.440 .0268098
907.093 .0268036
907.746 .0267974
908.399 .0267912
909.051 .0267851
909.703 .0267791
910.354 .0267766
911.005 .0267712
911.656 .0267660
912.306 .0267610
912.956 .0267564
913.605 .0267520
914.254 .0267479
914.903 .0267439
915.551 .0267403
916.199 .0267368
916.847 .0267336
917.494 .0267305
918.141 .0267277
918.788 .0267250
919.434 .0267225
920.079 .0267200
920.725 .0267177
921.370 .0267153
922.014 .0267130
922.658 .0267106
923.302 .0267080
923.946 .0267054
924.589 .0267026
925.231 .0266997
925.873 .0266966
926.515 .0266933
927.157 .0266898
927.798 .0266860
928.439 .0266820
929.079 .0266778
929.719 .0266735
930.359 .0266689
930.998 .0266644
931.637 .0266597
932.275 .0266552
932.913 .0266507
933.551 .0266465
934.188 .0266424
934.825 .0266386
935.462 .0266352
936.098 .0266321
936.733 .0266295
937.369 .0266272
938.004 .0266255
938.638 .0266241
939.273 .0266233
939.907 .0266229
940.540 .0266230
941.173 .0266235
941.806 .0266244
942.438 .0266257
943.070 .0266274
943.702 .0266294
944.333 .0266316
944.964 .0266340
945.594 .0266363
946.224 .0266387
946.854 .0266409
947.483 .0266428
948.112 .0266445
948.741 .0266459
949.369 .0266469
949.996 .0266476
950.624 .0266479
951.251 .0266478
951.878 .0266473
952.504 .0266463
953.130 .0266448
953.755 .0266428
954.380 .0266402
955.005 .0266371
955.629 .0266335
956.253 .0266293
956.877 .0266246
957.500 .0266194
958.123 .0266137
958.746 .0266074
959.368 .0266007
959.990 .0265934
960.611 .0265856
961.232 .0265774
961.853 .0265688
962.473 .0265598
963.093 .0265504
963.712 .0265408
964.331 .0265308
964.950 .0265205
965.569 .0265099
966.187 .0264989
966.804 .0264875
967.422 .0264757
968.039 .0264635
968.655 .0264508
969.272 .0264377
969.887 .0264242
970.503 .0264102
971.118 .0263958
971.733 .0263810
972.347 .0263658
972.961 .0263501
973.575 .0263339
974.188 .0263173
974.801 .0263003
975.414 .0262828
976.026 .0262648
976.638 .0262465
977.250 .0262277
977.861 .0262086
978.472 .0261889
979.083 .0261688
979.693 .0261483
980.303 .0261272
980.912 .0260943
981.521 .0260723
982.130 .0260500
982.738 .0260275
983.346 .0260048
983.954 .0259819
984.562 .0259590
985.169 .0259359
985.775 .0259130
986.382 .0258901
986.988 .0258674
987.594 .0258450
988.199 .0258230
988.804 .0258015
989.409 .0257917
990.013 .0257710
990.617 .0257507
991.221 .0257309
991.824 .0257114
992.427 .0256922
993.030 .0256733
993.632 .0256547
994.234 .0256364
994.836 .0256183
995.438 .0256005
996.039 .0255830
996.640 .0255657
997.240 .0255487
997.840 .0255319
998.440 .0255154
999.040 .0254992
999.639 .0254831
1000.238 .0254672
1000.836 .0254515
1001.435 .0254359
1002.033 .0254205
1002.630 .0254050
1003.228 .0253895
1003.825 .0253740
1004.422 .0253582
1005.018 .0253423
1005.614 .0253261
1006.210 .0253096
1006.806 .0252929
1007.401 .0252758
1007.996 .0252586
1008.591 .0252412
1009.186 .0252236
1009.780 .0252059
1010.374 .0251883
1010.967 .0251707
1011.561 .0251531
1012.154 .0251358
1012.746 .0251186
1013.339 .0251018
1013.931 .0250855
1014.523 .0250696
1015.115 .0250543
1015.706 .0250397
1016.298 .0250257
1016.888 .0250124
1017.479 .0249999
1018.069 .0249882
1018.660 .0249774
1019.250 .0249674
1019.839 .0249583
1020.429 .0249502
1021.018 .0249431
1021.607 .0249371
1022.195 .0249321
1022.784 .0249280
1023.372 .0249249
1023.960 .0249226
1024.547 .0249211
1025.135 .0249203
1025.722 .0249201
1026.309 .0249203
1026.896 .0249210
1027.483 .0249220
1028.069 .0249233
1028.655 .0249248
1029.241 .0249264
1029.827 .0249282
1030.412 .0249300
1030.997 .0249318
1031.582 .0249336
1032.167 .0249355
1032.752 .0249373
1033.336 .0249391
1033.921 .0249409
1034.505 .0249427
1035.089 .0249446
1035.672 .0249466
1036.256 .0249487
1036.839 .0249509
1037.422 .0249532
1038.005 .0249557
1038.588 .0249581
1039.171 .0249605
1039.753 .0249629
1040.335 .0249653
1040.918 .0249676
1041.500 .0249701
1042.081 .0249727
1042.663 .0249757
1043.244 .0249790
1043.826 .0249828
1044.407 .0249870
1044.988 .0249918
1045.569 .0249970
1046.150 .0250027
1046.730 .0250090
1047.311 .0250158
1047.891 .0250230
1048.471 .0250309
1049.052 .0250394
1049.632 .0250484
1050.211 .0250581
1050.791 .0250683
1051.371 .0250790
1051.950 .0250902
1052.530 .0251019
1053.109 .0251139
1053.688 .0251262
1054.268 .0251389
1054.847 .0251518
1055.426 .0251651
1056.005 .0251787
1056.583 .0251927
1057.162 .0252071
1057.741 .0252218
1058.319 .0252369
1058.898 .0252524
1059.476 .0252682
1060.055 .0252842
1060.633 .0253004
1061.211 .0253169
1061.790 .0253336
1062.368 .0253506
1062.946 .0253679
1063.524 .0253854
1064.102 .0254033
1064.680 .0254215
1065.258 .0254401
1065.836 .0254589
1066.414 .0254779
1066.992 .0254971
1067.570 .0255163
1068.148 .0255356
1068.726 .0255548
1069.304 .0255739
1069.882 .0255929
1070.460 .0256118
1071.038 .0256306
1071.616 .0256494
1072.194 .0256680
1072.772 .0256865
1073.350 .0257048
1073.928 .0257228
1074.506 .0257405
1075.084 .0257578
1075.662 .0257748
1076.240 .0257916
1076.819 .0258083
1077.397 .0258250
1077.976 .0258419
1078.554 .0258591
1079.133 .0258767
1079.711 .0258947
1080.290 .0259130
1080.869 .0259316
1081.448 .0259503
1082.027 .0259690
1082.606 .0259876
1083.185 .0260063
1083.764 .0260252
1084.343 .0260443
1084.923 .0260638
1085.502 .0260838
1086.082 .0261046
1086.662 .0261259
1087.242 .0261479
1087.822 .0261705
1088.402 .0261936
1088.983 .0262170
1089.563 .0262408
1090.144 .0262650
1090.725 .0262897
1091.306 .0263150
1091.887 .0263409
1092.469 .0263675
1093.050 .0263945
1093.632 .0264221
1094.214 .0264499
1094.796 .0264779
1095.379 .0265056
1095.961 .0265330
1096.544 .0265601
1097.127 .0265867
1097.710 .0266132
1098.294 .0266397
1098.877 .0266664
1099.461 .0266936
1100.046 .0267214
1100.630 .0267497
1101.215 .0267786
1101.800 .0268081
1102.385 .0268378
1102.970 .0268677
1103.556 .0268979
1104.142 .0269282
1104.728 .0269590
1105.315 .0269903
1105.902 .0270223
1106.489 .0270550
1107.077 .0270883
1107.664 .0271223
1108.253 .0271565
1108.841 .0271907
1109.430 .0272248
1110.019 .0272585
1110.609 .0272920
1111.198 .0273252
1111.789 .0273584
1112.379 .0273919
1112.970 .0274259
1113.561 .0274603
1114.153 .0274952
1114.745 .0275306
1115.338 .0275664
1115.931 .0276024
1116.524 .0276388
1117.117 .0276757
1117.712 .0277132
1118.306 .0277518
1118.901 .0277917
1119.496 .0278330
1120.092 .0278760
1120.689 .0279203
1121.285 .0279657
1121.882 .0280121
1122.480 .0280590
1123.078 .0281066
1123.677 .0281549
1124.276 .0282041
1124.875 .0282544
1125.476 .0283064
1126.076 .0283604
1126.677 .0284168
1127.279 .0284758
1127.881 .0285372
1128.484 .0286011
1129.087 .0286286
1129.691 .0286959
1130.295 .0287653
1130.900 .0288370
1131.505 .0289113
1132.111 .0289883
1132.718 .0290683
1133.325 .0291515
1133.933 .0292367
1134.541 .0293282
1135.150 .0294202
1135.760 .0295102
1136.370 .0296095
1136.981 .0296600
1137.592 .0297464
1138.204 .0298361
1138.817 .0299319
1139.431 .0300374
1140.045 .0301470
1140.660 .0302652
1141.275 .0303942
1141.891 .0304987
1142.508 .0307253
1143.126 .0308022
1143.744 .0308207
1144.363 .0311637
1144.983 .0304404
