Measurement Sequence started on: 15-12-46-377
Integration time: 28
Scans to Average: 2 
>>>>>Begin Spectral Data<<<<<
432.689 .0000100
433.621 .0000100
434.552 .0000100
435.482 .0000100
436.410 .0000100
437.337 .0000100
438.262 .0275000
439.187 .0584060
440.110 .0969218
441.031 .1404140
441.952 .1132953
442.871 .1184055
443.789 .1231735
444.705 .1276707
445.621 .1319442
446.535 .1360300
447.447 .1385084
448.359 .1392202
449.269 .1377833
450.178 .1339515
451.086 .1277989
451.993 .1198040
452.898 .1107622
453.803 .1015771
454.706 .0930217
455.608 .0855771
456.508 .0794073
457.408 .0752217
458.306 .0720027
459.204 .0693810
460.100 .0671699
460.995 .0652665
461.888 .0636028
462.781 .0621345
463.673 .0608288
464.563 .0596610
465.452 .0586126
466.340 .0576664
467.228 .0568080
468.114 .0560262
468.999 .0553124
469.882 .0546582
470.765 .0540581
471.647 .0535076
472.528 .0530036
473.407 .0525425
474.286 .0521222
475.163 .0517402
476.040 .0513941
476.915 .0510810
477.790 .0507975
478.663 .0505402
479.535 .0503071
480.407 .0500957
481.277 .0499044
482.147 .0497322
483.015 .0495791
483.883 .0494448
484.749 .0493299
485.615 .0492340
486.479 .0491572
487.343 .0490995
488.206 .0490609
489.067 .0490409
489.928 .0490401
490.788 .0490589
491.647 .0490979
492.505 .0491585
493.362 .0492423
494.218 .0493508
495.073 .0494857
495.928 .0497882
496.781 .0499950
497.634 .0502312
498.486 .0504969
499.337 .0507933
500.187 .0511213
501.036 .0514815
501.884 .0518759
502.731 .0523074
503.578 .0527789
504.424 .0530997
505.268 .0536446
506.113 .0542418
506.956 .0548952
507.798 .0556112
508.640 .0563971
509.480 .0572613
510.320 .0582142
511.160 .0592666
511.998 .0604313
512.836 .0617255
513.672 .0631664
514.508 .0647763
515.344 .0665810
516.178 .0686080
517.012 .0708849
517.845 .0734403
518.677 .0763004
519.508 .0794855
520.339 .0830045
521.169 .0868598
521.998 .0910221
522.826 .0954507
523.654 .1000868
524.481 .1048558
525.307 .1096749
526.133 .1144517
526.958 .1190869
527.782 .1234864
528.605 .1275632
529.428 .1312403
530.250 .1344460
531.072 .1371333
531.892 .1392586
532.712 .1407879
533.532 .1417018
534.350 .1419889
535.168 .1416461
535.986 .1406792
536.802 .1390945
537.618 .1369071
538.434 .1341380
539.249 .1308347
540.063 .1270542
540.876 .1228657
541.689 .1183527
542.501 .1136018
543.313 .1087054
544.124 .1037616
544.934 .0988602
545.744 .0940839
546.553 .0895040
547.361 .0851812
548.169 .0811511
548.976 .0774403
549.783 .0740609
550.589 .0710080
551.395 .0682663
552.200 .0658107
553.004 .0636095
553.808 .0616339
554.611 .0598571
555.414 .0582532
556.216 .0567994
557.018 .0554755
557.819 .0542657
558.619 .0531560
559.419 .0521358
560.218 .0511971
561.017 .0503318
561.815 .0495327
562.613 .0487924
563.410 .0481023
564.207 .0474550
565.003 .0468436
565.799 .0462610
566.594 .0457021
567.388 .0451628
568.182 .0446404
568.976 .0441327
569.769 .0436391
570.562 .0431594
571.354 .0426937
572.145 .0422420
572.936 .0418043
573.727 .0413798
574.517 .0409683
575.307 .0405695
576.096 .0401831
576.885 .0398094
577.673 .0394481
578.461 .0390994
579.248 .0387634
580.035 .0384408
580.821 .0381317
581.607 .0378366
582.392 .0375562
583.177 .0372907
583.962 .0370400
584.746 .0368043
585.529 .0365834
586.313 .0363764
587.095 .0361828
587.878 .0360014
588.660 .0358315
589.441 .0356725
590.222 .0355239
591.003 .0353854
591.783 .0352567
592.563 .0351375
593.342 .0350271
594.121 .0349249
594.899 .0348302
595.678 .0347421
596.455 .0346597
597.233 .0345823
598.009 .0345094
598.786 .0344404
599.562 .0343751
600.338 .0343133
601.113 .0342548
601.888 .0341772
602.663 .0341259
603.437 .0340773
604.211 .0340312
604.984 .0339876
605.757 .0339460
606.530 .0339063
607.302 .0338683
608.074 .0338318
608.845 .0337967
609.616 .0337630
610.387 .0337492
611.158 .0337173
611.928 .0336867
612.697 .0336572
613.467 .0336288
614.236 .0336016
615.004 .0335753
615.773 .0335499
616.541 .0335253
617.308 .0335013
618.076 .0334777
618.843 .0334544
619.609 .0334312
620.375 .0334081
621.141 .0333850
621.907 .0333619
622.672 .0333388
623.437 .0333157
624.202 .0332926
624.966 .0332694
625.730 .0332460
626.493 .0332224
627.257 .0331985
628.020 .0331740
628.782 .0331492
629.545 .0331238
630.307 .0330979
631.068 .0330715
631.830 .0330448
632.591 .0330179
633.352 .0329907
634.112 .0329633
634.872 .0329358
635.632 .0329083
636.392 .0328805
637.151 .0328527
637.910 .0328247
638.668 .0327966
639.427 .0327683
640.185 .0327399
640.943 .0327115
641.700 .0326830
642.457 .0326544
643.214 .0326258
643.971 .0325972
644.727 .0325685
645.483 .0325398
646.239 .0325111
646.994 .0324823
647.750 .0324535
648.505 .0324246
649.259 .0323955
650.014 .0323663
650.768 .0323369
651.521 .0323074
652.275 .0322776
653.028 .0322476
653.781 .0322176
654.534 .0321874
655.286 .0321572
656.039 .0321270
656.791 .0320968
657.542 .0320665
658.294 .0320361
659.045 .0320056
659.796 .0319749
660.546 .0319442
661.297 .0319135
662.047 .0318827
662.796 .0318521
663.546 .0318217
664.295 .0317915
665.044 .0317617
665.793 .0317323
666.542 .0317034
667.290 .0316750
668.038 .0316473
668.786 .0316202
669.533 .0315938
670.281 .0315683
671.028 .0315434
671.774 .0315193
672.521 .0314958
673.267 .0314729
674.013 .0314505
674.759 .0314286
675.505 .0314073
676.250 .0313865
676.995 .0313662
677.740 .0313463
678.484 .0313269
679.229 .0313079
679.973 .0312892
680.717 .0312708
681.460 .0312526
682.204 .0312344
682.947 .0312164
683.690 .0311983
684.433 .0311803
685.175 .0311625
685.917 .0311447
686.659 .0311270
687.401 .0311094
688.142 .0310918
688.884 .0310744
689.625 .0310570
690.365 .0310396
691.106 .0310223
691.846 .0310050
692.586 .0309877
693.326 .0309705
694.066 .0309532
694.805 .0309360
695.545 .0309189
696.284 .0309019
697.022 .0308849
697.761 .0308680
698.499 .0308513
699.237 .0308348
699.975 .0308184
700.713 .0308022
701.450 .0307860
702.187 .0307699
702.924 .0307538
703.661 .0307376
704.397 .0307215
705.133 .0307052
705.869 .0306890
706.605 .0306727
707.341 .0306566
708.076 .0306405
708.811 .0306246
709.546 .0306090
710.281 .0305935
711.015 .0305782
711.749 .0305631
712.483 .0305481
713.217 .0305332
713.950 .0305183
714.684 .0305034
715.417 .0304884
716.150 .0304732
716.882 .0304578
717.615 .0304422
718.347 .0304262
719.079 .0304099
719.811 .0303932
720.542 .0303760
721.273 .0303583
722.005 .0303402
722.735 .0303216
723.466 .0303027
724.196 .0302833
724.927 .0302637
725.656 .0302439
726.386 .0302241
727.116 .0302041
727.845 .0301843
728.574 .0301645
729.303 .0301449
730.031 .0301255
730.760 .0301064
731.488 .0300877
732.216 .0300693
732.944 .0300514
733.671 .0300340
734.398 .0300170
735.125 .0300005
735.852 .0299845
736.579 .0299688
737.305 .0299536
738.031 .0299386
738.757 .0299239
739.483 .0299093
740.208 .0298949
740.933 .0298806
741.658 .0298663
742.383 .0298520
743.108 .0298375
743.832 .0298229
744.556 .0298082
745.280 .0297933
746.004 .0297783
746.727 .0297631
747.450 .0297476
748.173 .0297320
748.896 .0297161
749.618 .0297000
750.340 .0296836
751.062 .0296671
751.784 .0296505
752.506 .0296338
753.227 .0296171
753.948 .0296005
754.669 .0295841
755.389 .0295679
756.110 .0295519
756.830 .0295362
757.550 .0295208
758.269 .0295055
758.989 .0294905
759.708 .0294755
760.427 .0294607
761.146 .0294460
761.864 .0294313
762.582 .0294166
763.300 .0294021
764.018 .0293877
764.736 .0293735
765.453 .0293594
766.170 .0293454
766.887 .0293316
767.603 .0293178
768.320 .0293042
769.036 .0292907
769.751 .0292774
770.467 .0292644
771.182 .0292517
771.897 .0292394
772.612 .0292277
773.327 .0292164
774.041 .0292058
774.755 .0291957
775.469 .0291861
776.183 .0291771
776.896 .0291687
777.609 .0291607
778.322 .0291533
779.035 .0291464
779.747 .0291399
780.459 .0291339
781.171 .0291282
781.882 .0291228
782.594 .0291177
783.305 .0291127
784.016 .0291079
784.726 .0291030
785.436 .0290979
786.147 .0290892
786.856 .0290833
787.566 .0290771
788.275 .0290706
788.984 .0290638
789.693 .0290565
790.401 .0290487
791.110 .0290406
791.818 .0290320
792.525 .0290231
793.233 .0290137
793.940 .0290040
794.647 .0289983
795.353 .0289884
796.060 .0289782
796.766 .0289679
797.472 .0289573
798.177 .0289466
798.883 .0289358
799.588 .0289248
800.292 .0289137
800.997 .0289026
801.701 .0288915
802.405 .0288804
803.109 .0288694
803.812 .0288583
804.515 .0288472
805.218 .0288359
805.921 .0288244
806.623 .0288127
807.325 .0288007
808.027 .0287883
808.728 .0287757
809.429 .0287628
810.130 .0287496
810.831 .0287363
811.531 .0287228
812.231 .0287093
812.931 .0286956
813.630 .0286818
814.330 .0286680
815.029 .0286542
815.727 .0286406
816.426 .0286270
817.124 .0286137
817.821 .0286005
818.519 .0285876
819.216 .0285749
819.913 .0285625
820.609 .0285503
821.306 .0285383
822.002 .0285267
822.697 .0285153
823.393 .0285042
824.088 .0284935
824.783 .0284831
825.477 .0284729
826.171 .0284630
826.865 .0284531
827.559 .0284434
828.252 .0284338
828.945 .0284243
829.638 .0284148
830.330 .0284054
831.023 .0283960
831.714 .0283868
832.406 .0283776
833.097 .0283685
833.788 .0283594
834.479 .0283503
835.169 .0283413
835.859 .0283323
836.548 .0283234
837.238 .0283146
837.927 .0283060
838.615 .0282977
839.304 .0282894
839.992 .0282814
840.680 .0282735
841.367 .0282657
842.054 .0282580
842.741 .0282504
843.428 .0282429
844.114 .0282355
844.800 .0282281
845.485 .0282208
846.170 .0282135
846.855 .0282061
847.540 .0281985
848.224 .0281906
848.908 .0281825
849.592 .0281740
850.275 .0281652
850.958 .0281560
851.641 .0281464
852.323 .0281365
853.005 .0281264
853.687 .0281159
854.368 .0281051
855.049 .0280941
855.730 .0280829
856.410 .0280714
857.090 .0280598
857.769 .0280480
858.449 .0280361
859.128 .0280242
859.806 .0280121
860.485 .0280000
861.163 .0279879
861.840 .0279758
862.518 .0279638
863.195 .0279518
863.871 .0279400
864.548 .0279282
865.224 .0279166
865.899 .0279051
866.574 .0278938
867.249 .0278825
867.924 .0278712
868.598 .0278600
869.272 .0278490
869.946 .0278379
870.619 .0278270
871.292 .0278161
871.964 .0278053
872.636 .0277946
873.308 .0277839
873.979 .0277731
874.651 .0277624
875.321 .0277517
875.992 .0277410
876.662 .0277303
877.331 .0277197
878.001 .0277093
878.670 .0276989
879.338 .0276887
880.007 .0276787
880.675 .0276689
881.342 .0276594
882.009 .0276500
882.676 .0276408
883.343 .0276318
884.009 .0276231
884.675 .0276147
885.340 .0276065
886.005 .0275986
886.670 .0275910
887.334 .0275836
887.998 .0275765
888.662 .0275696
889.325 .0275629
889.988 .0275564
890.650 .0275502
891.312 .0275443
891.974 .0275386
892.636 .0275332
893.297 .0275282
893.957 .0275234
894.618 .0275188
895.278 .0275143
895.937 .0275098
896.596 .0275052
897.255 .0275004
897.914 .0274954
898.572 .0274900
899.230 .0274842
899.887 .0274780
900.544 .0274714
901.201 .0274644
901.857 .0274511
902.513 .0274424
903.168 .0274330
903.823 .0274228
904.478 .0274118
905.132 .0274000
905.786 .0273873
906.440 .0273740
907.093 .0273599
907.746 .0273453
908.399 .0273302
909.051 .0273146
909.703 .0272987
910.354 .0272895
911.005 .0272733
911.656 .0272568
912.306 .0272400
912.956 .0272229
913.605 .0272055
914.254 .0271878
914.903 .0271700
915.551 .0271520
916.199 .0271340
916.847 .0271158
917.494 .0270976
918.141 .0270792
918.788 .0270607
919.434 .0270421
920.079 .0270233
920.725 .0270044
921.370 .0269853
922.014 .0269660
922.658 .0269467
923.302 .0269272
923.946 .0269077
924.589 .0268882
925.231 .0268685
925.873 .0268487
926.515 .0268287
927.157 .0268086
927.798 .0267882
928.439 .0267677
929.079 .0267469
929.719 .0267261
930.359 .0267053
930.998 .0266846
931.637 .0266639
932.275 .0266435
932.913 .0266233
933.551 .0266034
934.188 .0265838
934.825 .0265646
935.462 .0265458
936.098 .0265275
936.733 .0265098
937.369 .0264927
938.004 .0264764
938.638 .0264607
939.273 .0264458
939.907 .0264317
940.540 .0264182
941.173 .0264054
941.806 .0263933
942.438 .0263816
943.070 .0263706
943.702 .0263599
944.333 .0263497
944.964 .0263399
945.594 .0263303
946.224 .0263210
946.854 .0263119
947.483 .0263029
948.112 .0262940
948.741 .0262850
949.369 .0262760
949.996 .0262669
950.624 .0262578
951.251 .0262485
951.878 .0262390
952.504 .0262295
953.130 .0262198
953.755 .0262100
954.380 .0262002
955.005 .0261903
955.629 .0261804
956.253 .0261705
956.877 .0261606
957.500 .0261506
958.123 .0261408
958.746 .0261310
959.368 .0261214
959.990 .0261120
960.611 .0261029
961.232 .0260942
961.853 .0260859
962.473 .0260780
963.093 .0260706
963.712 .0260637
964.331 .0260572
964.950 .0260513
965.569 .0260457
966.187 .0260406
966.804 .0260359
967.422 .0260315
968.039 .0260273
968.655 .0260234
969.272 .0260196
969.887 .0260160
970.503 .0260124
971.118 .0260088
971.733 .0260052
972.347 .0260015
972.961 .0259977
973.575 .0259936
974.188 .0259893
974.801 .0259845
975.414 .0259792
976.026 .0259735
976.638 .0259672
977.250 .0259603
977.861 .0259528
978.472 .0259448
979.083 .0259362
979.693 .0259271
980.303 .0259175
980.912 .0259013
981.521 .0258908
982.130 .0258801
982.738 .0258692
983.346 .0258582
983.954 .0258473
984.562 .0258366
985.169 .0258263
985.775 .0258165
986.382 .0258072
986.988 .0257985
987.594 .0257904
988.199 .0257830
988.804 .0257763
989.409 .0257758
990.013 .0257704
990.617 .0257658
991.221 .0257620
991.824 .0257591
992.427 .0257570
993.030 .0257558
993.632 .0257553
994.234 .0257555
994.836 .0257563
995.438 .0257578
996.039 .0257598
996.640 .0257624
997.240 .0257655
997.840 .0257692
998.440 .0257735
999.040 .0257784
999.639 .0257837
1000.238 .0257895
1000.836 .0257957
1001.435 .0258021
1002.033 .0258086
1002.630 .0258151
1003.228 .0258217
1003.825 .0258281
1004.422 .0258344
1005.018 .0258405
1005.614 .0258465
1006.210 .0258523
1006.806 .0258578
1007.401 .0258629
1007.996 .0258677
1008.591 .0258720
1009.186 .0258760
1009.780 .0258796
1010.374 .0258830
1010.967 .0258863
1011.561 .0258895
1012.154 .0258928
1012.746 .0258962
1013.339 .0258997
1013.931 .0259032
1014.523 .0259068
1015.115 .0259103
1015.706 .0259137
1016.298 .0259172
1016.888 .0259206
1017.479 .0259241
1018.069 .0259279
1018.660 .0259319
1019.250 .0259362
1019.839 .0259410
1020.429 .0259461
1021.018 .0259515
1021.607 .0259572
1022.195 .0259633
1022.784 .0259695
1023.372 .0259761
1023.960 .0259829
1024.547 .0259901
1025.135 .0259976
1025.722 .0260055
1026.309 .0260137
1026.896 .0260223
1027.483 .0260311
1028.069 .0260399
1028.655 .0260487
1029.241 .0260574
1029.827 .0260658
1030.412 .0260739
1030.997 .0260818
1031.582 .0260894
1032.167 .0260968
1032.752 .0261040
1033.336 .0261111
1033.921 .0261181
1034.505 .0261249
1035.089 .0261313
1035.672 .0261373
1036.256 .0261427
1036.839 .0261476
1037.422 .0261518
1038.005 .0261554
1038.588 .0261585
1039.171 .0261611
1039.753 .0261633
1040.335 .0261649
1040.918 .0261661
1041.500 .0261668
1042.081 .0261669
1042.663 .0261665
1043.244 .0261655
1043.826 .0261640
1044.407 .0261620
1044.988 .0261596
1045.569 .0261570
1046.150 .0261543
1046.730 .0261515
1047.311 .0261487
1047.891 .0261458
1048.471 .0261430
1049.052 .0261402
1049.632 .0261375
1050.211 .0261348
1050.791 .0261322
1051.371 .0261297
1051.950 .0261274
1052.530 .0261253
1053.109 .0261235
1053.688 .0261218
1054.268 .0261203
1054.847 .0261190
1055.426 .0261179
1056.005 .0261169
1056.583 .0261161
1057.162 .0261154
1057.741 .0261148
1058.319 .0261145
1058.898 .0261142
1059.476 .0261142
1060.055 .0261144
1060.633 .0261147
1061.211 .0261151
1061.790 .0261156
1062.368 .0261162
1062.946 .0261167
1063.524 .0261172
1064.102 .0261176
1064.680 .0261180
1065.258 .0261183
1065.836 .0261185
1066.414 .0261186
1066.992 .0261187
1067.570 .0261184
1068.148 .0261179
1068.726 .0261170
1069.304 .0261156
1069.882 .0261137
1070.460 .0261114
1071.038 .0261085
1071.616 .0261053
1072.194 .0261017
1072.772 .0260979
1073.350 .0260938
1073.928 .0260896
1074.506 .0260852
1075.084 .0260804
1075.662 .0260753
1076.240 .0260698
1076.819 .0260640
1077.397 .0260579
1077.976 .0260518
1078.554 .0260457
1079.133 .0260400
1079.711 .0260348
1080.290 .0260303
1080.869 .0260264
1081.448 .0260231
1082.027 .0260202
1082.606 .0260175
1083.185 .0260150
1083.764 .0260126
1084.343 .0260104
1084.923 .0260088
1085.502 .0260078
1086.082 .0260077
1086.662 .0260086
1087.242 .0260105
1087.822 .0260133
1088.402 .0260167
1088.983 .0260203
1089.563 .0260237
1090.144 .0260269
1090.725 .0260296
1091.306 .0260320
1091.887 .0260344
1092.469 .0260369
1093.050 .0260399
1093.632 .0260434
1094.214 .0260473
1094.796 .0260515
1095.379 .0260558
1095.961 .0260599
1096.544 .0260636
1097.127 .0260671
1097.710 .0260704
1098.294 .0260738
1098.877 .0260777
1099.461 .0260824
1100.046 .0260882
1100.630 .0260952
1101.215 .0261033
1101.800 .0261123
1102.385 .0261221
1102.970 .0261325
1103.556 .0261434
1104.142 .0261552
1104.728 .0261679
1105.315 .0261821
1105.902 .0261980
1106.489 .0262161
1107.077 .0262364
1107.664 .0262589
1108.253 .0262835
1108.841 .0263098
1109.430 .0263375
1110.019 .0263664
1110.609 .0263963
1111.198 .0264273
1111.789 .0264594
1112.379 .0264930
1112.970 .0265281
1113.561 .0265649
1114.153 .0266031
1114.745 .0266428
1115.338 .0266835
1115.931 .0267251
1116.524 .0267672
1117.117 .0268097
1117.712 .0268526
1118.306 .0268963
1118.901 .0269410
1119.496 .0269871
1120.092 .0270352
1120.689 .0270853
1121.285 .0271376
1121.882 .0271921
1122.480 .0272485
1123.078 .0273067
1123.677 .0273667
1124.276 .0274284
1124.875 .0274920
1125.476 .0275578
1126.076 .0276259
1126.677 .0276968
1127.279 .0277706
1127.881 .0278475
1128.484 .0279274
1129.087 .0279605
1129.691 .0280446
1130.295 .0281313
1130.900 .0282202
1131.505 .0283110
1132.111 .0284038
1132.718 .0284984
1133.325 .0285953
1133.933 .0286950
1134.541 .0287933
1135.150 .0288955
1135.760 .0289988
1136.370 .0291165
1136.981 .0292798
1137.592 .0293992
1138.204 .0295153
1138.817 .0296269
1139.431 .0297337
1140.045 .0298361
1140.660 .0299333
1141.275 .0300433
1141.891 .0301699
1142.508 .0301739
1143.126 .0303311
1143.744 .0304214
1144.363 .0308901
1144.983 .0312985
