Measurement Sequence started on: 15-12-46-377
Integration time: 28
Scans to Average: 2 
>>>>>Begin Spectral Data<<<<<
432.689 .0000100
433.621 .0000100
434.552 .0000100
435.482 .0000100
436.410 .0000100
437.337 .0000100
438.262 .0263970
439.187 .0559087
440.110 .0926542
441.031 .1340914
441.952 .1077543
442.871 .1125592
443.789 .1170318
444.705 .1212407
445.621 .1252352
446.535 .1290516
447.447 .1313268
448.359 .1319180
449.269 .1304632
450.178 .1267298
451.086 .1207912
451.993 .1131063
452.898 .1044372
453.803 .0956483
454.706 .0874742
455.608 .0803717
456.508 .0744963
457.408 .0705280
458.306 .0674856
459.204 .0650190
460.100 .0629501
460.995 .0611806
461.888 .0596441
462.781 .0582940
463.673 .0570956
464.563 .0560253
465.452 .0550629
466.340 .0541917
467.228 .0533988
468.114 .0526738
468.999 .0520080
469.882 .0513936
470.765 .0508246
471.647 .0502968
472.528 .0498072
473.407 .0493535
474.286 .0489341
475.163 .0485486
476.040 .0481951
476.915 .0478726
477.790 .0475795
478.663 .0473146
479.535 .0470763
480.407 .0468639
481.277 .0466762
482.147 .0465126
483.015 .0463723
483.883 .0462548
484.749 .0461595
485.615 .0460863
486.479 .0460343
487.343 .0460031
488.206 .0459924
489.067 .0460015
489.928 .0460301
490.788 .0460782
491.647 .0461454
492.505 .0462323
493.362 .0463388
494.218 .0464654
495.073 .0466125
495.928 .0469072
496.781 .0471078
497.634 .0473304
498.486 .0475754
499.337 .0478442
500.187 .0481383
501.036 .0484606
501.884 .0488135
502.731 .0492010
503.578 .0496266
504.424 .0499222
505.268 .0504221
506.113 .0509724
506.956 .0515776
507.798 .0522427
508.640 .0529739
509.480 .0537790
510.320 .0546682
511.160 .0556525
511.998 .0567451
512.836 .0579626
513.672 .0593207
514.508 .0608388
515.344 .0625369
516.178 .0644356
517.012 .0665564
517.845 .0689220
518.677 .0715513
519.508 .0744625
520.339 .0776677
521.169 .0811734
521.998 .0849616
522.826 .0890043
523.654 .0932532
524.481 .0976453
525.307 .1021040
526.133 .1065421
526.958 .1108637
527.782 .1149795
528.605 .1188005
529.428 .1222513
530.250 .1252634
531.072 .1277930
531.892 .1298011
532.712 .1312618
533.532 .1321599
534.350 .1324887
535.168 .1322462
535.986 .1314376
536.802 .1300651
537.618 .1281381
538.434 .1256677
539.249 .1226891
540.063 .1192458
540.876 .1153983
541.689 .1112204
542.501 .1067965
543.313 .1022182
544.124 .0975835
544.934 .0929804
545.744 .0884926
546.553 .0841891
547.361 .0801270
548.169 .0763387
548.976 .0728482
549.783 .0696647
550.589 .0667846
551.395 .0641933
552.200 .0618704
553.004 .0597892
553.808 .0579262
554.611 .0562561
555.414 .0547567
556.216 .0534054
557.018 .0521824
557.819 .0510710
558.619 .0500559
559.419 .0491248
560.218 .0482674
561.017 .0474734
561.815 .0467338
562.613 .0460417
563.410 .0453889
564.207 .0447693
565.003 .0441780
565.799 .0436102
566.594 .0430622
567.388 .0425317
568.182 .0420174
568.976 .0415179
569.769 .0410334
570.562 .0405637
571.354 .0401085
572.145 .0396685
572.936 .0392438
573.727 .0388340
574.517 .0384391
575.307 .0380587
576.096 .0376921
576.885 .0373394
577.673 .0370005
578.461 .0366756
579.248 .0363651
580.035 .0360699
580.821 .0357897
581.607 .0355247
582.392 .0352748
583.177 .0350394
583.962 .0348181
584.746 .0346103
585.529 .0344155
586.313 .0342331
587.095 .0340632
587.878 .0339054
588.660 .0337594
589.441 .0336251
590.222 .0335017
591.003 .0333885
591.783 .0332848
592.563 .0331897
593.342 .0331023
594.121 .0330217
594.899 .0329473
595.678 .0328783
596.455 .0328142
597.233 .0327544
598.009 .0326982
598.786 .0326454
599.562 .0325951
600.338 .0325469
601.113 .0325003
601.888 .0324327
602.663 .0323883
603.437 .0323446
604.211 .0323014
604.984 .0322588
605.757 .0322167
606.530 .0321753
607.302 .0321347
608.074 .0320951
608.845 .0320565
609.616 .0320192
610.387 .0320035
611.158 .0319685
611.928 .0319349
612.697 .0319026
613.467 .0318718
614.236 .0318424
615.004 .0318144
615.773 .0317879
616.541 .0317628
617.308 .0317391
618.076 .0317167
618.843 .0316954
619.609 .0316749
620.375 .0316552
621.141 .0316358
621.907 .0316167
622.672 .0315977
623.437 .0315786
624.202 .0315592
624.966 .0315393
625.730 .0315187
626.493 .0314974
627.257 .0314749
628.020 .0314514
628.782 .0314266
629.545 .0314007
630.307 .0313735
631.068 .0313453
631.830 .0313160
632.591 .0312858
633.352 .0312548
634.112 .0312230
634.872 .0311906
635.632 .0311575
636.392 .0311241
637.151 .0310903
637.910 .0310564
638.668 .0310226
639.427 .0309890
640.185 .0309559
640.943 .0309234
641.700 .0308918
642.457 .0308611
643.214 .0308316
643.971 .0308033
644.727 .0307762
645.483 .0307504
646.239 .0307257
646.994 .0307022
647.750 .0306796
648.505 .0306579
649.259 .0306371
650.014 .0306169
650.768 .0305975
651.521 .0305785
652.275 .0305602
653.028 .0305422
653.781 .0305246
654.534 .0305072
655.286 .0304899
656.039 .0304725
656.791 .0304550
657.542 .0304374
658.294 .0304196
659.045 .0304015
659.796 .0303833
660.546 .0303649
661.297 .0303463
662.047 .0303274
662.796 .0303084
663.546 .0302893
664.295 .0302702
665.044 .0302511
665.793 .0302322
666.542 .0302136
667.290 .0301953
668.038 .0301774
668.786 .0301601
669.533 .0301431
670.281 .0301267
671.028 .0301108
671.774 .0300955
672.521 .0300808
673.267 .0300667
674.013 .0300532
674.759 .0300404
675.505 .0300279
676.250 .0300159
676.995 .0300041
677.740 .0299924
678.484 .0299807
679.229 .0299690
679.973 .0299572
680.717 .0299453
681.460 .0299331
682.204 .0299207
682.947 .0299079
683.690 .0298946
684.433 .0298808
685.175 .0298664
685.917 .0298515
686.659 .0298360
687.401 .0298201
688.142 .0298037
688.884 .0297870
689.625 .0297699
690.365 .0297525
691.106 .0297348
691.846 .0297167
692.586 .0296983
693.326 .0296795
694.066 .0296604
694.805 .0296410
695.545 .0296215
696.284 .0296018
697.022 .0295820
697.761 .0295621
698.499 .0295422
699.237 .0295223
699.975 .0295023
700.713 .0294824
701.450 .0294625
702.187 .0294425
702.924 .0294225
703.661 .0294024
704.397 .0293821
705.133 .0293617
705.869 .0293411
706.605 .0293202
707.341 .0292992
708.076 .0292779
708.811 .0292566
709.546 .0292351
710.281 .0292135
711.015 .0291918
711.749 .0291701
712.483 .0291482
713.217 .0291262
713.950 .0291041
714.684 .0290819
715.417 .0290596
716.150 .0290372
716.882 .0290149
717.615 .0289927
718.347 .0289705
719.079 .0289486
719.811 .0289267
720.542 .0289051
721.273 .0288837
722.005 .0288624
722.735 .0288414
723.466 .0288206
724.196 .0288000
724.927 .0287797
725.656 .0287597
726.386 .0287399
727.116 .0287204
727.845 .0287013
728.574 .0286825
729.303 .0286641
730.031 .0286462
730.760 .0286288
731.488 .0286118
732.216 .0285954
732.944 .0285793
733.671 .0285636
734.398 .0285482
735.125 .0285333
735.852 .0285186
736.579 .0285044
737.305 .0284907
738.031 .0284773
738.757 .0284646
739.483 .0284523
740.208 .0284406
740.933 .0284293
741.658 .0284185
742.383 .0284080
743.108 .0283980
743.832 .0283882
744.556 .0283787
745.280 .0283695
746.004 .0283605
746.727 .0283517
747.450 .0283430
748.173 .0283344
748.896 .0283258
749.618 .0283173
750.340 .0283087
751.062 .0283000
751.784 .0282912
752.506 .0282823
753.227 .0282732
753.948 .0282639
754.669 .0282545
755.389 .0282449
756.110 .0282351
756.830 .0282252
757.550 .0282151
758.269 .0282049
758.989 .0281947
759.708 .0281845
760.427 .0281743
761.146 .0281642
761.864 .0281540
762.582 .0281439
763.300 .0281339
764.018 .0281241
764.736 .0281143
765.453 .0281047
766.170 .0280954
766.887 .0280863
767.603 .0280775
768.320 .0280691
769.036 .0280611
769.751 .0280535
770.467 .0280464
771.182 .0280398
771.897 .0280336
772.612 .0280279
773.327 .0280226
774.041 .0280178
774.755 .0280135
775.469 .0280095
776.183 .0280060
776.896 .0280030
777.609 .0280002
778.322 .0279979
779.035 .0279958
779.747 .0279939
780.459 .0279921
781.171 .0279903
781.882 .0279886
782.594 .0279867
783.305 .0279848
784.016 .0279827
784.726 .0279804
785.436 .0279780
786.147 .0279727
786.856 .0279692
787.566 .0279653
788.275 .0279608
788.984 .0279557
789.693 .0279500
790.401 .0279437
791.110 .0279366
791.818 .0279289
792.525 .0279206
793.233 .0279116
793.940 .0279019
794.647 .0278955
795.353 .0278849
796.060 .0278737
796.766 .0278619
797.472 .0278494
798.177 .0278362
798.883 .0278223
799.588 .0278078
800.292 .0277928
800.997 .0277771
801.701 .0277610
802.405 .0277444
803.109 .0277274
803.812 .0277101
804.515 .0276924
805.218 .0276744
805.921 .0276560
806.623 .0276372
807.325 .0276180
808.027 .0275983
808.728 .0275782
809.429 .0275576
810.130 .0275366
810.831 .0275152
811.531 .0274934
812.231 .0274715
812.931 .0274493
813.630 .0274271
814.330 .0274048
815.029 .0273826
815.727 .0273605
816.426 .0273385
817.124 .0273168
817.821 .0272952
818.519 .0272738
819.216 .0272526
819.913 .0272316
820.609 .0272109
821.306 .0271904
822.002 .0271703
822.697 .0271506
823.393 .0271314
824.088 .0271126
824.783 .0270943
825.477 .0270764
826.171 .0270589
826.865 .0270418
827.559 .0270250
828.252 .0270085
828.945 .0269923
829.638 .0269763
830.330 .0269606
831.023 .0269451
831.714 .0269299
832.406 .0269148
833.097 .0268999
833.788 .0268852
834.479 .0268707
835.169 .0268563
835.859 .0268420
836.548 .0268279
837.238 .0268138
837.927 .0267998
838.615 .0267858
839.304 .0267716
839.992 .0267574
840.680 .0267430
841.367 .0267285
842.054 .0267140
842.741 .0266995
843.428 .0266851
844.114 .0266709
844.800 .0266568
845.485 .0266428
846.170 .0266290
846.855 .0266151
847.540 .0266011
848.224 .0265871
848.908 .0265730
849.592 .0265587
850.275 .0265443
850.958 .0265299
851.641 .0265155
852.323 .0265011
853.005 .0264866
853.687 .0264721
854.368 .0264577
855.049 .0264432
855.730 .0264288
856.410 .0264144
857.090 .0264003
857.769 .0263864
858.449 .0263727
859.128 .0263594
859.806 .0263463
860.485 .0263336
861.163 .0263211
861.840 .0263089
862.518 .0262971
863.195 .0262857
863.871 .0262748
864.548 .0262645
865.224 .0262547
865.899 .0262455
866.574 .0262369
867.249 .0262289
867.924 .0262214
868.598 .0262143
869.272 .0262078
869.946 .0262018
870.619 .0261962
871.292 .0261912
871.964 .0261869
872.636 .0261831
873.308 .0261799
873.979 .0261773
874.651 .0261753
875.321 .0261739
875.992 .0261730
876.662 .0261727
877.331 .0261730
878.001 .0261738
878.670 .0261752
879.338 .0261772
880.007 .0261796
880.675 .0261826
881.342 .0261861
882.009 .0261900
882.676 .0261943
883.343 .0261992
884.009 .0262045
884.675 .0262104
885.340 .0262168
886.005 .0262237
886.670 .0262310
887.334 .0262388
887.998 .0262469
888.662 .0262552
889.325 .0262638
889.988 .0262724
890.650 .0262812
891.312 .0262900
891.974 .0262987
892.636 .0263075
893.297 .0263161
893.957 .0263247
894.618 .0263330
895.278 .0263412
895.937 .0263489
896.596 .0263562
897.255 .0263629
897.914 .0263689
898.572 .0263743
899.230 .0263788
899.887 .0263826
900.544 .0263856
901.201 .0263877
901.857 .0263873
902.513 .0263875
903.168 .0263868
903.823 .0263853
904.478 .0263830
905.132 .0263798
905.786 .0263759
906.440 .0263712
907.093 .0263658
907.746 .0263599
908.399 .0263536
909.051 .0263468
909.703 .0263397
910.354 .0263354
911.005 .0263281
911.656 .0263204
912.306 .0263124
912.956 .0263040
913.605 .0262954
914.254 .0262865
914.903 .0262774
915.551 .0262681
916.199 .0262585
916.847 .0262487
917.494 .0262385
918.141 .0262280
918.788 .0262170
919.434 .0262056
920.079 .0261936
920.725 .0261813
921.370 .0261684
922.014 .0261551
922.658 .0261414
923.302 .0261273
923.946 .0261128
924.589 .0260978
925.231 .0260824
925.873 .0260665
926.515 .0260500
927.157 .0260331
927.798 .0260156
928.439 .0259977
929.079 .0259796
929.719 .0259611
930.359 .0259426
930.998 .0259239
931.637 .0259052
932.275 .0258865
932.913 .0258678
933.551 .0258493
934.188 .0258310
934.825 .0258130
935.462 .0257954
936.098 .0257782
936.733 .0257616
937.369 .0257455
938.004 .0257299
938.638 .0257149
939.273 .0257003
939.907 .0256861
940.540 .0256723
941.173 .0256589
941.806 .0256457
942.438 .0256328
943.070 .0256201
943.702 .0256077
944.333 .0255953
944.964 .0255830
945.594 .0255706
946.224 .0255582
946.854 .0255454
947.483 .0255325
948.112 .0255193
948.741 .0255058
949.369 .0254920
949.996 .0254780
950.624 .0254637
951.251 .0254491
951.878 .0254341
952.504 .0254188
953.130 .0254031
953.755 .0253869
954.380 .0253704
955.005 .0253535
955.629 .0253364
956.253 .0253190
956.877 .0253013
957.500 .0252834
958.123 .0252653
958.746 .0252470
959.368 .0252284
959.990 .0252097
960.611 .0251907
961.232 .0251716
961.853 .0251525
962.473 .0251333
963.093 .0251142
963.712 .0250952
964.331 .0250762
964.950 .0250572
965.569 .0250382
966.187 .0250191
966.804 .0250000
967.422 .0249809
968.039 .0249617
968.655 .0249425
969.272 .0249234
969.887 .0249042
970.503 .0248851
971.118 .0248659
971.733 .0248466
972.347 .0248271
972.961 .0248074
973.575 .0247874
974.188 .0247671
974.801 .0247466
975.414 .0247258
976.026 .0247047
976.638 .0246835
977.250 .0246619
977.861 .0246402
978.472 .0246182
979.083 .0245959
979.693 .0245733
980.303 .0245504
980.912 .0245151
981.521 .0244919
982.130 .0244687
982.738 .0244455
983.346 .0244225
983.954 .0243998
984.562 .0243773
985.169 .0243550
985.775 .0243331
986.382 .0243115
986.988 .0242902
987.594 .0242693
988.199 .0242489
988.804 .0242291
989.409 .0242215
990.013 .0242028
990.617 .0241849
991.221 .0241677
991.824 .0241513
992.427 .0241358
993.030 .0241210
993.632 .0241069
994.234 .0240936
994.836 .0240809
995.438 .0240689
996.039 .0240576
996.640 .0240470
997.240 .0240372
997.840 .0240280
998.440 .0240195
999.040 .0240116
999.639 .0240043
1000.238 .0239975
1000.836 .0239911
1001.435 .0239850
1002.033 .0239792
1002.630 .0239736
1003.228 .0239684
1003.825 .0239634
1004.422 .0239587
1005.018 .0239542
1005.614 .0239500
1006.210 .0239461
1006.806 .0239425
1007.401 .0239392
1007.996 .0239363
1008.591 .0239337
1009.186 .0239316
1009.780 .0239299
1010.374 .0239287
1010.967 .0239279
1011.561 .0239277
1012.154 .0239278
1012.746 .0239284
1013.339 .0239293
1013.931 .0239307
1014.523 .0239324
1015.115 .0239345
1015.706 .0239370
1016.298 .0239401
1016.888 .0239436
1017.479 .0239477
1018.069 .0239524
1018.660 .0239577
1019.250 .0239636
1019.839 .0239701
1020.429 .0239772
1021.018 .0239849
1021.607 .0239933
1022.195 .0240024
1022.784 .0240121
1023.372 .0240226
1023.960 .0240337
1024.547 .0240455
1025.135 .0240579
1025.722 .0240706
1026.309 .0240837
1026.896 .0240969
1027.483 .0241103
1028.069 .0241236
1028.655 .0241370
1029.241 .0241504
1029.827 .0241638
1030.412 .0241772
1030.997 .0241908
1031.582 .0242045
1032.167 .0242182
1032.752 .0242319
1033.336 .0242456
1033.921 .0242593
1034.505 .0242728
1035.089 .0242862
1035.672 .0242995
1036.256 .0243126
1036.839 .0243256
1037.422 .0243385
1038.005 .0243512
1038.588 .0243637
1039.171 .0243761
1039.753 .0243883
1040.335 .0244004
1040.918 .0244124
1041.500 .0244242
1042.081 .0244360
1042.663 .0244477
1043.244 .0244595
1043.826 .0244713
1044.407 .0244833
1044.988 .0244955
1045.569 .0245079
1046.150 .0245206
1046.730 .0245335
1047.311 .0245467
1047.891 .0245599
1048.471 .0245732
1049.052 .0245865
1049.632 .0245997
1050.211 .0246128
1050.791 .0246257
1051.371 .0246385
1051.950 .0246511
1052.530 .0246636
1053.109 .0246760
1053.688 .0246882
1054.268 .0247002
1054.847 .0247121
1055.426 .0247239
1056.005 .0247357
1056.583 .0247475
1057.162 .0247593
1057.741 .0247712
1058.319 .0247831
1058.898 .0247952
1059.476 .0248075
1060.055 .0248199
1060.633 .0248325
1061.211 .0248454
1061.790 .0248584
1062.368 .0248718
1062.946 .0248855
1063.524 .0248996
1064.102 .0249139
1064.680 .0249284
1065.258 .0249432
1065.836 .0249580
1066.414 .0249730
1066.992 .0249880
1067.570 .0250032
1068.148 .0250184
1068.726 .0250338
1069.304 .0250492
1069.882 .0250648
1070.460 .0250806
1071.038 .0250963
1071.616 .0251119
1072.194 .0251273
1072.772 .0251425
1073.350 .0251573
1073.928 .0251717
1074.506 .0251857
1075.084 .0251994
1075.662 .0252127
1076.240 .0252257
1076.819 .0252384
1077.397 .0252509
1077.976 .0252632
1078.554 .0252752
1079.133 .0252869
1079.711 .0252983
1080.290 .0253094
1080.869 .0253202
1081.448 .0253308
1082.027 .0253412
1082.606 .0253515
1083.185 .0253617
1083.764 .0253719
1084.343 .0253822
1084.923 .0253926
1085.502 .0254032
1086.082 .0254141
1086.662 .0254253
1087.242 .0254369
1087.822 .0254490
1088.402 .0254617
1088.983 .0254750
1089.563 .0254888
1090.144 .0255032
1090.725 .0255181
1091.306 .0255336
1091.887 .0255496
1092.469 .0255664
1093.050 .0255839
1093.632 .0256021
1094.214 .0256212
1094.796 .0256410
1095.379 .0256616
1095.961 .0256829
1096.544 .0257049
1097.127 .0257275
1097.710 .0257506
1098.294 .0257742
1098.877 .0257984
1099.461 .0258231
1100.046 .0258485
1100.630 .0258747
1101.215 .0259016
1101.800 .0259291
1102.385 .0259572
1102.970 .0259857
1103.556 .0260145
1104.142 .0260436
1104.728 .0260729
1105.315 .0261022
1105.902 .0261319
1106.489 .0261617
1107.077 .0261921
1107.664 .0262232
1108.253 .0262551
1108.841 .0262877
1109.430 .0263209
1110.019 .0263547
1110.609 .0263889
1111.198 .0264233
1111.789 .0264579
1112.379 .0264928
1112.970 .0265279
1113.561 .0265634
1114.153 .0265994
1114.745 .0266362
1115.338 .0266739
1115.931 .0267126
1116.524 .0267521
1117.117 .0267925
1117.712 .0268337
1118.306 .0268760
1118.901 .0269193
1119.496 .0269640
1120.092 .0270101
1120.689 .0270579
1121.285 .0271075
1121.882 .0271590
1122.480 .0272123
1123.078 .0272674
1123.677 .0273241
1124.276 .0273820
1124.875 .0274410
1125.476 .0275010
1126.076 .0275616
1126.677 .0276229
1127.279 .0276848
1127.881 .0277475
1128.484 .0278109
1129.087 .0278403
1129.691 .0279055
1130.295 .0279718
1130.900 .0280395
1131.505 .0281086
1132.111 .0281795
1132.718 .0282528
1133.325 .0283293
1133.933 .0284093
1134.541 .0284885
1135.150 .0285778
1135.760 .0286688
1136.370 .0287744
1136.981 .0287837
1137.592 .0288580
1138.204 .0289344
1138.817 .0290179
1139.431 .0291067
1140.045 .0292120
1140.660 .0293297
1141.275 .0294701
1141.891 .0296239
1142.508 .0296502
1143.126 .0299892
1143.744 .0300946
1144.363 .0305645
1144.983 .0305649
