Measurement Sequence started on: 15-12-46-377
Integration time: 28
Scans to Average: 2 
>>>>>Begin Spectral Data<<<<<
432.689 .0000100
433.621 .0000100
434.552 .0000100
435.482 .0000100
436.410 .0000100
437.337 .0000100
438.262 .0259649
439.187 .0551186
440.110 .0914617
441.031 .1325677
441.952 .1074140
442.871 .1122940
443.789 .1168468
444.705 .1211416
445.621 .1252270
446.535 .1291386
447.447 .1315344
448.359 .1322648
449.269 .1309665
450.178 .1273999
451.086 .1216315
451.993 .1141088
452.898 .1055798
453.803 .0968976
454.706 .0887916
455.608 .0817208
456.508 .0758457
457.408 .0718408
458.306 .0687487
459.204 .0662231
460.100 .0640886
460.995 .0622444
461.888 .0606240
462.781 .0591819
463.673 .0578855
464.563 .0567131
465.452 .0556482
466.340 .0546780
467.228 .0537934
468.114 .0529869
468.999 .0522512
469.882 .0515798
470.765 .0509668
471.647 .0504067
472.528 .0498958
473.407 .0494304
474.286 .0490080
475.163 .0486257
476.040 .0482820
476.915 .0479749
477.790 .0477022
478.663 .0474618
479.535 .0472520
480.407 .0470714
481.277 .0469185
482.147 .0467920
483.015 .0466903
483.883 .0466113
484.749 .0465536
485.615 .0465149
486.479 .0464938
487.343 .0464887
488.206 .0464990
489.067 .0465246
489.928 .0465663
490.788 .0466249
491.647 .0467022
492.505 .0467995
493.362 .0469184
494.218 .0470591
495.073 .0472222
495.928 .0475473
496.781 .0477673
497.634 .0480099
498.486 .0482753
499.337 .0485649
500.187 .0488795
501.036 .0492206
501.884 .0495903
502.731 .0499910
503.578 .0504251
504.424 .0507108
505.268 .0512065
506.113 .0517472
506.956 .0523370
507.798 .0529816
508.640 .0536866
509.480 .0544598
510.320 .0553104
511.160 .0562494
511.998 .0572900
512.836 .0584487
513.672 .0597426
514.508 .0611929
515.344 .0628187
516.178 .0646409
517.012 .0666801
517.845 .0689556
518.677 .0714826
519.508 .0742748
520.339 .0773375
521.169 .0806713
521.998 .0842572
522.826 .0880679
523.654 .0920551
524.481 .0961606
525.307 .1003131
526.133 .1044311
526.958 .1084257
527.782 .1122109
528.605 .1157053
529.428 .1188432
530.250 .1215635
531.072 .1238266
531.892 .1256007
532.712 .1268711
533.532 .1276273
534.350 .1278649
535.168 .1275843
535.986 .1267915
536.802 .1254903
537.618 .1236899
538.434 .1214016
539.249 .1186588
540.063 .1155009
540.876 .1119846
541.689 .1081770
542.501 .1041548
543.313 .1000003
544.124 .0958016
544.934 .0916408
545.744 .0875915
546.553 .0837101
547.361 .0800447
548.169 .0766215
548.976 .0734559
549.783 .0705478
550.589 .0678903
551.395 .0654707
552.200 .0632722
553.004 .0612739
553.808 .0594572
554.611 .0578059
555.414 .0563041
556.216 .0549321
557.018 .0536730
557.819 .0525120
558.619 .0514352
559.419 .0504318
560.218 .0494949
561.017 .0486179
561.815 .0477957
562.613 .0470259
563.410 .0463042
564.207 .0456264
565.003 .0449875
565.799 .0443815
566.594 .0438023
567.388 .0432456
568.182 .0427068
568.976 .0421827
569.769 .0416724
570.562 .0411763
571.354 .0406946
572.145 .0402289
572.936 .0397805
573.727 .0393499
574.517 .0389373
575.307 .0385424
576.096 .0381632
576.885 .0377991
577.673 .0374491
578.461 .0371122
579.248 .0367880
580.035 .0364768
580.821 .0361790
581.607 .0358953
582.392 .0356268
583.177 .0353742
583.962 .0351377
584.746 .0349175
585.529 .0347130
586.313 .0345234
587.095 .0343476
587.878 .0341847
588.660 .0340341
589.441 .0338953
590.222 .0337676
591.003 .0336509
591.783 .0335447
592.563 .0334487
593.342 .0333618
594.121 .0332832
594.899 .0332120
595.678 .0331473
596.455 .0330878
597.233 .0330328
598.009 .0329813
598.786 .0329325
599.562 .0328859
600.338 .0328409
601.113 .0327970
601.888 .0327312
602.663 .0326885
603.437 .0326461
604.211 .0326040
604.984 .0325622
605.757 .0325205
606.530 .0324793
607.302 .0324385
608.074 .0323981
608.845 .0323584
609.616 .0323193
610.387 .0323026
611.158 .0322652
611.928 .0322287
612.697 .0321931
613.467 .0321585
614.236 .0321248
615.004 .0320920
615.773 .0320601
616.541 .0320291
617.308 .0319988
618.076 .0319692
618.843 .0319400
619.609 .0319112
620.375 .0318825
621.141 .0318539
621.907 .0318251
622.672 .0317960
623.437 .0317665
624.202 .0317364
624.966 .0317057
625.730 .0316742
626.493 .0316419
627.257 .0316088
628.020 .0315749
628.782 .0315402
629.545 .0315049
630.307 .0314691
631.068 .0314331
631.830 .0313970
632.591 .0313612
633.352 .0313256
634.112 .0312906
634.872 .0312563
635.632 .0312229
636.392 .0311903
637.151 .0311588
637.910 .0311284
638.668 .0310992
639.427 .0310712
640.185 .0310447
640.943 .0310195
641.700 .0309958
642.457 .0309736
643.214 .0309527
643.971 .0309332
644.727 .0309150
645.483 .0308979
646.239 .0308817
646.994 .0308665
647.750 .0308519
648.505 .0308379
649.259 .0308244
650.014 .0308112
650.768 .0307983
651.521 .0307856
652.275 .0307729
653.028 .0307602
653.781 .0307473
654.534 .0307340
655.286 .0307203
656.039 .0307059
656.791 .0306908
657.542 .0306748
658.294 .0306581
659.045 .0306405
659.796 .0306222
660.546 .0306032
661.297 .0305837
662.047 .0305637
662.796 .0305433
663.546 .0305225
664.295 .0305014
665.044 .0304801
665.793 .0304586
666.542 .0304371
667.290 .0304155
668.038 .0303940
668.786 .0303725
669.533 .0303511
670.281 .0303299
671.028 .0303087
671.774 .0302876
672.521 .0302666
673.267 .0302456
674.013 .0302246
674.759 .0302036
675.505 .0301826
676.250 .0301616
676.995 .0301404
677.740 .0301190
678.484 .0300973
679.229 .0300752
679.973 .0300527
680.717 .0300297
681.460 .0300062
682.204 .0299822
682.947 .0299577
683.690 .0299326
684.433 .0299071
685.175 .0298811
685.917 .0298546
686.659 .0298278
687.401 .0298006
688.142 .0297731
688.884 .0297454
689.625 .0297176
690.365 .0296898
691.106 .0296620
691.846 .0296344
692.586 .0296069
693.326 .0295795
694.066 .0295523
694.805 .0295253
695.545 .0294986
696.284 .0294723
697.022 .0294464
697.761 .0294211
698.499 .0293964
699.237 .0293723
699.975 .0293488
700.713 .0293259
701.450 .0293035
702.187 .0292816
702.924 .0292602
703.661 .0292391
704.397 .0292186
705.133 .0291985
705.869 .0291789
706.605 .0291599
707.341 .0291414
708.076 .0291234
708.811 .0291059
709.546 .0290888
710.281 .0290720
711.015 .0290556
711.749 .0290395
712.483 .0290238
713.217 .0290083
713.950 .0289932
714.684 .0289783
715.417 .0289635
716.150 .0289489
716.882 .0289343
717.615 .0289199
718.347 .0289056
719.079 .0288914
719.811 .0288773
720.542 .0288636
721.273 .0288500
722.005 .0288367
722.735 .0288236
723.466 .0288108
724.196 .0287981
724.927 .0287856
725.656 .0287734
726.386 .0287614
727.116 .0287498
727.845 .0287386
728.574 .0287278
729.303 .0287176
730.031 .0287079
730.760 .0286987
731.488 .0286900
732.216 .0286818
732.944 .0286741
733.671 .0286668
734.398 .0286599
735.125 .0286532
735.852 .0286467
736.579 .0286404
737.305 .0286342
738.031 .0286281
738.757 .0286221
739.483 .0286162
740.208 .0286104
740.933 .0286047
741.658 .0285991
742.383 .0285935
743.108 .0285878
743.832 .0285819
744.556 .0285757
745.280 .0285691
746.004 .0285621
746.727 .0285546
747.450 .0285465
748.173 .0285379
748.896 .0285288
749.618 .0285192
750.340 .0285090
751.062 .0284983
751.784 .0284870
752.506 .0284750
753.227 .0284624
753.948 .0284490
754.669 .0284348
755.389 .0284197
756.110 .0284037
756.830 .0283868
757.550 .0283689
758.269 .0283501
758.989 .0283305
759.708 .0283100
760.427 .0282887
761.146 .0282668
761.864 .0282442
762.582 .0282211
763.300 .0281973
764.018 .0281731
764.736 .0281483
765.453 .0281230
766.170 .0280972
766.887 .0280711
767.603 .0280448
768.320 .0280185
769.036 .0279921
769.751 .0279660
770.467 .0279401
771.182 .0279146
771.897 .0278896
772.612 .0278650
773.327 .0278410
774.041 .0278176
774.755 .0277948
775.469 .0277727
776.183 .0277511
776.896 .0277303
777.609 .0277100
778.322 .0276905
779.035 .0276715
779.747 .0276533
780.459 .0276357
781.171 .0276189
781.882 .0276027
782.594 .0275873
783.305 .0275726
784.016 .0275584
784.726 .0275447
785.436 .0275315
786.147 .0275130
786.856 .0275004
787.566 .0274882
788.275 .0274762
788.984 .0274645
789.693 .0274531
790.401 .0274419
791.110 .0274310
791.818 .0274201
792.525 .0274094
793.233 .0273987
793.940 .0273881
794.647 .0273826
795.353 .0273719
796.060 .0273611
796.766 .0273504
797.472 .0273396
798.177 .0273287
798.883 .0273176
799.588 .0273063
800.292 .0272949
800.997 .0272834
801.701 .0272719
802.405 .0272605
803.109 .0272492
803.812 .0272381
804.515 .0272271
805.218 .0272164
805.921 .0272058
806.623 .0271953
807.325 .0271850
808.027 .0271748
808.728 .0271649
809.429 .0271553
810.130 .0271461
810.831 .0271373
811.531 .0271292
812.231 .0271216
812.931 .0271145
813.630 .0271080
814.330 .0271020
815.029 .0270966
815.727 .0270918
816.426 .0270877
817.124 .0270843
817.821 .0270816
818.519 .0270796
819.216 .0270785
819.913 .0270780
820.609 .0270783
821.306 .0270792
822.002 .0270808
822.697 .0270831
823.393 .0270860
824.088 .0270896
824.783 .0270939
825.477 .0270987
826.171 .0271041
826.865 .0271097
827.559 .0271157
828.252 .0271219
828.945 .0271282
829.638 .0271345
830.330 .0271410
831.023 .0271474
831.714 .0271539
832.406 .0271602
833.097 .0271665
833.788 .0271725
834.479 .0271782
835.169 .0271835
835.859 .0271884
836.548 .0271928
837.238 .0271967
837.927 .0272000
838.615 .0272028
839.304 .0272049
839.992 .0272063
840.680 .0272069
841.367 .0272067
842.054 .0272057
842.741 .0272038
843.428 .0272011
844.114 .0271975
844.800 .0271932
845.485 .0271880
846.170 .0271819
846.855 .0271749
847.540 .0271669
848.224 .0271577
848.908 .0271475
849.592 .0271362
850.275 .0271238
850.958 .0271102
851.641 .0270956
852.323 .0270800
853.005 .0270633
853.687 .0270456
854.368 .0270268
855.049 .0270069
855.730 .0269860
856.410 .0269642
857.090 .0269414
857.769 .0269178
858.449 .0268934
859.128 .0268683
859.806 .0268425
860.485 .0268162
861.163 .0267892
861.840 .0267619
862.518 .0267341
863.195 .0267060
863.871 .0266778
864.548 .0266495
865.224 .0266212
865.899 .0265930
866.574 .0265650
867.249 .0265371
867.924 .0265093
868.598 .0264818
869.272 .0264545
869.946 .0264274
870.619 .0264006
871.292 .0263739
871.964 .0263475
872.636 .0263213
873.308 .0262954
873.979 .0262698
874.651 .0262445
875.321 .0262195
875.992 .0261949
876.662 .0261707
877.331 .0261469
878.001 .0261234
878.670 .0261004
879.338 .0260777
880.007 .0260555
880.675 .0260337
881.342 .0260123
882.009 .0259915
882.676 .0259712
883.343 .0259515
884.009 .0259324
884.675 .0259140
885.340 .0258962
886.005 .0258791
886.670 .0258625
887.334 .0258466
887.998 .0258313
888.662 .0258166
889.325 .0258026
889.988 .0257892
890.650 .0257763
891.312 .0257641
891.974 .0257524
892.636 .0257412
893.297 .0257304
893.957 .0257200
894.618 .0257100
895.278 .0257002
895.937 .0256906
896.596 .0256813
897.255 .0256720
897.914 .0256629
898.572 .0256536
899.230 .0256443
899.887 .0256348
900.544 .0256251
901.201 .0256151
901.857 .0255988
902.513 .0255881
903.168 .0255771
903.823 .0255660
904.478 .0255548
905.132 .0255434
905.786 .0255318
906.440 .0255202
907.093 .0255084
907.746 .0254965
908.399 .0254845
909.051 .0254724
909.703 .0254603
910.354 .0254544
911.005 .0254425
911.656 .0254309
912.306 .0254195
912.956 .0254085
913.605 .0253978
914.254 .0253877
914.903 .0253779
915.551 .0253686
916.199 .0253599
916.847 .0253516
917.494 .0253438
918.141 .0253367
918.788 .0253301
919.434 .0253241
920.079 .0253186
920.725 .0253136
921.370 .0253090
922.014 .0253046
922.658 .0253005
923.302 .0252966
923.946 .0252927
924.589 .0252889
925.231 .0252853
925.873 .0252817
926.515 .0252783
927.157 .0252749
927.798 .0252717
928.439 .0252685
929.079 .0252654
929.719 .0252622
930.359 .0252591
930.998 .0252560
931.637 .0252531
932.275 .0252503
932.913 .0252478
933.551 .0252457
934.188 .0252439
934.825 .0252426
935.462 .0252418
936.098 .0252414
936.733 .0252415
937.369 .0252423
938.004 .0252437
938.638 .0252458
939.273 .0252487
939.907 .0252525
940.540 .0252572
941.173 .0252628
941.806 .0252694
942.438 .0252768
943.070 .0252850
943.702 .0252940
944.333 .0253037
944.964 .0253140
945.594 .0253248
946.224 .0253360
946.854 .0253476
947.483 .0253594
948.112 .0253711
948.741 .0253828
949.369 .0253943
949.996 .0254054
950.624 .0254161
951.251 .0254262
951.878 .0254358
952.504 .0254448
953.130 .0254532
953.755 .0254608
954.380 .0254678
955.005 .0254739
955.629 .0254792
956.253 .0254835
956.877 .0254870
957.500 .0254897
958.123 .0254915
958.746 .0254925
959.368 .0254928
959.990 .0254925
960.611 .0254916
961.232 .0254902
961.853 .0254882
962.473 .0254857
963.093 .0254827
963.712 .0254792
964.331 .0254754
964.950 .0254714
965.569 .0254670
966.187 .0254625
966.804 .0254579
967.422 .0254531
968.039 .0254480
968.655 .0254427
969.272 .0254370
969.887 .0254308
970.503 .0254242
971.118 .0254171
971.733 .0254094
972.347 .0254011
972.961 .0253923
973.575 .0253829
974.188 .0253729
974.801 .0253621
975.414 .0253507
976.026 .0253385
976.638 .0253256
977.250 .0253118
977.861 .0252973
978.472 .0252821
979.083 .0252662
979.693 .0252496
980.303 .0252323
980.912 .0252037
981.521 .0251852
982.130 .0251661
982.738 .0251466
983.346 .0251265
983.954 .0251061
984.562 .0250853
985.169 .0250642
985.775 .0250430
986.382 .0250216
986.988 .0250002
987.594 .0249788
988.199 .0249575
988.804 .0249361
989.409 .0249259
990.013 .0249045
990.617 .0248831
991.221 .0248618
991.824 .0248405
992.427 .0248192
993.030 .0247980
993.632 .0247768
994.234 .0247557
994.836 .0247347
995.438 .0247137
996.039 .0246928
996.640 .0246720
997.240 .0246513
997.840 .0246308
998.440 .0246104
999.040 .0245903
999.639 .0245704
1000.238 .0245508
1000.836 .0245313
1001.435 .0245120
1002.033 .0244929
1002.630 .0244739
1003.228 .0244551
1003.825 .0244363
1004.422 .0244176
1005.018 .0243990
1005.614 .0243805
1006.210 .0243619
1006.806 .0243434
1007.401 .0243250
1007.996 .0243066
1008.591 .0242883
1009.186 .0242701
1009.780 .0242522
1010.374 .0242344
1010.967 .0242170
1011.561 .0241998
1012.154 .0241830
1012.746 .0241667
1013.339 .0241507
1013.931 .0241352
1014.523 .0241202
1015.115 .0241058
1015.706 .0240918
1016.298 .0240785
1016.888 .0240658
1017.479 .0240538
1018.069 .0240424
1018.660 .0240317
1019.250 .0240217
1019.839 .0240124
1020.429 .0240036
1021.018 .0239953
1021.607 .0239876
1022.195 .0239805
1022.784 .0239739
1023.372 .0239680
1023.960 .0239627
1024.547 .0239581
1025.135 .0239542
1025.722 .0239508
1026.309 .0239480
1026.896 .0239455
1027.483 .0239432
1028.069 .0239410
1028.655 .0239389
1029.241 .0239369
1029.827 .0239349
1030.412 .0239332
1030.997 .0239318
1031.582 .0239306
1032.167 .0239298
1032.752 .0239291
1033.336 .0239287
1033.921 .0239282
1034.505 .0239278
1035.089 .0239272
1035.672 .0239264
1036.256 .0239255
1036.839 .0239246
1037.422 .0239237
1038.005 .0239229
1038.588 .0239223
1039.171 .0239218
1039.753 .0239216
1040.335 .0239214
1040.918 .0239214
1041.500 .0239213
1042.081 .0239212
1042.663 .0239211
1043.244 .0239210
1043.826 .0239210
1044.407 .0239212
1044.988 .0239217
1045.569 .0239226
1046.150 .0239239
1046.730 .0239256
1047.311 .0239276
1047.891 .0239299
1048.471 .0239324
1049.052 .0239349
1049.632 .0239376
1050.211 .0239403
1050.791 .0239432
1051.371 .0239463
1051.950 .0239497
1052.530 .0239535
1053.109 .0239576
1053.688 .0239621
1054.268 .0239669
1054.847 .0239720
1055.426 .0239774
1056.005 .0239831
1056.583 .0239892
1057.162 .0239957
1057.741 .0240026
1058.319 .0240099
1058.898 .0240176
1059.476 .0240256
1060.055 .0240340
1060.633 .0240425
1061.211 .0240513
1061.790 .0240604
1062.368 .0240699
1062.946 .0240799
1063.524 .0240904
1064.102 .0241013
1064.680 .0241127
1065.258 .0241243
1065.836 .0241362
1066.414 .0241481
1066.992 .0241600
1067.570 .0241718
1068.148 .0241835
1068.726 .0241952
1069.304 .0242071
1069.882 .0242192
1070.460 .0242315
1071.038 .0242442
1071.616 .0242571
1072.194 .0242702
1072.772 .0242834
1073.350 .0242966
1073.928 .0243099
1074.506 .0243233
1075.084 .0243370
1075.662 .0243513
1076.240 .0243663
1076.819 .0243823
1077.397 .0243995
1077.976 .0244177
1078.554 .0244369
1079.133 .0244570
1079.711 .0244777
1080.290 .0244991
1080.869 .0245209
1081.448 .0245433
1082.027 .0245664
1082.606 .0245901
1083.185 .0246145
1083.764 .0246398
1084.343 .0246657
1084.923 .0246922
1085.502 .0247191
1086.082 .0247463
1086.662 .0247735
1087.242 .0248008
1087.822 .0248283
1088.402 .0248562
1088.983 .0248844
1089.563 .0249131
1090.144 .0249422
1090.725 .0249718
1091.306 .0250017
1091.887 .0250318
1092.469 .0250619
1093.050 .0250919
1093.632 .0251218
1094.214 .0251515
1094.796 .0251812
1095.379 .0252109
1095.961 .0252408
1096.544 .0252709
1097.127 .0253010
1097.710 .0253312
1098.294 .0253614
1098.877 .0253916
1099.461 .0254219
1100.046 .0254524
1100.630 .0254832
1101.215 .0255146
1101.800 .0255466
1102.385 .0255793
1102.970 .0256128
1103.556 .0256469
1104.142 .0256815
1104.728 .0257165
1105.315 .0257517
1105.902 .0257872
1106.489 .0258230
1107.077 .0258594
1107.664 .0258964
1108.253 .0259342
1108.841 .0259728
1109.430 .0260121
1110.019 .0260521
1110.609 .0260926
1111.198 .0261335
1111.789 .0261747
1112.379 .0262163
1112.970 .0262581
1113.561 .0263003
1114.153 .0263428
1114.745 .0263859
1115.338 .0264294
1115.931 .0264731
1116.524 .0265168
1117.117 .0265603
1117.712 .0266037
1118.306 .0266467
1118.901 .0266897
1119.496 .0267329
1120.092 .0267766
1120.689 .0268210
1121.285 .0268663
1121.882 .0269130
1122.480 .0269610
1123.078 .0270107
1123.677 .0270619
1124.276 .0271146
1124.875 .0271691
1125.476 .0272256
1126.076 .0272846
1126.677 .0273463
1127.279 .0274114
1127.881 .0274798
1128.484 .0275520
1129.087 .0275798
1129.691 .0276567
1130.295 .0277370
1130.900 .0278208
1131.505 .0279078
1132.111 .0279978
1132.718 .0280909
1133.325 .0281873
1133.933 .0282861
1134.541 .0283894
1135.150 .0285024
1135.760 .0286076
1136.370 .0287257
1136.981 .0288199
1137.592 .0289710
1138.204 .0291180
1138.817 .0292620
1139.431 .0294020
1140.045 .0295423
1140.660 .0296715
1141.275 .0298078
1141.891 .0299149
1142.508 .0300721
1143.126 .0303794
1143.744 .0301978
1144.363 .0306022
1144.983 .0298633
