Measurement Sequence started on: 15-12-46-377
Integration time: 28
Scans to Average: 2 
>>>>>Begin Spectral Data<<<<<
432.689 .0000100
433.621 .0000100
434.552 .0000100
435.482 .0000100
436.410 .0000100
437.337 .0000100
438.262 .0275141
439.187 .0582046
440.110 .0962082
441.031 .1389762
441.952 .1100516
442.871 .1148318
443.789 .1192877
444.705 .1234891
445.621 .1274824
446.535 .1313031
447.447 .1335305
448.359 .1340176
449.269 .1323991
450.178 .1284381
451.086 .1222205
451.993 .1142324
452.898 .1052687
453.803 .0962260
454.706 .0878616
455.608 .0806383
456.508 .0747031
457.408 .0707505
458.306 .0677470
459.204 .0653178
460.100 .0632798
460.995 .0615316
461.888 .0600066
462.781 .0586607
463.673 .0574610
464.563 .0563826
465.452 .0554070
466.340 .0545169
467.228 .0537004
468.114 .0529484
468.999 .0522537
469.882 .0516120
470.765 .0510197
471.647 .0504742
472.528 .0499738
473.407 .0495160
474.286 .0490996
475.163 .0487226
476.040 .0483830
476.915 .0480784
477.790 .0478062
478.663 .0475641
479.535 .0473505
480.407 .0471634
481.277 .0470016
482.147 .0468638
483.015 .0467494
483.883 .0466577
484.749 .0465881
485.615 .0465402
486.479 .0465137
487.343 .0465077
488.206 .0465219
489.067 .0465550
489.928 .0466067
490.788 .0466770
491.647 .0467660
492.505 .0468741
493.362 .0470023
494.218 .0471512
495.073 .0473217
495.928 .0476537
496.781 .0478779
497.634 .0481228
498.486 .0483883
499.337 .0486750
500.187 .0489829
501.036 .0493133
501.884 .0496680
502.731 .0500486
503.578 .0504571
504.424 .0507203
505.268 .0511784
506.113 .0516718
506.956 .0522041
507.798 .0527804
508.640 .0534079
509.480 .0540969
510.320 .0548585
511.160 .0557065
511.998 .0566560
512.836 .0577257
513.672 .0589314
514.508 .0602948
515.344 .0618395
516.178 .0635902
517.012 .0655717
517.845 .0678089
518.677 .0703233
519.508 .0731346
520.339 .0762532
521.169 .0796836
521.998 .0834018
522.826 .0873769
523.654 .0915555
524.481 .0958717
525.307 .1002496
526.133 .1046046
526.958 .1088452
527.782 .1128841
528.605 .1166364
529.428 .1200280
530.250 .1229918
531.072 .1254895
531.892 .1274812
532.712 .1289423
533.532 .1298569
534.350 .1302172
535.168 .1300228
535.986 .1292794
536.802 .1279883
537.618 .1261582
538.434 .1238017
539.249 .1209576
540.063 .1176697
540.876 .1140033
541.689 .1100339
542.501 .1058449
543.313 .1015227
544.124 .0971574
544.934 .0928304
545.744 .0886194
546.553 .0845880
547.361 .0807888
548.169 .0772485
548.976 .0739889
549.783 .0710143
550.589 .0683185
551.395 .0658853
552.200 .0636913
553.004 .0617079
553.808 .0599128
554.611 .0582847
555.414 .0568047
556.216 .0554556
557.018 .0542223
557.819 .0530892
558.619 .0520431
559.419 .0510706
560.218 .0501625
561.017 .0493095
561.815 .0485057
562.613 .0477445
563.410 .0470209
564.207 .0463307
565.003 .0456700
565.799 .0450356
566.594 .0444246
567.388 .0438343
568.182 .0432624
568.976 .0427072
569.769 .0421683
570.562 .0416452
571.354 .0411380
572.145 .0406469
572.936 .0401721
573.727 .0397135
574.517 .0392717
575.307 .0388471
576.096 .0384400
576.885 .0380506
577.673 .0376794
578.461 .0373264
579.248 .0369917
580.035 .0366752
580.821 .0363767
581.607 .0360960
582.392 .0358325
583.177 .0355857
583.962 .0353552
584.746 .0351409
585.529 .0349424
586.313 .0347590
587.095 .0345903
587.878 .0344358
588.660 .0342946
589.441 .0341660
590.222 .0340493
591.003 .0339435
591.783 .0338473
592.563 .0337594
593.342 .0336785
594.121 .0336035
594.899 .0335333
595.678 .0334669
596.455 .0334036
597.233 .0333430
598.009 .0332845
598.786 .0332279
599.562 .0331730
600.338 .0331196
601.113 .0330677
601.888 .0329942
602.663 .0329454
603.437 .0328977
604.211 .0328509
604.984 .0328052
605.757 .0327605
606.530 .0327170
607.302 .0326746
608.074 .0326334
608.845 .0325936
609.616 .0325552
610.387 .0325387
611.158 .0325021
611.928 .0324668
612.697 .0324329
613.467 .0324001
614.236 .0323685
615.004 .0323378
615.773 .0323079
616.541 .0322788
617.308 .0322504
618.076 .0322224
618.843 .0321948
619.609 .0321676
620.375 .0321407
621.141 .0321140
621.907 .0320875
622.672 .0320611
623.437 .0320348
624.202 .0320087
624.966 .0319827
625.730 .0319566
626.493 .0319305
627.257 .0319043
628.020 .0318777
628.782 .0318508
629.545 .0318235
630.307 .0317959
631.068 .0317679
631.830 .0317398
632.591 .0317115
633.352 .0316833
634.112 .0316552
634.872 .0316273
635.632 .0315996
636.392 .0315721
637.151 .0315448
637.910 .0315177
638.668 .0314907
639.427 .0314638
640.185 .0314371
640.943 .0314106
641.700 .0313845
642.457 .0313587
643.214 .0313335
643.971 .0313089
644.727 .0312850
645.483 .0312618
646.239 .0312394
646.994 .0312177
647.750 .0311966
648.505 .0311761
649.259 .0311561
650.014 .0311365
650.768 .0311172
651.521 .0310981
652.275 .0310792
653.028 .0310606
653.781 .0310424
654.534 .0310246
655.286 .0310072
656.039 .0309903
656.791 .0309737
657.542 .0309574
658.294 .0309412
659.045 .0309249
659.796 .0309084
660.546 .0308917
661.297 .0308746
662.047 .0308573
662.796 .0308396
663.546 .0308218
664.295 .0308038
665.044 .0307857
665.793 .0307675
666.542 .0307493
667.290 .0307311
668.038 .0307128
668.786 .0306944
669.533 .0306759
670.281 .0306574
671.028 .0306387
671.774 .0306198
672.521 .0306009
673.267 .0305819
674.013 .0305629
674.759 .0305440
675.505 .0305252
676.250 .0305065
676.995 .0304880
677.740 .0304696
678.484 .0304513
679.229 .0304331
679.973 .0304150
680.717 .0303969
681.460 .0303788
682.204 .0303606
682.947 .0303423
683.690 .0303239
684.433 .0303054
685.175 .0302867
685.917 .0302678
686.659 .0302487
687.401 .0302293
688.142 .0302095
688.884 .0301893
689.625 .0301687
690.365 .0301477
691.106 .0301262
691.846 .0301043
692.586 .0300820
693.326 .0300594
694.066 .0300367
694.805 .0300138
695.545 .0299909
696.284 .0299681
697.022 .0299454
697.761 .0299230
698.499 .0299007
699.237 .0298787
699.975 .0298569
700.713 .0298354
701.450 .0298141
702.187 .0297932
702.924 .0297727
703.661 .0297526
704.397 .0297330
705.133 .0297139
705.869 .0296953
706.605 .0296771
707.341 .0296594
708.076 .0296421
708.811 .0296252
709.546 .0296087
710.281 .0295924
711.015 .0295765
711.749 .0295609
712.483 .0295456
713.217 .0295305
713.950 .0295158
714.684 .0295014
715.417 .0294872
716.150 .0294732
716.882 .0294593
717.615 .0294455
718.347 .0294318
719.079 .0294179
719.811 .0294038
720.542 .0293895
721.273 .0293749
722.005 .0293601
722.735 .0293452
723.466 .0293303
724.196 .0293154
724.927 .0293006
725.656 .0292861
726.386 .0292719
727.116 .0292580
727.845 .0292444
728.574 .0292310
729.303 .0292179
730.031 .0292051
730.760 .0291925
731.488 .0291802
732.216 .0291683
732.944 .0291568
733.671 .0291458
734.398 .0291353
735.125 .0291254
735.852 .0291161
736.579 .0291074
737.305 .0290992
738.031 .0290916
738.757 .0290844
739.483 .0290777
740.208 .0290714
740.933 .0290654
741.658 .0290596
742.383 .0290540
743.108 .0290486
743.832 .0290432
744.556 .0290377
745.280 .0290322
746.004 .0290264
746.727 .0290202
747.450 .0290137
748.173 .0290066
748.896 .0289989
749.618 .0289906
750.340 .0289817
751.062 .0289722
751.784 .0289620
752.506 .0289512
753.227 .0289398
753.948 .0289278
754.669 .0289152
755.389 .0289021
756.110 .0288884
756.830 .0288741
757.550 .0288594
758.269 .0288442
758.989 .0288287
759.708 .0288129
760.427 .0287968
761.146 .0287805
761.864 .0287640
762.582 .0287472
763.300 .0287303
764.018 .0287130
764.736 .0286956
765.453 .0286779
766.170 .0286599
766.887 .0286417
767.603 .0286233
768.320 .0286049
769.036 .0285864
769.751 .0285681
770.467 .0285500
771.182 .0285322
771.897 .0285148
772.612 .0284978
773.327 .0284813
774.041 .0284652
774.755 .0284495
775.469 .0284343
776.183 .0284196
776.896 .0284054
777.609 .0283917
778.322 .0283786
779.035 .0283662
779.747 .0283544
780.459 .0283434
781.171 .0283330
781.882 .0283231
782.594 .0283136
783.305 .0283044
784.016 .0282954
784.726 .0282866
785.436 .0282777
786.147 .0282638
786.856 .0282547
787.566 .0282457
788.275 .0282368
788.984 .0282279
789.693 .0282191
790.401 .0282103
791.110 .0282017
791.818 .0281930
792.525 .0281845
793.233 .0281759
793.940 .0281674
794.647 .0281635
795.353 .0281551
796.060 .0281468
796.766 .0281386
797.472 .0281303
798.177 .0281221
798.883 .0281140
799.588 .0281059
800.292 .0280978
800.997 .0280899
801.701 .0280820
802.405 .0280742
803.109 .0280665
803.812 .0280587
804.515 .0280508
805.218 .0280429
805.921 .0280348
806.623 .0280265
807.325 .0280180
808.027 .0280092
808.728 .0280003
809.429 .0279912
810.130 .0279819
810.831 .0279724
811.531 .0279629
812.231 .0279532
812.931 .0279433
813.630 .0279334
814.330 .0279234
815.029 .0279135
815.727 .0279036
816.426 .0278939
817.124 .0278844
817.821 .0278752
818.519 .0278664
819.216 .0278580
819.913 .0278500
820.609 .0278425
821.306 .0278355
822.002 .0278290
822.697 .0278229
823.393 .0278173
824.088 .0278122
824.783 .0278076
825.477 .0278034
826.171 .0277997
826.865 .0277963
827.559 .0277934
828.252 .0277908
828.945 .0277886
829.638 .0277868
830.330 .0277854
831.023 .0277842
831.714 .0277833
832.406 .0277827
833.097 .0277821
833.788 .0277817
834.479 .0277812
835.169 .0277806
835.859 .0277799
836.548 .0277791
837.238 .0277780
837.927 .0277766
838.615 .0277749
839.304 .0277728
839.992 .0277702
840.680 .0277670
841.367 .0277633
842.054 .0277589
842.741 .0277537
843.428 .0277477
844.114 .0277410
844.800 .0277333
845.485 .0277248
846.170 .0277154
846.855 .0277051
847.540 .0276939
848.224 .0276819
848.908 .0276689
849.592 .0276551
850.275 .0276405
850.958 .0276252
851.641 .0276091
852.323 .0275925
853.005 .0275753
853.687 .0275577
854.368 .0275396
855.049 .0275213
855.730 .0275028
856.410 .0274841
857.090 .0274653
857.769 .0274465
858.449 .0274277
859.128 .0274091
859.806 .0273906
860.485 .0273724
861.163 .0273544
861.840 .0273368
862.518 .0273195
863.195 .0273025
863.871 .0272858
864.548 .0272693
865.224 .0272532
865.899 .0272372
866.574 .0272215
867.249 .0272060
867.924 .0271908
868.598 .0271758
869.272 .0271611
869.946 .0271466
870.619 .0271324
871.292 .0271183
871.964 .0271044
872.636 .0270906
873.308 .0270768
873.979 .0270632
874.651 .0270496
875.321 .0270361
875.992 .0270226
876.662 .0270093
877.331 .0269960
878.001 .0269830
878.670 .0269701
879.338 .0269575
880.007 .0269451
880.675 .0269330
881.342 .0269211
882.009 .0269097
882.676 .0268986
883.343 .0268879
884.009 .0268778
884.675 .0268681
885.340 .0268591
886.005 .0268505
886.670 .0268425
887.334 .0268350
887.998 .0268280
888.662 .0268214
889.325 .0268151
889.988 .0268093
890.650 .0268038
891.312 .0267986
891.974 .0267937
892.636 .0267890
893.297 .0267846
893.957 .0267804
894.618 .0267764
895.278 .0267724
895.937 .0267684
896.596 .0267644
897.255 .0267603
897.914 .0267562
898.572 .0267518
899.230 .0267474
899.887 .0267426
900.544 .0267376
901.201 .0267322
901.857 .0267224
902.513 .0267160
903.168 .0267090
903.823 .0267015
904.478 .0266935
905.132 .0266850
905.786 .0266760
906.440 .0266666
907.093 .0266568
907.746 .0266465
908.399 .0266359
909.051 .0266250
909.703 .0266139
910.354 .0266074
911.005 .0265960
911.656 .0265844
912.306 .0265726
912.956 .0265607
913.605 .0265486
914.254 .0265364
914.903 .0265241
915.551 .0265117
916.199 .0264991
916.847 .0264865
917.494 .0264737
918.141 .0264609
918.788 .0264480
919.434 .0264349
920.079 .0264218
920.725 .0264086
921.370 .0263954
922.014 .0263822
922.658 .0263689
923.302 .0263557
923.946 .0263425
924.589 .0263293
925.231 .0263162
925.873 .0263031
926.515 .0262901
927.157 .0262771
927.798 .0262642
928.439 .0262514
929.079 .0262386
929.719 .0262260
930.359 .0262136
930.998 .0262013
931.637 .0261893
932.275 .0261775
932.913 .0261661
933.551 .0261550
934.188 .0261444
934.825 .0261342
935.462 .0261246
936.098 .0261154
936.733 .0261068
937.369 .0260987
938.004 .0260912
938.638 .0260843
939.273 .0260779
939.907 .0260722
940.540 .0260671
941.173 .0260625
941.806 .0260584
942.438 .0260549
943.070 .0260517
943.702 .0260488
944.333 .0260462
944.964 .0260438
945.594 .0260416
946.224 .0260394
946.854 .0260373
947.483 .0260351
948.112 .0260328
948.741 .0260304
949.369 .0260277
949.996 .0260247
950.624 .0260213
951.251 .0260176
951.878 .0260134
952.504 .0260087
953.130 .0260036
953.755 .0259980
954.380 .0259920
955.005 .0259857
955.629 .0259790
956.253 .0259720
956.877 .0259647
957.500 .0259572
958.123 .0259495
958.746 .0259416
959.368 .0259335
959.990 .0259254
960.611 .0259173
961.232 .0259091
961.853 .0259010
962.473 .0258929
963.093 .0258850
963.712 .0258772
964.331 .0258694
964.950 .0258619
965.569 .0258544
966.187 .0258470
966.804 .0258396
967.422 .0258322
968.039 .0258248
968.655 .0258173
969.272 .0258097
969.887 .0258020
970.503 .0257941
971.118 .0257861
971.733 .0257780
972.347 .0257697
972.961 .0257611
973.575 .0257522
974.188 .0257430
974.801 .0257333
975.414 .0257231
976.026 .0257124
976.638 .0257012
977.250 .0256896
977.861 .0256776
978.472 .0256651
979.083 .0256522
979.693 .0256389
980.303 .0256251
980.912 .0256033
981.521 .0255887
982.130 .0255737
982.738 .0255586
983.346 .0255433
983.954 .0255280
984.562 .0255127
985.169 .0254976
985.775 .0254828
986.382 .0254681
986.988 .0254537
987.594 .0254395
988.199 .0254256
988.804 .0254119
989.409 .0254062
990.013 .0253931
990.617 .0253806
991.221 .0253685
991.824 .0253571
992.427 .0253462
993.030 .0253360
993.632 .0253264
994.234 .0253172
994.836 .0253086
995.438 .0253003
996.039 .0252923
996.640 .0252848
997.240 .0252775
997.840 .0252707
998.440 .0252643
999.040 .0252583
999.639 .0252526
1000.238 .0252473
1000.836 .0252424
1001.435 .0252376
1002.033 .0252329
1002.630 .0252284
1003.228 .0252240
1003.825 .0252197
1004.422 .0252154
1005.018 .0252113
1005.614 .0252072
1006.210 .0252032
1006.806 .0251993
1007.401 .0251954
1007.996 .0251915
1008.591 .0251876
1009.186 .0251838
1009.780 .0251801
1010.374 .0251766
1010.967 .0251732
1011.561 .0251702
1012.154 .0251674
1012.746 .0251650
1013.339 .0251631
1013.931 .0251617
1014.523 .0251609
1015.115 .0251606
1015.706 .0251610
1016.298 .0251622
1016.888 .0251641
1017.479 .0251667
1018.069 .0251701
1018.660 .0251743
1019.250 .0251791
1019.839 .0251846
1020.429 .0251907
1021.018 .0251974
1021.607 .0252046
1022.195 .0252122
1022.784 .0252202
1023.372 .0252286
1023.960 .0252372
1024.547 .0252461
1025.135 .0252551
1025.722 .0252643
1026.309 .0252736
1026.896 .0252828
1027.483 .0252921
1028.069 .0253013
1028.655 .0253102
1029.241 .0253189
1029.827 .0253271
1030.412 .0253348
1030.997 .0253419
1031.582 .0253483
1032.167 .0253541
1032.752 .0253591
1033.336 .0253635
1033.921 .0253673
1034.505 .0253706
1035.089 .0253733
1035.672 .0253757
1036.256 .0253777
1036.839 .0253794
1037.422 .0253809
1038.005 .0253822
1038.588 .0253834
1039.171 .0253845
1039.753 .0253857
1040.335 .0253871
1040.918 .0253885
1041.500 .0253902
1042.081 .0253920
1042.663 .0253940
1043.244 .0253960
1043.826 .0253980
1044.407 .0254000
1044.988 .0254018
1045.569 .0254037
1046.150 .0254055
1046.730 .0254075
1047.311 .0254097
1047.891 .0254122
1048.471 .0254152
1049.052 .0254187
1049.632 .0254226
1050.211 .0254271
1050.791 .0254320
1051.371 .0254374
1051.950 .0254431
1052.530 .0254491
1053.109 .0254554
1053.688 .0254619
1054.268 .0254686
1054.847 .0254755
1055.426 .0254826
1056.005 .0254896
1056.583 .0254967
1057.162 .0255036
1057.741 .0255103
1058.319 .0255167
1058.898 .0255228
1059.476 .0255285
1060.055 .0255340
1060.633 .0255393
1061.211 .0255443
1061.790 .0255494
1062.368 .0255546
1062.946 .0255598
1063.524 .0255653
1064.102 .0255709
1064.680 .0255766
1065.258 .0255824
1065.836 .0255882
1066.414 .0255940
1066.992 .0255996
1067.570 .0256050
1068.148 .0256103
1068.726 .0256154
1069.304 .0256205
1069.882 .0256255
1070.460 .0256305
1071.038 .0256355
1071.616 .0256407
1072.194 .0256460
1072.772 .0256513
1073.350 .0256568
1073.928 .0256625
1074.506 .0256681
1075.084 .0256738
1075.662 .0256795
1076.240 .0256851
1076.819 .0256908
1077.397 .0256964
1077.976 .0257023
1078.554 .0257083
1079.133 .0257147
1079.711 .0257213
1080.290 .0257284
1080.869 .0257359
1081.448 .0257438
1082.027 .0257521
1082.606 .0257606
1083.185 .0257695
1083.764 .0257786
1084.343 .0257881
1084.923 .0257980
1085.502 .0258084
1086.082 .0258195
1086.662 .0258312
1087.242 .0258435
1087.822 .0258564
1088.402 .0258698
1088.983 .0258837
1089.563 .0258979
1090.144 .0259123
1090.725 .0259269
1091.306 .0259417
1091.887 .0259569
1092.469 .0259725
1093.050 .0259887
1093.632 .0260055
1094.214 .0260230
1094.796 .0260411
1095.379 .0260596
1095.961 .0260785
1096.544 .0260974
1097.127 .0261163
1097.710 .0261349
1098.294 .0261532
1098.877 .0261711
1099.461 .0261887
1100.046 .0262061
1100.630 .0262235
1101.215 .0262409
1101.800 .0262584
1102.385 .0262758
1102.970 .0262932
1103.556 .0263103
1104.142 .0263273
1104.728 .0263443
1105.315 .0263613
1105.902 .0263788
1106.489 .0263972
1107.077 .0264167
1107.664 .0264378
1108.253 .0264607
1108.841 .0264854
1109.430 .0265117
1110.019 .0265396
1110.609 .0265687
1111.198 .0265990
1111.789 .0266303
1112.379 .0266626
1112.970 .0266960
1113.561 .0267306
1114.153 .0267666
1114.745 .0268040
1115.338 .0268427
1115.931 .0268826
1116.524 .0269234
1117.117 .0269650
1117.712 .0270072
1118.306 .0270498
1118.901 .0270932
1119.496 .0271374
1120.092 .0271828
1120.689 .0272296
1121.285 .0272780
1121.882 .0273281
1122.480 .0273798
1123.078 .0274328
1123.677 .0274870
1124.276 .0275423
1124.875 .0275983
1125.476 .0276553
1126.076 .0277133
1126.677 .0277726
1127.279 .0278336
1127.881 .0278965
1128.484 .0279613
1129.087 .0279882
1129.691 .0280555
1130.295 .0281247
1130.900 .0281956
1131.505 .0282680
1132.111 .0283419
1132.718 .0284175
1133.325 .0284956
1133.933 .0285762
1134.541 .0286584
1135.150 .0287413
1135.760 .0288325
1136.370 .0289335
1136.981 .0290396
1137.592 .0291435
1138.204 .0292450
1138.817 .0293430
1139.431 .0294386
1140.045 .0295303
1140.660 .0296255
1141.275 .0297324
1141.891 .0298422
1142.508 .0299189
1143.126 .0299703
1143.744 .0302348
1144.363 .0305516
1144.983 .0304839
