Measurement Sequence started on: 15-12-46-377
Integration time: 28
Scans to Average: 2 
>>>>>Begin Spectral Data<<<<<
432.689 .0000100
433.621 .0000100
434.552 .0000100
435.482 .0000100
436.410 .0000100
437.337 .0000100
438.262 .0276678
439.187 .0587943
440.110 .0975266
441.031 .1412665
441.952 .1140395
442.871 .1191863
443.789 .1239867
444.705 .1285133
445.621 .1328151
446.535 .1369295
447.447 .1394265
448.359 .1401451
449.269 .1387039
450.178 .1348537
451.086 .1286678
451.993 .1206268
452.898 .1115299
453.803 .1022868
454.706 .0936724
455.608 .0861702
456.508 .0799464
457.408 .0757145
458.306 .0724517
459.204 .0697848
460.100 .0675269
460.995 .0655747
461.888 .0638578
462.781 .0623303
463.673 .0609573
464.563 .0597147
465.452 .0585835
466.340 .0575467
467.228 .0565926
468.114 .0557117
468.999 .0548962
469.882 .0541397
470.765 .0534376
471.647 .0527866
472.528 .0521841
473.407 .0516275
474.286 .0511155
475.163 .0506473
476.040 .0502203
476.915 .0498334
477.790 .0494847
478.663 .0491734
479.535 .0488983
480.407 .0486587
481.277 .0484533
482.147 .0482806
483.015 .0481393
483.883 .0480277
484.749 .0479443
485.615 .0478882
486.479 .0478582
487.343 .0478543
488.206 .0478762
489.067 .0479235
489.928 .0479961
490.788 .0480940
491.647 .0482166
492.505 .0483633
493.362 .0485331
494.218 .0487248
495.073 .0489380
495.928 .0493350
496.781 .0496037
497.634 .0498962
498.486 .0502136
499.337 .0505566
500.187 .0509257
501.036 .0513222
501.884 .0517473
502.731 .0522035
503.578 .0526925
504.424 .0530068
505.268 .0535579
506.113 .0541538
506.956 .0547996
507.798 .0555028
508.640 .0562716
509.480 .0571165
510.320 .0580482
511.160 .0590810
511.998 .0602294
512.836 .0615099
513.672 .0629400
514.508 .0645404
515.344 .0663322
516.178 .0683372
517.012 .0705801
517.845 .0730855
518.677 .0758757
519.508 .0789710
520.339 .0823773
521.169 .0860973
521.998 .0901071
522.826 .0943672
523.654 .0988183
524.481 .1033866
525.307 .1079868
526.133 .1125224
526.958 .1168941
527.782 .1210106
528.605 .1247835
529.428 .1281429
530.250 .1310260
531.072 .1333916
531.892 .1352083
532.712 .1364560
533.532 .1371257
534.350 .1372149
535.168 .1367263
535.986 .1356671
536.802 .1340402
537.618 .1318619
538.434 .1291475
539.249 .1259370
540.063 .1222847
540.876 .1182594
541.689 .1139429
542.501 .1094245
543.313 .1048000
544.124 .1001659
544.934 .0956088
545.744 .0912081
546.553 .0870236
547.361 .0831051
548.169 .0794784
548.976 .0761574
549.783 .0731425
550.589 .0704226
551.395 .0679762
552.200 .0657766
553.004 .0637931
553.808 .0620005
554.611 .0603737
555.414 .0588925
556.216 .0575375
557.018 .0562909
557.819 .0551375
558.619 .0540641
559.419 .0530591
560.218 .0521146
561.017 .0512226
561.815 .0503772
562.613 .0495732
563.410 .0488056
564.207 .0480699
565.003 .0473631
565.799 .0466816
566.594 .0460233
567.388 .0453862
568.182 .0447690
568.976 .0441705
569.769 .0435910
570.562 .0430305
571.354 .0424888
572.145 .0419659
572.936 .0414613
573.727 .0409742
574.517 .0405043
575.307 .0400518
576.096 .0396164
576.885 .0391987
577.673 .0387996
578.461 .0384193
579.248 .0380584
580.035 .0377174
580.821 .0373962
581.607 .0370945
582.392 .0368120
583.177 .0365480
583.962 .0363018
584.746 .0360733
585.529 .0358615
586.313 .0356660
587.095 .0354861
587.878 .0353211
588.660 .0351701
589.441 .0350321
590.222 .0349061
591.003 .0347911
591.783 .0346860
592.563 .0345900
593.342 .0345022
594.121 .0344216
594.899 .0343475
595.678 .0342789
596.455 .0342148
597.233 .0341545
598.009 .0340972
598.786 .0340423
599.562 .0339892
600.338 .0339375
601.113 .0338870
601.888 .0338132
602.663 .0337646
603.437 .0337165
604.211 .0336687
604.984 .0336213
605.757 .0335743
606.530 .0335276
607.302 .0334812
608.074 .0334353
608.845 .0333899
609.616 .0333452
610.387 .0333246
611.158 .0332810
611.928 .0332381
612.697 .0331960
613.467 .0331546
614.236 .0331141
615.004 .0330744
615.773 .0330356
616.541 .0329976
617.308 .0329603
618.076 .0329236
618.843 .0328874
619.609 .0328517
620.375 .0328165
621.141 .0327817
621.907 .0327472
622.672 .0327130
623.437 .0326789
624.202 .0326449
624.966 .0326110
625.730 .0325771
626.493 .0325430
627.257 .0325088
628.020 .0324744
628.782 .0324399
629.545 .0324053
630.307 .0323707
631.068 .0323361
631.830 .0323015
632.591 .0322667
633.352 .0322318
634.112 .0321969
634.872 .0321620
635.632 .0321271
636.392 .0320923
637.151 .0320577
637.910 .0320232
638.668 .0319891
639.427 .0319554
640.185 .0319221
640.943 .0318893
641.700 .0318571
642.457 .0318256
643.214 .0317949
643.971 .0317651
644.727 .0317363
645.483 .0317085
646.239 .0316817
646.994 .0316559
647.750 .0316310
648.505 .0316071
649.259 .0315841
650.014 .0315621
650.768 .0315409
651.521 .0315207
652.275 .0315014
653.028 .0314829
653.781 .0314651
654.534 .0314480
655.286 .0314316
656.039 .0314156
656.791 .0314001
657.542 .0313849
658.294 .0313700
659.045 .0313554
659.796 .0313409
660.546 .0313265
661.297 .0313121
662.047 .0312975
662.796 .0312827
663.546 .0312676
664.295 .0312522
665.044 .0312363
665.793 .0312199
666.542 .0312031
667.290 .0311858
668.038 .0311681
668.786 .0311500
669.533 .0311315
670.281 .0311127
671.028 .0310935
671.774 .0310740
672.521 .0310542
673.267 .0310341
674.013 .0310137
674.759 .0309930
675.505 .0309722
676.250 .0309510
676.995 .0309297
677.740 .0309081
678.484 .0308864
679.229 .0308644
679.973 .0308423
680.717 .0308201
681.460 .0307977
682.204 .0307752
682.947 .0307525
683.690 .0307296
684.433 .0307065
685.175 .0306830
685.917 .0306592
686.659 .0306350
687.401 .0306104
688.142 .0305854
688.884 .0305599
689.625 .0305340
690.365 .0305078
691.106 .0304812
691.846 .0304542
692.586 .0304269
693.326 .0303992
694.066 .0303711
694.805 .0303427
695.545 .0303140
696.284 .0302850
697.022 .0302557
697.761 .0302262
698.499 .0301966
699.237 .0301670
699.975 .0301374
700.713 .0301080
701.450 .0300786
702.187 .0300496
702.924 .0300208
703.661 .0299924
704.397 .0299644
705.133 .0299369
705.869 .0299097
706.605 .0298829
707.341 .0298567
708.076 .0298309
708.811 .0298057
709.546 .0297811
710.281 .0297571
711.015 .0297337
711.749 .0297108
712.483 .0296884
713.217 .0296666
713.950 .0296452
714.684 .0296242
715.417 .0296035
716.150 .0295833
716.882 .0295633
717.615 .0295437
718.347 .0295243
719.079 .0295052
719.811 .0294863
720.542 .0294676
721.273 .0294489
722.005 .0294304
722.735 .0294121
723.466 .0293941
724.196 .0293762
724.927 .0293587
725.656 .0293416
726.386 .0293248
727.116 .0293085
727.845 .0292927
728.574 .0292775
729.303 .0292628
730.031 .0292487
730.760 .0292353
731.488 .0292225
732.216 .0292105
732.944 .0291991
733.671 .0291886
734.398 .0291788
735.125 .0291697
735.852 .0291615
736.579 .0291540
737.305 .0291474
738.031 .0291416
738.757 .0291364
739.483 .0291320
740.208 .0291282
740.933 .0291250
741.658 .0291223
742.383 .0291200
743.108 .0291181
743.832 .0291164
744.556 .0291150
745.280 .0291136
746.004 .0291123
746.727 .0291108
747.450 .0291091
748.173 .0291072
748.896 .0291049
749.618 .0291021
750.340 .0290988
751.062 .0290949
751.784 .0290904
752.506 .0290852
753.227 .0290791
753.948 .0290723
754.669 .0290647
755.389 .0290561
756.110 .0290468
756.830 .0290366
757.550 .0290258
758.269 .0290142
758.989 .0290020
759.708 .0289892
760.427 .0289757
761.146 .0289618
761.864 .0289473
762.582 .0289324
763.300 .0289171
764.018 .0289014
764.736 .0288853
765.453 .0288691
766.170 .0288526
766.887 .0288361
767.603 .0288195
768.320 .0288029
769.036 .0287865
769.751 .0287703
770.467 .0287543
771.182 .0287387
771.897 .0287233
772.612 .0287083
773.327 .0286936
774.041 .0286792
774.755 .0286651
775.469 .0286513
776.183 .0286378
776.896 .0286247
777.609 .0286118
778.322 .0285994
779.035 .0285873
779.747 .0285755
780.459 .0285639
781.171 .0285526
781.882 .0285413
782.594 .0285301
783.305 .0285189
784.016 .0285074
784.726 .0284957
785.436 .0284837
786.147 .0284640
786.856 .0284508
787.566 .0284371
788.275 .0284229
788.984 .0284081
789.693 .0283927
790.401 .0283766
791.110 .0283598
791.818 .0283423
792.525 .0283239
793.233 .0283046
793.940 .0282846
794.647 .0282724
795.353 .0282515
796.060 .0282300
796.766 .0282079
797.472 .0281855
798.177 .0281626
798.883 .0281395
799.588 .0281160
800.292 .0280924
800.997 .0280685
801.701 .0280445
802.405 .0280204
803.109 .0279962
803.812 .0279719
804.515 .0279475
805.218 .0279232
805.921 .0278990
806.623 .0278747
807.325 .0278506
808.027 .0278265
808.728 .0278025
809.429 .0277787
810.130 .0277551
810.831 .0277315
811.531 .0277082
812.231 .0276850
812.931 .0276620
813.630 .0276393
814.330 .0276168
815.029 .0275947
815.727 .0275730
816.426 .0275519
817.124 .0275314
817.821 .0275117
818.519 .0274928
819.216 .0274748
819.913 .0274578
820.609 .0274417
821.306 .0274266
822.002 .0274126
822.697 .0273996
823.393 .0273879
824.088 .0273773
824.783 .0273679
825.477 .0273598
826.171 .0273529
826.865 .0273472
827.559 .0273427
828.252 .0273393
828.945 .0273369
829.638 .0273354
830.330 .0273349
831.023 .0273351
831.714 .0273360
832.406 .0273375
833.097 .0273395
833.788 .0273420
834.479 .0273448
835.169 .0273479
835.859 .0273513
836.548 .0273549
837.238 .0273587
837.927 .0273626
838.615 .0273666
839.304 .0273706
839.992 .0273745
840.680 .0273783
841.367 .0273820
842.054 .0273856
842.741 .0273889
843.428 .0273921
844.114 .0273952
844.800 .0273982
845.485 .0274009
846.170 .0274036
846.855 .0274060
847.540 .0274083
848.224 .0274103
848.908 .0274120
849.592 .0274134
850.275 .0274144
850.958 .0274150
851.641 .0274150
852.323 .0274146
853.005 .0274136
853.687 .0274121
854.368 .0274101
855.049 .0274077
855.730 .0274048
856.410 .0274015
857.090 .0273977
857.769 .0273935
858.449 .0273888
859.128 .0273837
859.806 .0273781
860.485 .0273721
861.163 .0273658
861.840 .0273591
862.518 .0273522
863.195 .0273452
863.871 .0273381
864.548 .0273309
865.224 .0273237
865.899 .0273163
866.574 .0273090
867.249 .0273016
867.924 .0272943
868.598 .0272871
869.272 .0272800
869.946 .0272731
870.619 .0272664
871.292 .0272599
871.964 .0272538
872.636 .0272479
873.308 .0272423
873.979 .0272370
874.651 .0272319
875.321 .0272272
875.992 .0272228
876.662 .0272187
877.331 .0272150
878.001 .0272115
878.670 .0272082
879.338 .0272051
880.007 .0272021
880.675 .0271992
881.342 .0271964
882.009 .0271937
882.676 .0271912
883.343 .0271887
884.009 .0271864
884.675 .0271842
885.340 .0271821
886.005 .0271800
886.670 .0271778
887.334 .0271755
887.998 .0271729
888.662 .0271700
889.325 .0271669
889.988 .0271634
890.650 .0271596
891.312 .0271554
891.974 .0271509
892.636 .0271460
893.297 .0271406
893.957 .0271347
894.618 .0271281
895.278 .0271209
895.937 .0271129
896.596 .0271040
897.255 .0270942
897.914 .0270835
898.572 .0270717
899.230 .0270589
899.887 .0270449
900.544 .0270297
901.201 .0270134
901.857 .0269835
902.513 .0269640
903.168 .0269433
903.823 .0269215
904.478 .0268986
905.132 .0268746
905.786 .0268497
906.440 .0268238
907.093 .0267969
907.746 .0267693
908.399 .0267408
909.051 .0267117
909.703 .0266821
910.354 .0266663
911.005 .0266364
911.656 .0266063
912.306 .0265760
912.956 .0265456
913.605 .0265151
914.254 .0264846
914.903 .0264541
915.551 .0264237
916.199 .0263933
916.847 .0263631
917.494 .0263330
918.141 .0263030
918.788 .0262733
919.434 .0262437
920.079 .0262142
920.725 .0261848
921.370 .0261556
922.014 .0261264
922.658 .0260973
923.302 .0260681
923.946 .0260391
924.589 .0260100
925.231 .0259809
925.873 .0259518
926.515 .0259227
927.157 .0258934
927.798 .0258639
928.439 .0258343
929.079 .0258045
929.719 .0257746
930.359 .0257447
930.998 .0257148
931.637 .0256850
932.275 .0256555
932.913 .0256263
933.551 .0255974
934.188 .0255690
934.825 .0255411
935.462 .0255137
936.098 .0254869
936.733 .0254608
937.369 .0254353
938.004 .0254107
938.638 .0253869
939.273 .0253640
939.907 .0253421
940.540 .0253211
941.173 .0253011
941.806 .0252819
942.438 .0252637
943.070 .0252463
943.702 .0252297
944.333 .0252138
944.964 .0251988
945.594 .0251845
946.224 .0251710
946.854 .0251581
947.483 .0251460
948.112 .0251345
948.741 .0251235
949.369 .0251130
949.996 .0251030
950.624 .0250934
951.251 .0250842
951.878 .0250754
952.504 .0250670
953.130 .0250590
953.755 .0250515
954.380 .0250443
955.005 .0250376
955.629 .0250311
956.253 .0250249
956.877 .0250189
957.500 .0250131
958.123 .0250073
958.746 .0250017
959.368 .0249962
959.990 .0249911
960.611 .0249863
961.232 .0249820
961.853 .0249781
962.473 .0249748
963.093 .0249720
963.712 .0249697
964.331 .0249677
964.950 .0249661
965.569 .0249650
966.187 .0249642
966.804 .0249638
967.422 .0249638
968.039 .0249643
968.655 .0249651
969.272 .0249664
969.887 .0249680
970.503 .0249699
971.118 .0249721
971.733 .0249746
972.347 .0249773
972.961 .0249803
973.575 .0249834
974.188 .0249867
974.801 .0249902
975.414 .0249937
976.026 .0249973
976.638 .0250010
977.250 .0250046
977.861 .0250081
978.472 .0250115
979.083 .0250148
979.693 .0250180
980.303 .0250210
980.912 .0250244
981.521 .0250267
982.130 .0250287
982.738 .0250305
983.346 .0250321
983.954 .0250335
984.562 .0250348
985.169 .0250360
985.775 .0250373
986.382 .0250387
986.988 .0250402
987.594 .0250418
988.199 .0250437
988.804 .0250458
989.409 .0250478
990.013 .0250505
990.617 .0250536
991.221 .0250572
991.824 .0250612
992.427 .0250658
993.030 .0250711
993.632 .0250770
994.234 .0250834
994.836 .0250905
995.438 .0250981
996.039 .0251062
996.640 .0251150
997.240 .0251243
997.840 .0251343
998.440 .0251450
999.040 .0251564
999.639 .0251685
1000.238 .0251814
1000.836 .0251949
1001.435 .0252091
1002.033 .0252239
1002.630 .0252390
1003.228 .0252545
1003.825 .0252702
1004.422 .0252859
1005.018 .0253016
1005.614 .0253172
1006.210 .0253328
1006.806 .0253482
1007.401 .0253634
1007.996 .0253786
1008.591 .0253936
1009.186 .0254085
1009.780 .0254232
1010.374 .0254375
1010.967 .0254516
1011.561 .0254652
1012.154 .0254785
1012.746 .0254913
1013.339 .0255039
1013.931 .0255162
1014.523 .0255283
1015.115 .0255403
1015.706 .0255521
1016.298 .0255639
1016.888 .0255755
1017.479 .0255869
1018.069 .0255981
1018.660 .0256091
1019.250 .0256200
1019.839 .0256307
1020.429 .0256414
1021.018 .0256523
1021.607 .0256634
1022.195 .0256747
1022.784 .0256864
1023.372 .0256984
1023.960 .0257107
1024.547 .0257234
1025.135 .0257362
1025.722 .0257492
1026.309 .0257623
1026.896 .0257755
1027.483 .0257888
1028.069 .0258021
1028.655 .0258153
1029.241 .0258284
1029.827 .0258413
1030.412 .0258538
1030.997 .0258660
1031.582 .0258777
1032.167 .0258890
1032.752 .0258997
1033.336 .0259098
1033.921 .0259194
1034.505 .0259282
1035.089 .0259364
1035.672 .0259438
1036.256 .0259504
1036.839 .0259561
1037.422 .0259608
1038.005 .0259646
1038.588 .0259675
1039.171 .0259695
1039.753 .0259707
1040.335 .0259711
1040.918 .0259708
1041.500 .0259698
1042.081 .0259681
1042.663 .0259658
1043.244 .0259630
1043.826 .0259596
1044.407 .0259560
1044.988 .0259521
1045.569 .0259480
1046.150 .0259439
1046.730 .0259398
1047.311 .0259357
1047.891 .0259315
1048.471 .0259273
1049.052 .0259229
1049.632 .0259184
1050.211 .0259136
1050.791 .0259086
1051.371 .0259034
1051.950 .0258979
1052.530 .0258920
1053.109 .0258857
1053.688 .0258789
1054.268 .0258716
1054.847 .0258638
1055.426 .0258554
1056.005 .0258465
1056.583 .0258371
1057.162 .0258272
1057.741 .0258167
1058.319 .0258056
1058.898 .0257939
1059.476 .0257816
1060.055 .0257686
1060.633 .0257549
1061.211 .0257406
1061.790 .0257257
1062.368 .0257102
1062.946 .0256944
1063.524 .0256781
1064.102 .0256613
1064.680 .0256441
1065.258 .0256264
1065.836 .0256082
1066.414 .0255895
1066.992 .0255706
1067.570 .0255514
1068.148 .0255322
1068.726 .0255132
1069.304 .0254946
1069.882 .0254767
1070.460 .0254596
1071.038 .0254432
1071.616 .0254277
1072.194 .0254129
1072.772 .0253988
1073.350 .0253852
1073.928 .0253722
1074.506 .0253596
1075.084 .0253476
1075.662 .0253362
1076.240 .0253254
1076.819 .0253152
1077.397 .0253055
1077.976 .0252962
1078.554 .0252870
1079.133 .0252777
1079.711 .0252681
1080.290 .0252582
1080.869 .0252478
1081.448 .0252372
1082.027 .0252264
1082.606 .0252156
1083.185 .0252049
1083.764 .0251946
1084.343 .0251846
1084.923 .0251750
1085.502 .0251657
1086.082 .0251566
1086.662 .0251478
1087.242 .0251392
1087.822 .0251309
1088.402 .0251228
1088.983 .0251149
1089.563 .0251074
1090.144 .0251003
1090.725 .0250936
1091.306 .0250874
1091.887 .0250817
1092.469 .0250764
1093.050 .0250717
1093.632 .0250675
1094.214 .0250640
1094.796 .0250612
1095.379 .0250591
1095.961 .0250580
1096.544 .0250579
1097.127 .0250588
1097.710 .0250607
1098.294 .0250638
1098.877 .0250679
1099.461 .0250731
1100.046 .0250791
1100.630 .0250858
1101.215 .0250932
1101.800 .0251010
1102.385 .0251091
1102.970 .0251174
1103.556 .0251256
1104.142 .0251336
1104.728 .0251414
1105.315 .0251489
1105.902 .0251563
1106.489 .0251637
1107.077 .0251712
1107.664 .0251791
1108.253 .0251877
1108.841 .0251970
1109.430 .0252072
1110.019 .0252186
1110.609 .0252313
1111.198 .0252452
1111.789 .0252607
1112.379 .0252781
1112.970 .0252974
1113.561 .0253189
1114.153 .0253427
1114.745 .0253692
1115.338 .0253984
1115.931 .0254304
1116.524 .0254653
1117.117 .0255031
1117.712 .0255438
1118.306 .0255875
1118.901 .0256340
1119.496 .0256834
1120.092 .0257354
1120.689 .0257898
1121.285 .0258464
1121.882 .0259050
1122.480 .0259653
1123.078 .0260269
1123.677 .0260899
1124.276 .0261538
1124.875 .0262185
1125.476 .0262836
1126.076 .0263491
1126.677 .0264149
1127.279 .0264807
1127.881 .0265465
1128.484 .0266124
1129.087 .0266497
1129.691 .0267159
1130.295 .0267822
1130.900 .0268489
1131.505 .0269164
1132.111 .0269854
1132.718 .0270566
1133.325 .0271304
1133.933 .0272083
1134.541 .0272879
1135.150 .0273773
1135.760 .0274735
1136.370 .0275629
1136.981 .0274244
1137.592 .0274852
1138.204 .0275559
1138.817 .0276374
1139.431 .0277373
1140.045 .0278612
1140.660 .0280115
1141.275 .0281747
1141.891 .0283820
1142.508 .0285233
1143.126 .0288976
1143.744 .0291844
1144.363 .0290869
1144.983 .0299166
