Measurement Sequence started on: 15-12-46-377
Integration time: 28
Scans to Average: 2 
>>>>>Begin Spectral Data<<<<<
432.689 .0000100
433.621 .0000100
434.552 .0000100
435.482 .0000100
436.410 .0000100
437.337 .0000100
438.262 .0267672
439.187 .0566478
440.110 .0938484
441.031 .1358455
441.952 .1097134
442.871 .1147189
443.789 .1193918
444.705 .1237982
445.621 .1279832
446.535 .1319813
447.447 .1344106
448.359 .1351285
449.269 .1337683
450.178 .1300922
451.086 .1241748
451.993 .1164785
452.898 .1077705
453.803 .0989204
454.706 .0906677
455.608 .0834732
456.508 .0774922
457.408 .0734150
458.306 .0702495
459.204 .0676465
460.100 .0654339
460.995 .0635170
461.888 .0618327
462.781 .0603384
463.673 .0590019
464.563 .0577991
465.452 .0567103
466.340 .0557193
467.228 .0548140
468.114 .0539840
468.999 .0532218
469.882 .0525208
470.765 .0518765
471.647 .0512854
472.528 .0507448
473.407 .0502509
474.286 .0498012
475.163 .0493935
476.040 .0490250
476.915 .0486936
477.790 .0483969
478.663 .0481332
479.535 .0479014
480.407 .0477000
481.277 .0475276
482.147 .0473825
483.015 .0472632
483.883 .0471675
484.749 .0470935
485.615 .0470396
486.479 .0470045
487.343 .0469869
488.206 .0469866
489.067 .0470027
489.928 .0470352
490.788 .0470842
491.647 .0471497
492.505 .0472314
493.362 .0473290
494.218 .0474421
495.073 .0475707
495.928 .0478174
496.781 .0479859
497.634 .0481718
498.486 .0483770
499.337 .0486034
500.187 .0488541
501.036 .0491324
501.884 .0494424
502.731 .0497886
503.578 .0501746
504.424 .0504555
505.268 .0509190
506.113 .0514360
506.956 .0520127
507.798 .0526559
508.640 .0533747
509.480 .0541800
510.320 .0550852
511.160 .0561041
511.998 .0572522
512.836 .0585481
513.672 .0600097
514.508 .0616556
515.344 .0635037
516.178 .0655728
517.012 .0678846
517.845 .0704598
518.677 .0733162
519.508 .0764706
520.339 .0799315
521.169 .0837002
521.998 .0877545
522.826 .0920567
523.654 .0965523
524.481 .1011685
525.307 .1058228
526.133 .1104195
526.958 .1148612
527.782 .1190551
528.605 .1229152
529.428 .1263701
530.250 .1293565
531.072 .1318328
531.892 .1337681
532.712 .1351419
533.532 .1359436
534.350 .1361654
535.168 .1358057
535.986 .1348678
536.802 .1333531
537.618 .1312703
538.434 .1286334
539.249 .1254824
540.063 .1218704
540.876 .1178638
541.689 .1135456
542.501 .1090055
543.313 .1043400
544.124 .0996455
544.934 .0950082
545.744 .0905071
546.553 .0862040
547.361 .0821502
548.169 .0783734
548.976 .0748910
549.783 .0717098
550.589 .0688238
551.395 .0662199
552.200 .0638781
553.004 .0617753
553.808 .0598890
554.611 .0581977
555.414 .0566804
556.216 .0553151
557.018 .0540811
557.819 .0529609
558.619 .0519377
559.419 .0509975
560.218 .0501297
561.017 .0493234
561.815 .0485707
562.613 .0478643
563.410 .0471961
564.207 .0465592
565.003 .0459482
565.799 .0453576
566.594 .0447823
567.388 .0442195
568.182 .0436670
568.976 .0431244
569.769 .0425918
570.562 .0420701
571.354 .0415602
572.145 .0410639
572.936 .0405817
573.727 .0401134
574.517 .0396591
575.307 .0392191
576.096 .0387933
576.885 .0383823
577.673 .0379871
578.461 .0376089
579.248 .0372485
580.035 .0369074
580.821 .0365859
581.607 .0362845
582.392 .0360030
583.177 .0357408
583.962 .0354967
584.746 .0352699
585.529 .0350590
586.313 .0348628
587.095 .0346805
587.878 .0345113
588.660 .0343542
589.441 .0342087
590.222 .0340743
591.003 .0339502
591.783 .0338359
592.563 .0337305
593.342 .0336332
594.121 .0335434
594.899 .0334603
595.678 .0333831
596.455 .0333111
597.233 .0332437
598.009 .0331801
598.786 .0331199
599.562 .0330624
600.338 .0330073
601.113 .0329543
601.888 .0328806
602.663 .0328318
603.437 .0327847
604.211 .0327393
604.984 .0326954
605.757 .0326530
606.530 .0326119
607.302 .0325722
608.074 .0325337
608.845 .0324962
609.616 .0324599
610.387 .0324443
611.158 .0324098
611.928 .0323765
612.697 .0323444
613.467 .0323136
614.236 .0322843
615.004 .0322563
615.773 .0322298
616.541 .0322048
617.308 .0321812
618.076 .0321588
618.843 .0321375
619.609 .0321173
620.375 .0320978
621.141 .0320789
621.907 .0320605
622.672 .0320426
623.437 .0320250
624.202 .0320076
624.966 .0319903
625.730 .0319728
626.493 .0319550
627.257 .0319367
628.020 .0319177
628.782 .0318980
629.545 .0318774
630.307 .0318558
631.068 .0318333
631.830 .0318099
632.591 .0317855
633.352 .0317601
634.112 .0317338
634.872 .0317064
635.632 .0316781
636.392 .0316488
637.151 .0316188
637.910 .0315883
638.668 .0315575
639.427 .0315266
640.185 .0314958
640.943 .0314653
641.700 .0314352
642.457 .0314055
643.214 .0313765
643.971 .0313481
644.727 .0313203
645.483 .0312932
646.239 .0312669
646.994 .0312412
647.750 .0312163
648.505 .0311921
649.259 .0311686
650.014 .0311458
650.768 .0311235
651.521 .0311016
652.275 .0310802
653.028 .0310591
653.781 .0310381
654.534 .0310171
655.286 .0309958
656.039 .0309741
656.791 .0309520
657.542 .0309294
658.294 .0309064
659.045 .0308830
659.796 .0308592
660.546 .0308352
661.297 .0308110
662.047 .0307866
662.796 .0307620
663.546 .0307371
664.295 .0307121
665.044 .0306869
665.793 .0306617
666.542 .0306365
667.290 .0306115
668.038 .0305867
668.786 .0305624
669.533 .0305385
670.281 .0305151
671.028 .0304922
671.774 .0304699
672.521 .0304482
673.267 .0304271
674.013 .0304064
674.759 .0303862
675.505 .0303664
676.250 .0303468
676.995 .0303274
677.740 .0303082
678.484 .0302893
679.229 .0302706
679.973 .0302521
680.717 .0302339
681.460 .0302160
682.204 .0301982
682.947 .0301804
683.690 .0301627
684.433 .0301447
685.175 .0301265
685.917 .0301080
686.659 .0300892
687.401 .0300701
688.142 .0300508
688.884 .0300314
689.625 .0300118
690.365 .0299921
691.106 .0299721
691.846 .0299520
692.586 .0299317
693.326 .0299112
694.066 .0298905
694.805 .0298697
695.545 .0298488
696.284 .0298278
697.022 .0298070
697.761 .0297861
698.499 .0297655
699.237 .0297450
699.975 .0297248
700.713 .0297049
701.450 .0296854
702.187 .0296663
702.924 .0296476
703.661 .0296293
704.397 .0296114
705.133 .0295938
705.869 .0295764
706.605 .0295590
707.341 .0295418
708.076 .0295244
708.811 .0295071
709.546 .0294895
710.281 .0294719
711.015 .0294540
711.749 .0294360
712.483 .0294177
713.217 .0293991
713.950 .0293803
714.684 .0293611
715.417 .0293415
716.150 .0293215
716.882 .0293011
717.615 .0292803
718.347 .0292592
719.079 .0292377
719.811 .0292160
720.542 .0291941
721.273 .0291721
722.005 .0291502
722.735 .0291285
723.466 .0291072
724.196 .0290862
724.927 .0290658
725.656 .0290459
726.386 .0290266
727.116 .0290079
727.845 .0289897
728.574 .0289722
729.303 .0289553
730.031 .0289391
730.760 .0289235
731.488 .0289087
732.216 .0288946
732.944 .0288813
733.671 .0288685
734.398 .0288563
735.125 .0288446
735.852 .0288333
736.579 .0288224
737.305 .0288118
738.031 .0288015
738.757 .0287914
739.483 .0287813
740.208 .0287713
740.933 .0287613
741.658 .0287512
742.383 .0287409
743.108 .0287306
743.832 .0287201
744.556 .0287096
745.280 .0286990
746.004 .0286883
746.727 .0286776
747.450 .0286667
748.173 .0286556
748.896 .0286442
749.618 .0286325
750.340 .0286204
751.062 .0286078
751.784 .0285949
752.506 .0285815
753.227 .0285676
753.948 .0285534
754.669 .0285389
755.389 .0285240
756.110 .0285087
756.830 .0284933
757.550 .0284776
758.269 .0284617
758.989 .0284457
759.708 .0284295
760.427 .0284133
761.146 .0283970
761.864 .0283805
762.582 .0283640
763.300 .0283473
764.018 .0283305
764.736 .0283137
765.453 .0282969
766.170 .0282802
766.887 .0282637
767.603 .0282475
768.320 .0282316
769.036 .0282160
769.751 .0282009
770.467 .0281861
771.182 .0281716
771.897 .0281575
772.612 .0281436
773.327 .0281300
774.041 .0281167
774.755 .0281038
775.469 .0280913
776.183 .0280793
776.896 .0280677
777.609 .0280566
778.322 .0280460
779.035 .0280357
779.747 .0280259
780.459 .0280163
781.171 .0280070
781.882 .0279979
782.594 .0279888
783.305 .0279799
784.016 .0279709
784.726 .0279620
785.436 .0279530
786.147 .0279395
786.856 .0279302
787.566 .0279209
788.275 .0279115
788.984 .0279021
789.693 .0278925
790.401 .0278828
791.110 .0278729
791.818 .0278626
792.525 .0278521
793.233 .0278411
793.940 .0278298
794.647 .0278230
795.353 .0278112
796.060 .0277991
796.766 .0277867
797.472 .0277741
798.177 .0277611
798.883 .0277480
799.588 .0277345
800.292 .0277207
800.997 .0277067
801.701 .0276923
802.405 .0276777
803.109 .0276629
803.812 .0276479
804.515 .0276326
805.218 .0276172
805.921 .0276015
806.623 .0275857
807.325 .0275696
808.027 .0275533
808.728 .0275368
809.429 .0275202
810.130 .0275036
810.831 .0274870
811.531 .0274703
812.231 .0274537
812.931 .0274372
813.630 .0274207
814.330 .0274042
815.029 .0273879
815.727 .0273718
816.426 .0273560
817.124 .0273406
817.821 .0273256
818.519 .0273112
819.216 .0272974
819.913 .0272843
820.609 .0272718
821.306 .0272599
822.002 .0272487
822.697 .0272380
823.393 .0272280
824.088 .0272187
824.783 .0272100
825.477 .0272019
826.171 .0271943
826.865 .0271873
827.559 .0271807
828.252 .0271746
828.945 .0271687
829.638 .0271632
830.330 .0271580
831.023 .0271530
831.714 .0271482
832.406 .0271437
833.097 .0271394
833.788 .0271352
834.479 .0271310
835.169 .0271269
835.859 .0271227
836.548 .0271185
837.238 .0271143
837.927 .0271100
838.615 .0271056
839.304 .0271010
839.992 .0270963
840.680 .0270913
841.367 .0270861
842.054 .0270805
842.741 .0270745
843.428 .0270682
844.114 .0270615
844.800 .0270544
845.485 .0270471
846.170 .0270395
846.855 .0270315
847.540 .0270232
848.224 .0270146
848.908 .0270056
849.592 .0269962
850.275 .0269864
850.958 .0269763
851.641 .0269658
852.323 .0269550
853.005 .0269437
853.687 .0269319
854.368 .0269197
855.049 .0269070
855.730 .0268938
856.410 .0268802
857.090 .0268662
857.769 .0268519
858.449 .0268375
859.128 .0268230
859.806 .0268084
860.485 .0267939
861.163 .0267795
861.840 .0267651
862.518 .0267509
863.195 .0267369
863.871 .0267232
864.548 .0267097
865.224 .0266967
865.899 .0266841
866.574 .0266720
867.249 .0266604
867.924 .0266494
868.598 .0266390
869.272 .0266291
869.946 .0266199
870.619 .0266113
871.292 .0266033
871.964 .0265959
872.636 .0265892
873.308 .0265831
873.979 .0265776
874.651 .0265726
875.321 .0265681
875.992 .0265639
876.662 .0265602
877.331 .0265567
878.001 .0265534
878.670 .0265503
879.338 .0265473
880.007 .0265444
880.675 .0265415
881.342 .0265385
882.009 .0265354
882.676 .0265322
883.343 .0265290
884.009 .0265257
884.675 .0265223
885.340 .0265191
886.005 .0265159
886.670 .0265128
887.334 .0265099
887.998 .0265071
888.662 .0265044
889.325 .0265018
889.988 .0264994
890.650 .0264971
891.312 .0264949
891.974 .0264928
892.636 .0264908
893.297 .0264888
893.957 .0264868
894.618 .0264846
895.278 .0264823
895.937 .0264798
896.596 .0264769
897.255 .0264736
897.914 .0264698
898.572 .0264654
899.230 .0264603
899.887 .0264545
900.544 .0264479
901.201 .0264404
901.857 .0264246
902.513 .0264148
903.168 .0264041
903.823 .0263925
904.478 .0263800
905.132 .0263667
905.786 .0263526
906.440 .0263377
907.093 .0263221
907.746 .0263058
908.399 .0262890
909.051 .0262716
909.703 .0262537
910.354 .0262445
911.005 .0262263
911.656 .0262079
912.306 .0261892
912.956 .0261704
913.605 .0261514
914.254 .0261324
914.903 .0261132
915.551 .0260940
916.199 .0260747
916.847 .0260553
917.494 .0260358
918.141 .0260162
918.788 .0259963
919.434 .0259762
920.079 .0259559
920.725 .0259354
921.370 .0259147
922.014 .0258937
922.658 .0258724
923.302 .0258509
923.946 .0258289
924.589 .0258066
925.231 .0257840
925.873 .0257610
926.515 .0257376
927.157 .0257139
927.798 .0256900
928.439 .0256659
929.079 .0256418
929.719 .0256177
930.359 .0255936
930.998 .0255697
931.637 .0255459
932.275 .0255225
932.913 .0254996
933.551 .0254771
934.188 .0254553
934.825 .0254341
935.462 .0254137
936.098 .0253942
936.733 .0253754
937.369 .0253575
938.004 .0253403
938.638 .0253240
939.273 .0253085
939.907 .0252939
940.540 .0252801
941.173 .0252672
941.806 .0252552
942.438 .0252440
943.070 .0252335
943.702 .0252236
944.333 .0252143
944.964 .0252054
945.594 .0251969
946.224 .0251887
946.854 .0251807
947.483 .0251730
948.112 .0251654
948.741 .0251579
949.369 .0251505
949.996 .0251431
950.624 .0251356
951.251 .0251280
951.878 .0251202
952.504 .0251122
953.130 .0251040
953.755 .0250957
954.380 .0250871
955.005 .0250785
955.629 .0250698
956.253 .0250609
956.877 .0250519
957.500 .0250428
958.123 .0250335
958.746 .0250242
959.368 .0250147
959.990 .0250051
960.611 .0249955
961.232 .0249859
961.853 .0249762
962.473 .0249665
963.093 .0249567
963.712 .0249469
964.331 .0249371
964.950 .0249272
965.569 .0249174
966.187 .0249075
966.804 .0248977
967.422 .0248880
968.039 .0248783
968.655 .0248687
969.272 .0248592
969.887 .0248496
970.503 .0248400
971.118 .0248302
971.733 .0248204
972.347 .0248104
972.961 .0248002
973.575 .0247898
974.188 .0247792
974.801 .0247685
975.414 .0247576
976.026 .0247465
976.638 .0247353
977.250 .0247240
977.861 .0247125
978.472 .0247010
979.083 .0246895
979.693 .0246780
980.303 .0246665
980.912 .0246490
981.521 .0246376
982.130 .0246264
982.738 .0246152
983.346 .0246043
983.954 .0245935
984.562 .0245830
985.169 .0245727
985.775 .0245628
986.382 .0245532
986.988 .0245441
987.594 .0245354
988.199 .0245273
988.804 .0245198
989.409 .0245179
990.013 .0245113
990.617 .0245053
991.221 .0244997
991.824 .0244947
992.427 .0244902
993.030 .0244861
993.632 .0244825
994.234 .0244793
994.836 .0244767
995.438 .0244745
996.039 .0244727
996.640 .0244713
997.240 .0244704
997.840 .0244697
998.440 .0244694
999.040 .0244694
999.639 .0244697
1000.238 .0244703
1000.836 .0244711
1001.435 .0244722
1002.033 .0244737
1002.630 .0244756
1003.228 .0244777
1003.825 .0244802
1004.422 .0244830
1005.018 .0244859
1005.614 .0244891
1006.210 .0244923
1006.806 .0244957
1007.401 .0244992
1007.996 .0245028
1008.591 .0245066
1009.186 .0245107
1009.780 .0245151
1010.374 .0245199
1010.967 .0245251
1011.561 .0245307
1012.154 .0245366
1012.746 .0245428
1013.339 .0245495
1013.931 .0245566
1014.523 .0245641
1015.115 .0245721
1015.706 .0245805
1016.298 .0245895
1016.888 .0245989
1017.479 .0246088
1018.069 .0246189
1018.660 .0246294
1019.250 .0246400
1019.839 .0246507
1020.429 .0246615
1021.018 .0246724
1021.607 .0246834
1022.195 .0246944
1022.784 .0247056
1023.372 .0247168
1023.960 .0247282
1024.547 .0247396
1025.135 .0247511
1025.722 .0247627
1026.309 .0247743
1026.896 .0247860
1027.483 .0247978
1028.069 .0248096
1028.655 .0248215
1029.241 .0248334
1029.827 .0248453
1030.412 .0248571
1030.997 .0248688
1031.582 .0248804
1032.167 .0248918
1032.752 .0249030
1033.336 .0249139
1033.921 .0249247
1034.505 .0249352
1035.089 .0249454
1035.672 .0249554
1036.256 .0249651
1036.839 .0249745
1037.422 .0249837
1038.005 .0249925
1038.588 .0250010
1039.171 .0250092
1039.753 .0250170
1040.335 .0250246
1040.918 .0250320
1041.500 .0250391
1042.081 .0250462
1042.663 .0250530
1043.244 .0250598
1043.826 .0250664
1044.407 .0250728
1044.988 .0250791
1045.569 .0250853
1046.150 .0250913
1046.730 .0250971
1047.311 .0251029
1047.891 .0251087
1048.471 .0251144
1049.052 .0251201
1049.632 .0251258
1050.211 .0251316
1050.791 .0251375
1051.371 .0251434
1051.950 .0251494
1052.530 .0251556
1053.109 .0251620
1053.688 .0251686
1054.268 .0251755
1054.847 .0251826
1055.426 .0251900
1056.005 .0251976
1056.583 .0252053
1057.162 .0252131
1057.741 .0252210
1058.319 .0252287
1058.898 .0252364
1059.476 .0252439
1060.055 .0252512
1060.633 .0252582
1061.211 .0252651
1061.790 .0252716
1062.368 .0252778
1062.946 .0252837
1063.524 .0252891
1064.102 .0252941
1064.680 .0252986
1065.258 .0253026
1065.836 .0253061
1066.414 .0253091
1066.992 .0253118
1067.570 .0253142
1068.148 .0253164
1068.726 .0253183
1069.304 .0253198
1069.882 .0253208
1070.460 .0253213
1071.038 .0253210
1071.616 .0253200
1072.194 .0253181
1072.772 .0253154
1073.350 .0253120
1073.928 .0253079
1074.506 .0253032
1075.084 .0252981
1075.662 .0252927
1076.240 .0252868
1076.819 .0252807
1077.397 .0252743
1077.976 .0252678
1078.554 .0252612
1079.133 .0252549
1079.711 .0252489
1080.290 .0252435
1080.869 .0252387
1081.448 .0252346
1082.027 .0252313
1082.606 .0252287
1083.185 .0252267
1083.764 .0252252
1084.343 .0252241
1084.923 .0252233
1085.502 .0252229
1086.082 .0252229
1086.662 .0252234
1087.242 .0252243
1087.822 .0252257
1088.402 .0252277
1088.983 .0252302
1089.563 .0252331
1090.144 .0252365
1090.725 .0252402
1091.306 .0252443
1091.887 .0252487
1092.469 .0252536
1093.050 .0252592
1093.632 .0252654
1094.214 .0252725
1094.796 .0252805
1095.379 .0252895
1095.961 .0252993
1096.544 .0253099
1097.127 .0253212
1097.710 .0253329
1098.294 .0253449
1098.877 .0253571
1099.461 .0253694
1100.046 .0253820
1100.630 .0253947
1101.215 .0254077
1101.800 .0254210
1102.385 .0254347
1102.970 .0254487
1103.556 .0254633
1104.142 .0254786
1104.728 .0254944
1105.315 .0255109
1105.902 .0255281
1106.489 .0255460
1107.077 .0255647
1107.664 .0255844
1108.253 .0256050
1108.841 .0256268
1109.430 .0256499
1110.019 .0256746
1110.609 .0257009
1111.198 .0257292
1111.789 .0257591
1112.379 .0257907
1112.970 .0258235
1113.561 .0258572
1114.153 .0258916
1114.745 .0259265
1115.338 .0259621
1115.931 .0259984
1116.524 .0260358
1117.117 .0260746
1117.712 .0261152
1118.306 .0261581
1118.901 .0262031
1119.496 .0262504
1120.092 .0262998
1120.689 .0263508
1121.285 .0264032
1121.882 .0264567
1122.480 .0265117
1123.078 .0265683
1123.677 .0266270
1124.276 .0266877
1124.875 .0267507
1125.476 .0268161
1126.076 .0268831
1126.677 .0269514
1127.279 .0270205
1127.881 .0270896
1128.484 .0271587
1129.087 .0271908
1129.691 .0272596
1130.295 .0273289
1130.900 .0273996
1131.505 .0274723
1132.111 .0275474
1132.718 .0276255
1133.325 .0277083
1133.933 .0277957
1134.541 .0278784
1135.150 .0279643
1135.760 .0280613
1136.370 .0281989
1136.981 .0281870
1137.592 .0282591
1138.204 .0283391
1138.817 .0284341
1139.431 .0285378
1140.045 .0286481
1140.660 .0287732
1141.275 .0289459
1141.891 .0291227
1142.508 .0290507
1143.126 .0292138
1143.744 .0296027
1144.363 .0308256
1144.983 .0302204
