Measurement Sequence started on: 15-12-46-377
Integration time: 28
Scans to Average: 2 
>>>>>Begin Spectral Data<<<<<
432.689 .0000100
433.621 .0000100
434.552 .0000100
435.482 .0000100
436.410 .0000100
437.337 .0000100
438.262 .0263750
439.187 .0560853
440.110 .0930292
441.031 .1347250
441.952 .1085309
442.871 .1134243
443.789 .1179928
444.705 .1223018
445.621 .1263965
446.535 .1303095
447.447 .1326764
448.359 .1333406
449.269 .1319372
450.178 .1282295
451.086 .1222907
451.993 .1145803
452.898 .1058630
453.803 .0970081
454.706 .0887561
455.608 .0815680
456.508 .0755994
457.408 .0715283
458.306 .0683789
459.204 .0657919
460.100 .0635885
460.995 .0616704
461.888 .0599751
462.781 .0584603
463.673 .0570967
464.563 .0558641
465.452 .0547465
466.340 .0537306
467.228 .0528057
468.114 .0519621
468.999 .0511910
469.882 .0504843
470.765 .0498346
471.647 .0492355
472.528 .0486830
473.407 .0481730
474.286 .0477030
475.163 .0472720
476.040 .0468789
476.915 .0465222
477.790 .0462006
478.663 .0459124
479.535 .0456554
480.407 .0454274
481.277 .0452265
482.147 .0450501
483.015 .0448969
483.883 .0447658
484.749 .0446562
485.615 .0445684
486.479 .0445027
487.343 .0444590
488.206 .0444379
489.067 .0444394
489.928 .0444634
490.788 .0445100
491.647 .0445790
492.505 .0446700
493.362 .0447830
494.218 .0449183
495.073 .0450762
495.928 .0453931
496.781 .0456077
497.634 .0458445
498.486 .0461031
499.337 .0463837
500.187 .0466861
501.036 .0470107
501.884 .0473585
502.731 .0477319
503.578 .0481345
504.424 .0483967
505.268 .0488594
506.113 .0493665
506.956 .0499243
507.798 .0505398
508.640 .0512210
509.480 .0519777
510.320 .0528211
511.160 .0537644
511.998 .0548223
512.836 .0560137
513.672 .0573564
514.508 .0588740
515.344 .0605930
516.178 .0625397
517.012 .0647422
517.845 .0672268
518.677 .0700160
519.508 .0731270
520.339 .0765668
521.169 .0803341
521.998 .0844029
522.826 .0887348
523.654 .0932715
524.481 .0979409
525.307 .1026631
526.133 .1073460
526.958 .1118940
527.782 .1162160
528.605 .1202229
529.428 .1238372
530.250 .1269911
531.072 .1296363
531.892 .1317307
532.712 .1332437
533.532 .1341578
534.350 .1344624
535.168 .1341571
535.986 .1332470
536.802 .1317409
537.618 .1296566
538.434 .1270154
539.249 .1238594
540.063 .1202430
540.876 .1162350
541.689 .1119153
542.501 .1073691
543.313 .1026903
544.124 .0979726
544.934 .0933024
545.744 .0887609
546.553 .0844150
547.361 .0803185
548.169 .0765055
548.976 .0729994
549.783 .0698089
550.589 .0669289
551.395 .0643443
552.200 .0620306
553.004 .0599601
553.808 .0581052
554.611 .0564380
555.414 .0549349
556.216 .0535747
557.018 .0523367
557.819 .0512045
558.619 .0501648
559.419 .0492051
560.218 .0483158
561.017 .0474887
561.815 .0467172
562.613 .0459954
563.410 .0453178
564.207 .0446796
565.003 .0440760
565.799 .0435018
566.594 .0429522
567.388 .0424234
568.182 .0419128
568.976 .0414178
569.769 .0409369
570.562 .0404696
571.354 .0400161
572.145 .0395766
572.936 .0391515
573.727 .0387402
574.517 .0383424
575.307 .0379576
576.096 .0375859
576.885 .0372272
577.673 .0368816
578.461 .0365493
579.248 .0362308
580.035 .0359266
580.821 .0356367
581.607 .0353614
582.392 .0351010
583.177 .0348556
583.962 .0346249
584.746 .0344086
585.529 .0342069
586.313 .0340195
587.095 .0338464
587.878 .0336870
588.660 .0335407
589.441 .0334065
590.222 .0332836
591.003 .0331708
591.783 .0330669
592.563 .0329710
593.342 .0328819
594.121 .0327988
594.899 .0327206
595.678 .0326467
596.455 .0325763
597.233 .0325090
598.009 .0324444
598.786 .0323820
599.562 .0323214
600.338 .0322625
601.113 .0322050
601.888 .0321233
602.663 .0320693
603.437 .0320166
604.211 .0319653
604.984 .0319155
605.757 .0318673
606.530 .0318208
607.302 .0317762
608.074 .0317336
608.845 .0316929
609.616 .0316544
610.387 .0316403
611.158 .0316049
611.928 .0315716
612.697 .0315405
613.467 .0315115
614.236 .0314846
615.004 .0314595
615.773 .0314363
616.541 .0314147
617.308 .0313946
618.076 .0313760
618.843 .0313585
619.609 .0313420
620.375 .0313264
621.141 .0313115
621.907 .0312971
622.672 .0312829
623.437 .0312689
624.202 .0312549
624.966 .0312407
625.730 .0312262
626.493 .0312116
627.257 .0311967
628.020 .0311816
628.782 .0311662
629.545 .0311505
630.307 .0311343
631.068 .0311176
631.830 .0311003
632.591 .0310825
633.352 .0310640
634.112 .0310450
634.872 .0310255
635.632 .0310057
636.392 .0309857
637.151 .0309655
637.910 .0309452
638.668 .0309248
639.427 .0309042
640.185 .0308833
640.943 .0308622
641.700 .0308410
642.457 .0308196
643.214 .0307981
643.971 .0307768
644.727 .0307555
645.483 .0307344
646.239 .0307134
646.994 .0306926
647.750 .0306717
648.505 .0306508
649.259 .0306298
650.014 .0306086
650.768 .0305871
651.521 .0305654
652.275 .0305432
653.028 .0305207
653.781 .0304976
654.534 .0304741
655.286 .0304501
656.039 .0304257
656.791 .0304009
657.542 .0303758
658.294 .0303505
659.045 .0303249
659.796 .0302991
660.546 .0302729
661.297 .0302463
662.047 .0302192
662.796 .0301916
663.546 .0301635
664.295 .0301350
665.044 .0301062
665.793 .0300774
666.542 .0300487
667.290 .0300202
668.038 .0299920
668.786 .0299641
669.533 .0299366
670.281 .0299093
671.028 .0298824
671.774 .0298558
672.521 .0298297
673.267 .0298042
674.013 .0297793
674.759 .0297552
675.505 .0297319
676.250 .0297095
676.995 .0296878
677.740 .0296669
678.484 .0296466
679.229 .0296270
679.973 .0296079
680.717 .0295894
681.460 .0295715
682.204 .0295542
682.947 .0295373
683.690 .0295209
684.433 .0295049
685.175 .0294894
685.917 .0294742
686.659 .0294593
687.401 .0294448
688.142 .0294306
688.884 .0294168
689.625 .0294032
690.365 .0293900
691.106 .0293770
691.846 .0293642
692.586 .0293517
693.326 .0293394
694.066 .0293273
694.805 .0293155
695.545 .0293039
696.284 .0292926
697.022 .0292816
697.761 .0292709
698.499 .0292604
699.237 .0292501
699.975 .0292400
700.713 .0292300
701.450 .0292201
702.187 .0292104
702.924 .0292009
703.661 .0291915
704.397 .0291824
705.133 .0291734
705.869 .0291645
706.605 .0291556
707.341 .0291467
708.076 .0291377
708.811 .0291285
709.546 .0291191
710.281 .0291095
711.015 .0290997
711.749 .0290897
712.483 .0290795
713.217 .0290692
713.950 .0290586
714.684 .0290478
715.417 .0290367
716.150 .0290253
716.882 .0290135
717.615 .0290013
718.347 .0289886
719.079 .0289756
719.811 .0289621
720.542 .0289481
721.273 .0289336
722.005 .0289187
722.735 .0289034
723.466 .0288877
724.196 .0288718
724.927 .0288556
725.656 .0288392
726.386 .0288227
727.116 .0288062
727.845 .0287895
728.574 .0287727
729.303 .0287559
730.031 .0287389
730.760 .0287219
731.488 .0287049
732.216 .0286879
732.944 .0286710
733.671 .0286542
734.398 .0286377
735.125 .0286214
735.852 .0286054
736.579 .0285897
737.305 .0285742
738.031 .0285590
738.757 .0285439
739.483 .0285291
740.208 .0285143
740.933 .0284997
741.658 .0284850
742.383 .0284702
743.108 .0284553
743.832 .0284402
744.556 .0284249
745.280 .0284095
746.004 .0283938
746.727 .0283778
747.450 .0283616
748.173 .0283451
748.896 .0283283
749.618 .0283112
750.340 .0282938
751.062 .0282760
751.784 .0282580
752.506 .0282396
753.227 .0282210
753.948 .0282022
754.669 .0281831
755.389 .0281640
756.110 .0281447
756.830 .0281254
757.550 .0281061
758.269 .0280868
758.989 .0280676
759.708 .0280485
760.427 .0280295
761.146 .0280107
761.864 .0279919
762.582 .0279732
763.300 .0279547
764.018 .0279364
764.736 .0279183
765.453 .0279006
766.170 .0278831
766.887 .0278660
767.603 .0278493
768.320 .0278330
769.036 .0278173
769.751 .0278022
770.467 .0277876
771.182 .0277736
771.897 .0277603
772.612 .0277478
773.327 .0277360
774.041 .0277250
774.755 .0277148
775.469 .0277055
776.183 .0276971
776.896 .0276896
777.609 .0276831
778.322 .0276774
779.035 .0276726
779.747 .0276687
780.459 .0276655
781.171 .0276632
781.882 .0276615
782.594 .0276605
783.305 .0276601
784.016 .0276602
784.726 .0276606
785.436 .0276615
786.147 .0276632
786.856 .0276644
787.566 .0276658
788.275 .0276672
788.984 .0276687
789.693 .0276702
790.401 .0276717
791.110 .0276730
791.818 .0276743
792.525 .0276754
793.233 .0276762
793.940 .0276767
794.647 .0276765
795.353 .0276766
796.060 .0276765
796.766 .0276760
797.472 .0276753
798.177 .0276742
798.883 .0276728
799.588 .0276709
800.292 .0276687
800.997 .0276660
801.701 .0276628
802.405 .0276592
803.109 .0276552
803.812 .0276507
804.515 .0276458
805.218 .0276404
805.921 .0276346
806.623 .0276282
807.325 .0276213
808.027 .0276138
808.728 .0276058
809.429 .0275973
810.130 .0275883
810.831 .0275790
811.531 .0275693
812.231 .0275592
812.931 .0275489
813.630 .0275384
814.330 .0275278
815.029 .0275172
815.727 .0275066
816.426 .0274961
817.124 .0274858
817.821 .0274756
818.519 .0274656
819.216 .0274558
819.913 .0274462
820.609 .0274368
821.306 .0274276
822.002 .0274186
822.697 .0274098
823.393 .0274013
824.088 .0273931
824.783 .0273852
825.477 .0273775
826.171 .0273700
826.865 .0273626
827.559 .0273554
828.252 .0273483
828.945 .0273413
829.638 .0273342
830.330 .0273272
831.023 .0273200
831.714 .0273126
832.406 .0273050
833.097 .0272971
833.788 .0272889
834.479 .0272804
835.169 .0272714
835.859 .0272622
836.548 .0272525
837.238 .0272425
837.927 .0272320
838.615 .0272210
839.304 .0272095
839.992 .0271974
840.680 .0271847
841.367 .0271714
842.054 .0271576
842.741 .0271432
843.428 .0271284
844.114 .0271132
844.800 .0270975
845.485 .0270814
846.170 .0270648
846.855 .0270478
847.540 .0270302
848.224 .0270122
848.908 .0269936
849.592 .0269746
850.275 .0269552
850.958 .0269354
851.641 .0269152
852.323 .0268946
853.005 .0268737
853.687 .0268524
854.368 .0268309
855.049 .0268093
855.730 .0267875
856.410 .0267657
857.090 .0267439
857.769 .0267222
858.449 .0267006
859.128 .0266790
859.806 .0266577
860.485 .0266364
861.163 .0266154
861.840 .0265946
862.518 .0265742
863.195 .0265541
863.871 .0265345
864.548 .0265154
865.224 .0264968
865.899 .0264787
866.574 .0264611
867.249 .0264441
867.924 .0264275
868.598 .0264114
869.272 .0263958
869.946 .0263808
870.619 .0263664
871.292 .0263526
871.964 .0263394
872.636 .0263267
873.308 .0263146
873.979 .0263030
874.651 .0262919
875.321 .0262812
875.992 .0262710
876.662 .0262613
877.331 .0262521
878.001 .0262433
878.670 .0262351
879.338 .0262272
880.007 .0262199
880.675 .0262129
881.342 .0262065
882.009 .0262005
882.676 .0261951
883.343 .0261903
884.009 .0261860
884.675 .0261824
885.340 .0261795
886.005 .0261772
886.670 .0261756
887.334 .0261746
887.998 .0261743
888.662 .0261746
889.325 .0261755
889.988 .0261772
890.650 .0261795
891.312 .0261825
891.974 .0261860
892.636 .0261902
893.297 .0261947
893.957 .0261997
894.618 .0262050
895.278 .0262104
895.937 .0262160
896.596 .0262217
897.255 .0262273
897.914 .0262329
898.572 .0262383
899.230 .0262434
899.887 .0262482
900.544 .0262525
901.201 .0262563
901.857 .0262588
902.513 .0262607
903.168 .0262620
903.823 .0262625
904.478 .0262623
905.132 .0262614
905.786 .0262597
906.440 .0262574
907.093 .0262544
907.746 .0262507
908.399 .0262465
909.051 .0262418
909.703 .0262366
910.354 .0262333
911.005 .0262280
911.656 .0262224
912.306 .0262167
912.956 .0262108
913.605 .0262048
914.254 .0261986
914.903 .0261923
915.551 .0261858
916.199 .0261791
916.847 .0261723
917.494 .0261653
918.141 .0261581
918.788 .0261507
919.434 .0261432
920.079 .0261354
920.725 .0261273
921.370 .0261189
922.014 .0261102
922.658 .0261009
923.302 .0260912
923.946 .0260810
924.589 .0260703
925.231 .0260591
925.873 .0260474
926.515 .0260353
927.157 .0260228
927.798 .0260100
928.439 .0259969
929.079 .0259835
929.719 .0259699
930.359 .0259562
930.998 .0259424
931.637 .0259286
932.275 .0259150
932.913 .0259015
933.551 .0258884
934.188 .0258758
934.825 .0258636
935.462 .0258521
936.098 .0258412
936.733 .0258308
937.369 .0258210
938.004 .0258117
938.638 .0258029
939.273 .0257946
939.907 .0257868
940.540 .0257795
941.173 .0257727
941.806 .0257662
942.438 .0257601
943.070 .0257542
943.702 .0257484
944.333 .0257425
944.964 .0257365
945.594 .0257303
946.224 .0257238
946.854 .0257169
947.483 .0257096
948.112 .0257019
948.741 .0256938
949.369 .0256851
949.996 .0256759
950.624 .0256660
951.251 .0256555
951.878 .0256443
952.504 .0256324
953.130 .0256198
953.755 .0256067
954.380 .0255930
955.005 .0255789
955.629 .0255644
956.253 .0255496
956.877 .0255345
957.500 .0255192
958.123 .0255037
958.746 .0254882
959.368 .0254726
959.990 .0254571
960.611 .0254418
961.232 .0254267
961.853 .0254118
962.473 .0253972
963.093 .0253829
963.712 .0253688
964.331 .0253549
964.950 .0253413
965.569 .0253278
966.187 .0253146
966.804 .0253016
967.422 .0252887
968.039 .0252759
968.655 .0252632
969.272 .0252505
969.887 .0252378
970.503 .0252250
971.118 .0252122
971.733 .0251993
972.347 .0251861
972.961 .0251728
973.575 .0251592
974.188 .0251452
974.801 .0251309
975.414 .0251160
976.026 .0251006
976.638 .0250847
977.250 .0250683
977.861 .0250513
978.472 .0250338
979.083 .0250159
979.693 .0249974
980.303 .0249786
980.912 .0249482
981.521 .0249284
982.130 .0249082
982.738 .0248879
983.346 .0248675
983.954 .0248471
984.562 .0248269
985.169 .0248070
985.775 .0247875
986.382 .0247685
986.988 .0247500
987.594 .0247320
988.199 .0247145
988.804 .0246976
989.409 .0246914
990.013 .0246753
990.617 .0246598
991.221 .0246449
991.824 .0246306
992.427 .0246170
993.030 .0246040
993.632 .0245916
994.234 .0245798
994.836 .0245685
995.438 .0245577
996.039 .0245474
996.640 .0245376
997.240 .0245284
997.840 .0245198
998.440 .0245120
999.040 .0245048
999.639 .0244984
1000.238 .0244927
1000.836 .0244875
1001.435 .0244829
1002.033 .0244787
1002.630 .0244748
1003.228 .0244713
1003.825 .0244679
1004.422 .0244649
1005.018 .0244621
1005.614 .0244596
1006.210 .0244574
1006.806 .0244555
1007.401 .0244540
1007.996 .0244527
1008.591 .0244516
1009.186 .0244508
1009.780 .0244502
1010.374 .0244499
1010.967 .0244497
1011.561 .0244499
1012.154 .0244505
1012.746 .0244515
1013.339 .0244531
1013.931 .0244551
1014.523 .0244577
1015.115 .0244607
1015.706 .0244641
1016.298 .0244680
1016.888 .0244722
1017.479 .0244768
1018.069 .0244818
1018.660 .0244872
1019.250 .0244932
1019.839 .0244999
1020.429 .0245072
1021.018 .0245152
1021.607 .0245238
1022.195 .0245332
1022.784 .0245432
1023.372 .0245537
1023.960 .0245649
1024.547 .0245765
1025.135 .0245887
1025.722 .0246013
1026.309 .0246143
1026.896 .0246278
1027.483 .0246417
1028.069 .0246560
1028.655 .0246706
1029.241 .0246854
1029.827 .0247003
1030.412 .0247154
1030.997 .0247304
1031.582 .0247454
1032.167 .0247603
1032.752 .0247750
1033.336 .0247896
1033.921 .0248039
1034.505 .0248179
1035.089 .0248315
1035.672 .0248446
1036.256 .0248571
1036.839 .0248690
1037.422 .0248801
1038.005 .0248905
1038.588 .0249002
1039.171 .0249091
1039.753 .0249174
1040.335 .0249251
1040.918 .0249323
1041.500 .0249391
1042.081 .0249456
1042.663 .0249519
1043.244 .0249581
1043.826 .0249643
1044.407 .0249704
1044.988 .0249767
1045.569 .0249830
1046.150 .0249894
1046.730 .0249959
1047.311 .0250026
1047.891 .0250094
1048.471 .0250163
1049.052 .0250234
1049.632 .0250305
1050.211 .0250377
1050.791 .0250447
1051.371 .0250516
1051.950 .0250583
1052.530 .0250647
1053.109 .0250710
1053.688 .0250771
1054.268 .0250830
1054.847 .0250889
1055.426 .0250950
1056.005 .0251012
1056.583 .0251076
1057.162 .0251141
1057.741 .0251207
1058.319 .0251274
1058.898 .0251341
1059.476 .0251409
1060.055 .0251478
1060.633 .0251548
1061.211 .0251620
1061.790 .0251695
1062.368 .0251772
1062.946 .0251852
1063.524 .0251934
1064.102 .0252019
1064.680 .0252104
1065.258 .0252191
1065.836 .0252278
1066.414 .0252368
1066.992 .0252461
1067.570 .0252558
1068.148 .0252661
1068.726 .0252770
1069.304 .0252886
1069.882 .0253008
1070.460 .0253135
1071.038 .0253267
1071.616 .0253400
1072.194 .0253534
1072.772 .0253667
1073.350 .0253799
1073.928 .0253928
1074.506 .0254057
1075.084 .0254183
1075.662 .0254308
1076.240 .0254431
1076.819 .0254553
1077.397 .0254675
1077.976 .0254795
1078.554 .0254913
1079.133 .0255030
1079.711 .0255146
1080.290 .0255262
1080.869 .0255379
1081.448 .0255499
1082.027 .0255623
1082.606 .0255750
1083.185 .0255882
1083.764 .0256016
1084.343 .0256155
1084.923 .0256296
1085.502 .0256441
1086.082 .0256586
1086.662 .0256732
1087.242 .0256879
1087.822 .0257025
1088.402 .0257173
1088.983 .0257321
1089.563 .0257470
1090.144 .0257621
1090.725 .0257773
1091.306 .0257926
1091.887 .0258083
1092.469 .0258241
1093.050 .0258402
1093.632 .0258564
1094.214 .0258728
1094.796 .0258892
1095.379 .0259056
1095.961 .0259220
1096.544 .0259383
1097.127 .0259544
1097.710 .0259702
1098.294 .0259857
1098.877 .0260009
1099.461 .0260158
1100.046 .0260306
1100.630 .0260455
1101.215 .0260605
1101.800 .0260757
1102.385 .0260910
1102.970 .0261066
1103.556 .0261224
1104.142 .0261382
1104.728 .0261542
1105.315 .0261704
1105.902 .0261869
1106.489 .0262040
1107.077 .0262219
1107.664 .0262408
1108.253 .0262609
1108.841 .0262821
1109.430 .0263043
1110.019 .0263272
1110.609 .0263509
1111.198 .0263753
1111.789 .0264006
1112.379 .0264271
1112.970 .0264552
1113.561 .0264850
1114.153 .0265170
1114.745 .0265513
1115.338 .0265876
1115.931 .0266257
1116.524 .0266651
1117.117 .0267054
1117.712 .0267461
1118.306 .0267869
1118.901 .0268276
1119.496 .0268684
1120.092 .0269097
1120.689 .0269516
1121.285 .0269944
1121.882 .0270380
1122.480 .0270824
1123.078 .0271273
1123.677 .0271723
1124.276 .0272170
1124.875 .0272613
1125.476 .0273051
1126.076 .0273483
1126.677 .0273913
1127.279 .0274346
1127.881 .0274789
1128.484 .0275247
1129.087 .0275498
1129.691 .0275973
1130.295 .0276462
1130.900 .0276966
1131.505 .0277488
1132.111 .0278030
1132.718 .0278597
1133.325 .0279202
1133.933 .0279865
1134.541 .0280551
1135.150 .0281283
1135.760 .0282076
1136.370 .0283138
1136.981 .0281053
1137.592 .0281999
1138.204 .0283002
1138.817 .0284116
1139.431 .0285374
1140.045 .0286706
1140.660 .0288130
1141.275 .0289866
1141.891 .0292058
1142.508 .0293198
1143.126 .0294841
1143.744 .0296844
1144.363 .0304681
1144.983 .0313461
