Measurement Sequence started on: 15-12-46-377
Integration time: 28
Scans to Average: 2 
>>>>>Begin Spectral Data<<<<<
432.689 .0000100
433.621 .0000100
434.552 .0000100
435.482 .0000100
436.410 .0000100
437.337 .0000100
438.262 .0272917
439.187 .0577778
440.110 .0957278
441.031 .1385202
441.952 .1113751
442.871 .1163816
443.789 .1210508
444.705 .1254505
445.621 .1296274
446.535 .1336155
447.447 .1360043
448.359 .1366434
449.269 .1351574
450.178 .1313042
451.086 .1251593
451.993 .1171957
452.898 .1081998
453.803 .0990622
454.706 .0905428
455.608 .0831120
456.508 .0769294
457.408 .0726993
458.306 .0694092
459.204 .0667008
460.100 .0643940
460.995 .0623909
461.888 .0606274
462.781 .0590598
463.673 .0576576
464.563 .0563978
465.452 .0552646
466.340 .0542435
467.228 .0533240
468.114 .0524973
468.999 .0517555
469.882 .0510911
470.765 .0504970
471.647 .0499656
472.528 .0494904
473.407 .0490654
474.286 .0486850
475.163 .0483445
476.040 .0480387
476.915 .0477637
477.790 .0475164
478.663 .0472943
479.535 .0470953
480.407 .0469174
481.277 .0467592
482.147 .0466192
483.015 .0464957
483.883 .0463879
484.749 .0462947
485.615 .0462161
486.479 .0461526
487.343 .0461050
488.206 .0460751
489.067 .0460643
489.928 .0460742
490.788 .0461068
491.647 .0461635
492.505 .0462452
493.362 .0463520
494.218 .0464844
495.073 .0466420
495.928 .0469695
496.781 .0471903
497.634 .0474373
498.486 .0477112
499.337 .0480138
500.187 .0483461
501.036 .0487093
501.884 .0491056
502.731 .0495369
503.578 .0500056
504.424 .0503175
505.268 .0508530
506.113 .0514350
506.956 .0520681
507.798 .0527570
508.640 .0535073
509.480 .0543271
510.320 .0552251
511.160 .0562107
511.998 .0572965
512.836 .0584986
513.672 .0598346
514.508 .0613269
515.344 .0630003
516.178 .0648781
517.012 .0669851
517.845 .0693452
518.677 .0719774
519.508 .0748963
520.339 .0781069
521.169 .0816088
521.998 .0853800
522.826 .0893880
523.654 .0935828
524.481 .0979038
525.307 .1022829
526.133 .1066389
526.958 .1108824
527.782 .1149292
528.605 .1186956
529.428 .1221059
530.250 .1250918
531.072 .1276044
531.892 .1296021
532.712 .1310569
533.532 .1319523
534.350 .1322813
535.168 .1320449
535.986 .1312515
536.802 .1299076
537.618 .1280284
538.434 .1256301
539.249 .1227476
540.063 .1194267
540.876 .1157281
541.689 .1117196
542.501 .1074757
543.313 .1030803
544.124 .0986239
544.934 .0941893
545.744 .0898565
546.553 .0856942
547.361 .0817608
548.169 .0780920
548.976 .0747108
549.783 .0716234
550.589 .0688254
551.395 .0662991
552.200 .0640200
553.004 .0619599
553.808 .0600960
554.611 .0584050
555.414 .0568673
556.216 .0554656
557.018 .0541819
557.819 .0530010
558.619 .0519099
559.419 .0508971
560.218 .0499543
561.017 .0490730
561.815 .0482465
562.613 .0474693
563.410 .0467351
564.207 .0460375
565.003 .0453710
565.799 .0447307
566.594 .0441123
567.388 .0435121
568.182 .0429280
568.976 .0423585
569.769 .0418034
570.562 .0412632
571.354 .0407386
572.145 .0402311
572.936 .0397423
573.727 .0392728
574.517 .0388232
575.307 .0383935
576.096 .0379830
576.885 .0375912
577.673 .0372174
578.461 .0368611
579.248 .0365219
580.035 .0362002
580.821 .0358962
581.607 .0356103
582.392 .0353428
583.177 .0350936
583.962 .0348626
584.746 .0346493
585.529 .0344529
586.313 .0342722
587.095 .0341059
587.878 .0339530
588.660 .0338124
589.441 .0336830
590.222 .0335641
591.003 .0334550
591.783 .0333550
592.563 .0332633
593.342 .0331787
594.121 .0331005
594.899 .0330276
595.678 .0329592
596.455 .0328946
597.233 .0328329
598.009 .0327738
598.786 .0327172
599.562 .0326626
600.338 .0326099
601.113 .0325589
601.888 .0324872
602.663 .0324400
603.437 .0323942
604.211 .0323499
604.984 .0323068
605.757 .0322650
606.530 .0322245
607.302 .0321854
608.074 .0321475
608.845 .0321111
609.616 .0320764
610.387 .0320634
611.158 .0320314
611.928 .0320012
612.697 .0319727
613.467 .0319459
614.236 .0319207
615.004 .0318968
615.773 .0318742
616.541 .0318524
617.308 .0318315
618.076 .0318114
618.843 .0317919
619.609 .0317730
620.375 .0317547
621.141 .0317368
621.907 .0317191
622.672 .0317015
623.437 .0316837
624.202 .0316656
624.966 .0316469
625.730 .0316276
626.493 .0316077
627.257 .0315869
628.020 .0315654
628.782 .0315431
629.545 .0315200
630.307 .0314963
631.068 .0314719
631.830 .0314471
632.591 .0314218
633.352 .0313961
634.112 .0313702
634.872 .0313439
635.632 .0313174
636.392 .0312906
637.151 .0312634
637.910 .0312359
638.668 .0312082
639.427 .0311803
640.185 .0311523
640.943 .0311243
641.700 .0310965
642.457 .0310689
643.214 .0310417
643.971 .0310147
644.727 .0309879
645.483 .0309614
646.239 .0309349
646.994 .0309084
647.750 .0308819
648.505 .0308553
649.259 .0308285
650.014 .0308016
650.768 .0307746
651.521 .0307474
652.275 .0307202
653.028 .0306928
653.781 .0306653
654.534 .0306377
655.286 .0306100
656.039 .0305821
656.791 .0305540
657.542 .0305257
658.294 .0304972
659.045 .0304687
659.796 .0304400
660.546 .0304113
661.297 .0303826
662.047 .0303540
662.796 .0303255
663.546 .0302971
664.295 .0302689
665.044 .0302409
665.793 .0302132
666.542 .0301858
667.290 .0301588
668.038 .0301322
668.786 .0301061
669.533 .0300805
670.281 .0300555
671.028 .0300309
671.774 .0300070
672.521 .0299836
673.267 .0299607
674.013 .0299385
674.759 .0299168
675.505 .0298957
676.250 .0298752
676.995 .0298551
677.740 .0298355
678.484 .0298163
679.229 .0297975
679.973 .0297791
680.717 .0297611
681.460 .0297434
682.204 .0297261
682.947 .0297091
683.690 .0296924
684.433 .0296758
685.175 .0296594
685.917 .0296432
686.659 .0296272
687.401 .0296115
688.142 .0295960
688.884 .0295808
689.625 .0295661
690.365 .0295516
691.106 .0295376
691.846 .0295239
692.586 .0295105
693.326 .0294973
694.066 .0294845
694.805 .0294718
695.545 .0294594
696.284 .0294473
697.022 .0294354
697.761 .0294239
698.499 .0294128
699.237 .0294020
699.975 .0293917
700.713 .0293819
701.450 .0293725
702.187 .0293635
702.924 .0293548
703.661 .0293463
704.397 .0293381
705.133 .0293299
705.869 .0293217
706.605 .0293136
707.341 .0293053
708.076 .0292970
708.811 .0292887
709.546 .0292802
710.281 .0292717
711.015 .0292629
711.749 .0292539
712.483 .0292446
713.217 .0292350
713.950 .0292249
714.684 .0292143
715.417 .0292031
716.150 .0291913
716.882 .0291789
717.615 .0291658
718.347 .0291520
719.079 .0291375
719.811 .0291224
720.542 .0291066
721.273 .0290903
722.005 .0290734
722.735 .0290561
723.466 .0290384
724.196 .0290202
724.927 .0290018
725.656 .0289830
726.386 .0289639
727.116 .0289448
727.845 .0289255
728.574 .0289063
729.303 .0288872
730.031 .0288683
730.760 .0288497
731.488 .0288314
732.216 .0288134
732.944 .0287957
733.671 .0287784
734.398 .0287613
735.125 .0287447
735.852 .0287283
736.579 .0287122
737.305 .0286963
738.031 .0286807
738.757 .0286652
739.483 .0286498
740.208 .0286344
740.933 .0286190
741.658 .0286036
742.383 .0285881
743.108 .0285725
743.832 .0285569
744.556 .0285412
745.280 .0285253
746.004 .0285093
746.727 .0284931
747.450 .0284767
748.173 .0284601
748.896 .0284432
749.618 .0284261
750.340 .0284088
751.062 .0283912
751.784 .0283734
752.506 .0283554
753.227 .0283371
753.948 .0283186
754.669 .0283000
755.389 .0282812
756.110 .0282622
756.830 .0282431
757.550 .0282239
758.269 .0282045
758.989 .0281849
759.708 .0281651
760.427 .0281452
761.146 .0281251
761.864 .0281048
762.582 .0280843
763.300 .0280637
764.018 .0280429
764.736 .0280219
765.453 .0280009
766.170 .0279799
766.887 .0279588
767.603 .0279379
768.320 .0279171
769.036 .0278966
769.751 .0278765
770.467 .0278568
771.182 .0278375
771.897 .0278186
772.612 .0278004
773.327 .0277826
774.041 .0277655
774.755 .0277490
775.469 .0277331
776.183 .0277180
776.896 .0277036
777.609 .0276900
778.322 .0276771
779.035 .0276650
779.747 .0276534
780.459 .0276425
781.171 .0276322
781.882 .0276223
782.594 .0276128
783.305 .0276037
784.016 .0275950
784.726 .0275865
785.436 .0275783
786.147 .0275664
786.856 .0275584
787.566 .0275506
788.275 .0275429
788.984 .0275352
789.693 .0275276
790.401 .0275201
791.110 .0275127
791.818 .0275054
792.525 .0274982
793.233 .0274911
793.940 .0274842
794.647 .0274811
795.353 .0274744
796.060 .0274677
796.766 .0274613
797.472 .0274549
798.177 .0274488
798.883 .0274429
799.588 .0274372
800.292 .0274317
800.997 .0274264
801.701 .0274213
802.405 .0274163
803.109 .0274114
803.812 .0274066
804.515 .0274020
805.218 .0273974
805.921 .0273930
806.623 .0273887
807.325 .0273845
808.027 .0273803
808.728 .0273761
809.429 .0273719
810.130 .0273676
810.831 .0273632
811.531 .0273589
812.231 .0273547
812.931 .0273505
813.630 .0273465
814.330 .0273426
815.029 .0273389
815.727 .0273353
816.426 .0273318
817.124 .0273285
817.821 .0273253
818.519 .0273223
819.216 .0273196
819.913 .0273173
820.609 .0273154
821.306 .0273139
822.002 .0273127
822.697 .0273120
823.393 .0273115
824.088 .0273114
824.783 .0273116
825.477 .0273120
826.171 .0273127
826.865 .0273137
827.559 .0273149
828.252 .0273163
828.945 .0273179
829.638 .0273196
830.330 .0273214
831.023 .0273231
831.714 .0273248
832.406 .0273264
833.097 .0273279
833.788 .0273294
834.479 .0273309
835.169 .0273323
835.859 .0273338
836.548 .0273352
837.238 .0273367
837.927 .0273380
838.615 .0273392
839.304 .0273402
839.992 .0273410
840.680 .0273415
841.367 .0273417
842.054 .0273415
842.741 .0273409
843.428 .0273399
844.114 .0273384
844.800 .0273365
845.485 .0273340
846.170 .0273310
846.855 .0273273
847.540 .0273229
848.224 .0273177
848.908 .0273117
849.592 .0273049
850.275 .0272972
850.958 .0272887
851.641 .0272792
852.323 .0272688
853.005 .0272575
853.687 .0272453
854.368 .0272321
855.049 .0272180
855.730 .0272031
856.410 .0271874
857.090 .0271710
857.769 .0271539
858.449 .0271363
859.128 .0271181
859.806 .0270996
860.485 .0270806
861.163 .0270613
861.840 .0270418
862.518 .0270220
863.195 .0270021
863.871 .0269822
864.548 .0269623
865.224 .0269425
865.899 .0269228
866.574 .0269033
867.249 .0268840
867.924 .0268648
868.598 .0268457
869.272 .0268266
869.946 .0268076
870.619 .0267887
871.292 .0267698
871.964 .0267509
872.636 .0267321
873.308 .0267134
873.979 .0266949
874.651 .0266765
875.321 .0266583
875.992 .0266402
876.662 .0266223
877.331 .0266045
878.001 .0265870
878.670 .0265697
879.338 .0265526
880.007 .0265357
880.675 .0265191
881.342 .0265027
882.009 .0264867
882.676 .0264709
883.343 .0264555
884.009 .0264405
884.675 .0264258
885.340 .0264116
886.005 .0263978
886.670 .0263845
887.334 .0263716
887.998 .0263591
888.662 .0263471
889.325 .0263353
889.988 .0263238
890.650 .0263124
891.312 .0263013
891.974 .0262902
892.636 .0262793
893.297 .0262684
893.957 .0262575
894.618 .0262466
895.278 .0262356
895.937 .0262242
896.596 .0262126
897.255 .0262004
897.914 .0261877
898.572 .0261744
899.230 .0261605
899.887 .0261460
900.544 .0261308
901.201 .0261149
901.857 .0260882
902.513 .0260708
903.168 .0260527
903.823 .0260340
904.478 .0260147
905.132 .0259947
905.786 .0259741
906.440 .0259530
907.093 .0259315
907.746 .0259095
908.399 .0258872
909.051 .0258647
909.703 .0258420
910.354 .0258303
911.005 .0258077
911.656 .0257850
912.306 .0257623
912.956 .0257396
913.605 .0257172
914.254 .0256950
914.903 .0256732
915.551 .0256517
916.199 .0256305
916.847 .0256097
917.494 .0255892
918.141 .0255690
918.788 .0255491
919.434 .0255293
920.079 .0255097
920.725 .0254902
921.370 .0254709
922.014 .0254516
922.658 .0254325
923.302 .0254134
923.946 .0253944
924.589 .0253754
925.231 .0253565
925.873 .0253376
926.515 .0253188
927.157 .0253001
927.798 .0252814
928.439 .0252628
929.079 .0252444
929.719 .0252262
930.359 .0252081
930.998 .0251903
931.637 .0251728
932.275 .0251557
932.913 .0251390
933.551 .0251228
934.188 .0251071
934.825 .0250920
935.462 .0250775
936.098 .0250638
936.733 .0250507
937.369 .0250384
938.004 .0250268
938.638 .0250162
939.273 .0250065
939.907 .0249978
940.540 .0249901
941.173 .0249834
941.806 .0249777
942.438 .0249730
943.070 .0249692
943.702 .0249662
944.333 .0249638
944.964 .0249620
945.594 .0249606
946.224 .0249596
946.854 .0249589
947.483 .0249585
948.112 .0249582
948.741 .0249581
949.369 .0249580
949.996 .0249578
950.624 .0249576
951.251 .0249573
951.878 .0249568
952.504 .0249561
953.130 .0249553
953.755 .0249545
954.380 .0249537
955.005 .0249530
955.629 .0249524
956.253 .0249518
956.877 .0249514
957.500 .0249510
958.123 .0249507
958.746 .0249505
959.368 .0249504
959.990 .0249505
960.611 .0249508
961.232 .0249515
961.853 .0249527
962.473 .0249542
963.093 .0249563
963.712 .0249588
964.331 .0249617
964.950 .0249650
965.569 .0249687
966.187 .0249728
966.804 .0249772
967.422 .0249820
968.039 .0249871
968.655 .0249925
969.272 .0249981
969.887 .0250039
970.503 .0250098
971.118 .0250157
971.733 .0250215
972.347 .0250272
972.961 .0250327
973.575 .0250380
974.188 .0250432
974.801 .0250481
975.414 .0250527
976.026 .0250571
976.638 .0250612
977.250 .0250650
977.861 .0250685
978.472 .0250718
979.083 .0250747
979.693 .0250775
980.303 .0250800
980.912 .0250835
981.521 .0250860
982.130 .0250884
982.738 .0250908
983.346 .0250933
983.954 .0250957
984.562 .0250984
985.169 .0251011
985.775 .0251041
986.382 .0251074
986.988 .0251111
987.594 .0251151
988.199 .0251194
988.804 .0251241
989.409 .0251274
990.013 .0251325
990.617 .0251379
991.221 .0251435
991.824 .0251495
992.427 .0251557
993.030 .0251622
993.632 .0251689
994.234 .0251758
994.836 .0251829
995.438 .0251902
996.039 .0251976
996.640 .0252050
997.240 .0252126
997.840 .0252202
998.440 .0252279
999.040 .0252357
999.639 .0252436
1000.238 .0252515
1000.836 .0252594
1001.435 .0252673
1002.033 .0252751
1002.630 .0252827
1003.228 .0252900
1003.825 .0252970
1004.422 .0253037
1005.018 .0253101
1005.614 .0253161
1006.210 .0253220
1006.806 .0253276
1007.401 .0253330
1007.996 .0253382
1008.591 .0253433
1009.186 .0253483
1009.780 .0253531
1010.374 .0253578
1010.967 .0253625
1011.561 .0253671
1012.154 .0253717
1012.746 .0253764
1013.339 .0253812
1013.931 .0253862
1014.523 .0253914
1015.115 .0253968
1015.706 .0254024
1016.298 .0254082
1016.888 .0254142
1017.479 .0254204
1018.069 .0254268
1018.660 .0254334
1019.250 .0254402
1019.839 .0254473
1020.429 .0254547
1021.018 .0254625
1021.607 .0254707
1022.195 .0254793
1022.784 .0254883
1023.372 .0254977
1023.960 .0255073
1024.547 .0255172
1025.135 .0255271
1025.722 .0255370
1026.309 .0255468
1026.896 .0255566
1027.483 .0255662
1028.069 .0255756
1028.655 .0255848
1029.241 .0255939
1029.827 .0256027
1030.412 .0256111
1030.997 .0256191
1031.582 .0256266
1032.167 .0256336
1032.752 .0256399
1033.336 .0256455
1033.921 .0256505
1034.505 .0256549
1035.089 .0256587
1035.672 .0256618
1036.256 .0256643
1036.839 .0256662
1037.422 .0256674
1038.005 .0256679
1038.588 .0256677
1039.171 .0256668
1039.753 .0256650
1040.335 .0256624
1040.918 .0256591
1041.500 .0256551
1042.081 .0256503
1042.663 .0256449
1043.244 .0256388
1043.826 .0256323
1044.407 .0256253
1044.988 .0256181
1045.569 .0256105
1046.150 .0256028
1046.730 .0255948
1047.311 .0255865
1047.891 .0255781
1048.471 .0255693
1049.052 .0255602
1049.632 .0255508
1050.211 .0255411
1050.791 .0255310
1051.371 .0255207
1051.950 .0255104
1052.530 .0255000
1053.109 .0254896
1053.688 .0254791
1054.268 .0254686
1054.847 .0254580
1055.426 .0254472
1056.005 .0254362
1056.583 .0254251
1057.162 .0254139
1057.741 .0254027
1058.319 .0253916
1058.898 .0253806
1059.476 .0253700
1060.055 .0253597
1060.633 .0253496
1061.211 .0253397
1061.790 .0253297
1062.368 .0253196
1062.946 .0253094
1063.524 .0252991
1064.102 .0252887
1064.680 .0252784
1065.258 .0252681
1065.836 .0252580
1066.414 .0252482
1066.992 .0252387
1067.570 .0252294
1068.148 .0252203
1068.726 .0252112
1069.304 .0252022
1069.882 .0251932
1070.460 .0251844
1071.038 .0251758
1071.616 .0251676
1072.194 .0251597
1072.772 .0251522
1073.350 .0251449
1073.928 .0251378
1074.506 .0251307
1075.084 .0251236
1075.662 .0251164
1076.240 .0251091
1076.819 .0251018
1077.397 .0250946
1077.976 .0250875
1078.554 .0250808
1079.133 .0250744
1079.711 .0250684
1080.290 .0250626
1080.869 .0250571
1081.448 .0250519
1082.027 .0250469
1082.606 .0250421
1083.185 .0250375
1083.764 .0250332
1084.343 .0250292
1084.923 .0250255
1085.502 .0250219
1086.082 .0250186
1086.662 .0250153
1087.242 .0250120
1087.822 .0250087
1088.402 .0250054
1088.983 .0250020
1089.563 .0249988
1090.144 .0249959
1090.725 .0249932
1091.306 .0249910
1091.887 .0249893
1092.469 .0249880
1093.050 .0249871
1093.632 .0249867
1094.214 .0249867
1094.796 .0249870
1095.379 .0249877
1095.961 .0249888
1096.544 .0249903
1097.127 .0249923
1097.710 .0249947
1098.294 .0249976
1098.877 .0250010
1099.461 .0250047
1100.046 .0250087
1100.630 .0250130
1101.215 .0250175
1101.800 .0250225
1102.385 .0250279
1102.970 .0250338
1103.556 .0250405
1104.142 .0250480
1104.728 .0250562
1105.315 .0250651
1105.902 .0250747
1106.489 .0250849
1107.077 .0250956
1107.664 .0251070
1108.253 .0251190
1108.841 .0251320
1109.430 .0251459
1110.019 .0251611
1110.609 .0251776
1111.198 .0251953
1111.789 .0252142
1112.379 .0252342
1112.970 .0252551
1113.561 .0252768
1114.153 .0252994
1114.745 .0253228
1115.338 .0253472
1115.931 .0253728
1116.524 .0253995
1117.117 .0254277
1117.712 .0254574
1118.306 .0254885
1118.901 .0255210
1119.496 .0255547
1120.092 .0255894
1120.689 .0256248
1121.285 .0256609
1121.882 .0256976
1122.480 .0257351
1123.078 .0257735
1123.677 .0258129
1124.276 .0258537
1124.875 .0258958
1125.476 .0259394
1126.076 .0259844
1126.677 .0260307
1127.279 .0260782
1127.881 .0261267
1128.484 .0261761
1129.087 .0261985
1129.691 .0262493
1130.295 .0263017
1130.900 .0263558
1131.505 .0264120
1132.111 .0264705
1132.718 .0265316
1133.325 .0265955
1133.933 .0266621
1134.541 .0267328
1135.150 .0268048
1135.760 .0268816
1136.370 .0269619
1136.981 .0269425
1137.592 .0270181
1138.204 .0270988
1138.817 .0271843
1139.431 .0272804
1140.045 .0273839
1140.660 .0274962
1141.275 .0276182
1141.891 .0277440
1142.508 .0279060
1143.126 .0279948
1143.744 .0281815
1144.363 .0283310
1144.983 .0283396
