Measurement Sequence started on: 15-12-46-377
Integration time: 28
Scans to Average: 2 
>>>>>Begin Spectral Data<<<<<
432.689 .0000100
433.621 .0000100
434.552 .0000100
435.482 .0000100
436.410 .0000100
437.337 .0000100
438.262 .0278572
439.187 .0589584
440.110 .0976617
441.031 .1412460
441.952 .1128104
442.871 .1177872
443.789 .1224257
444.705 .1267979
445.621 .1309523
446.535 .1349270
447.447 .1372833
448.359 .1378714
449.269 .1363096
450.178 .1323549
451.086 .1260873
451.993 .1179944
452.898 .1088796
453.803 .0996532
454.706 .0910887
455.608 .0836637
456.508 .0775349
457.408 .0734150
458.306 .0702621
459.204 .0677038
460.100 .0655498
460.995 .0636965
461.888 .0620745
462.781 .0606387
463.673 .0593542
464.563 .0581973
465.452 .0571497
466.340 .0561954
467.228 .0553222
468.114 .0545211
468.999 .0537835
469.882 .0531028
470.765 .0524731
471.647 .0518908
472.528 .0513529
473.407 .0508574
474.286 .0504029
475.163 .0499887
476.040 .0496142
476.915 .0492784
477.790 .0489788
478.663 .0487138
479.535 .0484805
480.407 .0482758
481.277 .0480964
482.147 .0479395
483.015 .0478032
483.883 .0476865
484.749 .0475890
485.615 .0475111
486.479 .0474530
487.343 .0474156
488.206 .0473986
489.067 .0474016
489.928 .0474241
490.788 .0474651
491.647 .0475233
492.505 .0475981
493.362 .0476890
494.218 .0477963
495.073 .0479210
495.928 .0481794
496.781 .0483573
497.634 .0485586
498.486 .0487850
499.337 .0490379
500.187 .0493191
501.036 .0496304
501.884 .0499745
502.731 .0503542
503.578 .0507719
504.424 .0510644
505.268 .0515507
506.113 .0520840
506.956 .0526680
507.798 .0533081
508.640 .0540120
509.480 .0547890
510.320 .0556505
511.160 .0566094
511.998 .0576814
512.836 .0588849
513.672 .0602404
514.508 .0617696
515.344 .0634960
516.178 .0654422
517.012 .0676333
517.845 .0700923
518.677 .0728408
519.508 .0758933
520.339 .0792570
521.169 .0829341
521.998 .0869035
522.826 .0911295
523.654 .0955603
524.481 .1001300
525.307 .1047627
526.133 .1093673
526.958 .1138477
527.782 .1181102
528.605 .1220669
529.428 .1256394
530.250 .1287561
531.072 .1313675
531.892 .1334349
532.712 .1349325
533.532 .1358469
534.350 .1361719
535.168 .1359107
535.986 .1350703
536.802 .1336587
537.618 .1316905
538.434 .1291818
539.249 .1261706
540.063 .1227071
540.876 .1188544
541.689 .1146865
542.501 .1102846
543.313 .1057383
544.124 .1011413
544.934 .0965812
545.744 .0921373
546.553 .0878774
547.361 .0838592
548.169 .0801167
548.976 .0766719
549.783 .0735313
550.589 .0706895
551.395 .0681288
552.200 .0658243
553.004 .0637466
553.808 .0618699
554.611 .0601698
555.414 .0586246
556.216 .0572143
557.018 .0559202
557.819 .0547266
558.619 .0536210
559.419 .0525920
560.218 .0516330
561.017 .0507360
561.815 .0498947
562.613 .0491038
563.410 .0483566
564.207 .0476471
565.003 .0469694
565.799 .0463179
566.594 .0456876
567.388 .0450745
568.182 .0444763
568.976 .0438916
569.769 .0433199
570.562 .0427620
571.354 .0422186
572.145 .0416907
572.936 .0411789
573.727 .0406834
574.517 .0402049
575.307 .0397442
576.096 .0393016
576.885 .0388779
577.673 .0384740
578.461 .0380906
579.248 .0377278
580.035 .0373863
580.821 .0370662
581.607 .0367669
582.392 .0364877
583.177 .0362278
583.962 .0359862
584.746 .0357619
585.529 .0355536
586.313 .0353603
587.095 .0351808
587.878 .0350142
588.660 .0348594
589.441 .0347155
590.222 .0345819
591.003 .0344578
591.783 .0343423
592.563 .0342347
593.342 .0341340
594.121 .0340397
594.899 .0339508
595.678 .0338670
596.455 .0337878
597.233 .0337128
598.009 .0336417
598.786 .0335742
599.562 .0335101
600.338 .0334491
601.113 .0333910
601.888 .0333121
602.663 .0332596
603.437 .0332092
604.211 .0331607
604.984 .0331139
605.757 .0330687
606.530 .0330251
607.302 .0329830
608.074 .0329423
608.845 .0329031
609.616 .0328653
610.387 .0328492
611.158 .0328134
611.928 .0327791
612.697 .0327461
613.467 .0327145
614.236 .0326842
615.004 .0326553
615.773 .0326275
616.541 .0326010
617.308 .0325757
618.076 .0325514
618.843 .0325283
619.609 .0325062
620.375 .0324849
621.141 .0324646
621.907 .0324450
622.672 .0324261
623.437 .0324078
624.202 .0323901
624.966 .0323728
625.730 .0323557
626.493 .0323389
627.257 .0323222
628.020 .0323053
628.782 .0322881
629.545 .0322705
630.307 .0322522
631.068 .0322330
631.830 .0322130
632.591 .0321919
633.352 .0321699
634.112 .0321469
634.872 .0321229
635.632 .0320980
636.392 .0320722
637.151 .0320455
637.910 .0320180
638.668 .0319896
639.427 .0319606
640.185 .0319309
640.943 .0319007
641.700 .0318701
642.457 .0318391
643.214 .0318079
643.971 .0317766
644.727 .0317452
645.483 .0317138
646.239 .0316824
646.994 .0316511
647.750 .0316199
648.505 .0315889
649.259 .0315580
650.014 .0315272
650.768 .0314964
651.521 .0314656
652.275 .0314347
653.028 .0314036
653.781 .0313724
654.534 .0313410
655.286 .0313095
656.039 .0312780
656.791 .0312466
657.542 .0312152
658.294 .0311839
659.045 .0311527
659.796 .0311217
660.546 .0310907
661.297 .0310599
662.047 .0310292
662.796 .0309989
663.546 .0309689
664.295 .0309393
665.044 .0309102
665.793 .0308817
666.542 .0308540
667.290 .0308270
668.038 .0308008
668.786 .0307755
669.533 .0307512
670.281 .0307278
671.028 .0307054
671.774 .0306839
672.521 .0306632
673.267 .0306433
674.013 .0306241
674.759 .0306056
675.505 .0305877
676.250 .0305704
676.995 .0305537
677.740 .0305376
678.484 .0305220
679.229 .0305070
679.973 .0304925
680.717 .0304786
681.460 .0304652
682.204 .0304522
682.947 .0304398
683.690 .0304279
684.433 .0304164
685.175 .0304055
685.917 .0303950
686.659 .0303850
687.401 .0303754
688.142 .0303661
688.884 .0303569
689.625 .0303479
690.365 .0303388
691.106 .0303297
691.846 .0303203
692.586 .0303106
693.326 .0303006
694.066 .0302901
694.805 .0302791
695.545 .0302676
696.284 .0302555
697.022 .0302428
697.761 .0302294
698.499 .0302153
699.237 .0302005
699.975 .0301850
700.713 .0301688
701.450 .0301518
702.187 .0301341
702.924 .0301156
703.661 .0300965
704.397 .0300768
705.133 .0300566
705.869 .0300358
706.605 .0300147
707.341 .0299932
708.076 .0299713
708.811 .0299491
709.546 .0299267
710.281 .0299039
711.015 .0298808
711.749 .0298574
712.483 .0298337
713.217 .0298097
713.950 .0297855
714.684 .0297610
715.417 .0297363
716.150 .0297112
716.882 .0296858
717.615 .0296600
718.347 .0296339
719.079 .0296073
719.811 .0295803
720.542 .0295530
721.273 .0295253
722.005 .0294975
722.735 .0294694
723.466 .0294413
724.196 .0294131
724.927 .0293850
725.656 .0293571
726.386 .0293294
727.116 .0293021
727.845 .0292753
728.574 .0292490
729.303 .0292235
730.031 .0291986
730.760 .0291745
731.488 .0291511
732.216 .0291285
732.944 .0291066
733.671 .0290854
734.398 .0290648
735.125 .0290450
735.852 .0290258
736.579 .0290072
737.305 .0289892
738.031 .0289719
738.757 .0289552
739.483 .0289390
740.208 .0289233
740.933 .0289082
741.658 .0288937
742.383 .0288796
743.108 .0288661
743.832 .0288531
744.556 .0288405
745.280 .0288284
746.004 .0288166
746.727 .0288051
747.450 .0287942
748.173 .0287837
748.896 .0287737
749.618 .0287644
750.340 .0287558
751.062 .0287480
751.784 .0287409
752.506 .0287345
753.227 .0287289
753.948 .0287240
754.669 .0287196
755.389 .0287157
756.110 .0287124
756.830 .0287096
757.550 .0287074
758.269 .0287056
758.989 .0287044
759.708 .0287037
760.427 .0287033
761.146 .0287033
761.864 .0287034
762.582 .0287037
763.300 .0287039
764.018 .0287041
764.736 .0287040
765.453 .0287036
766.170 .0287030
766.887 .0287021
767.603 .0287010
768.320 .0286997
769.036 .0286982
769.751 .0286965
770.467 .0286947
771.182 .0286928
771.897 .0286907
772.612 .0286885
773.327 .0286861
774.041 .0286835
774.755 .0286807
775.469 .0286777
776.183 .0286745
776.896 .0286713
777.609 .0286680
778.322 .0286646
779.035 .0286613
779.747 .0286581
780.459 .0286548
781.171 .0286516
781.882 .0286482
782.594 .0286447
783.305 .0286408
784.016 .0286366
784.726 .0286318
785.436 .0286265
786.147 .0286161
786.856 .0286089
787.566 .0286010
788.275 .0285924
788.984 .0285830
789.693 .0285726
790.401 .0285613
791.110 .0285490
791.818 .0285356
792.525 .0285210
793.233 .0285053
793.940 .0284885
794.647 .0284771
795.353 .0284590
796.060 .0284401
796.766 .0284204
797.472 .0283999
798.177 .0283787
798.883 .0283567
799.588 .0283340
800.292 .0283105
800.997 .0282864
801.701 .0282615
802.405 .0282361
803.109 .0282101
803.812 .0281836
804.515 .0281568
805.218 .0281295
805.921 .0281020
806.623 .0280742
807.325 .0280461
808.027 .0280178
808.728 .0279894
809.429 .0279610
810.130 .0279324
810.831 .0279039
811.531 .0278754
812.231 .0278469
812.931 .0278185
813.630 .0277902
814.330 .0277620
815.029 .0277341
815.727 .0277064
816.426 .0276793
817.124 .0276527
817.821 .0276267
818.519 .0276015
819.216 .0275770
819.913 .0275533
820.609 .0275304
821.306 .0275082
822.002 .0274869
822.697 .0274665
823.393 .0274469
824.088 .0274283
824.783 .0274106
825.477 .0273940
826.171 .0273783
826.865 .0273636
827.559 .0273497
828.252 .0273367
828.945 .0273245
829.638 .0273131
830.330 .0273025
831.023 .0272926
831.714 .0272835
832.406 .0272751
833.097 .0272675
833.788 .0272605
834.479 .0272543
835.169 .0272487
835.859 .0272438
836.548 .0272396
837.238 .0272362
837.927 .0272336
838.615 .0272318
839.304 .0272307
839.992 .0272303
840.680 .0272306
841.367 .0272313
842.054 .0272325
842.741 .0272341
843.428 .0272361
844.114 .0272386
844.800 .0272415
845.485 .0272449
846.170 .0272487
846.855 .0272529
847.540 .0272573
848.224 .0272619
848.908 .0272667
849.592 .0272714
850.275 .0272761
850.958 .0272807
851.641 .0272853
852.323 .0272897
853.005 .0272941
853.687 .0272984
854.368 .0273026
855.049 .0273068
855.730 .0273109
856.410 .0273150
857.090 .0273191
857.769 .0273233
858.449 .0273277
859.128 .0273321
859.806 .0273368
860.485 .0273417
861.163 .0273467
861.840 .0273520
862.518 .0273575
863.195 .0273631
863.871 .0273690
864.548 .0273750
865.224 .0273812
865.899 .0273876
866.574 .0273941
867.249 .0274008
867.924 .0274075
868.598 .0274143
869.272 .0274209
869.946 .0274275
870.619 .0274338
871.292 .0274399
871.964 .0274455
872.636 .0274507
873.308 .0274554
873.979 .0274596
874.651 .0274631
875.321 .0274661
875.992 .0274684
876.662 .0274701
877.331 .0274710
878.001 .0274711
878.670 .0274705
879.338 .0274690
880.007 .0274666
880.675 .0274634
881.342 .0274594
882.009 .0274546
882.676 .0274491
883.343 .0274428
884.009 .0274359
884.675 .0274284
885.340 .0274202
886.005 .0274115
886.670 .0274022
887.334 .0273923
887.998 .0273818
888.662 .0273708
889.325 .0273593
889.988 .0273474
890.650 .0273350
891.312 .0273222
891.974 .0273089
892.636 .0272953
893.297 .0272813
893.957 .0272669
894.618 .0272522
895.278 .0272371
895.937 .0272216
896.596 .0272056
897.255 .0271891
897.914 .0271720
898.572 .0271541
899.230 .0271355
899.887 .0271160
900.544 .0270955
901.201 .0270740
901.857 .0270375
902.513 .0270134
903.168 .0269882
903.823 .0269621
904.478 .0269351
905.132 .0269071
905.786 .0268782
906.440 .0268483
907.093 .0268176
907.746 .0267860
908.399 .0267536
909.051 .0267206
909.703 .0266870
910.354 .0266686
911.005 .0266347
911.656 .0266004
912.306 .0265659
912.956 .0265311
913.605 .0264962
914.254 .0264610
914.903 .0264258
915.551 .0263904
916.199 .0263551
916.847 .0263198
917.494 .0262848
918.141 .0262499
918.788 .0262153
919.434 .0261809
920.079 .0261469
920.725 .0261131
921.370 .0260795
922.014 .0260462
922.658 .0260131
923.302 .0259803
923.946 .0259478
924.589 .0259155
925.231 .0258835
925.873 .0258517
926.515 .0258202
927.157 .0257889
927.798 .0257578
928.439 .0257268
929.079 .0256960
929.719 .0256654
930.359 .0256351
930.998 .0256050
931.637 .0255753
932.275 .0255461
932.913 .0255175
933.551 .0254894
934.188 .0254621
934.825 .0254356
935.462 .0254099
936.098 .0253852
936.733 .0253614
937.369 .0253386
938.004 .0253169
938.638 .0252962
939.273 .0252766
939.907 .0252581
940.540 .0252408
941.173 .0252246
941.806 .0252097
942.438 .0251958
943.070 .0251832
943.702 .0251716
944.333 .0251611
944.964 .0251516
945.594 .0251429
946.224 .0251352
946.854 .0251283
947.483 .0251223
948.112 .0251171
948.741 .0251127
949.369 .0251091
949.996 .0251063
950.624 .0251042
951.251 .0251029
951.878 .0251021
952.504 .0251019
953.130 .0251022
953.755 .0251030
954.380 .0251042
955.005 .0251058
955.629 .0251080
956.253 .0251106
956.877 .0251136
957.500 .0251171
958.123 .0251210
958.746 .0251253
959.368 .0251301
959.990 .0251352
960.611 .0251408
961.232 .0251468
961.853 .0251534
962.473 .0251606
963.093 .0251683
963.712 .0251765
964.331 .0251853
964.950 .0251946
965.569 .0252043
966.187 .0252143
966.804 .0252247
967.422 .0252354
968.039 .0252463
968.655 .0252575
969.272 .0252688
969.887 .0252804
970.503 .0252922
971.118 .0253041
971.733 .0253163
972.347 .0253285
972.961 .0253408
973.575 .0253532
974.188 .0253656
974.801 .0253780
975.414 .0253904
976.026 .0254028
976.638 .0254150
977.250 .0254272
977.861 .0254392
978.472 .0254510
979.083 .0254626
979.693 .0254739
980.303 .0254849
980.912 .0255003
981.521 .0255107
982.130 .0255210
982.738 .0255311
983.346 .0255412
983.954 .0255513
984.562 .0255613
985.169 .0255715
985.775 .0255818
986.382 .0255922
986.988 .0256029
987.594 .0256138
988.199 .0256250
988.804 .0256365
989.409 .0256433
990.013 .0256553
990.617 .0256675
991.221 .0256799
991.824 .0256924
992.427 .0257050
993.030 .0257176
993.632 .0257302
994.234 .0257428
994.836 .0257553
995.438 .0257676
996.039 .0257799
996.640 .0257921
997.240 .0258040
997.840 .0258158
998.440 .0258274
999.040 .0258388
999.639 .0258500
1000.238 .0258607
1000.836 .0258711
1001.435 .0258811
1002.033 .0258905
1002.630 .0258994
1003.228 .0259075
1003.825 .0259147
1004.422 .0259211
1005.018 .0259266
1005.614 .0259310
1006.210 .0259344
1006.806 .0259368
1007.401 .0259383
1007.996 .0259388
1008.591 .0259385
1009.186 .0259374
1009.780 .0259356
1010.374 .0259332
1010.967 .0259304
1011.561 .0259271
1012.154 .0259235
1012.746 .0259196
1013.339 .0259157
1013.931 .0259116
1014.523 .0259074
1015.115 .0259032
1015.706 .0258989
1016.298 .0258947
1016.888 .0258904
1017.479 .0258861
1018.069 .0258818
1018.660 .0258775
1019.250 .0258733
1019.839 .0258690
1020.429 .0258649
1021.018 .0258608
1021.607 .0258568
1022.195 .0258529
1022.784 .0258490
1023.372 .0258453
1023.960 .0258416
1024.547 .0258379
1025.135 .0258343
1025.722 .0258306
1026.309 .0258270
1026.896 .0258232
1027.483 .0258191
1028.069 .0258147
1028.655 .0258099
1029.241 .0258044
1029.827 .0257982
1030.412 .0257913
1030.997 .0257838
1031.582 .0257754
1032.167 .0257663
1032.752 .0257564
1033.336 .0257457
1033.921 .0257341
1034.505 .0257216
1035.089 .0257083
1035.672 .0256941
1036.256 .0256790
1036.839 .0256632
1037.422 .0256466
1038.005 .0256294
1038.588 .0256116
1039.171 .0255931
1039.753 .0255740
1040.335 .0255543
1040.918 .0255339
1041.500 .0255129
1042.081 .0254913
1042.663 .0254693
1043.244 .0254468
1043.826 .0254239
1044.407 .0254009
1044.988 .0253778
1045.569 .0253547
1046.150 .0253317
1046.730 .0253089
1047.311 .0252861
1047.891 .0252635
1048.471 .0252410
1049.052 .0252188
1049.632 .0251970
1050.211 .0251755
1050.791 .0251545
1051.371 .0251339
1051.950 .0251139
1052.530 .0250944
1053.109 .0250754
1053.688 .0250569
1054.268 .0250388
1054.847 .0250210
1055.426 .0250036
1056.005 .0249865
1056.583 .0249698
1057.162 .0249535
1057.741 .0249376
1058.319 .0249222
1058.898 .0249072
1059.476 .0248927
1060.055 .0248787
1060.633 .0248649
1061.211 .0248515
1061.790 .0248384
1062.368 .0248255
1062.946 .0248128
1063.524 .0248003
1064.102 .0247881
1064.680 .0247760
1065.258 .0247641
1065.836 .0247524
1066.414 .0247408
1066.992 .0247293
1067.570 .0247180
1068.148 .0247066
1068.726 .0246953
1069.304 .0246839
1069.882 .0246726
1070.460 .0246612
1071.038 .0246498
1071.616 .0246386
1072.194 .0246274
1072.772 .0246165
1073.350 .0246057
1073.928 .0245952
1074.506 .0245849
1075.084 .0245747
1075.662 .0245646
1076.240 .0245546
1076.819 .0245447
1077.397 .0245350
1077.976 .0245255
1078.554 .0245163
1079.133 .0245077
1079.711 .0244997
1080.290 .0244924
1080.869 .0244859
1081.448 .0244803
1082.027 .0244754
1082.606 .0244713
1083.185 .0244678
1083.764 .0244650
1084.343 .0244628
1084.923 .0244613
1085.502 .0244606
1086.082 .0244608
1086.662 .0244619
1087.242 .0244640
1087.822 .0244672
1088.402 .0244714
1088.983 .0244766
1089.563 .0244827
1090.144 .0244898
1090.725 .0244977
1091.306 .0245067
1091.887 .0245167
1092.469 .0245279
1093.050 .0245404
1093.632 .0245543
1094.214 .0245697
1094.796 .0245864
1095.379 .0246045
1095.961 .0246239
1096.544 .0246445
1097.127 .0246661
1097.710 .0246887
1098.294 .0247122
1098.877 .0247366
1099.461 .0247618
1100.046 .0247880
1100.630 .0248154
1101.215 .0248438
1101.800 .0248733
1102.385 .0249040
1102.970 .0249357
1103.556 .0249685
1104.142 .0250022
1104.728 .0250368
1105.315 .0250719
1105.902 .0251077
1106.489 .0251442
1107.077 .0251813
1107.664 .0252191
1108.253 .0252577
1108.841 .0252971
1109.430 .0253371
1110.019 .0253777
1110.609 .0254188
1111.198 .0254604
1111.789 .0255023
1112.379 .0255447
1112.970 .0255876
1113.561 .0256312
1114.153 .0256757
1114.745 .0257216
1115.338 .0257689
1115.931 .0258179
1116.524 .0258686
1117.117 .0259210
1117.712 .0259751
1118.306 .0260306
1118.901 .0260876
1119.496 .0261458
1120.092 .0262052
1120.689 .0262658
1121.285 .0263275
1121.882 .0263905
1122.480 .0264548
1123.078 .0265204
1123.677 .0265870
1124.276 .0266547
1124.875 .0267232
1125.476 .0267925
1126.076 .0268626
1126.677 .0269332
1127.279 .0270046
1127.881 .0270766
1128.484 .0271495
1129.087 .0271869
1129.691 .0272613
1130.295 .0273363
1130.900 .0274118
1131.505 .0274880
1132.111 .0275648
1132.718 .0276425
1133.325 .0277214
1133.933 .0278024
1134.541 .0278843
1135.150 .0279709
1135.760 .0280574
1136.370 .0281512
1136.981 .0281640
1137.592 .0282372
1138.204 .0283108
1138.817 .0283894
1139.431 .0284749
1140.045 .0285709
1140.660 .0286754
1141.275 .0287966
1141.891 .0289455
1142.508 .0290567
1143.126 .0292777
1143.744 .0293610
1144.363 .0296516
1144.983 .0300960
