Measurement Sequence started on: 15-12-46-377
Integration time: 28
Scans to Average: 2 
>>>>>Begin Spectral Data<<<<<
432.689 .0000100
433.621 .0000100
434.552 .0000100
435.482 .0000100
436.410 .0000100
437.337 .0000100
438.262 .0271729
439.187 .0575375
440.110 .0953581
441.031 .1380182
441.952 .1108126
442.871 .1157011
443.789 .1202388
444.705 .1244984
445.621 .1285309
446.535 .1323760
447.447 .1346303
448.359 .1351460
449.269 .1335474
450.178 .1295939
451.086 .1233596
451.993 .1153173
452.898 .1062505
453.803 .0970512
454.706 .0884803
455.608 .0810127
456.508 .0748112
457.408 .0705808
458.306 .0673135
459.204 .0646507
460.100 .0624091
460.995 .0604859
461.888 .0588117
462.781 .0573392
463.673 .0560322
464.563 .0548676
465.452 .0538271
466.340 .0528961
467.228 .0520623
468.114 .0513161
468.999 .0506478
469.882 .0500487
470.765 .0495116
471.647 .0490294
472.528 .0485975
473.407 .0482109
474.286 .0478656
475.163 .0475586
476.040 .0472858
476.915 .0470439
477.790 .0468288
478.663 .0466377
479.535 .0464680
480.407 .0463171
481.277 .0461834
482.147 .0460655
483.015 .0459622
483.883 .0458727
484.749 .0457963
485.615 .0457323
486.479 .0456804
487.343 .0456404
488.206 .0456131
489.067 .0455993
489.928 .0456010
490.788 .0456203
491.647 .0456596
492.505 .0457209
493.362 .0458053
494.218 .0459135
495.073 .0460460
495.928 .0463311
496.781 .0465221
497.634 .0467365
498.486 .0469747
499.337 .0472379
500.187 .0475273
501.036 .0478452
501.884 .0481942
502.731 .0485772
503.578 .0489974
504.424 .0492810
505.268 .0497686
506.113 .0503035
506.956 .0508898
507.798 .0515320
508.640 .0522364
509.480 .0530112
510.320 .0538676
511.160 .0548188
511.998 .0558799
512.836 .0570690
513.672 .0584043
514.508 .0599057
515.344 .0615930
516.178 .0634885
517.012 .0656159
517.845 .0679968
518.677 .0706507
519.508 .0735968
520.339 .0768464
521.169 .0804044
521.998 .0842517
522.826 .0883563
523.654 .0926656
524.481 .0971099
525.307 .1016071
526.133 .1060657
526.958 .1103916
527.782 .1144931
528.605 .1182841
529.428 .1216918
530.250 .1246510
531.072 .1271179
531.892 .1290573
532.712 .1304485
533.532 .1312778
534.350 .1315380
535.168 .1312313
535.986 .1303666
536.802 .1289496
537.618 .1269911
538.434 .1245050
539.249 .1215265
540.063 .1181010
540.876 .1142903
541.689 .1101710
542.501 .1058321
543.313 .1013672
544.124 .0968706
544.934 .0924290
545.744 .0881213
546.553 .0840099
547.361 .0801464
548.169 .0765596
548.976 .0732677
549.783 .0702736
550.589 .0675703
551.395 .0651418
552.200 .0629647
553.004 .0610092
553.808 .0592485
554.611 .0576575
555.414 .0562134
556.216 .0548956
557.018 .0536863
557.819 .0525714
558.619 .0515386
559.419 .0505755
560.218 .0496727
561.017 .0488209
561.815 .0480137
562.613 .0472453
563.410 .0465108
564.207 .0458057
565.003 .0451266
565.799 .0444705
566.594 .0438357
567.388 .0432204
568.182 .0426233
568.976 .0420437
569.769 .0414817
570.562 .0409375
571.354 .0404114
572.145 .0399046
572.936 .0394182
573.727 .0389520
574.517 .0385063
575.307 .0380812
576.096 .0376761
576.885 .0372908
577.673 .0369256
578.461 .0365803
579.248 .0362550
580.035 .0359496
580.821 .0356639
581.607 .0353976
582.392 .0351499
583.177 .0349198
583.962 .0347059
584.746 .0345075
585.529 .0343231
586.313 .0341514
587.095 .0339915
587.878 .0338427
588.660 .0337041
589.441 .0335749
590.222 .0334547
591.003 .0333428
591.783 .0332386
592.563 .0331413
593.342 .0330503
594.121 .0329650
594.899 .0328847
595.678 .0328088
596.455 .0327369
597.233 .0326688
598.009 .0326043
598.786 .0325431
599.562 .0324850
600.338 .0324298
601.113 .0323773
601.888 .0323055
602.663 .0322578
603.437 .0322118
604.211 .0321673
604.984 .0321239
605.757 .0320816
606.530 .0320401
607.302 .0319995
608.074 .0319596
608.845 .0319205
609.616 .0318823
610.387 .0318647
611.158 .0318278
611.928 .0317917
612.697 .0317565
613.467 .0317220
614.236 .0316883
615.004 .0316552
615.773 .0316229
616.541 .0315912
617.308 .0315601
618.076 .0315296
618.843 .0314998
619.609 .0314707
620.375 .0314422
621.141 .0314145
621.907 .0313874
622.672 .0313609
623.437 .0313350
624.202 .0313095
624.966 .0312843
625.730 .0312594
626.493 .0312347
627.257 .0312102
628.020 .0311859
628.782 .0311617
629.545 .0311378
630.307 .0311141
631.068 .0310909
631.830 .0310682
632.591 .0310460
633.352 .0310245
634.112 .0310037
634.872 .0309835
635.632 .0309640
636.392 .0309450
637.151 .0309267
637.910 .0309088
638.668 .0308914
639.427 .0308744
640.185 .0308579
640.943 .0308418
641.700 .0308263
642.457 .0308113
643.214 .0307967
643.971 .0307825
644.727 .0307686
645.483 .0307548
646.239 .0307409
646.994 .0307269
647.750 .0307125
648.505 .0306977
649.259 .0306823
650.014 .0306665
650.768 .0306501
651.521 .0306332
652.275 .0306159
653.028 .0305980
653.781 .0305796
654.534 .0305606
655.286 .0305410
656.039 .0305206
656.791 .0304994
657.542 .0304774
658.294 .0304547
659.045 .0304312
659.796 .0304070
660.546 .0303821
661.297 .0303567
662.047 .0303307
662.796 .0303043
663.546 .0302775
664.295 .0302504
665.044 .0302231
665.793 .0301955
666.542 .0301679
667.290 .0301401
668.038 .0301123
668.786 .0300844
669.533 .0300563
670.281 .0300281
671.028 .0299999
671.774 .0299716
672.521 .0299435
673.267 .0299156
674.013 .0298879
674.759 .0298607
675.505 .0298338
676.250 .0298074
676.995 .0297815
677.740 .0297561
678.484 .0297312
679.229 .0297068
679.973 .0296831
680.717 .0296600
681.460 .0296376
682.204 .0296159
682.947 .0295949
683.690 .0295745
684.433 .0295547
685.175 .0295354
685.917 .0295167
686.659 .0294985
687.401 .0294808
688.142 .0294636
688.884 .0294469
689.625 .0294307
690.365 .0294149
691.106 .0293994
691.846 .0293842
692.586 .0293692
693.326 .0293545
694.066 .0293399
694.805 .0293257
695.545 .0293117
696.284 .0292980
697.022 .0292847
697.761 .0292718
698.499 .0292592
699.237 .0292470
699.975 .0292351
700.713 .0292235
701.450 .0292122
702.187 .0292011
702.924 .0291904
703.661 .0291798
704.397 .0291696
705.133 .0291596
705.869 .0291499
706.605 .0291405
707.341 .0291313
708.076 .0291225
708.811 .0291139
709.546 .0291056
710.281 .0290975
711.015 .0290895
711.749 .0290815
712.483 .0290735
713.217 .0290654
713.950 .0290572
714.684 .0290486
715.417 .0290398
716.150 .0290306
716.882 .0290210
717.615 .0290108
718.347 .0290001
719.079 .0289888
719.811 .0289768
720.542 .0289642
721.273 .0289510
722.005 .0289371
722.735 .0289226
723.466 .0289075
724.196 .0288920
724.927 .0288760
725.656 .0288595
726.386 .0288428
727.116 .0288258
727.845 .0288086
728.574 .0287914
729.303 .0287742
730.031 .0287571
730.760 .0287401
731.488 .0287232
732.216 .0287066
732.944 .0286900
733.671 .0286738
734.398 .0286577
735.125 .0286420
735.852 .0286266
736.579 .0286117
737.305 .0285973
738.031 .0285832
738.757 .0285696
739.483 .0285564
740.208 .0285435
740.933 .0285309
741.658 .0285184
742.383 .0285062
743.108 .0284939
743.832 .0284818
744.556 .0284696
745.280 .0284573
746.004 .0284447
746.727 .0284318
747.450 .0284185
748.173 .0284048
748.896 .0283904
749.618 .0283756
750.340 .0283601
751.062 .0283440
751.784 .0283273
752.506 .0283099
753.227 .0282918
753.948 .0282730
754.669 .0282536
755.389 .0282336
756.110 .0282129
756.830 .0281915
757.550 .0281696
758.269 .0281472
758.989 .0281244
759.708 .0281011
760.427 .0280776
761.146 .0280537
761.864 .0280297
762.582 .0280057
763.300 .0279817
764.018 .0279578
764.736 .0279342
765.453 .0279109
766.170 .0278880
766.887 .0278656
767.603 .0278438
768.320 .0278228
769.036 .0278026
769.751 .0277833
770.467 .0277650
771.182 .0277477
771.897 .0277315
772.612 .0277165
773.327 .0277026
774.041 .0276898
774.755 .0276781
775.469 .0276676
776.183 .0276580
776.896 .0276496
777.609 .0276421
778.322 .0276356
779.035 .0276301
779.747 .0276254
780.459 .0276215
781.171 .0276185
781.882 .0276163
782.594 .0276147
783.305 .0276139
784.016 .0276136
784.726 .0276137
785.436 .0276143
786.147 .0276159
786.856 .0276169
787.566 .0276181
788.275 .0276194
788.984 .0276207
789.693 .0276222
790.401 .0276236
791.110 .0276250
791.818 .0276263
792.525 .0276275
793.233 .0276285
793.940 .0276292
794.647 .0276289
795.353 .0276294
796.060 .0276296
796.766 .0276297
797.472 .0276296
798.177 .0276292
798.883 .0276284
799.588 .0276274
800.292 .0276259
800.997 .0276241
801.701 .0276220
802.405 .0276195
803.109 .0276168
803.812 .0276139
804.515 .0276106
805.218 .0276072
805.921 .0276034
806.623 .0275994
807.325 .0275951
808.027 .0275905
808.728 .0275857
809.429 .0275808
810.130 .0275756
810.831 .0275704
811.531 .0275650
812.231 .0275595
812.931 .0275538
813.630 .0275480
814.330 .0275421
815.029 .0275361
815.727 .0275300
816.426 .0275240
817.124 .0275181
817.821 .0275122
818.519 .0275065
819.216 .0275009
819.913 .0274954
820.609 .0274899
821.306 .0274845
822.002 .0274792
822.697 .0274739
823.393 .0274687
824.088 .0274636
824.783 .0274585
825.477 .0274535
826.171 .0274485
826.865 .0274435
827.559 .0274385
828.252 .0274333
828.945 .0274281
829.638 .0274227
830.330 .0274172
831.023 .0274115
831.714 .0274056
832.406 .0273994
833.097 .0273929
833.788 .0273860
834.479 .0273788
835.169 .0273713
835.859 .0273633
836.548 .0273549
837.238 .0273461
837.927 .0273368
838.615 .0273269
839.304 .0273164
839.992 .0273052
840.680 .0272933
841.367 .0272807
842.054 .0272672
842.741 .0272530
843.428 .0272379
844.114 .0272221
844.800 .0272055
845.485 .0271882
846.170 .0271702
846.855 .0271514
847.540 .0271320
848.224 .0271119
848.908 .0270913
849.592 .0270701
850.275 .0270484
850.958 .0270263
851.641 .0270036
852.323 .0269805
853.005 .0269570
853.687 .0269332
854.368 .0269091
855.049 .0268848
855.730 .0268604
856.410 .0268359
857.090 .0268115
857.769 .0267871
858.449 .0267627
859.128 .0267385
859.806 .0267144
860.485 .0266904
861.163 .0266665
861.840 .0266429
862.518 .0266196
863.195 .0265966
863.871 .0265739
864.548 .0265517
865.224 .0265298
865.899 .0265084
866.574 .0264873
867.249 .0264665
867.924 .0264461
868.598 .0264261
869.272 .0264065
869.946 .0263874
870.619 .0263687
871.292 .0263505
871.964 .0263329
872.636 .0263159
873.308 .0262993
873.979 .0262833
874.651 .0262680
875.321 .0262533
875.992 .0262393
876.662 .0262261
877.331 .0262137
878.001 .0262021
878.670 .0261915
879.338 .0261817
880.007 .0261727
880.675 .0261646
881.342 .0261573
882.009 .0261507
882.676 .0261450
883.343 .0261401
884.009 .0261361
884.675 .0261329
885.340 .0261307
886.005 .0261293
886.670 .0261288
887.334 .0261290
887.998 .0261299
888.662 .0261314
889.325 .0261336
889.988 .0261362
890.650 .0261394
891.312 .0261429
891.974 .0261469
892.636 .0261512
893.297 .0261558
893.957 .0261607
894.618 .0261657
895.278 .0261707
895.937 .0261757
896.596 .0261805
897.255 .0261851
897.914 .0261893
898.572 .0261930
899.230 .0261963
899.887 .0261990
900.544 .0262011
901.201 .0262025
901.857 .0262018
902.513 .0262016
903.168 .0262009
903.823 .0261995
904.478 .0261975
905.132 .0261950
905.786 .0261921
906.440 .0261886
907.093 .0261849
907.746 .0261808
908.399 .0261764
909.051 .0261719
909.703 .0261673
910.354 .0261651
911.005 .0261607
911.656 .0261564
912.306 .0261522
912.956 .0261480
913.605 .0261439
914.254 .0261399
914.903 .0261358
915.551 .0261317
916.199 .0261276
916.847 .0261234
917.494 .0261191
918.141 .0261146
918.788 .0261099
919.434 .0261050
920.079 .0260998
920.725 .0260942
921.370 .0260882
922.014 .0260818
922.658 .0260749
923.302 .0260675
923.946 .0260595
924.589 .0260511
925.231 .0260422
925.873 .0260329
926.515 .0260232
927.157 .0260131
927.798 .0260026
928.439 .0259917
929.079 .0259804
929.719 .0259688
930.359 .0259569
930.998 .0259449
931.637 .0259328
932.275 .0259208
932.913 .0259091
933.551 .0258976
934.188 .0258866
934.825 .0258760
935.462 .0258658
936.098 .0258561
936.733 .0258469
937.369 .0258380
938.004 .0258297
938.638 .0258219
939.273 .0258147
939.907 .0258082
940.540 .0258024
941.173 .0257972
941.806 .0257926
942.438 .0257885
943.070 .0257847
943.702 .0257813
944.333 .0257780
944.964 .0257750
945.594 .0257721
946.224 .0257694
946.854 .0257667
947.483 .0257642
948.112 .0257616
948.741 .0257589
949.369 .0257560
949.996 .0257528
950.624 .0257491
951.251 .0257450
951.878 .0257403
952.504 .0257351
953.130 .0257295
953.755 .0257233
954.380 .0257166
955.005 .0257095
955.629 .0257017
956.253 .0256933
956.877 .0256843
957.500 .0256745
958.123 .0256640
958.746 .0256528
959.368 .0256411
959.990 .0256288
960.611 .0256160
961.232 .0256028
961.853 .0255892
962.473 .0255751
963.093 .0255606
963.712 .0255456
964.331 .0255300
964.950 .0255140
965.569 .0254976
966.187 .0254808
966.804 .0254638
967.422 .0254466
968.039 .0254292
968.655 .0254118
969.272 .0253942
969.887 .0253766
970.503 .0253588
971.118 .0253409
971.733 .0253229
972.347 .0253047
972.961 .0252866
973.575 .0252683
974.188 .0252501
974.801 .0252318
975.414 .0252135
976.026 .0251951
976.638 .0251764
977.250 .0251576
977.861 .0251384
978.472 .0251188
979.083 .0250989
979.693 .0250786
980.303 .0250579
980.912 .0250256
981.521 .0250043
982.130 .0249828
982.738 .0249613
983.346 .0249398
983.954 .0249182
984.562 .0248967
985.169 .0248754
985.775 .0248542
986.382 .0248333
986.988 .0248128
987.594 .0247927
988.199 .0247732
988.804 .0247543
989.409 .0247468
990.013 .0247292
990.617 .0247122
991.221 .0246961
991.824 .0246806
992.427 .0246658
993.030 .0246518
993.632 .0246383
994.234 .0246255
994.836 .0246133
995.438 .0246018
996.039 .0245909
996.640 .0245807
997.240 .0245713
997.840 .0245626
998.440 .0245546
999.040 .0245472
999.639 .0245404
1000.238 .0245342
1000.836 .0245283
1001.435 .0245228
1002.033 .0245176
1002.630 .0245126
1003.228 .0245079
1003.825 .0245034
1004.422 .0244989
1005.018 .0244946
1005.614 .0244904
1006.210 .0244860
1006.806 .0244816
1007.401 .0244770
1007.996 .0244723
1008.591 .0244673
1009.186 .0244622
1009.780 .0244568
1010.374 .0244514
1010.967 .0244460
1011.561 .0244406
1012.154 .0244353
1012.746 .0244303
1013.339 .0244255
1013.931 .0244209
1014.523 .0244166
1015.115 .0244126
1015.706 .0244089
1016.298 .0244056
1016.888 .0244026
1017.479 .0244002
1018.069 .0243984
1018.660 .0243972
1019.250 .0243969
1019.839 .0243974
1020.429 .0243988
1021.018 .0244011
1021.607 .0244043
1022.195 .0244084
1022.784 .0244132
1023.372 .0244189
1023.960 .0244254
1024.547 .0244327
1025.135 .0244408
1025.722 .0244496
1026.309 .0244592
1026.896 .0244694
1027.483 .0244802
1028.069 .0244915
1028.655 .0245032
1029.241 .0245153
1029.827 .0245277
1030.412 .0245404
1030.997 .0245534
1031.582 .0245665
1032.167 .0245799
1032.752 .0245935
1033.336 .0246072
1033.921 .0246211
1034.505 .0246350
1035.089 .0246489
1035.672 .0246628
1036.256 .0246764
1036.839 .0246897
1037.422 .0247028
1038.005 .0247155
1038.588 .0247279
1039.171 .0247401
1039.753 .0247521
1040.335 .0247639
1040.918 .0247756
1041.500 .0247871
1042.081 .0247985
1042.663 .0248097
1043.244 .0248209
1043.826 .0248319
1044.407 .0248428
1044.988 .0248538
1045.569 .0248649
1046.150 .0248762
1046.730 .0248875
1047.311 .0248991
1047.891 .0249107
1048.471 .0249223
1049.052 .0249338
1049.632 .0249453
1050.211 .0249566
1050.791 .0249677
1051.371 .0249787
1051.950 .0249897
1052.530 .0250007
1053.109 .0250115
1053.688 .0250223
1054.268 .0250330
1054.847 .0250436
1055.426 .0250539
1056.005 .0250640
1056.583 .0250739
1057.162 .0250835
1057.741 .0250930
1058.319 .0251024
1058.898 .0251116
1059.476 .0251209
1060.055 .0251300
1060.633 .0251390
1061.211 .0251479
1061.790 .0251567
1062.368 .0251654
1062.946 .0251741
1063.524 .0251828
1064.102 .0251917
1064.680 .0252009
1065.258 .0252107
1065.836 .0252211
1066.414 .0252322
1066.992 .0252439
1067.570 .0252562
1068.148 .0252690
1068.726 .0252821
1069.304 .0252955
1069.882 .0253090
1070.460 .0253228
1071.038 .0253368
1071.616 .0253508
1072.194 .0253649
1072.772 .0253790
1073.350 .0253931
1073.928 .0254070
1074.506 .0254207
1075.084 .0254341
1075.662 .0254472
1076.240 .0254601
1076.819 .0254728
1077.397 .0254855
1077.976 .0254983
1078.554 .0255114
1079.133 .0255246
1079.711 .0255379
1080.290 .0255514
1080.869 .0255649
1081.448 .0255783
1082.027 .0255914
1082.606 .0256043
1083.185 .0256169
1083.764 .0256294
1084.343 .0256418
1084.923 .0256542
1085.502 .0256664
1086.082 .0256788
1086.662 .0256912
1087.242 .0257036
1087.822 .0257162
1088.402 .0257291
1088.983 .0257426
1089.563 .0257567
1090.144 .0257717
1090.725 .0257879
1091.306 .0258053
1091.887 .0258240
1092.469 .0258438
1093.050 .0258645
1093.632 .0258862
1094.214 .0259084
1094.796 .0259313
1095.379 .0259546
1095.961 .0259783
1096.544 .0260024
1097.127 .0260268
1097.710 .0260513
1098.294 .0260758
1098.877 .0260999
1099.461 .0261234
1100.046 .0261460
1100.630 .0261677
1101.215 .0261882
1101.800 .0262079
1102.385 .0262268
1102.970 .0262450
1103.556 .0262626
1104.142 .0262798
1104.728 .0262965
1105.315 .0263124
1105.902 .0263273
1106.489 .0263411
1107.077 .0263537
1107.664 .0263651
1108.253 .0263755
1108.841 .0263851
1109.430 .0263945
1110.019 .0264039
1110.609 .0264136
1111.198 .0264241
1111.789 .0264352
1112.379 .0264471
1112.970 .0264600
1113.561 .0264737
1114.153 .0264885
1114.745 .0265047
1115.338 .0265226
1115.931 .0265428
1116.524 .0265656
1117.117 .0265915
1117.712 .0266208
1118.306 .0266537
1118.901 .0266902
1119.496 .0267300
1120.092 .0267733
1120.689 .0268198
1121.285 .0268692
1121.882 .0269216
1122.480 .0269769
1123.078 .0270351
1123.677 .0270959
1124.276 .0271593
1124.875 .0272251
1125.476 .0272934
1126.076 .0273640
1126.677 .0274366
1127.279 .0275111
1127.881 .0275872
1128.484 .0276647
1129.087 .0277021
1129.691 .0277817
1130.295 .0278620
1130.900 .0279427
1131.505 .0280237
1132.111 .0281052
1132.718 .0281869
1133.325 .0282692
1133.933 .0283518
1134.541 .0284379
1135.150 .0285283
1135.760 .0286080
1136.370 .0286978
1136.981 .0288195
1137.592 .0288982
1138.204 .0289692
1138.817 .0290360
1139.431 .0291036
1140.045 .0291776
1140.660 .0292524
1141.275 .0293437
1141.891 .0294254
1142.508 .0296103
1143.126 .0298197
1143.744 .0296164
1144.363 .0299937
1144.983 .0295089
