Measurement Sequence started on: 15-12-46-377
Integration time: 28
Scans to Average: 2 
>>>>>Begin Spectral Data<<<<<
432.689 .0000100
433.621 .0000100
434.552 .0000100
435.482 .0000100
436.410 .0000100
437.337 .0000100
438.262 .0268012
439.187 .0567637
440.110 .0939528
441.031 .1358820
441.952 .1083818
442.871 .1131040
443.789 .1174832
444.705 .1215884
445.621 .1254671
446.535 .1291560
447.447 .1312712
448.359 .1316686
449.269 .1299880
450.178 .1259967
451.086 .1197755
451.993 .1117979
452.898 .1028411
453.803 .0937858
454.706 .0853786
455.608 .0780825
456.508 .0720519
457.408 .0679738
458.306 .0648493
459.204 .0623180
460.100 .0602012
460.995 .0583994
461.888 .0568453
462.781 .0554938
463.673 .0543105
464.563 .0532707
465.452 .0523530
466.340 .0515388
467.228 .0508127
468.114 .0501609
468.999 .0495720
469.882 .0490359
470.765 .0485442
471.647 .0480910
472.528 .0476717
473.407 .0472828
474.286 .0469224
475.163 .0465898
476.040 .0462838
476.915 .0460043
477.790 .0457505
478.663 .0455215
479.535 .0453163
480.407 .0451337
481.277 .0449724
482.147 .0448307
483.015 .0447075
483.883 .0446016
484.749 .0445128
485.615 .0444413
486.479 .0443873
487.343 .0443517
488.206 .0443355
489.067 .0443394
489.928 .0443643
490.788 .0444106
491.647 .0444784
492.505 .0445679
493.362 .0446780
494.218 .0448088
495.073 .0449601
495.928 .0452691
496.781 .0454793
497.634 .0457153
498.486 .0459795
499.337 .0462740
500.187 .0466013
501.036 .0469635
501.884 .0473626
502.731 .0478010
503.578 .0482806
504.424 .0486078
505.268 .0491596
506.113 .0497606
506.956 .0504149
507.798 .0511269
508.640 .0519025
509.480 .0527490
510.320 .0536758
511.160 .0546924
511.998 .0558112
512.836 .0570457
513.672 .0584095
514.508 .0599179
515.344 .0615879
516.178 .0634346
517.012 .0654761
517.845 .0677294
518.677 .0702099
519.508 .0729298
520.339 .0758979
521.169 .0791186
521.998 .0825756
522.826 .0862406
523.654 .0900708
524.481 .0940069
525.307 .0979824
526.133 .1019173
526.958 .1057286
527.782 .1093357
528.605 .1126642
529.428 .1156472
530.250 .1182264
531.072 .1203651
531.892 .1220346
532.712 .1232139
533.532 .1238954
534.350 .1240752
535.168 .1237568
535.986 .1229468
536.802 .1216526
537.618 .1198822
538.434 .1176456
539.249 .1149712
540.063 .1118985
540.876 .1084784
541.689 .1047773
542.501 .1008668
543.313 .0968286
544.124 .0927465
544.934 .0886981
545.744 .0847532
546.553 .0809725
547.361 .0774042
548.169 .0740740
548.976 .0709980
549.783 .0681819
550.589 .0656193
551.395 .0632970
552.200 .0611945
553.004 .0592894
553.808 .0575603
554.611 .0559890
555.414 .0545575
556.216 .0532499
557.018 .0520517
557.819 .0509504
558.619 .0499340
559.419 .0489926
560.218 .0481180
561.017 .0473025
561.815 .0465397
562.613 .0458242
563.410 .0451493
564.207 .0445102
565.003 .0439024
565.799 .0433212
566.594 .0427630
567.388 .0422250
568.182 .0417046
568.976 .0412002
569.769 .0407107
570.562 .0402355
571.354 .0397742
572.145 .0393274
572.936 .0388956
573.727 .0384781
574.517 .0380750
575.307 .0376861
576.096 .0373110
576.885 .0369497
577.673 .0366021
578.461 .0362685
579.248 .0359495
580.035 .0356457
580.821 .0353573
581.607 .0350847
582.392 .0348281
583.177 .0345876
583.962 .0343629
584.746 .0341537
585.529 .0339596
586.313 .0337796
587.095 .0336133
587.878 .0334599
588.660 .0333188
589.441 .0331893
590.222 .0330710
591.003 .0329634
591.783 .0328657
592.563 .0327772
593.342 .0326967
594.121 .0326233
594.899 .0325556
595.678 .0324927
596.455 .0324336
597.233 .0323774
598.009 .0323237
598.786 .0322722
599.562 .0322226
600.338 .0321746
601.113 .0321282
601.888 .0320616
602.663 .0320180
603.437 .0319754
604.211 .0319336
604.984 .0318925
605.757 .0318520
606.530 .0318123
607.302 .0317734
608.074 .0317355
608.845 .0316988
609.616 .0316636
610.387 .0316500
611.158 .0316176
611.928 .0315870
612.697 .0315582
613.467 .0315312
614.236 .0315059
615.004 .0314823
615.773 .0314602
616.541 .0314397
617.308 .0314204
618.076 .0314024
618.843 .0313855
619.609 .0313696
620.375 .0313545
621.141 .0313402
621.907 .0313264
622.672 .0313131
623.437 .0313001
624.202 .0312873
624.966 .0312744
625.730 .0312613
626.493 .0312478
627.257 .0312337
628.020 .0312190
628.782 .0312036
629.545 .0311873
630.307 .0311702
631.068 .0311524
631.830 .0311340
632.591 .0311150
633.352 .0310955
634.112 .0310755
634.872 .0310551
635.632 .0310342
636.392 .0310130
637.151 .0309913
637.910 .0309693
638.668 .0309469
639.427 .0309243
640.185 .0309015
640.943 .0308786
641.700 .0308557
642.457 .0308328
643.214 .0308100
643.971 .0307873
644.727 .0307647
645.483 .0307422
646.239 .0307197
646.994 .0306973
647.750 .0306748
648.505 .0306522
649.259 .0306295
650.014 .0306066
650.768 .0305836
651.521 .0305603
652.275 .0305368
653.028 .0305130
653.781 .0304891
654.534 .0304648
655.286 .0304404
656.039 .0304157
656.791 .0303907
657.542 .0303655
658.294 .0303401
659.045 .0303145
659.796 .0302887
660.546 .0302627
661.297 .0302367
662.047 .0302107
662.796 .0301847
663.546 .0301589
664.295 .0301334
665.044 .0301083
665.793 .0300837
666.542 .0300599
667.290 .0300370
668.038 .0300151
668.786 .0299942
669.533 .0299744
670.281 .0299559
671.028 .0299385
671.774 .0299224
672.521 .0299076
673.267 .0298939
674.013 .0298815
674.759 .0298704
675.505 .0298604
676.250 .0298515
676.995 .0298437
677.740 .0298368
678.484 .0298307
679.229 .0298253
679.973 .0298205
680.717 .0298161
681.460 .0298120
682.204 .0298081
682.947 .0298040
683.690 .0297998
684.433 .0297952
685.175 .0297901
685.917 .0297846
686.659 .0297784
687.401 .0297717
688.142 .0297642
688.884 .0297561
689.625 .0297473
690.365 .0297378
691.106 .0297275
691.846 .0297165
692.586 .0297048
693.326 .0296924
694.066 .0296793
694.805 .0296655
695.545 .0296512
696.284 .0296364
697.022 .0296211
697.761 .0296054
698.499 .0295893
699.237 .0295729
699.975 .0295561
700.713 .0295390
701.450 .0295215
702.187 .0295038
702.924 .0294857
703.661 .0294673
704.397 .0294486
705.133 .0294296
705.869 .0294102
706.605 .0293907
707.341 .0293707
708.076 .0293505
708.811 .0293299
709.546 .0293089
710.281 .0292874
711.015 .0292654
711.749 .0292429
712.483 .0292198
713.217 .0291960
713.950 .0291717
714.684 .0291467
715.417 .0291212
716.150 .0290952
716.882 .0290688
717.615 .0290419
718.347 .0290147
719.079 .0289871
719.811 .0289592
720.542 .0289311
721.273 .0289029
722.005 .0288746
722.735 .0288464
723.466 .0288184
724.196 .0287907
724.927 .0287632
725.656 .0287363
726.386 .0287098
727.116 .0286838
727.845 .0286585
728.574 .0286338
729.303 .0286099
730.031 .0285868
730.760 .0285646
731.488 .0285433
732.216 .0285230
732.944 .0285037
733.671 .0284853
734.398 .0284681
735.125 .0284519
735.852 .0284369
736.579 .0284231
737.305 .0284105
738.031 .0283991
738.757 .0283887
739.483 .0283793
740.208 .0283707
740.933 .0283629
741.658 .0283557
742.383 .0283491
743.108 .0283429
743.832 .0283371
744.556 .0283318
745.280 .0283267
746.004 .0283220
746.727 .0283174
747.450 .0283129
748.173 .0283086
748.896 .0283042
749.618 .0282997
750.340 .0282952
751.062 .0282906
751.784 .0282858
752.506 .0282808
753.227 .0282756
753.948 .0282701
754.669 .0282642
755.389 .0282579
756.110 .0282511
756.830 .0282438
757.550 .0282360
758.269 .0282276
758.989 .0282188
759.708 .0282094
760.427 .0281996
761.146 .0281892
761.864 .0281784
762.582 .0281672
763.300 .0281556
764.018 .0281436
764.736 .0281312
765.453 .0281186
766.170 .0281057
766.887 .0280925
767.603 .0280791
768.320 .0280655
769.036 .0280516
769.751 .0280374
770.467 .0280230
771.182 .0280083
771.897 .0279934
772.612 .0279783
773.327 .0279629
774.041 .0279473
774.755 .0279314
775.469 .0279153
776.183 .0278990
776.896 .0278824
777.609 .0278656
778.322 .0278486
779.035 .0278314
779.747 .0278141
780.459 .0277966
781.171 .0277790
781.882 .0277613
782.594 .0277434
783.305 .0277253
784.016 .0277069
784.726 .0276882
785.436 .0276692
786.147 .0276398
786.856 .0276201
787.566 .0276002
788.275 .0275800
788.984 .0275595
789.693 .0275388
790.401 .0275177
791.110 .0274963
791.818 .0274745
792.525 .0274523
793.233 .0274296
793.940 .0274065
794.647 .0273934
795.353 .0273694
796.060 .0273450
796.766 .0273202
797.472 .0272950
798.177 .0272694
798.883 .0272433
799.588 .0272169
800.292 .0271901
800.997 .0271630
801.701 .0271357
802.405 .0271082
803.109 .0270805
803.812 .0270529
804.515 .0270254
805.218 .0269980
805.921 .0269710
806.623 .0269443
807.325 .0269180
808.027 .0268923
808.728 .0268673
809.429 .0268429
810.130 .0268193
810.831 .0267965
811.531 .0267745
812.231 .0267533
812.931 .0267329
813.630 .0267133
814.330 .0266945
815.029 .0266766
815.727 .0266595
816.426 .0266433
817.124 .0266281
817.821 .0266138
818.519 .0266006
819.216 .0265884
819.913 .0265773
820.609 .0265672
821.306 .0265583
822.002 .0265505
822.697 .0265438
823.393 .0265382
824.088 .0265337
824.783 .0265304
825.477 .0265281
826.171 .0265270
826.865 .0265268
827.559 .0265276
828.252 .0265293
828.945 .0265319
829.638 .0265353
830.330 .0265393
831.023 .0265439
831.714 .0265489
832.406 .0265543
833.097 .0265598
833.788 .0265654
834.479 .0265709
835.169 .0265763
835.859 .0265815
836.548 .0265863
837.238 .0265909
837.927 .0265949
838.615 .0265985
839.304 .0266015
839.992 .0266039
840.680 .0266056
841.367 .0266066
842.054 .0266068
842.741 .0266064
843.428 .0266053
844.114 .0266037
844.800 .0266016
845.485 .0265991
846.170 .0265962
846.855 .0265929
847.540 .0265892
848.224 .0265851
848.908 .0265807
849.592 .0265760
850.275 .0265709
850.958 .0265656
851.641 .0265600
852.323 .0265540
853.005 .0265478
853.687 .0265411
854.368 .0265340
855.049 .0265261
855.730 .0265176
856.410 .0265083
857.090 .0264981
857.769 .0264871
858.449 .0264752
859.128 .0264624
859.806 .0264487
860.485 .0264340
861.163 .0264183
861.840 .0264017
862.518 .0263841
863.195 .0263655
863.871 .0263461
864.548 .0263259
865.224 .0263049
865.899 .0262833
866.574 .0262611
867.249 .0262384
867.924 .0262153
868.598 .0261918
869.272 .0261680
869.946 .0261439
870.619 .0261197
871.292 .0260954
871.964 .0260711
872.636 .0260469
873.308 .0260229
873.979 .0259990
874.651 .0259753
875.321 .0259519
875.992 .0259287
876.662 .0259059
877.331 .0258832
878.001 .0258609
878.670 .0258389
879.338 .0258171
880.007 .0257957
880.675 .0257745
881.342 .0257535
882.009 .0257327
882.676 .0257121
883.343 .0256917
884.009 .0256716
884.675 .0256516
885.340 .0256319
886.005 .0256124
886.670 .0255932
887.334 .0255743
887.998 .0255556
888.662 .0255372
889.325 .0255191
889.988 .0255012
890.650 .0254834
891.312 .0254659
891.974 .0254485
892.636 .0254314
893.297 .0254144
893.957 .0253975
894.618 .0253808
895.278 .0253642
895.937 .0253477
896.596 .0253313
897.255 .0253149
897.914 .0252985
898.572 .0252822
899.230 .0252657
899.887 .0252492
900.544 .0252326
901.201 .0252159
901.857 .0251898
902.513 .0251727
903.168 .0251555
903.823 .0251382
904.478 .0251207
905.132 .0251031
905.786 .0250854
906.440 .0250675
907.093 .0250494
907.746 .0250311
908.399 .0250127
909.051 .0249941
909.703 .0249755
910.354 .0249661
911.005 .0249475
911.656 .0249291
912.306 .0249108
912.956 .0248927
913.605 .0248749
914.254 .0248574
914.903 .0248403
915.551 .0248237
916.199 .0248076
916.847 .0247921
917.494 .0247771
918.141 .0247627
918.788 .0247490
919.434 .0247359
920.079 .0247235
920.725 .0247118
921.370 .0247007
922.014 .0246902
922.658 .0246804
923.302 .0246713
923.946 .0246628
924.589 .0246551
925.231 .0246481
925.873 .0246417
926.515 .0246361
927.157 .0246312
927.798 .0246270
928.439 .0246234
929.079 .0246203
929.719 .0246177
930.359 .0246155
930.998 .0246138
931.637 .0246124
932.275 .0246114
932.913 .0246108
933.551 .0246106
934.188 .0246109
934.825 .0246117
935.462 .0246129
936.098 .0246145
936.733 .0246165
937.369 .0246188
938.004 .0246215
938.638 .0246245
939.273 .0246278
939.907 .0246315
940.540 .0246356
941.173 .0246402
941.806 .0246452
942.438 .0246507
943.070 .0246564
943.702 .0246625
944.333 .0246687
944.964 .0246751
945.594 .0246815
946.224 .0246880
946.854 .0246945
947.483 .0247009
948.112 .0247074
948.741 .0247137
949.369 .0247200
949.996 .0247261
950.624 .0247320
951.251 .0247376
951.878 .0247428
952.504 .0247477
953.130 .0247522
953.755 .0247562
954.380 .0247598
955.005 .0247628
955.629 .0247654
956.253 .0247674
956.877 .0247688
957.500 .0247695
958.123 .0247696
958.746 .0247690
959.368 .0247678
959.990 .0247661
960.611 .0247638
961.232 .0247610
961.853 .0247578
962.473 .0247541
963.093 .0247499
963.712 .0247453
964.331 .0247402
964.950 .0247348
965.569 .0247289
966.187 .0247226
966.804 .0247160
967.422 .0247089
968.039 .0247013
968.655 .0246932
969.272 .0246845
969.887 .0246752
970.503 .0246653
971.118 .0246548
971.733 .0246438
972.347 .0246323
972.961 .0246204
973.575 .0246080
974.188 .0245951
974.801 .0245818
975.414 .0245678
976.026 .0245533
976.638 .0245381
977.250 .0245223
977.861 .0245058
978.472 .0244888
979.083 .0244713
979.693 .0244533
980.303 .0244349
980.912 .0244054
981.521 .0243858
982.130 .0243657
982.738 .0243451
983.346 .0243238
983.954 .0243021
984.562 .0242799
985.169 .0242573
985.775 .0242344
986.382 .0242114
986.988 .0241882
987.594 .0241650
988.199 .0241416
988.804 .0241182
989.409 .0241061
990.013 .0240827
990.617 .0240593
991.221 .0240358
991.824 .0240124
992.427 .0239890
993.030 .0239658
993.632 .0239428
994.234 .0239199
994.836 .0238972
995.438 .0238747
996.039 .0238523
996.640 .0238302
997.240 .0238082
997.840 .0237864
998.440 .0237650
999.040 .0237439
999.639 .0237231
1000.238 .0237028
1000.836 .0236830
1001.435 .0236636
1002.033 .0236447
1002.630 .0236263
1003.228 .0236083
1003.825 .0235907
1004.422 .0235736
1005.018 .0235568
1005.614 .0235404
1006.210 .0235243
1006.806 .0235086
1007.401 .0234930
1007.996 .0234778
1008.591 .0234627
1009.186 .0234479
1009.780 .0234333
1010.374 .0234189
1010.967 .0234046
1011.561 .0233906
1012.154 .0233767
1012.746 .0233630
1013.339 .0233496
1013.931 .0233364
1014.523 .0233235
1015.115 .0233110
1015.706 .0232989
1016.298 .0232873
1016.888 .0232762
1017.479 .0232657
1018.069 .0232558
1018.660 .0232465
1019.250 .0232378
1019.839 .0232297
1020.429 .0232221
1021.018 .0232152
1021.607 .0232090
1022.195 .0232034
1022.784 .0231984
1023.372 .0231942
1023.960 .0231907
1024.547 .0231879
1025.135 .0231856
1025.722 .0231841
1026.309 .0231831
1026.896 .0231827
1027.483 .0231830
1028.069 .0231839
1028.655 .0231854
1029.241 .0231876
1029.827 .0231904
1030.412 .0231938
1030.997 .0231978
1031.582 .0232024
1032.167 .0232075
1032.752 .0232131
1033.336 .0232191
1033.921 .0232255
1034.505 .0232323
1035.089 .0232393
1035.672 .0232466
1036.256 .0232539
1036.839 .0232613
1037.422 .0232686
1038.005 .0232758
1038.588 .0232830
1039.171 .0232900
1039.753 .0232970
1040.335 .0233039
1040.918 .0233108
1041.500 .0233177
1042.081 .0233245
1042.663 .0233314
1043.244 .0233381
1043.826 .0233449
1044.407 .0233517
1044.988 .0233587
1045.569 .0233659
1046.150 .0233735
1046.730 .0233816
1047.311 .0233902
1047.891 .0233994
1048.471 .0234092
1049.052 .0234195
1049.632 .0234301
1050.211 .0234410
1050.791 .0234523
1051.371 .0234639
1051.950 .0234759
1052.530 .0234882
1053.109 .0235011
1053.688 .0235145
1054.268 .0235285
1054.847 .0235429
1055.426 .0235579
1056.005 .0235732
1056.583 .0235889
1057.162 .0236050
1057.741 .0236215
1058.319 .0236385
1058.898 .0236561
1059.476 .0236744
1060.055 .0236934
1060.633 .0237129
1061.211 .0237330
1061.790 .0237534
1062.368 .0237739
1062.946 .0237944
1063.524 .0238147
1064.102 .0238347
1064.680 .0238544
1065.258 .0238739
1065.836 .0238931
1066.414 .0239123
1066.992 .0239313
1067.570 .0239502
1068.148 .0239690
1068.726 .0239876
1069.304 .0240060
1069.882 .0240242
1070.460 .0240423
1071.038 .0240603
1071.616 .0240784
1072.194 .0240966
1072.772 .0241152
1073.350 .0241343
1073.928 .0241538
1074.506 .0241738
1075.084 .0241941
1075.662 .0242147
1076.240 .0242354
1076.819 .0242561
1077.397 .0242767
1077.976 .0242972
1078.554 .0243175
1079.133 .0243377
1079.711 .0243578
1080.290 .0243778
1080.869 .0243978
1081.448 .0244177
1082.027 .0244374
1082.606 .0244571
1083.185 .0244764
1083.764 .0244953
1084.343 .0245139
1084.923 .0245322
1085.502 .0245500
1086.082 .0245677
1086.662 .0245852
1087.242 .0246026
1087.822 .0246200
1088.402 .0246376
1088.983 .0246552
1089.563 .0246729
1090.144 .0246904
1090.725 .0247077
1091.306 .0247247
1091.887 .0247413
1092.469 .0247576
1093.050 .0247739
1093.632 .0247902
1094.214 .0248067
1094.796 .0248237
1095.379 .0248410
1095.961 .0248588
1096.544 .0248768
1097.127 .0248948
1097.710 .0249127
1098.294 .0249304
1098.877 .0249478
1099.461 .0249650
1100.046 .0249822
1100.630 .0249997
1101.215 .0250177
1101.800 .0250363
1102.385 .0250556
1102.970 .0250756
1103.556 .0250961
1104.142 .0251168
1104.728 .0251377
1105.315 .0251587
1105.902 .0251798
1106.489 .0252012
1107.077 .0252232
1107.664 .0252459
1108.253 .0252694
1108.841 .0252940
1109.430 .0253194
1110.019 .0253455
1110.609 .0253720
1111.198 .0253988
1111.789 .0254256
1112.379 .0254523
1112.970 .0254792
1113.561 .0255064
1114.153 .0255342
1114.745 .0255628
1115.338 .0255925
1115.931 .0256232
1116.524 .0256548
1117.117 .0256870
1117.712 .0257197
1118.306 .0257525
1118.901 .0257852
1119.496 .0258178
1120.092 .0258503
1120.689 .0258828
1121.285 .0259156
1121.882 .0259490
1122.480 .0259831
1123.078 .0260177
1123.677 .0260529
1124.276 .0260886
1124.875 .0261245
1125.476 .0261609
1126.076 .0261978
1126.677 .0262355
1127.279 .0262745
1127.881 .0263152
1128.484 .0263583
1129.087 .0263753
1129.691 .0264220
1130.295 .0264722
1130.900 .0265259
1131.505 .0265834
1132.111 .0266447
1132.718 .0267096
1133.325 .0267782
1133.933 .0268505
1134.541 .0269256
1135.150 .0270089
1135.760 .0270906
1136.370 .0271757
1136.981 .0271028
1137.592 .0272157
1138.204 .0273406
1138.817 .0274708
1139.431 .0276067
1140.045 .0277479
1140.660 .0278858
1141.275 .0280220
1141.891 .0281608
1142.508 .0282679
1143.126 .0285269
1143.744 .0285058
1144.363 .0286243
1144.983 .0288771
