Measurement Sequence started on: 15-12-46-377
Integration time: 28
Scans to Average: 2 
>>>>>Begin Spectral Data<<<<<
432.689 .0000100
433.621 .0000100
434.552 .0000100
435.482 .0000100
436.410 .0000100
437.337 .0000100
438.262 .0280166
439.187 .0593443
440.110 .0982534
441.031 .1420945
441.952 .1141482
442.871 .1193008
443.789 .1241080
444.705 .1286374
445.621 .1329356
446.535 .1370404
447.447 .1395061
448.359 .1401813
449.269 .1386863
450.178 .1347750
451.086 .1285275
451.993 .1204299
452.898 .1112843
453.803 .1020011
454.706 .0933520
455.608 .0858157
456.508 .0795510
457.408 .0752774
458.306 .0719566
459.204 .0692203
460.100 .0668885
460.995 .0648643
461.888 .0630834
462.781 .0615021
463.673 .0600852
464.563 .0588073
465.452 .0576479
466.340 .0565911
467.228 .0556264
468.114 .0547460
468.999 .0539433
469.882 .0532141
470.765 .0525542
471.647 .0519597
472.528 .0514263
473.407 .0509487
474.286 .0505228
475.163 .0501446
476.040 .0498097
476.915 .0495148
477.790 .0492570
478.663 .0490342
479.535 .0488440
480.407 .0486843
481.277 .0485529
482.147 .0484468
483.015 .0483633
483.883 .0483001
484.749 .0482549
485.615 .0482265
486.479 .0482136
487.343 .0482158
488.206 .0482340
489.067 .0482673
489.928 .0483164
490.788 .0483816
491.647 .0484629
492.505 .0485605
493.362 .0486742
494.218 .0488048
495.073 .0489534
495.928 .0492462
496.781 .0494477
497.634 .0496725
498.486 .0499217
499.337 .0501965
500.187 .0504983
501.036 .0508281
501.884 .0511870
502.731 .0515774
503.578 .0520017
504.424 .0522907
505.268 .0527782
506.113 .0533124
506.956 .0538992
507.798 .0545452
508.640 .0552580
509.480 .0560465
510.320 .0569206
511.160 .0578902
511.998 .0589662
512.836 .0601648
513.672 .0615038
514.508 .0630053
515.344 .0646937
516.178 .0665960
517.012 .0687423
517.845 .0711607
518.677 .0738740
519.508 .0768975
520.339 .0802388
521.169 .0838964
521.998 .0878408
522.826 .0920303
523.654 .0964036
524.481 .1008900
525.307 .1054078
526.133 .1098646
526.958 .1141633
527.782 .1182127
528.605 .1219297
529.428 .1252399
530.250 .1280789
531.072 .1304054
531.892 .1321870
532.712 .1334055
533.532 .1340503
534.350 .1341190
535.168 .1336167
535.986 .1325549
536.802 .1309453
537.618 .1288005
538.434 .1261371
539.249 .1229958
540.063 .1194280
540.876 .1155009
541.689 .1112898
542.501 .1068803
543.313 .1023663
544.124 .0978455
544.934 .0934065
545.744 .0891279
546.553 .0850769
547.361 .0813042
548.169 .0778338
548.976 .0746763
549.783 .0718243
550.589 .0692618
551.395 .0669615
552.200 .0648913
553.004 .0630173
553.808 .0613130
554.611 .0597575
555.414 .0583341
556.216 .0570275
557.018 .0558237
557.819 .0547101
558.619 .0536744
559.419 .0527045
560.218 .0517898
561.017 .0509203
561.815 .0500883
562.613 .0492880
563.410 .0485157
564.207 .0477687
565.003 .0470466
565.799 .0463489
566.594 .0456759
567.388 .0450267
568.182 .0444006
568.976 .0437952
569.769 .0432095
570.562 .0426419
571.354 .0420914
572.145 .0415575
572.936 .0410406
573.727 .0405407
574.517 .0400592
575.307 .0395975
576.096 .0391568
576.885 .0387381
577.673 .0383419
578.461 .0379680
579.248 .0376159
580.035 .0372847
580.821 .0369734
581.607 .0366808
582.392 .0364063
583.177 .0361490
583.962 .0359081
584.746 .0356828
585.529 .0354727
586.313 .0352772
587.095 .0350955
587.878 .0349267
588.660 .0347702
589.441 .0346252
590.222 .0344912
591.003 .0343677
591.783 .0342539
592.563 .0341492
593.342 .0340528
594.121 .0339639
594.899 .0338817
595.678 .0338053
596.455 .0337340
597.233 .0336671
598.009 .0336040
598.786 .0335441
599.562 .0334869
600.338 .0334322
601.113 .0333799
601.888 .0333067
602.663 .0332585
603.437 .0332116
604.211 .0331659
604.984 .0331212
605.757 .0330772
606.530 .0330338
607.302 .0329909
608.074 .0329487
608.845 .0329072
609.616 .0328666
610.387 .0328491
611.158 .0328107
611.928 .0327737
612.697 .0327381
613.467 .0327040
614.236 .0326714
615.004 .0326402
615.773 .0326104
616.541 .0325818
617.308 .0325543
618.076 .0325277
618.843 .0325021
619.609 .0324774
620.375 .0324535
621.141 .0324305
621.907 .0324082
622.672 .0323865
623.437 .0323652
624.202 .0323440
624.966 .0323227
625.730 .0323011
626.493 .0322788
627.257 .0322557
628.020 .0322317
628.782 .0322067
629.545 .0321807
630.307 .0321537
631.068 .0321257
631.830 .0320968
632.591 .0320672
633.352 .0320368
634.112 .0320059
634.872 .0319745
635.632 .0319426
636.392 .0319105
637.151 .0318781
637.910 .0318458
638.668 .0318136
639.427 .0317817
640.185 .0317503
640.943 .0317196
641.700 .0316897
642.457 .0316607
643.214 .0316328
643.971 .0316060
644.727 .0315804
645.483 .0315558
646.239 .0315323
646.994 .0315097
647.750 .0314879
648.505 .0314668
649.259 .0314464
650.014 .0314264
650.768 .0314069
651.521 .0313877
652.275 .0313686
653.028 .0313497
653.781 .0313308
654.534 .0313118
655.286 .0312925
656.039 .0312730
656.791 .0312531
657.542 .0312328
658.294 .0312122
659.045 .0311911
659.796 .0311696
660.546 .0311477
661.297 .0311252
662.047 .0311023
662.796 .0310790
663.546 .0310553
664.295 .0310313
665.044 .0310070
665.793 .0309826
666.542 .0309582
667.290 .0309339
668.038 .0309098
668.786 .0308858
669.533 .0308621
670.281 .0308384
671.028 .0308150
671.774 .0307918
672.521 .0307688
673.267 .0307461
674.013 .0307237
674.759 .0307016
675.505 .0306799
676.250 .0306585
676.995 .0306375
677.740 .0306167
678.484 .0305962
679.229 .0305759
679.973 .0305558
680.717 .0305359
681.460 .0305163
682.204 .0304968
682.947 .0304775
683.690 .0304583
684.433 .0304390
685.175 .0304197
685.917 .0304003
686.659 .0303809
687.401 .0303614
688.142 .0303418
688.884 .0303221
689.625 .0303022
690.365 .0302821
691.106 .0302618
691.846 .0302413
692.586 .0302205
693.326 .0301995
694.066 .0301783
694.805 .0301569
695.545 .0301354
696.284 .0301138
697.022 .0300922
697.761 .0300705
698.499 .0300487
699.237 .0300269
699.975 .0300051
700.713 .0299834
701.450 .0299617
702.187 .0299402
702.924 .0299189
703.661 .0298978
704.397 .0298770
705.133 .0298565
705.869 .0298361
706.605 .0298160
707.341 .0297960
708.076 .0297762
708.811 .0297565
709.546 .0297370
710.281 .0297175
711.015 .0296982
711.749 .0296789
712.483 .0296597
713.217 .0296406
713.950 .0296216
714.684 .0296026
715.417 .0295837
716.150 .0295649
716.882 .0295462
717.615 .0295276
718.347 .0295090
719.079 .0294904
719.811 .0294718
720.542 .0294533
721.273 .0294348
722.005 .0294162
722.735 .0293978
723.466 .0293794
724.196 .0293612
724.927 .0293431
725.656 .0293252
726.386 .0293075
727.116 .0292900
727.845 .0292728
728.574 .0292558
729.303 .0292391
730.031 .0292228
730.760 .0292068
731.488 .0291911
732.216 .0291757
732.944 .0291607
733.671 .0291460
734.398 .0291316
735.125 .0291176
735.852 .0291040
736.579 .0290907
737.305 .0290779
738.031 .0290654
738.757 .0290532
739.483 .0290413
740.208 .0290296
740.933 .0290181
741.658 .0290066
742.383 .0289953
743.108 .0289839
743.832 .0289727
744.556 .0289614
745.280 .0289503
746.004 .0289393
746.727 .0289282
747.450 .0289172
748.173 .0289061
748.896 .0288948
749.618 .0288834
750.340 .0288717
751.062 .0288597
751.784 .0288473
752.506 .0288346
753.227 .0288215
753.948 .0288080
754.669 .0287941
755.389 .0287799
756.110 .0287654
756.830 .0287505
757.550 .0287354
758.269 .0287200
758.989 .0287045
759.708 .0286887
760.427 .0286728
761.146 .0286568
761.864 .0286405
762.582 .0286241
763.300 .0286076
764.018 .0285909
764.736 .0285741
765.453 .0285573
766.170 .0285404
766.887 .0285236
767.603 .0285069
768.320 .0284905
769.036 .0284742
769.751 .0284583
770.467 .0284426
771.182 .0284274
771.897 .0284125
772.612 .0283981
773.327 .0283842
774.041 .0283707
774.755 .0283577
775.469 .0283452
776.183 .0283333
776.896 .0283219
777.609 .0283111
778.322 .0283008
779.035 .0282911
779.747 .0282820
780.459 .0282735
781.171 .0282654
781.882 .0282579
782.594 .0282508
783.305 .0282441
784.016 .0282376
784.726 .0282314
785.436 .0282253
786.147 .0282165
786.856 .0282104
787.566 .0282044
788.275 .0281982
788.984 .0281919
789.693 .0281854
790.401 .0281785
791.110 .0281712
791.818 .0281634
792.525 .0281550
793.233 .0281459
793.940 .0281361
794.647 .0281292
795.353 .0281184
796.060 .0281070
796.766 .0280949
797.472 .0280822
798.177 .0280688
798.883 .0280549
799.588 .0280403
800.292 .0280252
800.997 .0280095
801.701 .0279934
802.405 .0279769
803.109 .0279601
803.812 .0279429
804.515 .0279255
805.218 .0279079
805.921 .0278901
806.623 .0278720
807.325 .0278538
808.027 .0278355
808.728 .0278172
809.429 .0277990
810.130 .0277810
810.831 .0277632
811.531 .0277456
812.231 .0277283
812.931 .0277113
813.630 .0276946
814.330 .0276782
815.029 .0276621
815.727 .0276465
816.426 .0276313
817.124 .0276166
817.821 .0276026
818.519 .0275891
819.216 .0275763
819.913 .0275641
820.609 .0275524
821.306 .0275413
822.002 .0275307
822.697 .0275207
823.393 .0275113
824.088 .0275025
824.783 .0274945
825.477 .0274871
826.171 .0274805
826.865 .0274745
827.559 .0274692
828.252 .0274645
828.945 .0274604
829.638 .0274567
830.330 .0274534
831.023 .0274505
831.714 .0274479
832.406 .0274457
833.097 .0274438
833.788 .0274421
834.479 .0274406
835.169 .0274393
835.859 .0274381
836.548 .0274371
837.238 .0274361
837.927 .0274352
838.615 .0274342
839.304 .0274331
839.992 .0274318
840.680 .0274303
841.367 .0274284
842.054 .0274261
842.741 .0274235
843.428 .0274205
844.114 .0274170
844.800 .0274131
845.485 .0274087
846.170 .0274038
846.855 .0273982
847.540 .0273920
848.224 .0273850
848.908 .0273773
849.592 .0273687
850.275 .0273594
850.958 .0273495
851.641 .0273388
852.323 .0273276
853.005 .0273157
853.687 .0273032
854.368 .0272902
855.049 .0272767
855.730 .0272627
856.410 .0272483
857.090 .0272337
857.769 .0272188
858.449 .0272038
859.128 .0271888
859.806 .0271737
860.485 .0271586
861.163 .0271435
861.840 .0271283
862.518 .0271132
863.195 .0270983
863.871 .0270837
864.548 .0270693
865.224 .0270555
865.899 .0270420
866.574 .0270290
867.249 .0270164
867.924 .0270041
868.598 .0269921
869.272 .0269804
869.946 .0269690
870.619 .0269579
871.292 .0269472
871.964 .0269369
872.636 .0269271
873.308 .0269177
873.979 .0269087
874.651 .0269000
875.321 .0268918
875.992 .0268838
876.662 .0268762
877.331 .0268688
878.001 .0268618
878.670 .0268552
879.338 .0268489
880.007 .0268428
880.675 .0268371
881.342 .0268317
882.009 .0268265
882.676 .0268217
883.343 .0268172
884.009 .0268132
884.675 .0268095
885.340 .0268063
886.005 .0268036
886.670 .0268012
887.334 .0267991
887.998 .0267973
888.662 .0267958
889.325 .0267945
889.988 .0267934
890.650 .0267925
891.312 .0267919
891.974 .0267915
892.636 .0267913
893.297 .0267912
893.957 .0267912
894.618 .0267912
895.278 .0267911
895.937 .0267907
896.596 .0267901
897.255 .0267892
897.914 .0267877
898.572 .0267856
899.230 .0267828
899.887 .0267792
900.544 .0267747
901.201 .0267691
901.857 .0267562
902.513 .0267479
903.168 .0267387
903.823 .0267285
904.478 .0267174
905.132 .0267052
905.786 .0266920
906.440 .0266778
907.093 .0266626
907.746 .0266464
908.399 .0266293
909.051 .0266113
909.703 .0265926
910.354 .0265814
911.005 .0265619
911.656 .0265418
912.306 .0265211
912.956 .0264999
913.605 .0264783
914.254 .0264563
914.903 .0264342
915.551 .0264118
916.199 .0263893
916.847 .0263668
917.494 .0263442
918.141 .0263217
918.788 .0262991
919.434 .0262765
920.079 .0262540
920.725 .0262315
921.370 .0262091
922.014 .0261866
922.658 .0261642
923.302 .0261417
923.946 .0261192
924.589 .0260966
925.231 .0260740
925.873 .0260513
926.515 .0260284
927.157 .0260055
927.798 .0259824
928.439 .0259592
929.079 .0259360
929.719 .0259127
930.359 .0258894
930.998 .0258663
931.637 .0258433
932.275 .0258207
932.913 .0257985
933.551 .0257767
934.188 .0257555
934.825 .0257350
935.462 .0257150
936.098 .0256957
936.733 .0256769
937.369 .0256587
938.004 .0256411
938.638 .0256241
939.273 .0256077
939.907 .0255921
940.540 .0255771
941.173 .0255629
941.806 .0255495
942.438 .0255368
943.070 .0255248
943.702 .0255134
944.333 .0255027
944.964 .0254926
945.594 .0254830
946.224 .0254739
946.854 .0254652
947.483 .0254571
948.112 .0254493
948.741 .0254418
949.369 .0254346
949.996 .0254276
950.624 .0254207
951.251 .0254139
951.878 .0254071
952.504 .0254004
953.130 .0253936
953.755 .0253868
954.380 .0253800
955.005 .0253731
955.629 .0253662
956.253 .0253591
956.877 .0253518
957.500 .0253443
958.123 .0253366
958.746 .0253287
959.368 .0253207
959.990 .0253127
960.611 .0253046
961.232 .0252966
961.853 .0252886
962.473 .0252806
963.093 .0252727
963.712 .0252647
964.331 .0252565
964.950 .0252483
965.569 .0252399
966.187 .0252313
966.804 .0252225
967.422 .0252136
968.039 .0252045
968.655 .0251952
969.272 .0251859
969.887 .0251764
970.503 .0251668
971.118 .0251571
971.733 .0251473
972.347 .0251374
972.961 .0251276
973.575 .0251177
974.188 .0251078
974.801 .0250978
975.414 .0250878
976.026 .0250777
976.638 .0250676
977.250 .0250573
977.861 .0250469
978.472 .0250364
979.083 .0250258
979.693 .0250152
980.303 .0250046
980.912 .0249889
981.521 .0249784
982.130 .0249678
982.738 .0249573
983.346 .0249468
983.954 .0249365
984.562 .0249265
985.169 .0249168
985.775 .0249076
986.382 .0248989
986.988 .0248907
987.594 .0248831
988.199 .0248760
988.804 .0248694
989.409 .0248677
990.013 .0248619
990.617 .0248566
991.221 .0248517
991.824 .0248473
992.427 .0248434
993.030 .0248400
993.632 .0248370
994.234 .0248344
994.836 .0248321
995.438 .0248303
996.039 .0248288
996.640 .0248277
997.240 .0248270
997.840 .0248269
998.440 .0248273
999.040 .0248284
999.639 .0248302
1000.238 .0248327
1000.836 .0248360
1001.435 .0248400
1002.033 .0248445
1002.630 .0248496
1003.228 .0248552
1003.825 .0248611
1004.422 .0248674
1005.018 .0248739
1005.614 .0248806
1006.210 .0248876
1006.806 .0248948
1007.401 .0249021
1007.996 .0249095
1008.591 .0249170
1009.186 .0249246
1009.780 .0249321
1010.374 .0249395
1010.967 .0249469
1011.561 .0249543
1012.154 .0249616
1012.746 .0249688
1013.339 .0249761
1013.931 .0249833
1014.523 .0249905
1015.115 .0249977
1015.706 .0250048
1016.298 .0250118
1016.888 .0250186
1017.479 .0250254
1018.069 .0250320
1018.660 .0250387
1019.250 .0250454
1019.839 .0250522
1020.429 .0250591
1021.018 .0250662
1021.607 .0250735
1022.195 .0250811
1022.784 .0250889
1023.372 .0250969
1023.960 .0251052
1024.547 .0251139
1025.135 .0251229
1025.722 .0251324
1026.309 .0251423
1026.896 .0251527
1027.483 .0251635
1028.069 .0251747
1028.655 .0251862
1029.241 .0251979
1029.827 .0252097
1030.412 .0252216
1030.997 .0252336
1031.582 .0252456
1032.167 .0252576
1032.752 .0252698
1033.336 .0252819
1033.921 .0252941
1034.505 .0253061
1035.089 .0253179
1035.672 .0253293
1036.256 .0253403
1036.839 .0253506
1037.422 .0253604
1038.005 .0253696
1038.588 .0253782
1039.171 .0253862
1039.753 .0253937
1040.335 .0254006
1040.918 .0254070
1041.500 .0254128
1042.081 .0254180
1042.663 .0254226
1043.244 .0254266
1043.826 .0254301
1044.407 .0254332
1044.988 .0254361
1045.569 .0254387
1046.150 .0254414
1046.730 .0254440
1047.311 .0254467
1047.891 .0254494
1048.471 .0254521
1049.052 .0254548
1049.632 .0254575
1050.211 .0254601
1050.791 .0254628
1051.371 .0254657
1051.950 .0254687
1052.530 .0254719
1053.109 .0254754
1053.688 .0254791
1054.268 .0254829
1054.847 .0254869
1055.426 .0254910
1056.005 .0254952
1056.583 .0254995
1057.162 .0255040
1057.741 .0255085
1058.319 .0255131
1058.898 .0255178
1059.476 .0255225
1060.055 .0255270
1060.633 .0255313
1061.211 .0255353
1061.790 .0255390
1062.368 .0255422
1062.946 .0255451
1063.524 .0255476
1064.102 .0255497
1064.680 .0255515
1065.258 .0255529
1065.836 .0255541
1066.414 .0255550
1066.992 .0255556
1067.570 .0255559
1068.148 .0255557
1068.726 .0255551
1069.304 .0255541
1069.882 .0255528
1070.460 .0255512
1071.038 .0255494
1071.616 .0255473
1072.194 .0255451
1072.772 .0255426
1073.350 .0255400
1073.928 .0255370
1074.506 .0255337
1075.084 .0255301
1075.662 .0255262
1076.240 .0255221
1076.819 .0255178
1077.397 .0255135
1077.976 .0255094
1078.554 .0255055
1079.133 .0255019
1079.711 .0254986
1080.290 .0254959
1080.869 .0254938
1081.448 .0254922
1082.027 .0254913
1082.606 .0254911
1083.185 .0254917
1083.764 .0254932
1084.343 .0254955
1084.923 .0254989
1085.502 .0255033
1086.082 .0255088
1086.662 .0255153
1087.242 .0255228
1087.822 .0255314
1088.402 .0255410
1088.983 .0255514
1089.563 .0255628
1090.144 .0255750
1090.725 .0255880
1091.306 .0256017
1091.887 .0256161
1092.469 .0256312
1093.050 .0256471
1093.632 .0256635
1094.214 .0256806
1094.796 .0256981
1095.379 .0257160
1095.961 .0257342
1096.544 .0257526
1097.127 .0257713
1097.710 .0257899
1098.294 .0258085
1098.877 .0258273
1099.461 .0258460
1100.046 .0258648
1100.630 .0258838
1101.215 .0259030
1101.800 .0259224
1102.385 .0259420
1102.970 .0259616
1103.556 .0259815
1104.142 .0260016
1104.728 .0260217
1105.315 .0260419
1105.902 .0260623
1106.489 .0260830
1107.077 .0261042
1107.664 .0261262
1108.253 .0261491
1108.841 .0261733
1109.430 .0261988
1110.019 .0262257
1110.609 .0262542
1111.198 .0262841
1111.789 .0263155
1112.379 .0263480
1112.970 .0263817
1113.561 .0264161
1114.153 .0264513
1114.745 .0264872
1115.338 .0265238
1115.931 .0265611
1116.524 .0265990
1117.117 .0266376
1117.712 .0266768
1118.306 .0267166
1118.901 .0267568
1119.496 .0267973
1120.092 .0268379
1120.689 .0268783
1121.285 .0269184
1121.882 .0269583
1122.480 .0269983
1123.078 .0270387
1123.677 .0270798
1124.276 .0271222
1124.875 .0271659
1125.476 .0272114
1126.076 .0272586
1126.677 .0273075
1127.279 .0273583
1127.881 .0274107
1128.484 .0274648
1129.087 .0274861
1129.691 .0275423
1130.295 .0276006
1130.900 .0276616
1131.505 .0277255
1132.111 .0277923
1132.718 .0278624
1133.325 .0279362
1133.933 .0280141
1134.541 .0280945
1135.150 .0281766
1135.760 .0282679
1136.370 .0283689
1136.981 .0283847
1137.592 .0284874
1138.204 .0285915
1138.817 .0286998
1139.431 .0288132
1140.045 .0289276
1140.660 .0290543
1141.275 .0291949
1141.891 .0293455
1142.508 .0294599
1143.126 .0295508
1143.744 .0298547
1144.363 .0301700
1144.983 .0302911
