Measurement Sequence started on: 15-12-46-377
Integration time: 28
Scans to Average: 2 
>>>>>Begin Spectral Data<<<<<
432.689 .0000100
433.621 .0000100
434.552 .0000100
435.482 .0000100
436.410 .0000100
437.337 .0000100
438.262 .0291235
439.187 .0617754
440.110 .1024103
441.031 .1482981
441.952 .1192198
442.871 .1245344
443.789 .1294799
444.705 .1341297
445.621 .1385349
446.535 .1427366
447.447 .1452292
448.359 .1458509
449.269 .1442035
450.178 .1400267
451.086 .1334032
451.993 .1248416
452.898 .1151817
453.803 .1053809
454.706 .0962521
455.608 .0883013
456.508 .0817015
457.408 .0772040
458.306 .0737293
459.204 .0708894
460.100 .0684909
460.995 .0664247
461.888 .0646199
462.781 .0630287
463.673 .0616122
464.563 .0603450
465.452 .0592049
466.340 .0581716
467.228 .0572317
468.114 .0563751
468.999 .0555918
469.882 .0548758
470.765 .0542215
471.647 .0536242
472.528 .0530809
473.407 .0525875
474.286 .0521409
475.163 .0517385
476.040 .0513771
476.915 .0510536
477.790 .0507650
478.663 .0505098
479.535 .0502860
480.407 .0500924
481.277 .0499280
482.147 .0497912
483.015 .0496803
483.883 .0495930
484.749 .0495268
485.615 .0494794
486.479 .0494488
487.343 .0494333
488.206 .0494323
489.067 .0494449
489.928 .0494718
490.788 .0495136
491.647 .0495712
492.505 .0496458
493.362 .0497382
494.218 .0498486
495.073 .0499771
495.928 .0502358
496.781 .0504101
497.634 .0506021
498.486 .0508123
499.337 .0510430
500.187 .0512968
501.036 .0515767
501.884 .0518862
502.731 .0522306
503.578 .0526136
504.424 .0528850
505.268 .0533406
506.113 .0538464
506.956 .0544063
507.798 .0550277
508.640 .0557180
509.480 .0564863
510.320 .0573447
511.160 .0583059
511.998 .0593843
512.836 .0605976
513.672 .0619627
514.508 .0634985
515.344 .0652257
516.178 .0671646
517.012 .0693341
517.845 .0717517
518.677 .0744362
519.508 .0774007
520.339 .0806494
521.169 .0841857
521.998 .0879860
522.826 .0920212
523.654 .0962455
524.481 .1005984
525.307 .1050085
526.133 .1093958
526.958 .1136732
527.782 .1177487
528.605 .1215368
529.428 .1249612
530.250 .1279483
531.072 .1304523
531.892 .1324315
532.712 .1338583
533.532 .1347208
534.350 .1350171
535.168 .1347513
535.986 .1339310
536.802 .1325655
537.618 .1306680
538.434 .1282501
539.249 .1253486
540.063 .1220045
540.876 .1182747
541.689 .1142308
542.501 .1099493
543.313 .1055136
544.124 .1010123
544.934 .0965329
545.744 .0921552
546.553 .0879478
547.361 .0839711
548.169 .0802580
548.976 .0768349
549.783 .0737116
550.589 .0708819
551.395 .0683298
552.200 .0660339
553.004 .0639670
553.808 .0621046
554.611 .0604243
555.414 .0589068
556.216 .0575339
557.018 .0562878
557.819 .0551519
558.619 .0541091
559.419 .0531458
560.218 .0522501
561.017 .0514105
561.815 .0506189
562.613 .0498685
563.410 .0491530
564.207 .0484673
565.003 .0478081
565.799 .0471718
566.594 .0465553
567.388 .0459561
568.182 .0453721
568.976 .0448012
569.769 .0442420
570.562 .0436942
571.354 .0431586
572.145 .0426366
572.936 .0421292
573.727 .0416376
574.517 .0411629
575.307 .0407063
576.096 .0402679
576.885 .0398482
577.673 .0394476
578.461 .0390657
579.248 .0387023
580.035 .0383571
580.821 .0380299
581.607 .0377208
582.392 .0374293
583.177 .0371553
583.962 .0368986
584.746 .0366584
585.529 .0364339
586.313 .0362244
587.095 .0360292
587.878 .0358474
588.660 .0356780
589.441 .0355205
590.222 .0353743
591.003 .0352388
591.783 .0351134
592.563 .0349973
593.342 .0348896
594.121 .0347893
594.899 .0346954
595.678 .0346071
596.455 .0345235
597.233 .0344441
598.009 .0343681
598.786 .0342954
599.562 .0342255
600.338 .0341583
601.113 .0340934
601.888 .0340022
602.663 .0339421
603.437 .0338836
604.211 .0338267
604.984 .0337713
605.757 .0337175
606.530 .0336652
607.302 .0336145
608.074 .0335656
608.845 .0335186
609.616 .0334734
610.387 .0334559
611.158 .0334138
611.928 .0333739
612.697 .0333360
613.467 .0333004
614.236 .0332669
615.004 .0332356
615.773 .0332064
616.541 .0331791
617.308 .0331537
618.076 .0331300
618.843 .0331079
619.609 .0330871
620.375 .0330678
621.141 .0330496
621.907 .0330325
622.672 .0330162
623.437 .0330006
624.202 .0329854
624.966 .0329704
625.730 .0329554
626.493 .0329401
627.257 .0329243
628.020 .0329081
628.782 .0328911
629.545 .0328733
630.307 .0328547
631.068 .0328350
631.830 .0328142
632.591 .0327922
633.352 .0327689
634.112 .0327444
634.872 .0327186
635.632 .0326917
636.392 .0326637
637.151 .0326347
637.910 .0326049
638.668 .0325742
639.427 .0325427
640.185 .0325106
640.943 .0324779
641.700 .0324448
642.457 .0324112
643.214 .0323773
643.971 .0323433
644.727 .0323091
645.483 .0322750
646.239 .0322410
646.994 .0322070
647.750 .0321731
648.505 .0321392
649.259 .0321054
650.014 .0320716
650.768 .0320379
651.521 .0320043
652.275 .0319709
653.028 .0319377
653.781 .0319046
654.534 .0318716
655.286 .0318387
656.039 .0318058
656.791 .0317728
657.542 .0317396
658.294 .0317063
659.045 .0316727
659.796 .0316392
660.546 .0316057
661.297 .0315724
662.047 .0315393
662.796 .0315065
663.546 .0314739
664.295 .0314417
665.044 .0314100
665.793 .0313788
666.542 .0313481
667.290 .0313182
668.038 .0312891
668.786 .0312609
669.533 .0312337
670.281 .0312074
671.028 .0311822
671.774 .0311580
672.521 .0311348
673.267 .0311126
674.013 .0310914
674.759 .0310713
675.505 .0310522
676.250 .0310342
676.995 .0310171
677.740 .0310007
678.484 .0309851
679.229 .0309699
679.973 .0309552
680.717 .0309408
681.460 .0309267
682.204 .0309128
682.947 .0308990
683.690 .0308852
684.433 .0308714
685.175 .0308575
685.917 .0308435
686.659 .0308291
687.401 .0308145
688.142 .0307994
688.884 .0307839
689.625 .0307680
690.365 .0307517
691.106 .0307349
691.846 .0307179
692.586 .0307005
693.326 .0306829
694.066 .0306652
694.805 .0306475
695.545 .0306298
696.284 .0306122
697.022 .0305948
697.761 .0305775
698.499 .0305604
699.237 .0305436
699.975 .0305271
700.713 .0305108
701.450 .0304949
702.187 .0304793
702.924 .0304639
703.661 .0304488
704.397 .0304340
705.133 .0304192
705.869 .0304046
706.605 .0303900
707.341 .0303754
708.076 .0303606
708.811 .0303456
709.546 .0303304
710.281 .0303147
711.015 .0302987
711.749 .0302820
712.483 .0302648
713.217 .0302470
713.950 .0302286
714.684 .0302096
715.417 .0301901
716.150 .0301700
716.882 .0301494
717.615 .0301281
718.347 .0301061
719.079 .0300834
719.811 .0300600
720.542 .0300359
721.273 .0300113
722.005 .0299861
722.735 .0299606
723.466 .0299349
724.196 .0299091
724.927 .0298834
725.656 .0298576
726.386 .0298320
727.116 .0298065
727.845 .0297813
728.574 .0297563
729.303 .0297316
730.031 .0297073
730.760 .0296834
731.488 .0296599
732.216 .0296369
732.944 .0296144
733.671 .0295925
734.398 .0295710
735.125 .0295500
735.852 .0295295
736.579 .0295096
737.305 .0294902
738.031 .0294713
738.757 .0294529
739.483 .0294349
740.208 .0294173
740.933 .0294000
741.658 .0293829
742.383 .0293660
743.108 .0293493
743.832 .0293326
744.556 .0293161
745.280 .0292995
746.004 .0292829
746.727 .0292663
747.450 .0292495
748.173 .0292327
748.896 .0292158
749.618 .0291987
750.340 .0291815
751.062 .0291642
751.784 .0291467
752.506 .0291291
753.227 .0291113
753.948 .0290934
754.669 .0290753
755.389 .0290572
756.110 .0290391
756.830 .0290210
757.550 .0290030
758.269 .0289852
758.989 .0289675
759.708 .0289500
760.427 .0289327
761.146 .0289156
761.864 .0288988
762.582 .0288822
763.300 .0288658
764.018 .0288498
764.736 .0288341
765.453 .0288189
766.170 .0288042
766.887 .0287900
767.603 .0287765
768.320 .0287638
769.036 .0287519
769.751 .0287410
770.467 .0287309
771.182 .0287217
771.897 .0287134
772.612 .0287061
773.327 .0286995
774.041 .0286939
774.755 .0286891
775.469 .0286852
776.183 .0286822
776.896 .0286802
777.609 .0286790
778.322 .0286786
779.035 .0286791
779.747 .0286803
780.459 .0286822
781.171 .0286847
781.882 .0286876
782.594 .0286909
783.305 .0286943
784.016 .0286979
784.726 .0287014
785.436 .0287048
786.147 .0287087
786.856 .0287113
787.566 .0287136
788.275 .0287155
788.984 .0287168
789.693 .0287177
790.401 .0287179
791.110 .0287176
791.818 .0287165
792.525 .0287148
793.233 .0287124
793.940 .0287094
794.647 .0287062
795.353 .0287024
796.060 .0286980
796.766 .0286931
797.472 .0286876
798.177 .0286817
798.883 .0286753
799.588 .0286684
800.292 .0286611
800.997 .0286532
801.701 .0286449
802.405 .0286360
803.109 .0286265
803.812 .0286165
804.515 .0286059
805.218 .0285947
805.921 .0285827
806.623 .0285701
807.325 .0285567
808.027 .0285426
808.728 .0285279
809.429 .0285124
810.130 .0284963
810.831 .0284795
811.531 .0284621
812.231 .0284440
812.931 .0284253
813.630 .0284061
814.330 .0283863
815.029 .0283662
815.727 .0283458
816.426 .0283252
817.124 .0283045
817.821 .0282838
818.519 .0282633
819.216 .0282429
819.913 .0282228
820.609 .0282030
821.306 .0281835
822.002 .0281644
822.697 .0281457
823.393 .0281276
824.088 .0281100
824.783 .0280929
825.477 .0280763
826.171 .0280603
826.865 .0280448
827.559 .0280298
828.252 .0280153
828.945 .0280013
829.638 .0279877
830.330 .0279744
831.023 .0279614
831.714 .0279486
832.406 .0279360
833.097 .0279234
833.788 .0279108
834.479 .0278982
835.169 .0278856
835.859 .0278728
836.548 .0278600
837.238 .0278471
837.927 .0278341
838.615 .0278209
839.304 .0278074
839.992 .0277937
840.680 .0277798
841.367 .0277655
842.054 .0277509
842.741 .0277361
843.428 .0277209
844.114 .0277055
844.800 .0276898
845.485 .0276738
846.170 .0276574
846.855 .0276405
847.540 .0276233
848.224 .0276055
848.908 .0275872
849.592 .0275684
850.275 .0275491
850.958 .0275292
851.641 .0275090
852.323 .0274882
853.005 .0274671
853.687 .0274455
854.368 .0274236
855.049 .0274014
855.730 .0273790
856.410 .0273564
857.090 .0273337
857.769 .0273109
858.449 .0272882
859.128 .0272657
859.806 .0272434
860.485 .0272214
861.163 .0271998
861.840 .0271788
862.518 .0271583
863.195 .0271384
863.871 .0271193
864.548 .0271009
865.224 .0270834
865.899 .0270667
866.574 .0270511
867.249 .0270364
867.924 .0270228
868.598 .0270102
869.272 .0269986
869.946 .0269881
870.619 .0269786
871.292 .0269700
871.964 .0269624
872.636 .0269556
873.308 .0269499
873.979 .0269450
874.651 .0269409
875.321 .0269378
875.992 .0269355
876.662 .0269339
877.331 .0269329
878.001 .0269326
878.670 .0269328
879.338 .0269334
880.007 .0269346
880.675 .0269362
881.342 .0269384
882.009 .0269412
882.676 .0269445
883.343 .0269485
884.009 .0269531
884.675 .0269583
885.340 .0269641
886.005 .0269703
886.670 .0269770
887.334 .0269841
887.998 .0269916
888.662 .0269995
889.325 .0270078
889.988 .0270166
890.650 .0270257
891.312 .0270351
891.974 .0270448
892.636 .0270546
893.297 .0270646
893.957 .0270746
894.618 .0270845
895.278 .0270942
895.937 .0271037
896.596 .0271128
897.255 .0271214
897.914 .0271295
898.572 .0271369
899.230 .0271435
899.887 .0271493
900.544 .0271541
901.201 .0271580
901.857 .0271591
902.513 .0271603
903.168 .0271606
903.823 .0271600
904.478 .0271585
905.132 .0271561
905.786 .0271529
906.440 .0271489
907.093 .0271442
907.746 .0271387
908.399 .0271326
909.051 .0271259
909.703 .0271187
910.354 .0271146
911.005 .0271071
911.656 .0270993
912.306 .0270913
912.956 .0270831
913.605 .0270748
914.254 .0270663
914.903 .0270576
915.551 .0270487
916.199 .0270397
916.847 .0270304
917.494 .0270210
918.141 .0270113
918.788 .0270014
919.434 .0269912
920.079 .0269807
920.725 .0269698
921.370 .0269585
922.014 .0269467
922.658 .0269343
923.302 .0269213
923.946 .0269077
924.589 .0268934
925.231 .0268785
925.873 .0268629
926.515 .0268467
927.157 .0268297
927.798 .0268120
928.439 .0267936
929.079 .0267746
929.719 .0267550
930.359 .0267350
930.998 .0267146
931.637 .0266939
932.275 .0266732
932.913 .0266524
933.551 .0266316
934.188 .0266110
934.825 .0265905
935.462 .0265702
936.098 .0265500
936.733 .0265302
937.369 .0265107
938.004 .0264915
938.638 .0264727
939.273 .0264543
939.907 .0264364
940.540 .0264189
941.173 .0264017
941.806 .0263850
942.438 .0263685
943.070 .0263524
943.702 .0263364
944.333 .0263207
944.964 .0263052
945.594 .0262899
946.224 .0262747
946.854 .0262595
947.483 .0262444
948.112 .0262291
948.741 .0262137
949.369 .0261982
949.996 .0261825
950.624 .0261666
951.251 .0261505
951.878 .0261342
952.504 .0261176
953.130 .0261007
953.755 .0260834
954.380 .0260658
955.005 .0260478
955.629 .0260293
956.253 .0260105
956.877 .0259912
957.500 .0259716
958.123 .0259517
958.746 .0259316
959.368 .0259112
959.990 .0258906
960.611 .0258699
961.232 .0258490
961.853 .0258280
962.473 .0258068
963.093 .0257854
963.712 .0257637
964.331 .0257419
964.950 .0257199
965.569 .0256976
966.187 .0256750
966.804 .0256522
967.422 .0256291
968.039 .0256057
968.655 .0255821
969.272 .0255582
969.887 .0255342
970.503 .0255100
971.118 .0254857
971.733 .0254613
972.347 .0254368
972.961 .0254122
973.575 .0253875
974.188 .0253628
974.801 .0253380
975.414 .0253132
976.026 .0252884
976.638 .0252637
977.250 .0252390
977.861 .0252144
978.472 .0251899
979.083 .0251655
979.693 .0251412
980.303 .0251170
980.912 .0250817
981.521 .0250581
982.130 .0250350
982.738 .0250122
983.346 .0249898
983.954 .0249679
984.562 .0249466
985.169 .0249258
985.775 .0249057
986.382 .0248861
986.988 .0248673
987.594 .0248491
988.199 .0248316
988.804 .0248148
989.409 .0248085
990.013 .0247927
990.617 .0247777
991.221 .0247633
991.824 .0247497
992.427 .0247369
993.030 .0247248
993.632 .0247135
994.234 .0247031
994.836 .0246935
995.438 .0246847
996.039 .0246769
996.640 .0246700
997.240 .0246641
997.840 .0246590
998.440 .0246549
999.040 .0246517
999.639 .0246494
1000.238 .0246479
1000.836 .0246471
1001.435 .0246469
1002.033 .0246474
1002.630 .0246484
1003.228 .0246498
1003.825 .0246517
1004.422 .0246539
1005.018 .0246565
1005.614 .0246596
1006.210 .0246632
1006.806 .0246672
1007.401 .0246718
1007.996 .0246769
1008.591 .0246826
1009.186 .0246889
1009.780 .0246957
1010.374 .0247031
1010.967 .0247109
1011.561 .0247193
1012.154 .0247281
1012.746 .0247374
1013.339 .0247472
1013.931 .0247575
1014.523 .0247683
1015.115 .0247795
1015.706 .0247912
1016.298 .0248033
1016.888 .0248158
1017.479 .0248288
1018.069 .0248423
1018.660 .0248562
1019.250 .0248707
1019.839 .0248859
1020.429 .0249017
1021.018 .0249182
1021.607 .0249353
1022.195 .0249531
1022.784 .0249715
1023.372 .0249904
1023.960 .0250099
1024.547 .0250299
1025.135 .0250504
1025.722 .0250713
1026.309 .0250927
1026.896 .0251144
1027.483 .0251365
1028.069 .0251587
1028.655 .0251811
1029.241 .0252035
1029.827 .0252259
1030.412 .0252483
1030.997 .0252707
1031.582 .0252929
1032.167 .0253152
1032.752 .0253374
1033.336 .0253596
1033.921 .0253818
1034.505 .0254038
1035.089 .0254257
1035.672 .0254473
1036.256 .0254686
1036.839 .0254897
1037.422 .0255103
1038.005 .0255307
1038.588 .0255506
1039.171 .0255702
1039.753 .0255895
1040.335 .0256082
1040.918 .0256265
1041.500 .0256442
1042.081 .0256612
1042.663 .0256776
1043.244 .0256932
1043.826 .0257081
1044.407 .0257224
1044.988 .0257361
1045.569 .0257493
1046.150 .0257621
1046.730 .0257745
1047.311 .0257867
1047.891 .0257985
1048.471 .0258101
1049.052 .0258216
1049.632 .0258329
1050.211 .0258441
1050.791 .0258554
1051.371 .0258667
1051.950 .0258782
1052.530 .0258898
1053.109 .0259016
1053.688 .0259134
1054.268 .0259254
1054.847 .0259374
1055.426 .0259493
1056.005 .0259611
1056.583 .0259729
1057.162 .0259845
1057.741 .0259961
1058.319 .0260077
1058.898 .0260192
1059.476 .0260305
1060.055 .0260417
1060.633 .0260526
1061.211 .0260632
1061.790 .0260734
1062.368 .0260832
1062.946 .0260926
1063.524 .0261015
1064.102 .0261100
1064.680 .0261181
1065.258 .0261258
1065.836 .0261330
1066.414 .0261398
1066.992 .0261462
1067.570 .0261520
1068.148 .0261573
1068.726 .0261622
1069.304 .0261666
1069.882 .0261705
1070.460 .0261741
1071.038 .0261775
1071.616 .0261808
1072.194 .0261841
1072.772 .0261877
1073.350 .0261916
1073.928 .0261960
1074.506 .0262008
1075.084 .0262060
1075.662 .0262116
1076.240 .0262176
1076.819 .0262240
1077.397 .0262308
1077.976 .0262380
1078.554 .0262457
1079.133 .0262540
1079.711 .0262629
1080.290 .0262725
1080.869 .0262827
1081.448 .0262933
1082.027 .0263041
1082.606 .0263150
1083.185 .0263258
1083.764 .0263362
1084.343 .0263463
1084.923 .0263559
1085.502 .0263652
1086.082 .0263741
1086.662 .0263828
1087.242 .0263913
1087.822 .0263998
1088.402 .0264081
1088.983 .0264162
1089.563 .0264241
1090.144 .0264315
1090.725 .0264383
1091.306 .0264449
1091.887 .0264511
1092.469 .0264572
1093.050 .0264633
1093.632 .0264696
1094.214 .0264763
1094.796 .0264835
1095.379 .0264912
1095.961 .0264994
1096.544 .0265081
1097.127 .0265171
1097.710 .0265265
1098.294 .0265363
1098.877 .0265467
1099.461 .0265578
1100.046 .0265699
1100.630 .0265830
1101.215 .0265973
1101.800 .0266127
1102.385 .0266294
1102.970 .0266472
1103.556 .0266661
1104.142 .0266858
1104.728 .0267063
1105.315 .0267275
1105.902 .0267493
1106.489 .0267717
1107.077 .0267948
1107.664 .0268185
1108.253 .0268427
1108.841 .0268674
1109.430 .0268926
1110.019 .0269182
1110.609 .0269443
1111.198 .0269708
1111.789 .0269977
1112.379 .0270252
1112.970 .0270534
1113.561 .0270822
1114.153 .0271119
1114.745 .0271426
1115.338 .0271744
1115.931 .0272073
1116.524 .0272415
1117.117 .0272770
1117.712 .0273138
1118.306 .0273520
1118.901 .0273917
1119.496 .0274326
1120.092 .0274747
1120.689 .0275177
1121.285 .0275615
1121.882 .0276057
1122.480 .0276502
1123.078 .0276947
1123.677 .0277392
1124.276 .0277838
1124.875 .0278287
1125.476 .0278743
1126.076 .0279207
1126.677 .0279684
1127.279 .0280178
1127.881 .0280687
1128.484 .0281214
1129.087 .0281476
1129.691 .0282027
1130.295 .0282597
1130.900 .0283189
1131.505 .0283809
1132.111 .0284463
1132.718 .0285155
1133.325 .0285887
1133.933 .0286655
1134.541 .0287526
1135.150 .0288471
1135.760 .0289345
1136.370 .0290256
1136.981 .0288787
1137.592 .0289715
1138.204 .0290692
1138.817 .0291785
1139.431 .0293049
1140.045 .0294523
1140.660 .0296123
1141.275 .0297836
1141.891 .0299424
1142.508 .0302946
1143.126 .0305675
1143.744 .0304381
1144.363 .0306108
1144.983 .0302071
