Measurement Sequence started on: 15-12-46-377
Integration time: 28
Scans to Average: 2 
>>>>>Begin Spectral Data<<<<<
432.689 .0000100
433.621 .0000100
434.552 .0000100
435.482 .0000100
436.410 .0000100
437.337 .0000100
438.262 .0290157
439.187 .0614041
440.110 .1016190
441.031 .1468644
441.952 .1169183
442.871 .1220163
443.789 .1267534
444.705 .1312044
445.621 .1354212
446.535 .1394428
447.447 .1417703
448.359 .1422494
449.269 .1404882
450.178 .1362385
451.086 .1295861
451.993 .1210421
452.898 .1114463
453.803 .1017477
454.706 .0927500
455.608 .0849495
456.508 .0785090
457.408 .0741706
458.306 .0708494
459.204 .0681567
460.100 .0658968
460.995 .0639651
461.888 .0622894
462.781 .0608203
463.673 .0595212
464.563 .0583659
465.452 .0573320
466.340 .0564011
467.228 .0555571
468.114 .0547882
468.999 .0540830
469.882 .0534327
470.765 .0528301
471.647 .0522703
472.528 .0517498
473.407 .0512652
474.286 .0508138
475.163 .0503942
476.040 .0500035
476.915 .0496399
477.790 .0493012
478.663 .0489858
479.535 .0486922
480.407 .0484194
481.277 .0481670
482.147 .0479350
483.015 .0477232
483.883 .0475324
484.749 .0473633
485.615 .0472168
486.479 .0470933
487.343 .0469931
488.206 .0469163
489.067 .0468625
489.928 .0468309
490.788 .0468212
491.647 .0468325
492.505 .0468652
493.362 .0469192
494.218 .0469953
495.073 .0470944
495.928 .0473267
496.781 .0474911
497.634 .0476834
498.486 .0479041
499.337 .0481549
500.187 .0484375
501.036 .0487544
501.884 .0491083
502.731 .0495037
503.578 .0499458
504.424 .0502738
505.268 .0508071
506.113 .0514030
506.956 .0520681
507.798 .0528100
508.640 .0536386
509.480 .0545638
510.320 .0555969
511.160 .0567520
511.998 .0580449
512.836 .0594925
513.672 .0611128
514.508 .0629248
515.344 .0649485
516.178 .0672042
517.012 .0697111
517.845 .0724877
518.677 .0755506
519.508 .0789140
520.339 .0825815
521.169 .0865512
521.998 .0907965
522.826 .0952767
523.654 .0999327
524.481 .1046942
525.307 .1094743
526.133 .1141790
526.958 .1187116
527.782 .1229789
528.605 .1268924
529.428 .1303763
530.250 .1333646
531.072 .1358143
531.892 .1376906
532.712 .1389720
533.532 .1396460
534.350 .1397168
535.168 .1391905
535.986 .1380776
536.802 .1363890
537.618 .1341403
538.434 .1313497
539.249 .1280590
540.063 .1243220
540.876 .1202074
541.689 .1157932
542.501 .1111708
543.313 .1064339
544.124 .1016768
544.934 .0969876
545.744 .0924449
546.553 .0881129
547.361 .0840440
548.169 .0802642
548.976 .0767917
549.783 .0736299
550.589 .0707722
551.395 .0681958
552.200 .0658761
553.004 .0637848
553.808 .0618944
554.611 .0601815
555.414 .0586257
556.216 .0572069
557.018 .0559072
557.819 .0547111
558.619 .0536048
559.419 .0525766
560.218 .0516180
561.017 .0507204
561.815 .0498780
562.613 .0490850
563.410 .0483355
564.207 .0476237
565.003 .0469458
565.799 .0462968
566.594 .0456727
567.388 .0450702
568.182 .0444867
568.976 .0439198
569.769 .0433682
570.562 .0428315
571.354 .0423091
572.145 .0418016
572.936 .0413089
573.727 .0408308
574.517 .0403673
575.307 .0399185
576.096 .0394841
576.885 .0390640
577.673 .0386585
578.461 .0382678
579.248 .0378921
580.035 .0375323
580.821 .0371893
581.607 .0368641
582.392 .0365576
583.177 .0362706
583.962 .0360033
584.746 .0357557
585.529 .0355274
586.313 .0353171
587.095 .0351242
587.878 .0349473
588.660 .0347850
589.441 .0346362
590.222 .0344995
591.003 .0343739
591.783 .0342584
592.563 .0341522
593.342 .0340542
594.121 .0339634
594.899 .0338790
595.678 .0338001
596.455 .0337258
597.233 .0336555
598.009 .0335885
598.786 .0335244
599.562 .0334630
600.338 .0334041
601.113 .0333473
601.888 .0332692
602.663 .0332177
603.437 .0331680
604.211 .0331199
604.984 .0330734
605.757 .0330281
606.530 .0329843
607.302 .0329417
608.074 .0329004
608.845 .0328604
609.616 .0328217
610.387 .0328054
611.158 .0327686
611.928 .0327329
612.697 .0326983
613.467 .0326648
614.236 .0326323
615.004 .0326007
615.773 .0325701
616.541 .0325403
617.308 .0325113
618.076 .0324829
618.843 .0324550
619.609 .0324275
620.375 .0324004
621.141 .0323735
621.907 .0323468
622.672 .0323202
623.437 .0322938
624.202 .0322677
624.966 .0322416
625.730 .0322157
626.493 .0321899
627.257 .0321640
628.020 .0321382
628.782 .0321123
629.545 .0320864
630.307 .0320606
631.068 .0320348
631.830 .0320091
632.591 .0319835
633.352 .0319580
634.112 .0319325
634.872 .0319070
635.632 .0318814
636.392 .0318556
637.151 .0318297
637.910 .0318036
638.668 .0317775
639.427 .0317514
640.185 .0317253
640.943 .0316992
641.700 .0316734
642.457 .0316476
643.214 .0316220
643.971 .0315966
644.727 .0315713
645.483 .0315461
646.239 .0315210
646.994 .0314960
647.750 .0314711
648.505 .0314462
649.259 .0314215
650.014 .0313968
650.768 .0313721
651.521 .0313474
652.275 .0313226
653.028 .0312976
653.781 .0312725
654.534 .0312472
655.286 .0312217
656.039 .0311960
656.791 .0311700
657.542 .0311440
658.294 .0311177
659.045 .0310913
659.796 .0310647
660.546 .0310380
661.297 .0310111
662.047 .0309840
662.796 .0309568
663.546 .0309295
664.295 .0309021
665.044 .0308745
665.793 .0308469
666.542 .0308191
667.290 .0307913
668.038 .0307634
668.786 .0307354
669.533 .0307074
670.281 .0306794
671.028 .0306515
671.774 .0306238
672.521 .0305963
673.267 .0305691
674.013 .0305422
674.759 .0305156
675.505 .0304894
676.250 .0304635
676.995 .0304380
677.740 .0304127
678.484 .0303877
679.229 .0303631
679.973 .0303388
680.717 .0303151
681.460 .0302918
682.204 .0302692
682.947 .0302470
683.690 .0302255
684.433 .0302045
685.175 .0301841
685.917 .0301643
686.659 .0301451
687.401 .0301266
688.142 .0301086
688.884 .0300912
689.625 .0300743
690.365 .0300578
691.106 .0300416
691.846 .0300257
692.586 .0300099
693.326 .0299943
694.066 .0299788
694.805 .0299635
695.545 .0299485
696.284 .0299336
697.022 .0299190
697.761 .0299045
698.499 .0298902
699.237 .0298758
699.975 .0298615
700.713 .0298471
701.450 .0298327
702.187 .0298182
702.924 .0298038
703.661 .0297895
704.397 .0297754
705.133 .0297614
705.869 .0297476
706.605 .0297339
707.341 .0297203
708.076 .0297068
708.811 .0296934
709.546 .0296801
710.281 .0296668
711.015 .0296535
711.749 .0296401
712.483 .0296265
713.217 .0296128
713.950 .0295988
714.684 .0295847
715.417 .0295703
716.150 .0295559
716.882 .0295413
717.615 .0295266
718.347 .0295118
719.079 .0294968
719.811 .0294815
720.542 .0294659
721.273 .0294500
722.005 .0294337
722.735 .0294171
723.466 .0294002
724.196 .0293832
724.927 .0293662
725.656 .0293492
726.386 .0293324
727.116 .0293157
727.845 .0292992
728.574 .0292828
729.303 .0292666
730.031 .0292505
730.760 .0292346
731.488 .0292188
732.216 .0292031
732.944 .0291877
733.671 .0291723
734.398 .0291571
735.125 .0291419
735.852 .0291269
736.579 .0291121
737.305 .0290973
738.031 .0290826
738.757 .0290680
739.483 .0290535
740.208 .0290389
740.933 .0290243
741.658 .0290096
742.383 .0289946
743.108 .0289793
743.832 .0289637
744.556 .0289478
745.280 .0289315
746.004 .0289150
746.727 .0288982
747.450 .0288812
748.173 .0288639
748.896 .0288464
749.618 .0288288
750.340 .0288109
751.062 .0287927
751.784 .0287744
752.506 .0287557
753.227 .0287367
753.948 .0287174
754.669 .0286978
755.389 .0286779
756.110 .0286577
756.830 .0286373
757.550 .0286168
758.269 .0285961
758.989 .0285754
759.708 .0285547
760.427 .0285340
761.146 .0285131
761.864 .0284922
762.582 .0284712
763.300 .0284500
764.018 .0284285
764.736 .0284070
765.453 .0283854
766.170 .0283638
766.887 .0283423
767.603 .0283211
768.320 .0283003
769.036 .0282798
769.751 .0282599
770.467 .0282405
771.182 .0282217
771.897 .0282034
772.612 .0281857
773.327 .0281686
774.041 .0281521
774.755 .0281363
775.469 .0281212
776.183 .0281070
776.896 .0280938
777.609 .0280815
778.322 .0280702
779.035 .0280599
779.747 .0280506
780.459 .0280423
781.171 .0280348
781.882 .0280281
782.594 .0280220
783.305 .0280165
784.016 .0280114
784.726 .0280068
785.436 .0280026
786.147 .0279975
786.856 .0279939
787.566 .0279905
788.275 .0279874
788.984 .0279845
789.693 .0279817
790.401 .0279789
791.110 .0279763
791.818 .0279736
792.525 .0279708
793.233 .0279680
793.940 .0279651
794.647 .0279633
795.353 .0279604
796.060 .0279574
796.766 .0279543
797.472 .0279511
798.177 .0279478
798.883 .0279445
799.588 .0279410
800.292 .0279373
800.997 .0279334
801.701 .0279293
802.405 .0279250
803.109 .0279205
803.812 .0279157
804.515 .0279107
805.218 .0279055
805.921 .0279000
806.623 .0278942
807.325 .0278882
808.027 .0278819
808.728 .0278752
809.429 .0278683
810.130 .0278612
810.831 .0278538
811.531 .0278463
812.231 .0278387
812.931 .0278310
813.630 .0278233
814.330 .0278156
815.029 .0278080
815.727 .0278004
816.426 .0277929
817.124 .0277856
817.821 .0277786
818.519 .0277719
819.216 .0277657
819.913 .0277601
820.609 .0277550
821.306 .0277505
822.002 .0277466
822.697 .0277432
823.393 .0277404
824.088 .0277382
824.783 .0277364
825.477 .0277351
826.171 .0277342
826.865 .0277336
827.559 .0277333
828.252 .0277332
828.945 .0277333
829.638 .0277333
830.330 .0277333
831.023 .0277332
831.714 .0277329
832.406 .0277325
833.097 .0277319
833.788 .0277309
834.479 .0277297
835.169 .0277280
835.859 .0277259
836.548 .0277232
837.238 .0277200
837.927 .0277162
838.615 .0277117
839.304 .0277065
839.992 .0277005
840.680 .0276939
841.367 .0276864
842.054 .0276781
842.741 .0276690
843.428 .0276591
844.114 .0276484
844.800 .0276369
845.485 .0276246
846.170 .0276115
846.855 .0275976
847.540 .0275830
848.224 .0275676
848.908 .0275514
849.592 .0275346
850.275 .0275170
850.958 .0274989
851.641 .0274802
852.323 .0274610
853.005 .0274412
853.687 .0274209
854.368 .0274000
855.049 .0273786
855.730 .0273566
856.410 .0273341
857.090 .0273111
857.769 .0272878
858.449 .0272643
859.128 .0272405
859.806 .0272166
860.485 .0271926
861.163 .0271686
861.840 .0271444
862.518 .0271201
863.195 .0270958
863.871 .0270715
864.548 .0270472
865.224 .0270229
865.899 .0269988
866.574 .0269747
867.249 .0269508
867.924 .0269269
868.598 .0269031
869.272 .0268793
869.946 .0268556
870.619 .0268319
871.292 .0268082
871.964 .0267848
872.636 .0267615
873.308 .0267386
873.979 .0267159
874.651 .0266935
875.321 .0266715
875.992 .0266498
876.662 .0266284
877.331 .0266074
878.001 .0265868
878.670 .0265666
879.338 .0265469
880.007 .0265276
880.675 .0265089
881.342 .0264907
882.009 .0264730
882.676 .0264559
883.343 .0264394
884.009 .0264235
884.675 .0264082
885.340 .0263936
886.005 .0263796
886.670 .0263664
887.334 .0263538
887.998 .0263419
888.662 .0263306
889.325 .0263199
889.988 .0263097
890.650 .0263000
891.312 .0262908
891.974 .0262819
892.636 .0262733
893.297 .0262649
893.957 .0262567
894.618 .0262487
895.278 .0262408
895.937 .0262328
896.596 .0262249
897.255 .0262168
897.914 .0262084
898.572 .0261998
899.230 .0261909
899.887 .0261816
900.544 .0261719
901.201 .0261619
901.857 .0261452
902.513 .0261347
903.168 .0261240
903.823 .0261131
904.478 .0261021
905.132 .0260909
905.786 .0260795
906.440 .0260679
907.093 .0260561
907.746 .0260441
908.399 .0260320
909.051 .0260200
909.703 .0260080
910.354 .0260026
911.005 .0259911
911.656 .0259797
912.306 .0259687
912.956 .0259579
913.605 .0259474
914.254 .0259372
914.903 .0259275
915.551 .0259182
916.199 .0259093
916.847 .0259009
917.494 .0258930
918.141 .0258855
918.788 .0258783
919.434 .0258714
920.079 .0258647
920.725 .0258581
921.370 .0258515
922.014 .0258449
922.658 .0258383
923.302 .0258316
923.946 .0258250
924.589 .0258184
925.231 .0258117
925.873 .0258051
926.515 .0257985
927.157 .0257919
927.798 .0257853
928.439 .0257787
929.079 .0257721
929.719 .0257657
930.359 .0257595
930.998 .0257536
931.637 .0257480
932.275 .0257428
932.913 .0257381
933.551 .0257338
934.188 .0257300
934.825 .0257266
935.462 .0257237
936.098 .0257213
936.733 .0257194
937.369 .0257180
938.004 .0257171
938.638 .0257169
939.273 .0257173
939.907 .0257185
940.540 .0257206
941.173 .0257235
941.806 .0257273
942.438 .0257320
943.070 .0257375
943.702 .0257436
944.333 .0257504
944.964 .0257578
945.594 .0257655
946.224 .0257736
946.854 .0257820
947.483 .0257906
948.112 .0257992
948.741 .0258078
949.369 .0258164
949.996 .0258248
950.624 .0258328
951.251 .0258404
951.878 .0258476
952.504 .0258541
953.130 .0258601
953.755 .0258654
954.380 .0258702
955.005 .0258743
955.629 .0258780
956.253 .0258811
956.877 .0258836
957.500 .0258855
958.123 .0258868
958.746 .0258875
959.368 .0258876
959.990 .0258871
960.611 .0258863
961.232 .0258850
961.853 .0258835
962.473 .0258817
963.093 .0258797
963.712 .0258775
964.331 .0258751
964.950 .0258726
965.569 .0258698
966.187 .0258668
966.804 .0258638
967.422 .0258606
968.039 .0258574
968.655 .0258542
969.272 .0258512
969.887 .0258482
970.503 .0258452
971.118 .0258423
971.733 .0258392
972.347 .0258360
972.961 .0258325
973.575 .0258287
974.188 .0258245
974.801 .0258199
975.414 .0258150
976.026 .0258095
976.638 .0258036
977.250 .0257971
977.861 .0257899
978.472 .0257819
979.083 .0257731
979.693 .0257633
980.303 .0257526
980.912 .0257326
981.521 .0257198
982.130 .0257064
982.738 .0256924
983.346 .0256780
983.954 .0256632
984.562 .0256481
985.169 .0256328
985.775 .0256173
986.382 .0256018
986.988 .0255863
987.594 .0255709
988.199 .0255558
988.804 .0255410
989.409 .0255352
990.013 .0255213
990.617 .0255078
991.221 .0254948
991.824 .0254821
992.427 .0254697
993.030 .0254574
993.632 .0254454
994.234 .0254334
994.836 .0254216
995.438 .0254101
996.039 .0253988
996.640 .0253879
997.240 .0253774
997.840 .0253673
998.440 .0253576
999.040 .0253481
999.639 .0253389
1000.238 .0253297
1000.836 .0253206
1001.435 .0253115
1002.033 .0253025
1002.630 .0252934
1003.228 .0252842
1003.825 .0252750
1004.422 .0252657
1005.018 .0252561
1005.614 .0252462
1006.210 .0252359
1006.806 .0252251
1007.401 .0252138
1007.996 .0252020
1008.591 .0251899
1009.186 .0251775
1009.780 .0251648
1010.374 .0251521
1010.967 .0251394
1011.561 .0251267
1012.154 .0251140
1012.746 .0251014
1013.339 .0250889
1013.931 .0250764
1014.523 .0250640
1015.115 .0250516
1015.706 .0250395
1016.298 .0250275
1016.888 .0250157
1017.479 .0250042
1018.069 .0249929
1018.660 .0249818
1019.250 .0249709
1019.839 .0249601
1020.429 .0249494
1021.018 .0249389
1021.607 .0249285
1022.195 .0249184
1022.784 .0249085
1023.372 .0248989
1023.960 .0248897
1024.547 .0248808
1025.135 .0248722
1025.722 .0248639
1026.309 .0248559
1026.896 .0248481
1027.483 .0248404
1028.069 .0248330
1028.655 .0248256
1029.241 .0248184
1029.827 .0248112
1030.412 .0248040
1030.997 .0247968
1031.582 .0247896
1032.167 .0247823
1032.752 .0247751
1033.336 .0247678
1033.921 .0247606
1034.505 .0247533
1035.089 .0247461
1035.672 .0247389
1036.256 .0247317
1036.839 .0247244
1037.422 .0247171
1038.005 .0247098
1038.588 .0247025
1039.171 .0246952
1039.753 .0246879
1040.335 .0246808
1040.918 .0246738
1041.500 .0246668
1042.081 .0246600
1042.663 .0246532
1043.244 .0246464
1043.826 .0246396
1044.407 .0246326
1044.988 .0246256
1045.569 .0246185
1046.150 .0246115
1046.730 .0246046
1047.311 .0245978
1047.891 .0245911
1048.471 .0245845
1049.052 .0245780
1049.632 .0245715
1050.211 .0245649
1050.791 .0245580
1051.371 .0245509
1051.950 .0245436
1052.530 .0245360
1053.109 .0245281
1053.688 .0245202
1054.268 .0245121
1054.847 .0245039
1055.426 .0244957
1056.005 .0244875
1056.583 .0244793
1057.162 .0244710
1057.741 .0244628
1058.319 .0244548
1058.898 .0244469
1059.476 .0244393
1060.055 .0244321
1060.633 .0244254
1061.211 .0244192
1061.790 .0244135
1062.368 .0244085
1062.946 .0244041
1063.524 .0244003
1064.102 .0243973
1064.680 .0243950
1065.258 .0243934
1065.836 .0243924
1066.414 .0243920
1066.992 .0243921
1067.570 .0243926
1068.148 .0243935
1068.726 .0243949
1069.304 .0243967
1069.882 .0243991
1070.460 .0244020
1071.038 .0244054
1071.616 .0244095
1072.194 .0244140
1072.772 .0244190
1073.350 .0244244
1073.928 .0244300
1074.506 .0244359
1075.084 .0244419
1075.662 .0244482
1076.240 .0244547
1076.819 .0244616
1077.397 .0244691
1077.976 .0244771
1078.554 .0244858
1079.133 .0244952
1079.711 .0245051
1080.290 .0245156
1080.869 .0245266
1081.448 .0245379
1082.027 .0245497
1082.606 .0245620
1083.185 .0245750
1083.764 .0245888
1084.343 .0246035
1084.923 .0246192
1085.502 .0246359
1086.082 .0246535
1086.662 .0246720
1087.242 .0246912
1087.822 .0247111
1088.402 .0247318
1088.983 .0247531
1089.563 .0247754
1090.144 .0247985
1090.725 .0248225
1091.306 .0248475
1091.887 .0248733
1092.469 .0248999
1093.050 .0249271
1093.632 .0249546
1094.214 .0249823
1094.796 .0250100
1095.379 .0250377
1095.961 .0250653
1096.544 .0250931
1097.127 .0251208
1097.710 .0251487
1098.294 .0251766
1098.877 .0252045
1099.461 .0252323
1100.046 .0252599
1100.630 .0252873
1101.215 .0253147
1101.800 .0253420
1102.385 .0253695
1102.970 .0253974
1103.556 .0254261
1104.142 .0254555
1104.728 .0254858
1105.315 .0255170
1105.902 .0255492
1106.489 .0255823
1107.077 .0256162
1107.664 .0256509
1108.253 .0256866
1108.841 .0257233
1109.430 .0257613
1110.019 .0258005
1110.609 .0258412
1111.198 .0258834
1111.789 .0259271
1112.379 .0259720
1112.970 .0260181
1113.561 .0260652
1114.153 .0261132
1114.745 .0261618
1115.338 .0262112
1115.931 .0262612
1116.524 .0263120
1117.117 .0263633
1117.712 .0264152
1118.306 .0264675
1118.901 .0265201
1119.496 .0265725
1120.092 .0266248
1120.689 .0266765
1121.285 .0267276
1121.882 .0267780
1122.480 .0268275
1123.078 .0268761
1123.677 .0269239
1124.276 .0269709
1124.875 .0270174
1125.476 .0270639
1126.076 .0271107
1126.677 .0271580
1127.279 .0272065
1127.881 .0272564
1128.484 .0273082
1129.087 .0273308
1129.691 .0273845
1130.295 .0274409
1130.900 .0275004
1131.505 .0275637
1132.111 .0276316
1132.718 .0277047
1133.325 .0277839
1133.933 .0278710
1134.541 .0279681
1135.150 .0280754
1135.760 .0281825
1136.370 .0282990
1136.981 .0281121
1137.592 .0282427
1138.204 .0283780
1138.817 .0285189
1139.431 .0286794
1140.045 .0288560
1140.660 .0290486
1141.275 .0292628
1141.891 .0295226
1142.508 .0298435
1143.126 .0301652
1143.744 .0301954
1144.363 .0304921
1144.983 .0315100
