Measurement Sequence started on: 15-12-46-377
Integration time: 28
Scans to Average: 2 
>>>>>Begin Spectral Data<<<<<
432.689 .0000100
433.621 .0000100
434.552 .0000100
435.482 .0000100
436.410 .0000100
437.337 .0000100
438.262 .0283875
439.187 .0600526
440.110 .0994956
441.031 .1439971
441.952 .1155691
442.871 .1207012
443.789 .1254705
444.705 .1299494
445.621 .1341875
446.535 .1382246
447.447 .1405971
448.359 .1411568
449.269 .1395159
450.178 .1354252
451.086 .1289667
451.993 .1206350
452.898 .1112468
453.803 .1017274
454.706 .0928648
455.608 .0851485
456.508 .0787433
457.408 .0743810
458.306 .0710068
459.204 .0682489
460.100 .0659208
460.995 .0639181
461.888 .0621713
462.781 .0606338
463.673 .0592682
464.563 .0580460
465.452 .0569444
466.340 .0559435
467.228 .0550279
468.114 .0541861
468.999 .0534095
469.882 .0526913
470.765 .0520278
471.647 .0514163
472.528 .0508551
473.407 .0503424
474.286 .0498765
475.163 .0494548
476.040 .0490751
476.915 .0487347
477.790 .0484303
478.663 .0481598
479.535 .0479208
480.407 .0477112
481.277 .0475297
482.147 .0473748
483.015 .0472454
483.883 .0471406
484.749 .0470594
485.615 .0470005
486.479 .0469625
487.343 .0469434
488.206 .0469419
489.067 .0469557
489.928 .0469838
490.788 .0470250
491.647 .0470788
492.505 .0471452
493.362 .0472242
494.218 .0473171
495.073 .0474250
495.928 .0476453
496.781 .0477980
497.634 .0479700
498.486 .0481629
499.337 .0483781
500.187 .0486170
501.036 .0488811
501.884 .0491730
502.731 .0494955
503.578 .0498522
504.424 .0501081
505.268 .0505303
506.113 .0509979
506.956 .0515156
507.798 .0520893
508.640 .0527270
509.480 .0534377
510.320 .0542331
511.160 .0551256
511.998 .0561296
512.836 .0572620
513.672 .0585411
514.508 .0599878
515.344 .0616258
516.178 .0634761
517.012 .0655637
517.845 .0679119
518.677 .0705419
519.508 .0734729
520.339 .0767167
521.169 .0802778
521.998 .0841378
522.826 .0882646
523.654 .0926106
524.481 .0971091
525.307 .1016893
526.133 .1062617
526.958 .1107334
527.782 .1150133
528.605 .1190119
529.428 .1226499
530.250 .1258583
531.072 .1285848
531.892 .1307880
532.712 .1324366
533.532 .1335166
534.350 .1340166
535.168 .1339387
535.986 .1332879
536.802 .1320663
537.618 .1302821
538.434 .1279477
539.249 .1250936
540.063 .1217663
540.876 .1180230
541.689 .1139390
542.501 .1095929
543.313 .1050770
544.124 .1004853
544.934 .0959069
545.744 .0914257
546.553 .0871131
547.361 .0830273
548.169 .0792073
548.976 .0756781
549.783 .0724507
550.589 .0695207
551.395 .0668748
552.200 .0644884
553.004 .0623359
553.808 .0603935
554.611 .0586393
555.414 .0570528
556.216 .0556176
557.018 .0543151
557.819 .0531311
558.619 .0520511
559.419 .0510612
560.218 .0501505
561.017 .0493077
561.815 .0485226
562.613 .0477876
563.410 .0470953
564.207 .0464390
565.003 .0458128
565.799 .0452119
566.594 .0446317
567.388 .0440689
568.182 .0435216
568.976 .0429877
569.769 .0424655
570.562 .0419553
571.354 .0414568
572.145 .0409710
572.936 .0404992
573.727 .0400420
574.517 .0396005
575.307 .0391756
576.096 .0387677
576.885 .0383768
577.673 .0380036
578.461 .0376482
579.248 .0373104
580.035 .0369902
580.821 .0366871
581.607 .0364006
582.392 .0361305
583.177 .0358767
583.962 .0356385
584.746 .0354158
585.529 .0352079
586.313 .0350141
587.095 .0348336
587.878 .0346654
588.660 .0345086
589.441 .0343620
590.222 .0342246
591.003 .0340959
591.783 .0339750
592.563 .0338615
593.342 .0337551
594.121 .0336553
594.899 .0335618
595.678 .0334741
596.455 .0333916
597.233 .0333139
598.009 .0332408
598.786 .0331717
599.562 .0331063
600.338 .0330444
601.113 .0329858
601.888 .0329085
602.663 .0328567
603.437 .0328073
604.211 .0327603
604.984 .0327152
605.757 .0326717
606.530 .0326297
607.302 .0325887
608.074 .0325488
608.845 .0325096
609.616 .0324711
610.387 .0324526
611.158 .0324150
611.928 .0323780
612.697 .0323415
613.467 .0323056
614.236 .0322703
615.004 .0322355
615.773 .0322012
616.541 .0321675
617.308 .0321343
618.076 .0321015
618.843 .0320694
619.609 .0320377
620.375 .0320067
621.141 .0319763
621.907 .0319467
622.672 .0319178
623.437 .0318897
624.202 .0318623
624.966 .0318358
625.730 .0318099
626.493 .0317847
627.257 .0317600
628.020 .0317357
628.782 .0317117
629.545 .0316879
630.307 .0316642
631.068 .0316407
631.830 .0316172
632.591 .0315938
633.352 .0315704
634.112 .0315470
634.872 .0315235
635.632 .0314998
636.392 .0314760
637.151 .0314521
637.910 .0314281
638.668 .0314040
639.427 .0313800
640.185 .0313560
640.943 .0313322
641.700 .0313086
642.457 .0312852
643.214 .0312620
643.971 .0312389
644.727 .0312160
645.483 .0311932
646.239 .0311705
646.994 .0311480
647.750 .0311257
648.505 .0311036
649.259 .0310817
650.014 .0310598
650.768 .0310381
651.521 .0310163
652.275 .0309944
653.028 .0309724
653.781 .0309502
654.534 .0309277
655.286 .0309051
656.039 .0308822
656.791 .0308591
657.542 .0308358
658.294 .0308123
659.045 .0307888
659.796 .0307652
660.546 .0307416
661.297 .0307181
662.047 .0306949
662.796 .0306718
663.546 .0306488
664.295 .0306260
665.044 .0306034
665.793 .0305811
666.542 .0305590
667.290 .0305372
668.038 .0305158
668.786 .0304948
669.533 .0304741
670.281 .0304539
671.028 .0304341
671.774 .0304145
672.521 .0303951
673.267 .0303757
674.013 .0303563
674.759 .0303367
675.505 .0303170
676.250 .0302970
676.995 .0302768
677.740 .0302563
678.484 .0302356
679.229 .0302146
679.973 .0301934
680.717 .0301719
681.460 .0301503
682.204 .0301285
682.947 .0301065
683.690 .0300844
684.433 .0300620
685.175 .0300394
685.917 .0300167
686.659 .0299939
687.401 .0299709
688.142 .0299479
688.884 .0299249
689.625 .0299019
690.365 .0298790
691.106 .0298564
691.846 .0298339
692.586 .0298116
693.326 .0297894
694.066 .0297673
694.805 .0297454
695.545 .0297235
696.284 .0297018
697.022 .0296802
697.761 .0296588
698.499 .0296376
699.237 .0296167
699.975 .0295961
700.713 .0295759
701.450 .0295562
702.187 .0295368
702.924 .0295179
703.661 .0294991
704.397 .0294807
705.133 .0294624
705.869 .0294442
706.605 .0294261
707.341 .0294079
708.076 .0293898
708.811 .0293716
709.546 .0293535
710.281 .0293353
711.015 .0293171
711.749 .0292988
712.483 .0292804
713.217 .0292619
713.950 .0292432
714.684 .0292243
715.417 .0292052
716.150 .0291860
716.882 .0291666
717.615 .0291471
718.347 .0291276
719.079 .0291081
719.811 .0290886
720.542 .0290692
721.273 .0290500
722.005 .0290311
722.735 .0290124
723.466 .0289941
724.196 .0289762
724.927 .0289587
725.656 .0289417
726.386 .0289252
727.116 .0289091
727.845 .0288936
728.574 .0288785
729.303 .0288640
730.031 .0288502
730.760 .0288369
731.488 .0288243
732.216 .0288121
732.944 .0288005
733.671 .0287892
734.398 .0287783
735.125 .0287675
735.852 .0287570
736.579 .0287465
737.305 .0287362
738.031 .0287260
738.757 .0287160
739.483 .0287061
740.208 .0286964
740.933 .0286867
741.658 .0286770
742.383 .0286672
743.108 .0286573
743.832 .0286472
744.556 .0286369
745.280 .0286265
746.004 .0286159
746.727 .0286053
747.450 .0285945
748.173 .0285837
748.896 .0285728
749.618 .0285618
750.340 .0285507
751.062 .0285394
751.784 .0285280
752.506 .0285163
753.227 .0285045
753.948 .0284925
754.669 .0284802
755.389 .0284678
756.110 .0284553
756.830 .0284426
757.550 .0284298
758.269 .0284170
758.989 .0284041
759.708 .0283912
760.427 .0283783
761.146 .0283652
761.864 .0283519
762.582 .0283385
763.300 .0283248
764.018 .0283109
764.736 .0282967
765.453 .0282823
766.170 .0282678
766.887 .0282532
767.603 .0282386
768.320 .0282240
769.036 .0282095
769.751 .0281952
770.467 .0281811
771.182 .0281671
771.897 .0281534
772.612 .0281398
773.327 .0281265
774.041 .0281135
774.755 .0281007
775.469 .0280882
776.183 .0280761
776.896 .0280645
777.609 .0280532
778.322 .0280425
779.035 .0280322
779.747 .0280223
780.459 .0280129
781.171 .0280037
781.882 .0279949
782.594 .0279862
783.305 .0279778
784.016 .0279694
784.726 .0279611
785.436 .0279528
786.147 .0279404
786.856 .0279320
787.566 .0279234
788.275 .0279148
788.984 .0279059
789.693 .0278967
790.401 .0278871
791.110 .0278772
791.818 .0278668
792.525 .0278560
793.233 .0278447
793.940 .0278330
794.647 .0278259
795.353 .0278137
796.060 .0278012
796.766 .0277885
797.472 .0277755
798.177 .0277623
798.883 .0277489
799.588 .0277354
800.292 .0277218
800.997 .0277080
801.701 .0276941
802.405 .0276801
803.109 .0276659
803.812 .0276516
804.515 .0276372
805.218 .0276227
805.921 .0276079
806.623 .0275930
807.325 .0275778
808.027 .0275623
808.728 .0275464
809.429 .0275303
810.130 .0275138
810.831 .0274970
811.531 .0274800
812.231 .0274627
812.931 .0274451
813.630 .0274274
814.330 .0274094
815.029 .0273914
815.727 .0273732
816.426 .0273549
817.124 .0273367
817.821 .0273186
818.519 .0273006
819.216 .0272828
819.913 .0272653
820.609 .0272482
821.306 .0272314
822.002 .0272150
822.697 .0271991
823.393 .0271838
824.088 .0271691
824.783 .0271552
825.477 .0271421
826.171 .0271297
826.865 .0271181
827.559 .0271074
828.252 .0270973
828.945 .0270880
829.638 .0270792
830.330 .0270708
831.023 .0270630
831.714 .0270556
832.406 .0270485
833.097 .0270418
833.788 .0270353
834.479 .0270290
835.169 .0270229
835.859 .0270169
836.548 .0270110
837.238 .0270052
837.927 .0269995
838.615 .0269939
839.304 .0269883
839.992 .0269828
840.680 .0269773
841.367 .0269718
842.054 .0269662
842.741 .0269606
843.428 .0269549
844.114 .0269491
844.800 .0269433
845.485 .0269375
846.170 .0269316
846.855 .0269257
847.540 .0269196
848.224 .0269133
848.908 .0269067
849.592 .0268998
850.275 .0268925
850.958 .0268849
851.641 .0268769
852.323 .0268684
853.005 .0268596
853.687 .0268505
854.368 .0268410
855.049 .0268312
855.730 .0268211
856.410 .0268108
857.090 .0268002
857.769 .0267895
858.449 .0267787
859.128 .0267678
859.806 .0267569
860.485 .0267460
861.163 .0267351
861.840 .0267243
862.518 .0267135
863.195 .0267030
863.871 .0266926
864.548 .0266827
865.224 .0266731
865.899 .0266641
866.574 .0266556
867.249 .0266478
867.924 .0266405
868.598 .0266339
869.272 .0266277
869.946 .0266220
870.619 .0266167
871.292 .0266118
871.964 .0266071
872.636 .0266028
873.308 .0265986
873.979 .0265948
874.651 .0265911
875.321 .0265877
875.992 .0265845
876.662 .0265813
877.331 .0265782
878.001 .0265751
878.670 .0265719
879.338 .0265687
880.007 .0265653
880.675 .0265618
881.342 .0265581
882.009 .0265545
882.676 .0265509
883.343 .0265473
884.009 .0265439
884.675 .0265407
885.340 .0265377
886.005 .0265350
886.670 .0265325
887.334 .0265302
887.998 .0265282
888.662 .0265264
889.325 .0265249
889.988 .0265236
890.650 .0265224
891.312 .0265214
891.974 .0265205
892.636 .0265197
893.297 .0265190
893.957 .0265183
894.618 .0265176
895.278 .0265168
895.937 .0265159
896.596 .0265149
897.255 .0265135
897.914 .0265118
898.572 .0265095
899.230 .0265066
899.887 .0265030
900.544 .0264985
901.201 .0264932
901.857 .0264813
902.513 .0264738
903.168 .0264655
903.823 .0264563
904.478 .0264463
905.132 .0264355
905.786 .0264239
906.440 .0264116
907.093 .0263985
907.746 .0263848
908.399 .0263705
909.051 .0263558
909.703 .0263407
910.354 .0263327
911.005 .0263176
911.656 .0263023
912.306 .0262869
912.956 .0262715
913.605 .0262560
914.254 .0262406
914.903 .0262251
915.551 .0262097
916.199 .0261943
916.847 .0261790
917.494 .0261637
918.141 .0261483
918.788 .0261330
919.434 .0261176
920.079 .0261021
920.725 .0260865
921.370 .0260708
922.014 .0260551
922.658 .0260392
923.302 .0260232
923.946 .0260071
924.589 .0259910
925.231 .0259747
925.873 .0259583
926.515 .0259416
927.157 .0259247
927.798 .0259075
928.439 .0258899
929.079 .0258721
929.719 .0258541
930.359 .0258358
930.998 .0258173
931.637 .0257988
932.275 .0257803
932.913 .0257617
933.551 .0257432
934.188 .0257248
934.825 .0257064
935.462 .0256882
936.098 .0256700
936.733 .0256521
937.369 .0256343
938.004 .0256168
938.638 .0255996
939.273 .0255829
939.907 .0255665
940.540 .0255506
941.173 .0255350
941.806 .0255197
942.438 .0255045
943.070 .0254895
943.702 .0254746
944.333 .0254597
944.964 .0254449
945.594 .0254300
946.224 .0254152
946.854 .0254005
947.483 .0253858
948.112 .0253711
948.741 .0253563
949.369 .0253414
949.996 .0253263
950.624 .0253110
951.251 .0252956
951.878 .0252801
952.504 .0252645
953.130 .0252490
953.755 .0252335
954.380 .0252181
955.005 .0252027
955.629 .0251874
956.253 .0251721
956.877 .0251568
957.500 .0251414
958.123 .0251259
958.746 .0251104
959.368 .0250950
959.990 .0250798
960.611 .0250649
961.232 .0250502
961.853 .0250358
962.473 .0250216
963.093 .0250076
963.712 .0249938
964.331 .0249801
964.950 .0249665
965.569 .0249530
966.187 .0249397
966.804 .0249266
967.422 .0249137
968.039 .0249011
968.655 .0248886
969.272 .0248761
969.887 .0248637
970.503 .0248511
971.118 .0248383
971.733 .0248252
972.347 .0248119
972.961 .0247984
973.575 .0247848
974.188 .0247709
974.801 .0247570
975.414 .0247429
976.026 .0247286
976.638 .0247142
977.250 .0246995
977.861 .0246845
978.472 .0246693
979.083 .0246539
979.693 .0246383
980.303 .0246227
980.912 .0245993
981.521 .0245840
982.130 .0245688
982.738 .0245540
983.346 .0245394
983.954 .0245251
984.562 .0245112
985.169 .0244978
985.775 .0244850
986.382 .0244727
986.988 .0244612
987.594 .0244505
988.199 .0244405
988.804 .0244313
989.409 .0244291
990.013 .0244211
990.617 .0244138
991.221 .0244070
991.824 .0244009
992.427 .0243953
993.030 .0243902
993.632 .0243855
994.234 .0243813
994.836 .0243776
995.438 .0243743
996.039 .0243714
996.640 .0243690
997.240 .0243671
997.840 .0243656
998.440 .0243647
999.040 .0243642
999.639 .0243642
1000.238 .0243646
1000.836 .0243654
1001.435 .0243664
1002.033 .0243676
1002.630 .0243689
1003.228 .0243703
1003.825 .0243716
1004.422 .0243728
1005.018 .0243740
1005.614 .0243751
1006.210 .0243762
1006.806 .0243772
1007.401 .0243781
1007.996 .0243789
1008.591 .0243797
1009.186 .0243805
1009.780 .0243813
1010.374 .0243821
1010.967 .0243832
1011.561 .0243844
1012.154 .0243859
1012.746 .0243878
1013.339 .0243901
1013.931 .0243927
1014.523 .0243957
1015.115 .0243991
1015.706 .0244027
1016.298 .0244065
1016.888 .0244106
1017.479 .0244149
1018.069 .0244194
1018.660 .0244242
1019.250 .0244295
1019.839 .0244352
1020.429 .0244415
1021.018 .0244484
1021.607 .0244560
1022.195 .0244641
1022.784 .0244728
1023.372 .0244822
1023.960 .0244922
1024.547 .0245028
1025.135 .0245141
1025.722 .0245261
1026.309 .0245388
1026.896 .0245522
1027.483 .0245661
1028.069 .0245806
1028.655 .0245954
1029.241 .0246104
1029.827 .0246256
1030.412 .0246409
1030.997 .0246562
1031.582 .0246716
1032.167 .0246870
1032.752 .0247024
1033.336 .0247179
1033.921 .0247334
1034.505 .0247489
1035.089 .0247644
1035.672 .0247798
1036.256 .0247949
1036.839 .0248098
1037.422 .0248242
1038.005 .0248383
1038.588 .0248519
1039.171 .0248649
1039.753 .0248774
1040.335 .0248893
1040.918 .0249006
1041.500 .0249113
1042.081 .0249214
1042.663 .0249308
1043.244 .0249397
1043.826 .0249479
1044.407 .0249556
1044.988 .0249627
1045.569 .0249694
1046.150 .0249758
1046.730 .0249819
1047.311 .0249880
1047.891 .0249941
1048.471 .0250004
1049.052 .0250069
1049.632 .0250138
1050.211 .0250210
1050.791 .0250285
1051.371 .0250362
1051.950 .0250439
1052.530 .0250516
1053.109 .0250593
1053.688 .0250668
1054.268 .0250742
1054.847 .0250816
1055.426 .0250891
1056.005 .0250967
1056.583 .0251045
1057.162 .0251123
1057.741 .0251203
1058.319 .0251280
1058.898 .0251356
1059.476 .0251429
1060.055 .0251501
1060.633 .0251572
1061.211 .0251643
1061.790 .0251717
1062.368 .0251796
1062.946 .0251878
1063.524 .0251964
1064.102 .0252053
1064.680 .0252143
1065.258 .0252231
1065.836 .0252317
1066.414 .0252400
1066.992 .0252480
1067.570 .0252558
1068.148 .0252636
1068.726 .0252715
1069.304 .0252796
1069.882 .0252880
1070.460 .0252966
1071.038 .0253052
1071.616 .0253139
1072.194 .0253224
1072.772 .0253307
1073.350 .0253390
1073.928 .0253472
1074.506 .0253555
1075.084 .0253642
1075.662 .0253731
1076.240 .0253825
1076.819 .0253923
1077.397 .0254024
1077.976 .0254126
1078.554 .0254230
1079.133 .0254333
1079.711 .0254435
1080.290 .0254537
1080.869 .0254636
1081.448 .0254734
1082.027 .0254832
1082.606 .0254930
1083.185 .0255028
1083.764 .0255126
1084.343 .0255224
1084.923 .0255321
1085.502 .0255417
1086.082 .0255512
1086.662 .0255605
1087.242 .0255697
1087.822 .0255788
1088.402 .0255877
1088.983 .0255966
1089.563 .0256054
1090.144 .0256143
1090.725 .0256235
1091.306 .0256330
1091.887 .0256431
1092.469 .0256538
1093.050 .0256653
1093.632 .0256776
1094.214 .0256906
1094.796 .0257043
1095.379 .0257183
1095.961 .0257327
1096.544 .0257472
1097.127 .0257620
1097.710 .0257771
1098.294 .0257928
1098.877 .0258090
1099.461 .0258261
1100.046 .0258438
1100.630 .0258625
1101.215 .0258819
1101.800 .0259019
1102.385 .0259223
1102.970 .0259429
1103.556 .0259638
1104.142 .0259851
1104.728 .0260068
1105.315 .0260292
1105.902 .0260527
1106.489 .0260773
1107.077 .0261031
1107.664 .0261302
1108.253 .0261584
1108.841 .0261874
1109.430 .0262170
1110.019 .0262470
1110.609 .0262772
1111.198 .0263076
1111.789 .0263383
1112.379 .0263695
1112.970 .0264013
1113.561 .0264339
1114.153 .0264673
1114.745 .0265015
1115.338 .0265363
1115.931 .0265716
1116.524 .0266073
1117.117 .0266432
1117.712 .0266792
1118.306 .0267153
1118.901 .0267514
1119.496 .0267877
1120.092 .0268244
1120.689 .0268615
1121.285 .0268989
1121.882 .0269368
1122.480 .0269752
1123.078 .0270140
1123.677 .0270534
1124.276 .0270934
1124.875 .0271341
1125.476 .0271757
1126.076 .0272184
1126.677 .0272620
1127.279 .0273068
1127.881 .0273528
1128.484 .0273998
1129.087 .0274205
1129.691 .0274693
1130.295 .0275197
1130.900 .0275721
1131.505 .0276266
1132.111 .0276835
1132.718 .0277425
1133.325 .0278039
1133.933 .0278684
1134.541 .0279341
1135.150 .0280031
1135.760 .0280621
1136.370 .0281360
1136.981 .0281501
1137.592 .0282252
1138.204 .0283091
1138.817 .0284039
1139.431 .0285042
1140.045 .0286145
1140.660 .0287189
1141.275 .0288289
1141.891 .0289591
1142.508 .0290376
1143.126 .0291650
1143.744 .0289263
1144.363 .0293747
1144.983 .0301160
