Measurement Sequence started on: 15-12-46-377
Integration time: 28
Scans to Average: 2 
>>>>>Begin Spectral Data<<<<<
432.689 .0000100
433.621 .0000100
434.552 .0000100
435.482 .0000100
436.410 .0000100
437.337 .0000100
438.262 .0276046
439.187 .0584941
440.110 .0968958
441.031 .1401966
441.952 .1121906
442.871 .1171514
443.789 .1217690
444.705 .1261134
445.621 .1302337
446.535 .1341672
447.447 .1364897
448.359 .1370491
449.269 .1354697
450.178 .1315078
451.086 .1252428
451.993 .1171569
452.898 .1080470
453.803 .0988166
454.706 .0902338
455.608 .0827739
456.508 .0765961
457.408 .0724098
458.306 .0691882
459.204 .0665621
460.100 .0643465
460.995 .0624388
461.888 .0607708
462.781 .0592954
463.673 .0579774
464.563 .0567903
465.452 .0557144
466.340 .0547329
467.228 .0538339
468.114 .0530096
468.999 .0522535
469.882 .0515601
470.765 .0509242
471.647 .0503412
472.528 .0498071
473.407 .0493178
474.286 .0488691
475.163 .0484578
476.040 .0480812
476.915 .0477374
477.790 .0474248
478.663 .0471426
479.535 .0468900
480.407 .0466664
481.277 .0464710
482.147 .0463024
483.015 .0461579
483.883 .0460355
484.749 .0459330
485.615 .0458484
486.479 .0457802
487.343 .0457278
488.206 .0456914
489.067 .0456716
489.928 .0456694
490.788 .0456858
491.647 .0457214
492.505 .0457766
493.362 .0458514
494.218 .0459457
495.073 .0460594
495.928 .0463026
496.781 .0464705
497.634 .0466619
498.486 .0468784
499.337 .0471231
500.187 .0473990
501.036 .0477096
501.884 .0480584
502.731 .0484492
503.578 .0488859
504.424 .0492047
505.268 .0497264
506.113 .0503061
506.956 .0509489
507.798 .0516602
508.640 .0524469
509.480 .0533175
510.320 .0542812
511.160 .0553489
511.998 .0565359
512.836 .0578587
513.672 .0593332
514.508 .0609785
515.344 .0628125
516.178 .0648535
517.012 .0671202
517.845 .0696308
518.677 .0724002
519.508 .0754406
520.339 .0787583
521.169 .0823526
521.998 .0862008
522.826 .0902707
523.654 .0945085
524.481 .0988503
525.307 .1032210
526.133 .1075301
526.958 .1116851
527.782 .1156010
528.605 .1191967
529.428 .1224005
530.250 .1251490
531.072 .1274020
531.892 .1291236
532.712 .1302968
533.532 .1309122
534.350 .1309693
535.168 .1304768
535.986 .1294458
536.802 .1278864
537.618 .1258146
538.434 .1232474
539.249 .1202221
540.063 .1167831
540.876 .1129918
541.689 .1089158
542.501 .1046326
543.313 .1002332
544.124 .0958097
544.934 .0914446
545.744 .0872149
546.553 .0831833
547.361 .0794016
548.169 .0758971
548.976 .0726885
549.783 .0697761
550.589 .0671512
551.395 .0647938
552.200 .0626749
553.004 .0607656
553.808 .0590403
554.611 .0574737
555.414 .0560469
556.216 .0547413
557.018 .0535411
557.819 .0524339
558.619 .0514106
559.419 .0504625
560.218 .0495816
561.017 .0487591
561.815 .0479870
562.613 .0472582
563.410 .0465661
564.207 .0459044
565.003 .0452692
565.799 .0446575
566.594 .0440666
567.388 .0434949
568.182 .0429419
568.976 .0424069
569.769 .0418892
570.562 .0413888
571.354 .0409048
572.145 .0404359
572.936 .0399814
573.727 .0395403
574.517 .0391124
575.307 .0386977
576.096 .0382963
576.885 .0379089
577.673 .0375364
578.461 .0371797
579.248 .0368391
580.035 .0365150
580.821 .0362072
581.607 .0359155
582.392 .0356393
583.177 .0353782
583.962 .0351319
584.746 .0349002
585.529 .0346829
586.313 .0344798
587.095 .0342909
587.878 .0341158
588.660 .0339542
589.441 .0338054
590.222 .0336688
591.003 .0335437
591.783 .0334290
592.563 .0333238
593.342 .0332269
594.121 .0331375
594.899 .0330544
595.678 .0329768
596.455 .0329039
597.233 .0328354
598.009 .0327705
598.786 .0327089
599.562 .0326504
600.338 .0325945
601.113 .0325409
601.888 .0324670
602.663 .0324179
603.437 .0323705
604.211 .0323247
604.984 .0322804
605.757 .0322374
606.530 .0321959
607.302 .0321557
608.074 .0321167
608.845 .0320790
609.616 .0320424
610.387 .0320269
611.158 .0319922
611.928 .0319588
612.697 .0319267
613.467 .0318958
614.236 .0318663
615.004 .0318381
615.773 .0318111
616.541 .0317854
617.308 .0317609
618.076 .0317374
618.843 .0317149
619.609 .0316934
620.375 .0316726
621.141 .0316526
621.907 .0316333
622.672 .0316146
623.437 .0315964
624.202 .0315788
624.966 .0315615
625.730 .0315446
626.493 .0315279
627.257 .0315112
628.020 .0314944
628.782 .0314773
629.545 .0314598
630.307 .0314417
631.068 .0314230
631.830 .0314036
632.591 .0313835
633.352 .0313628
634.112 .0313416
634.872 .0313199
635.632 .0312978
636.392 .0312753
637.151 .0312525
637.910 .0312293
638.668 .0312058
639.427 .0311821
640.185 .0311580
640.943 .0311338
641.700 .0311093
642.457 .0310848
643.214 .0310603
643.971 .0310359
644.727 .0310117
645.483 .0309879
646.239 .0309643
646.994 .0309411
647.750 .0309182
648.505 .0308955
649.259 .0308730
650.014 .0308506
650.768 .0308283
651.521 .0308060
652.275 .0307837
653.028 .0307614
653.781 .0307393
654.534 .0307172
655.286 .0306952
656.039 .0306732
656.791 .0306510
657.542 .0306286
658.294 .0306059
659.045 .0305828
659.796 .0305593
660.546 .0305354
661.297 .0305111
662.047 .0304864
662.796 .0304613
663.546 .0304358
664.295 .0304100
665.044 .0303840
665.793 .0303578
666.542 .0303314
667.290 .0303050
668.038 .0302787
668.786 .0302524
669.533 .0302261
670.281 .0301999
671.028 .0301738
671.774 .0301477
672.521 .0301216
673.267 .0300957
674.013 .0300698
674.759 .0300442
675.505 .0300188
676.250 .0299937
676.995 .0299687
677.740 .0299441
678.484 .0299197
679.229 .0298955
679.973 .0298715
680.717 .0298478
681.460 .0298244
682.204 .0298013
682.947 .0297786
683.690 .0297561
684.433 .0297341
685.175 .0297124
685.917 .0296911
686.659 .0296702
687.401 .0296497
688.142 .0296296
688.884 .0296100
689.625 .0295908
690.365 .0295720
691.106 .0295535
691.846 .0295353
692.586 .0295174
693.326 .0294997
694.066 .0294821
694.805 .0294648
695.545 .0294476
696.284 .0294307
697.022 .0294140
697.761 .0293975
698.499 .0293813
699.237 .0293654
699.975 .0293496
700.713 .0293341
701.450 .0293187
702.187 .0293035
702.924 .0292885
703.661 .0292736
704.397 .0292588
705.133 .0292442
705.869 .0292297
706.605 .0292153
707.341 .0292011
708.076 .0291870
708.811 .0291731
709.546 .0291594
710.281 .0291460
711.015 .0291328
711.749 .0291199
712.483 .0291073
713.217 .0290950
713.950 .0290828
714.684 .0290709
715.417 .0290590
716.150 .0290473
716.882 .0290356
717.615 .0290239
718.347 .0290122
719.079 .0290005
719.811 .0289887
720.542 .0289768
721.273 .0289647
722.005 .0289524
722.735 .0289400
723.466 .0289273
724.196 .0289146
724.927 .0289018
725.656 .0288890
726.386 .0288762
727.116 .0288635
727.845 .0288510
728.574 .0288387
729.303 .0288265
730.031 .0288146
730.760 .0288031
731.488 .0287918
732.216 .0287809
732.944 .0287704
733.671 .0287602
734.398 .0287504
735.125 .0287409
735.852 .0287317
736.579 .0287226
737.305 .0287137
738.031 .0287050
738.757 .0286963
739.483 .0286877
740.208 .0286792
740.933 .0286708
741.658 .0286623
742.383 .0286537
743.108 .0286449
743.832 .0286359
744.556 .0286265
745.280 .0286168
746.004 .0286066
746.727 .0285959
747.450 .0285847
748.173 .0285728
748.896 .0285604
749.618 .0285473
750.340 .0285334
751.062 .0285189
751.784 .0285036
752.506 .0284877
753.227 .0284711
753.948 .0284540
754.669 .0284364
755.389 .0284183
756.110 .0283998
756.830 .0283810
757.550 .0283619
758.269 .0283427
758.989 .0283233
759.708 .0283038
760.427 .0282842
761.146 .0282646
761.864 .0282450
762.582 .0282254
763.300 .0282058
764.018 .0281862
764.736 .0281667
765.453 .0281472
766.170 .0281279
766.887 .0281087
767.603 .0280898
768.320 .0280710
769.036 .0280526
769.751 .0280344
770.467 .0280166
771.182 .0279990
771.897 .0279816
772.612 .0279645
773.327 .0279476
774.041 .0279309
774.755 .0279144
775.469 .0278982
776.183 .0278822
776.896 .0278665
777.609 .0278512
778.322 .0278362
779.035 .0278216
779.747 .0278072
780.459 .0277932
781.171 .0277795
781.882 .0277661
782.594 .0277529
783.305 .0277398
784.016 .0277270
784.726 .0277143
785.436 .0277017
786.147 .0276835
786.856 .0276712
787.566 .0276591
788.275 .0276472
788.984 .0276354
789.693 .0276236
790.401 .0276118
791.110 .0276000
791.818 .0275880
792.525 .0275758
793.233 .0275635
793.940 .0275509
794.647 .0275440
795.353 .0275314
796.060 .0275187
796.766 .0275061
797.472 .0274934
798.177 .0274808
798.883 .0274681
799.588 .0274553
800.292 .0274425
800.997 .0274296
801.701 .0274166
802.405 .0274036
803.109 .0273905
803.812 .0273775
804.515 .0273645
805.218 .0273515
805.921 .0273385
806.623 .0273255
807.325 .0273125
808.027 .0272995
808.728 .0272866
809.429 .0272738
810.130 .0272611
810.831 .0272486
811.531 .0272363
812.231 .0272242
812.931 .0272124
813.630 .0272007
814.330 .0271893
815.029 .0271782
815.727 .0271675
816.426 .0271572
817.124 .0271475
817.821 .0271384
818.519 .0271300
819.216 .0271224
819.913 .0271156
820.609 .0271096
821.306 .0271043
822.002 .0270997
822.697 .0270958
823.393 .0270925
824.088 .0270899
824.783 .0270880
825.477 .0270868
826.171 .0270862
826.865 .0270861
827.559 .0270865
828.252 .0270874
828.945 .0270887
829.638 .0270903
830.330 .0270922
831.023 .0270943
831.714 .0270966
832.406 .0270990
833.097 .0271016
833.788 .0271043
834.479 .0271069
835.169 .0271096
835.859 .0271123
836.548 .0271150
837.238 .0271177
837.927 .0271204
838.615 .0271230
839.304 .0271256
839.992 .0271282
840.680 .0271307
841.367 .0271332
842.054 .0271356
842.741 .0271379
843.428 .0271402
844.114 .0271423
844.800 .0271444
845.485 .0271462
846.170 .0271478
846.855 .0271492
847.540 .0271502
848.224 .0271508
848.908 .0271509
849.592 .0271505
850.275 .0271496
850.958 .0271481
851.641 .0271460
852.323 .0271433
853.005 .0271399
853.687 .0271357
854.368 .0271308
855.049 .0271252
855.730 .0271188
856.410 .0271117
857.090 .0271039
857.769 .0270954
858.449 .0270862
859.128 .0270765
859.806 .0270662
860.485 .0270554
861.163 .0270442
861.840 .0270326
862.518 .0270207
863.195 .0270087
863.871 .0269965
864.548 .0269842
865.224 .0269719
865.899 .0269596
866.574 .0269474
867.249 .0269353
867.924 .0269234
868.598 .0269117
869.272 .0269002
869.946 .0268892
870.619 .0268785
871.292 .0268683
871.964 .0268585
872.636 .0268491
873.308 .0268401
873.979 .0268314
874.651 .0268231
875.321 .0268150
875.992 .0268071
876.662 .0267995
877.331 .0267920
878.001 .0267846
878.670 .0267774
879.338 .0267701
880.007 .0267628
880.675 .0267555
881.342 .0267479
882.009 .0267402
882.676 .0267323
883.343 .0267242
884.009 .0267160
884.675 .0267077
885.340 .0266993
886.005 .0266908
886.670 .0266821
887.334 .0266733
887.998 .0266644
888.662 .0266553
889.325 .0266461
889.988 .0266367
890.650 .0266272
891.312 .0266176
891.974 .0266079
892.636 .0265981
893.297 .0265882
893.957 .0265781
894.618 .0265679
895.278 .0265575
895.937 .0265468
896.596 .0265358
897.255 .0265245
897.914 .0265127
898.572 .0265004
899.230 .0264875
899.887 .0264741
900.544 .0264600
901.201 .0264452
901.857 .0264194
902.513 .0264027
903.168 .0263852
903.823 .0263670
904.478 .0263479
905.132 .0263280
905.786 .0263071
906.440 .0262855
907.093 .0262630
907.746 .0262398
908.399 .0262159
909.051 .0261914
909.703 .0261664
910.354 .0261528
911.005 .0261275
911.656 .0261019
912.306 .0260760
912.956 .0260500
913.605 .0260239
914.254 .0259977
914.903 .0259716
915.551 .0259455
916.199 .0259197
916.847 .0258939
917.494 .0258684
918.141 .0258430
918.788 .0258178
919.434 .0257927
920.079 .0257676
920.725 .0257425
921.370 .0257173
922.014 .0256920
922.658 .0256665
923.302 .0256409
923.946 .0256151
924.589 .0255892
925.231 .0255632
925.873 .0255370
926.515 .0255109
927.157 .0254846
927.798 .0254583
928.439 .0254319
929.079 .0254056
929.719 .0253793
930.359 .0253532
930.998 .0253272
931.637 .0253016
932.275 .0252765
932.913 .0252518
933.551 .0252278
934.188 .0252043
934.825 .0251816
935.462 .0251595
936.098 .0251382
936.733 .0251176
937.369 .0250978
938.004 .0250789
938.638 .0250608
939.273 .0250436
939.907 .0250274
940.540 .0250120
941.173 .0249976
941.806 .0249841
942.438 .0249714
943.070 .0249595
943.702 .0249483
944.333 .0249377
944.964 .0249276
945.594 .0249180
946.224 .0249087
946.854 .0248997
947.483 .0248909
948.112 .0248821
948.741 .0248735
949.369 .0248649
949.996 .0248563
950.624 .0248476
951.251 .0248389
951.878 .0248302
952.504 .0248214
953.130 .0248125
953.755 .0248035
954.380 .0247946
955.005 .0247857
955.629 .0247768
956.253 .0247680
956.877 .0247593
957.500 .0247508
958.123 .0247424
958.746 .0247341
959.368 .0247262
959.990 .0247185
960.611 .0247111
961.232 .0247041
961.853 .0246976
962.473 .0246915
963.093 .0246858
963.712 .0246805
964.331 .0246757
964.950 .0246712
965.569 .0246671
966.187 .0246633
966.804 .0246599
967.422 .0246568
968.039 .0246540
968.655 .0246516
969.272 .0246496
969.887 .0246478
970.503 .0246464
971.118 .0246451
971.733 .0246440
972.347 .0246431
972.961 .0246424
973.575 .0246418
974.188 .0246414
974.801 .0246411
975.414 .0246410
976.026 .0246410
976.638 .0246410
977.250 .0246411
977.861 .0246411
978.472 .0246410
979.083 .0246409
979.693 .0246407
980.303 .0246404
980.912 .0246398
981.521 .0246395
982.130 .0246394
982.738 .0246393
983.346 .0246393
983.954 .0246395
984.562 .0246397
985.169 .0246402
985.775 .0246408
986.382 .0246418
986.988 .0246431
987.594 .0246449
988.199 .0246472
988.804 .0246500
989.409 .0246531
990.013 .0246568
990.617 .0246611
991.221 .0246659
991.824 .0246712
992.427 .0246769
993.030 .0246830
993.632 .0246894
994.234 .0246961
994.836 .0247032
995.438 .0247106
996.039 .0247183
996.640 .0247264
997.240 .0247349
997.840 .0247439
998.440 .0247534
999.040 .0247634
999.639 .0247738
1000.238 .0247846
1000.836 .0247958
1001.435 .0248072
1002.033 .0248190
1002.630 .0248309
1003.228 .0248431
1003.825 .0248555
1004.422 .0248681
1005.018 .0248808
1005.614 .0248937
1006.210 .0249068
1006.806 .0249198
1007.401 .0249328
1007.996 .0249459
1008.591 .0249588
1009.186 .0249717
1009.780 .0249845
1010.374 .0249973
1010.967 .0250103
1011.561 .0250233
1012.154 .0250365
1012.746 .0250498
1013.339 .0250634
1013.931 .0250771
1014.523 .0250909
1015.115 .0251048
1015.706 .0251186
1016.298 .0251323
1016.888 .0251461
1017.479 .0251598
1018.069 .0251735
1018.660 .0251873
1019.250 .0252011
1019.839 .0252150
1020.429 .0252290
1021.018 .0252430
1021.607 .0252571
1022.195 .0252712
1022.784 .0252853
1023.372 .0252993
1023.960 .0253135
1024.547 .0253278
1025.135 .0253422
1025.722 .0253569
1026.309 .0253717
1026.896 .0253867
1027.483 .0254017
1028.069 .0254168
1028.655 .0254317
1029.241 .0254464
1029.827 .0254607
1030.412 .0254746
1030.997 .0254881
1031.582 .0255012
1032.167 .0255138
1032.752 .0255261
1033.336 .0255380
1033.921 .0255495
1034.505 .0255607
1035.089 .0255714
1035.672 .0255817
1036.256 .0255915
1036.839 .0256008
1037.422 .0256096
1038.005 .0256179
1038.588 .0256259
1039.171 .0256336
1039.753 .0256411
1040.335 .0256484
1040.918 .0256555
1041.500 .0256624
1042.081 .0256691
1042.663 .0256754
1043.244 .0256812
1043.826 .0256865
1044.407 .0256913
1044.988 .0256957
1045.569 .0256997
1046.150 .0257035
1046.730 .0257072
1047.311 .0257110
1047.891 .0257149
1048.471 .0257189
1049.052 .0257229
1049.632 .0257269
1050.211 .0257309
1050.791 .0257346
1051.371 .0257382
1051.950 .0257416
1052.530 .0257448
1053.109 .0257480
1053.688 .0257509
1054.268 .0257537
1054.847 .0257561
1055.426 .0257580
1056.005 .0257594
1056.583 .0257601
1057.162 .0257600
1057.741 .0257590
1058.319 .0257574
1058.898 .0257550
1059.476 .0257523
1060.055 .0257491
1060.633 .0257458
1061.211 .0257424
1061.790 .0257388
1062.368 .0257353
1062.946 .0257317
1063.524 .0257280
1064.102 .0257242
1064.680 .0257201
1065.258 .0257158
1065.836 .0257111
1066.414 .0257063
1066.992 .0257013
1067.570 .0256962
1068.148 .0256910
1068.726 .0256858
1069.304 .0256805
1069.882 .0256751
1070.460 .0256698
1071.038 .0256643
1071.616 .0256588
1072.194 .0256533
1072.772 .0256479
1073.350 .0256428
1073.928 .0256380
1074.506 .0256337
1075.084 .0256300
1075.662 .0256270
1076.240 .0256246
1076.819 .0256228
1077.397 .0256217
1077.976 .0256209
1078.554 .0256205
1079.133 .0256204
1079.711 .0256205
1080.290 .0256207
1080.869 .0256212
1081.448 .0256220
1082.027 .0256231
1082.606 .0256246
1083.185 .0256265
1083.764 .0256288
1084.343 .0256314
1084.923 .0256343
1085.502 .0256375
1086.082 .0256409
1086.662 .0256444
1087.242 .0256481
1087.822 .0256519
1088.402 .0256559
1088.983 .0256599
1089.563 .0256639
1090.144 .0256679
1090.725 .0256717
1091.306 .0256753
1091.887 .0256787
1092.469 .0256817
1093.050 .0256844
1093.632 .0256868
1094.214 .0256891
1094.796 .0256912
1095.379 .0256930
1095.961 .0256947
1096.544 .0256962
1097.127 .0256976
1097.710 .0256990
1098.294 .0257003
1098.877 .0257019
1099.461 .0257038
1100.046 .0257062
1100.630 .0257093
1101.215 .0257129
1101.800 .0257172
1102.385 .0257219
1102.970 .0257270
1103.556 .0257324
1104.142 .0257382
1104.728 .0257444
1105.315 .0257510
1105.902 .0257583
1106.489 .0257661
1107.077 .0257747
1107.664 .0257838
1108.253 .0257935
1108.841 .0258036
1109.430 .0258138
1110.019 .0258240
1110.609 .0258343
1111.198 .0258448
1111.789 .0258553
1112.379 .0258663
1112.970 .0258778
1113.561 .0258897
1114.153 .0259020
1114.745 .0259148
1115.338 .0259280
1115.931 .0259414
1116.524 .0259549
1117.117 .0259684
1117.712 .0259822
1118.306 .0259963
1118.901 .0260109
1119.496 .0260264
1120.092 .0260431
1120.689 .0260610
1121.285 .0260804
1121.882 .0261014
1122.480 .0261245
1123.078 .0261499
1123.677 .0261779
1124.276 .0262087
1124.875 .0262428
1125.476 .0262803
1126.076 .0263212
1126.677 .0263655
1127.279 .0264131
1127.881 .0264637
1128.484 .0265172
1129.087 .0265353
1129.691 .0265933
1130.295 .0266540
1130.900 .0267175
1131.505 .0267839
1132.111 .0268529
1132.718 .0269246
1133.325 .0269997
1133.933 .0270785
1134.541 .0271592
1135.150 .0272391
1135.760 .0273247
1136.370 .0274261
1136.981 .0275562
1137.592 .0276473
1138.204 .0277381
1138.817 .0278278
1139.431 .0279201
1140.045 .0280107
1140.660 .0281070
1141.275 .0282149
1141.891 .0283402
1142.508 .0284169
1143.126 .0284195
1143.744 .0286152
1144.363 .0290937
1144.983 .0293855
