Measurement Sequence started on: 15-12-46-377
Integration time: 28
Scans to Average: 2 
>>>>>Begin Spectral Data<<<<<
432.689 .0000100
433.621 .0000100
434.552 .0000100
435.482 .0000100
436.410 .0000100
437.337 .0000100
438.262 .0257642
439.187 .0544846
440.110 .0901799
441.031 .1304614
441.952 .1043986
442.871 .1089763
443.789 .1132201
444.705 .1172007
445.621 .1209666
446.535 .1245546
447.447 .1266373
448.359 .1270818
449.269 .1255395
450.178 .1217838
451.086 .1158871
451.993 .1082988
452.898 .0997610
453.803 .0911138
454.706 .0830712
455.608 .0760800
456.508 .0702902
457.408 .0663681
458.306 .0633556
459.204 .0609134
460.100 .0588729
460.995 .0571379
461.888 .0556398
462.781 .0543320
463.673 .0531791
464.563 .0521553
465.452 .0512392
466.340 .0504148
467.228 .0496697
468.114 .0489958
468.999 .0483863
469.882 .0478358
470.765 .0473391
471.647 .0468928
472.528 .0464912
473.407 .0461300
474.286 .0458050
475.163 .0455130
476.040 .0452510
476.915 .0450172
477.790 .0448100
478.663 .0446287
479.535 .0444721
480.407 .0443398
481.277 .0442300
482.147 .0441410
483.015 .0440702
483.883 .0440155
484.749 .0439746
485.615 .0439464
486.479 .0439297
487.343 .0439250
488.206 .0439335
489.067 .0439562
489.928 .0439942
490.788 .0440489
491.647 .0441206
492.505 .0442098
493.362 .0443160
494.218 .0444387
495.073 .0445774
495.928 .0448478
496.781 .0450297
497.634 .0452298
498.486 .0454493
499.337 .0456895
500.187 .0459521
501.036 .0462387
501.884 .0465517
502.731 .0468936
503.578 .0472669
504.424 .0475176
505.268 .0479501
506.113 .0484240
506.956 .0489435
507.798 .0495136
508.640 .0501413
509.480 .0508347
510.320 .0516028
511.160 .0524566
511.998 .0534084
512.836 .0544724
513.672 .0556644
514.508 .0570018
515.344 .0585033
516.178 .0601882
517.012 .0620772
517.845 .0641883
518.677 .0665400
519.508 .0691449
520.339 .0720086
521.169 .0751369
521.998 .0785109
522.826 .0821045
523.654 .0858756
524.481 .0897719
525.307 .0937309
526.133 .0976798
526.958 .1015379
527.782 .1052243
528.605 .1086628
529.428 .1117836
530.250 .1145204
531.072 .1168297
531.892 .1186729
532.712 .1200249
533.532 .1208712
534.350 .1212062
535.168 .1210323
535.986 .1203570
536.802 .1191878
537.618 .1175357
538.434 .1154105
539.249 .1128453
540.063 .1098789
540.876 .1065638
541.689 .1029620
542.501 .0991425
543.313 .0951805
544.124 .0911578
544.934 .0871528
545.744 .0832361
546.553 .0794706
547.361 .0759114
548.169 .0725893
548.976 .0695287
549.783 .0667384
550.589 .0642158
551.395 .0619470
552.200 .0599117
553.004 .0580827
553.808 .0564373
554.611 .0549549
555.414 .0536155
556.216 .0524007
557.018 .0512938
557.819 .0502790
558.619 .0493418
559.419 .0484706
560.218 .0476562
561.017 .0468900
561.815 .0461657
562.613 .0454783
563.410 .0448221
564.207 .0441934
565.003 .0435886
565.799 .0430038
566.594 .0424362
567.388 .0418830
568.182 .0413425
568.976 .0408139
569.769 .0402970
570.562 .0397924
571.354 .0393012
572.145 .0388247
572.936 .0383639
573.727 .0379188
574.517 .0374902
575.307 .0370784
576.096 .0366834
576.885 .0363053
577.673 .0359440
578.461 .0355993
579.248 .0352717
580.035 .0349614
580.821 .0346684
581.607 .0343925
582.392 .0341336
583.177 .0338913
583.962 .0336654
584.746 .0334551
585.529 .0332600
586.313 .0330795
587.095 .0329128
587.878 .0327592
588.660 .0326179
589.441 .0324882
590.222 .0323692
591.003 .0322601
591.783 .0321599
592.563 .0320675
593.342 .0319822
594.121 .0319030
594.899 .0318291
595.678 .0317598
596.455 .0316943
597.233 .0316322
598.009 .0315729
598.786 .0315160
599.562 .0314611
600.338 .0314078
601.113 .0313560
601.888 .0312826
602.663 .0312339
603.437 .0311864
604.211 .0311402
604.984 .0310950
605.757 .0310509
606.530 .0310078
607.302 .0309657
608.074 .0309246
608.845 .0308843
609.616 .0308451
610.387 .0308273
611.158 .0307894
611.928 .0307525
612.697 .0307167
613.467 .0306819
614.236 .0306481
615.004 .0306155
615.773 .0305840
616.541 .0305536
617.308 .0305244
618.076 .0304964
618.843 .0304695
619.609 .0304438
620.375 .0304191
621.141 .0303953
621.907 .0303725
622.672 .0303506
623.437 .0303297
624.202 .0303099
624.966 .0302912
625.730 .0302735
626.493 .0302568
627.257 .0302409
628.020 .0302259
628.782 .0302114
629.545 .0301974
630.307 .0301837
631.068 .0301701
631.830 .0301566
632.591 .0301432
633.352 .0301299
634.112 .0301168
634.872 .0301037
635.632 .0300908
636.392 .0300778
637.151 .0300648
637.910 .0300517
638.668 .0300384
639.427 .0300250
640.185 .0300116
640.943 .0299980
641.700 .0299845
642.457 .0299711
643.214 .0299578
643.971 .0299446
644.727 .0299315
645.483 .0299184
646.239 .0299052
646.994 .0298919
647.750 .0298784
648.505 .0298646
649.259 .0298504
650.014 .0298359
650.768 .0298209
651.521 .0298054
652.275 .0297892
653.028 .0297722
653.781 .0297544
654.534 .0297356
655.286 .0297158
656.039 .0296949
656.791 .0296730
657.542 .0296500
658.294 .0296261
659.045 .0296013
659.796 .0295756
660.546 .0295492
661.297 .0295220
662.047 .0294941
662.796 .0294658
663.546 .0294370
664.295 .0294079
665.044 .0293788
665.793 .0293497
666.542 .0293208
667.290 .0292923
668.038 .0292640
668.786 .0292362
669.533 .0292087
670.281 .0291817
671.028 .0291550
671.774 .0291288
672.521 .0291032
673.267 .0290782
674.013 .0290537
674.759 .0290297
675.505 .0290063
676.250 .0289832
676.995 .0289603
677.740 .0289377
678.484 .0289152
679.229 .0288929
679.973 .0288707
680.717 .0288489
681.460 .0288273
682.204 .0288062
682.947 .0287856
683.690 .0287654
684.433 .0287455
685.175 .0287261
685.917 .0287071
686.659 .0286885
687.401 .0286703
688.142 .0286526
688.884 .0286355
689.625 .0286188
690.365 .0286028
691.106 .0285873
691.846 .0285723
692.586 .0285579
693.326 .0285439
694.066 .0285303
694.805 .0285172
695.545 .0285046
696.284 .0284924
697.022 .0284806
697.761 .0284692
698.499 .0284582
699.237 .0284474
699.975 .0284369
700.713 .0284266
701.450 .0284166
702.187 .0284067
702.924 .0283970
703.661 .0283875
704.397 .0283783
705.133 .0283692
705.869 .0283603
706.605 .0283515
707.341 .0283429
708.076 .0283343
708.811 .0283257
709.546 .0283171
710.281 .0283085
711.015 .0282998
711.749 .0282910
712.483 .0282821
713.217 .0282729
713.950 .0282634
714.684 .0282535
715.417 .0282432
716.150 .0282324
716.882 .0282210
717.615 .0282089
718.347 .0281962
719.079 .0281829
719.811 .0281690
720.542 .0281544
721.273 .0281392
722.005 .0281232
722.735 .0281066
723.466 .0280892
724.196 .0280711
724.927 .0280523
725.656 .0280328
726.386 .0280127
727.116 .0279921
727.845 .0279710
728.574 .0279495
729.303 .0279277
730.031 .0279056
730.760 .0278832
731.488 .0278607
732.216 .0278380
732.944 .0278151
733.671 .0277921
734.398 .0277691
735.125 .0277461
735.852 .0277231
736.579 .0277002
737.305 .0276775
738.031 .0276551
738.757 .0276329
739.483 .0276110
740.208 .0275894
740.933 .0275680
741.658 .0275469
742.383 .0275260
743.108 .0275052
743.832 .0274844
744.556 .0274637
745.280 .0274429
746.004 .0274219
746.727 .0274009
747.450 .0273798
748.173 .0273587
748.896 .0273376
749.618 .0273166
750.340 .0272958
751.062 .0272751
751.784 .0272547
752.506 .0272344
753.227 .0272144
753.948 .0271944
754.669 .0271746
755.389 .0271549
756.110 .0271354
756.830 .0271161
757.550 .0270972
758.269 .0270787
758.989 .0270608
759.708 .0270435
760.427 .0270269
761.146 .0270109
761.864 .0269956
762.582 .0269809
763.300 .0269668
764.018 .0269533
764.736 .0269404
765.453 .0269281
766.170 .0269164
766.887 .0269053
767.603 .0268949
768.320 .0268851
769.036 .0268761
769.751 .0268677
770.467 .0268601
771.182 .0268532
771.897 .0268470
772.612 .0268416
773.327 .0268368
774.041 .0268328
774.755 .0268293
775.469 .0268266
776.183 .0268245
776.896 .0268231
777.609 .0268225
778.322 .0268226
779.035 .0268235
779.747 .0268252
780.459 .0268277
781.171 .0268308
781.882 .0268346
782.594 .0268389
783.305 .0268434
784.016 .0268482
784.726 .0268530
785.436 .0268578
786.147 .0268647
786.856 .0268691
787.566 .0268733
788.275 .0268773
788.984 .0268810
789.693 .0268845
790.401 .0268876
791.110 .0268903
791.818 .0268924
792.525 .0268939
793.233 .0268947
793.940 .0268947
794.647 .0268926
795.353 .0268915
796.060 .0268897
796.766 .0268871
797.472 .0268839
798.177 .0268799
798.883 .0268752
799.588 .0268697
800.292 .0268634
800.997 .0268564
801.701 .0268485
802.405 .0268399
803.109 .0268305
803.812 .0268204
804.515 .0268096
805.218 .0267981
805.921 .0267859
806.623 .0267731
807.325 .0267596
808.027 .0267454
808.728 .0267305
809.429 .0267149
810.130 .0266986
810.831 .0266816
811.531 .0266639
812.231 .0266456
812.931 .0266267
813.630 .0266072
814.330 .0265871
815.029 .0265664
815.727 .0265452
816.426 .0265236
817.124 .0265015
817.821 .0264792
818.519 .0264566
819.216 .0264339
819.913 .0264110
820.609 .0263881
821.306 .0263652
822.002 .0263423
822.697 .0263194
823.393 .0262966
824.088 .0262738
824.783 .0262512
825.477 .0262287
826.171 .0262064
826.865 .0261842
827.559 .0261623
828.252 .0261405
828.945 .0261189
829.638 .0260974
830.330 .0260762
831.023 .0260552
831.714 .0260344
832.406 .0260138
833.097 .0259934
833.788 .0259732
834.479 .0259531
835.169 .0259332
835.859 .0259135
836.548 .0258939
837.238 .0258745
837.927 .0258552
838.615 .0258361
839.304 .0258171
839.992 .0257982
840.680 .0257795
841.367 .0257609
842.054 .0257425
842.741 .0257242
843.428 .0257062
844.114 .0256884
844.800 .0256709
845.485 .0256537
846.170 .0256368
846.855 .0256202
847.540 .0256038
848.224 .0255877
848.908 .0255718
849.592 .0255561
850.275 .0255408
850.958 .0255257
851.641 .0255111
852.323 .0254968
853.005 .0254830
853.687 .0254697
854.368 .0254568
855.049 .0254443
855.730 .0254323
856.410 .0254206
857.090 .0254094
857.769 .0253986
858.449 .0253881
859.128 .0253781
859.806 .0253685
860.485 .0253595
861.163 .0253509
861.840 .0253429
862.518 .0253354
863.195 .0253285
863.871 .0253222
864.548 .0253164
865.224 .0253113
865.899 .0253067
866.574 .0253027
867.249 .0252993
867.924 .0252966
868.598 .0252946
869.272 .0252934
869.946 .0252929
870.619 .0252933
871.292 .0252943
871.964 .0252961
872.636 .0252986
873.308 .0253016
873.979 .0253052
874.651 .0253094
875.321 .0253141
875.992 .0253193
876.662 .0253251
877.331 .0253315
878.001 .0253384
878.670 .0253457
879.338 .0253534
880.007 .0253615
880.675 .0253699
881.342 .0253786
882.009 .0253876
882.676 .0253969
883.343 .0254065
884.009 .0254164
884.675 .0254265
885.340 .0254367
886.005 .0254470
886.670 .0254572
887.334 .0254674
887.998 .0254773
888.662 .0254871
889.325 .0254968
889.988 .0255062
890.650 .0255155
891.312 .0255247
891.974 .0255336
892.636 .0255423
893.297 .0255506
893.957 .0255586
894.618 .0255661
895.278 .0255731
895.937 .0255795
896.596 .0255854
897.255 .0255907
897.914 .0255953
898.572 .0255991
899.230 .0256019
899.887 .0256038
900.544 .0256045
901.201 .0256040
901.857 .0255979
902.513 .0255942
903.168 .0255893
903.823 .0255832
904.478 .0255760
905.132 .0255677
905.786 .0255582
906.440 .0255478
907.093 .0255362
907.746 .0255236
908.399 .0255101
909.051 .0254957
909.703 .0254804
910.354 .0254708
911.005 .0254546
911.656 .0254377
912.306 .0254201
912.956 .0254020
913.605 .0253832
914.254 .0253639
914.903 .0253440
915.551 .0253238
916.199 .0253031
916.847 .0252820
917.494 .0252605
918.141 .0252387
918.788 .0252166
919.434 .0251940
920.079 .0251711
920.725 .0251479
921.370 .0251243
922.014 .0251003
922.658 .0250759
923.302 .0250512
923.946 .0250261
924.589 .0250006
925.231 .0249747
925.873 .0249483
926.515 .0249215
927.157 .0248942
927.798 .0248665
928.439 .0248384
929.079 .0248101
929.719 .0247814
930.359 .0247525
930.998 .0247233
931.637 .0246940
932.275 .0246644
932.913 .0246347
933.551 .0246049
934.188 .0245749
934.825 .0245450
935.462 .0245151
936.098 .0244852
936.733 .0244555
937.369 .0244258
938.004 .0243963
938.638 .0243669
939.273 .0243377
939.907 .0243088
940.540 .0242802
941.173 .0242520
941.806 .0242242
942.438 .0241970
943.070 .0241703
943.702 .0241442
944.333 .0241187
944.964 .0240937
945.594 .0240693
946.224 .0240453
946.854 .0240218
947.483 .0239989
948.112 .0239763
948.741 .0239543
949.369 .0239327
949.996 .0239115
950.624 .0238908
951.251 .0238705
951.878 .0238505
952.504 .0238310
953.130 .0238118
953.755 .0237930
954.380 .0237746
955.005 .0237567
955.629 .0237391
956.253 .0237219
956.877 .0237050
957.500 .0236885
958.123 .0236723
958.746 .0236565
959.368 .0236412
959.990 .0236263
960.611 .0236119
961.232 .0235979
961.853 .0235845
962.473 .0235714
963.093 .0235587
963.712 .0235465
964.331 .0235346
964.950 .0235232
965.569 .0235123
966.187 .0235020
966.804 .0234923
967.422 .0234832
968.039 .0234748
968.655 .0234669
969.272 .0234595
969.887 .0234524
970.503 .0234458
971.118 .0234396
971.733 .0234337
972.347 .0234281
972.961 .0234230
973.575 .0234183
974.188 .0234139
974.801 .0234099
975.414 .0234061
976.026 .0234026
976.638 .0233991
977.250 .0233958
977.861 .0233926
978.472 .0233896
979.083 .0233869
979.693 .0233846
980.303 .0233826
980.912 .0233810
981.521 .0233799
982.130 .0233792
982.738 .0233787
983.346 .0233784
983.954 .0233785
984.562 .0233789
985.169 .0233798
985.775 .0233814
986.382 .0233836
986.988 .0233867
987.594 .0233905
988.199 .0233952
988.804 .0234006
989.409 .0234054
990.013 .0234117
990.617 .0234186
991.221 .0234261
991.824 .0234342
992.427 .0234429
993.030 .0234521
993.632 .0234620
994.234 .0234725
994.836 .0234835
995.438 .0234951
996.039 .0235070
996.640 .0235194
997.240 .0235320
997.840 .0235449
998.440 .0235581
999.040 .0235716
999.639 .0235855
1000.238 .0235999
1000.836 .0236148
1001.435 .0236303
1002.033 .0236463
1002.630 .0236629
1003.228 .0236800
1003.825 .0236974
1004.422 .0237151
1005.018 .0237329
1005.614 .0237508
1006.210 .0237689
1006.806 .0237869
1007.401 .0238051
1007.996 .0238233
1008.591 .0238416
1009.186 .0238600
1009.780 .0238785
1010.374 .0238970
1010.967 .0239153
1011.561 .0239336
1012.154 .0239517
1012.746 .0239695
1013.339 .0239871
1013.931 .0240045
1014.523 .0240218
1015.115 .0240390
1015.706 .0240562
1016.298 .0240733
1016.888 .0240903
1017.479 .0241071
1018.069 .0241237
1018.660 .0241398
1019.250 .0241555
1019.839 .0241705
1020.429 .0241850
1021.018 .0241990
1021.607 .0242126
1022.195 .0242260
1022.784 .0242392
1023.372 .0242525
1023.960 .0242658
1024.547 .0242792
1025.135 .0242927
1025.722 .0243062
1026.309 .0243196
1026.896 .0243329
1027.483 .0243461
1028.069 .0243591
1028.655 .0243718
1029.241 .0243844
1029.827 .0243968
1030.412 .0244089
1030.997 .0244208
1031.582 .0244324
1032.167 .0244437
1032.752 .0244544
1033.336 .0244646
1033.921 .0244742
1034.505 .0244832
1035.089 .0244915
1035.672 .0244992
1036.256 .0245062
1036.839 .0245126
1037.422 .0245185
1038.005 .0245238
1038.588 .0245286
1039.171 .0245328
1039.753 .0245363
1040.335 .0245391
1040.918 .0245413
1041.500 .0245426
1042.081 .0245431
1042.663 .0245428
1043.244 .0245417
1043.826 .0245398
1044.407 .0245372
1044.988 .0245340
1045.569 .0245303
1046.150 .0245260
1046.730 .0245213
1047.311 .0245162
1047.891 .0245106
1048.471 .0245046
1049.052 .0244981
1049.632 .0244912
1050.211 .0244840
1050.791 .0244765
1051.371 .0244687
1051.950 .0244607
1052.530 .0244525
1053.109 .0244442
1053.688 .0244357
1054.268 .0244270
1054.847 .0244181
1055.426 .0244090
1056.005 .0243998
1056.583 .0243906
1057.162 .0243814
1057.741 .0243723
1058.319 .0243634
1058.898 .0243547
1059.476 .0243463
1060.055 .0243379
1060.633 .0243295
1061.211 .0243211
1061.790 .0243124
1062.368 .0243035
1062.946 .0242942
1063.524 .0242846
1064.102 .0242746
1064.680 .0242643
1065.258 .0242537
1065.836 .0242429
1066.414 .0242319
1066.992 .0242207
1067.570 .0242092
1068.148 .0241973
1068.726 .0241851
1069.304 .0241725
1069.882 .0241597
1070.460 .0241467
1071.038 .0241335
1071.616 .0241204
1072.194 .0241073
1072.772 .0240945
1073.350 .0240818
1073.928 .0240693
1074.506 .0240569
1075.084 .0240444
1075.662 .0240319
1076.240 .0240191
1076.819 .0240062
1077.397 .0239933
1077.976 .0239804
1078.554 .0239678
1079.133 .0239555
1079.711 .0239437
1080.290 .0239324
1080.869 .0239217
1081.448 .0239113
1082.027 .0239013
1082.606 .0238916
1083.185 .0238821
1083.764 .0238728
1084.343 .0238638
1084.923 .0238551
1085.502 .0238470
1086.082 .0238397
1086.662 .0238330
1087.242 .0238271
1087.822 .0238219
1088.402 .0238173
1088.983 .0238129
1089.563 .0238088
1090.144 .0238048
1090.725 .0238008
1091.306 .0237968
1091.887 .0237930
1092.469 .0237894
1093.050 .0237863
1093.632 .0237836
1094.214 .0237812
1094.796 .0237789
1095.379 .0237766
1095.961 .0237741
1096.544 .0237715
1097.127 .0237688
1097.710 .0237661
1098.294 .0237638
1098.877 .0237623
1099.461 .0237620
1100.046 .0237630
1100.630 .0237656
1101.215 .0237699
1101.800 .0237758
1102.385 .0237830
1102.970 .0237912
1103.556 .0238004
1104.142 .0238104
1104.728 .0238215
1105.315 .0238335
1105.902 .0238466
1106.489 .0238611
1107.077 .0238767
1107.664 .0238935
1108.253 .0239111
1108.841 .0239294
1109.430 .0239480
1110.019 .0239668
1110.609 .0239859
1111.198 .0240055
1111.789 .0240261
1112.379 .0240482
1112.970 .0240724
1113.561 .0240990
1114.153 .0241282
1114.745 .0241601
1115.338 .0241945
1115.931 .0242313
1116.524 .0242700
1117.117 .0243103
1117.712 .0243522
1118.306 .0243955
1118.901 .0244403
1119.496 .0244867
1120.092 .0245349
1120.689 .0245846
1121.285 .0246357
1121.882 .0246877
1122.480 .0247404
1123.078 .0247932
1123.677 .0248459
1124.276 .0248984
1124.875 .0249509
1125.476 .0250034
1126.076 .0250565
1126.677 .0251105
1127.279 .0251659
1127.881 .0252227
1128.484 .0252814
1129.087 .0253136
1129.691 .0253748
1130.295 .0254373
1130.900 .0255008
1131.505 .0255654
1132.111 .0256311
1132.718 .0256982
1133.325 .0257675
1133.933 .0258407
1134.541 .0259134
1135.150 .0259847
1135.760 .0260657
1136.370 .0261600
1136.981 .0260575
1137.592 .0261286
1138.204 .0262101
1138.817 .0262996
1139.431 .0264008
1140.045 .0265054
1140.660 .0266242
1141.275 .0267626
1141.891 .0269535
1142.508 .0270144
1143.126 .0270541
1143.744 .0274014
1144.363 .0278541
1144.983 .0290490
