Measurement Sequence started on: 15-12-46-377
Integration time: 28
Scans to Average: 2 
>>>>>Begin Spectral Data<<<<<
432.689 .0000100
433.621 .0000100
434.552 .0000100
435.482 .0000100
436.410 .0000100
437.337 .0000100
438.262 .0272927
439.187 .0578044
440.110 .0956871
441.031 .1384114
441.952 .1105886
442.871 .1154398
443.789 .1199517
444.705 .1241959
445.621 .1282232
446.535 .1320710
447.447 .1343293
448.359 .1348482
449.269 .1332569
450.178 .1293122
451.086 .1230933
451.993 .1150763
452.898 .1060490
453.803 .0969052
454.706 .0884046
455.608 .0810175
456.508 .0749016
457.408 .0707572
458.306 .0675677
459.204 .0649653
460.100 .0627673
460.995 .0608693
461.888 .0592025
462.781 .0577195
463.673 .0563862
464.563 .0551795
465.452 .0540823
466.340 .0530802
467.228 .0521636
468.114 .0513238
468.999 .0505534
469.882 .0498464
470.765 .0491975
471.647 .0486026
472.528 .0480592
473.407 .0475640
474.286 .0471152
475.163 .0467103
476.040 .0463469
476.915 .0460220
477.790 .0457330
478.663 .0454780
479.535 .0452543
480.407 .0450602
481.277 .0448940
482.147 .0447537
483.015 .0446378
483.883 .0445448
484.749 .0444729
485.615 .0444205
486.479 .0443864
487.343 .0443696
488.206 .0443698
489.067 .0443866
489.928 .0444208
490.788 .0444729
491.647 .0445444
492.505 .0446365
493.362 .0447499
494.218 .0448855
495.073 .0450437
495.928 .0453623
496.781 .0455784
497.634 .0458175
498.486 .0460795
499.337 .0463655
500.187 .0466771
501.036 .0470164
501.884 .0473867
502.731 .0477925
503.578 .0482379
504.424 .0485433
505.268 .0490641
506.113 .0496364
506.956 .0502631
507.798 .0509489
508.640 .0516965
509.480 .0525124
510.320 .0534058
511.160 .0543873
511.998 .0554708
512.836 .0566764
513.672 .0580230
514.508 .0595323
515.344 .0612269
516.178 .0631290
517.012 .0652575
517.845 .0676310
518.677 .0702635
519.508 .0731650
520.339 .0763401
521.169 .0797909
521.998 .0834943
522.826 .0874251
523.654 .0915381
524.481 .0957756
525.307 .1000702
526.133 .1043446
526.958 .1085113
527.782 .1124830
528.605 .1161759
529.428 .1195129
530.250 .1224216
531.072 .1248560
531.892 .1267754
532.712 .1281562
533.532 .1289869
534.350 .1292670
535.168 .1290025
535.986 .1282071
536.802 .1268916
537.618 .1250677
538.434 .1227470
539.249 .1199621
540.063 .1167480
540.876 .1131571
541.689 .1092557
542.501 .1051178
543.313 .1008269
544.124 .0964736
544.934 .0921432
545.744 .0879153
546.553 .0838595
547.361 .0800330
548.169 .0764672
548.976 .0731849
549.783 .0701897
550.589 .0674731
551.395 .0650178
552.200 .0627998
553.004 .0607906
553.808 .0589669
554.611 .0573081
555.414 .0557960
556.216 .0544158
557.018 .0531538
557.819 .0519979
558.619 .0509356
559.419 .0499558
560.218 .0490480
561.017 .0482021
561.815 .0474096
562.613 .0466631
563.410 .0459552
564.207 .0452806
565.003 .0446342
565.799 .0440120
566.594 .0434112
567.388 .0428298
568.182 .0422662
568.976 .0417193
569.769 .0411887
570.562 .0406742
571.354 .0401759
572.145 .0396946
572.936 .0392300
573.727 .0387818
574.517 .0383496
575.307 .0379332
576.096 .0375320
576.885 .0371463
577.673 .0367766
578.461 .0364235
579.248 .0360881
580.035 .0357708
580.821 .0354721
581.607 .0351917
582.392 .0349295
583.177 .0346844
583.962 .0344556
584.746 .0342418
585.529 .0340420
586.313 .0338549
587.095 .0336801
587.878 .0335166
588.660 .0333642
589.441 .0332226
590.222 .0330915
591.003 .0329707
591.783 .0328596
592.563 .0327576
593.342 .0326637
594.121 .0325772
594.899 .0324969
595.678 .0324219
596.455 .0323514
597.233 .0322847
598.009 .0322215
598.786 .0321615
599.562 .0321046
600.338 .0320504
601.113 .0319990
601.888 .0319284
602.663 .0318821
603.437 .0318376
604.211 .0317948
604.984 .0317533
605.757 .0317131
606.530 .0316740
607.302 .0316360
608.074 .0315993
608.845 .0315638
609.616 .0315297
610.387 .0315162
611.158 .0314843
611.928 .0314537
612.697 .0314245
613.467 .0313967
614.236 .0313701
615.004 .0313447
615.773 .0313203
616.541 .0312967
617.308 .0312739
618.076 .0312518
618.843 .0312301
619.609 .0312088
620.375 .0311878
621.141 .0311668
621.907 .0311457
622.672 .0311246
623.437 .0311031
624.202 .0310814
624.966 .0310594
625.730 .0310370
626.493 .0310141
627.257 .0309908
628.020 .0309670
628.782 .0309426
629.545 .0309176
630.307 .0308921
631.068 .0308662
631.830 .0308401
632.591 .0308138
633.352 .0307875
634.112 .0307613
634.872 .0307354
635.632 .0307098
636.392 .0306846
637.151 .0306596
637.910 .0306350
638.668 .0306108
639.427 .0305869
640.185 .0305634
640.943 .0305403
641.700 .0305177
642.457 .0304955
643.214 .0304739
643.971 .0304528
644.727 .0304321
645.483 .0304120
646.239 .0303923
646.994 .0303730
647.750 .0303540
648.505 .0303352
649.259 .0303166
650.014 .0302979
650.768 .0302790
651.521 .0302600
652.275 .0302408
653.028 .0302212
653.781 .0302014
654.534 .0301815
655.286 .0301614
656.039 .0301411
656.791 .0301207
657.542 .0301001
658.294 .0300795
659.045 .0300586
659.796 .0300376
660.546 .0300164
661.297 .0299951
662.047 .0299736
662.796 .0299520
663.546 .0299302
664.295 .0299083
665.044 .0298863
665.793 .0298644
666.542 .0298425
667.290 .0298208
668.038 .0297993
668.786 .0297780
669.533 .0297568
670.281 .0297357
671.028 .0297147
671.774 .0296937
672.521 .0296727
673.267 .0296516
674.013 .0296307
674.759 .0296098
675.505 .0295892
676.250 .0295687
676.995 .0295485
677.740 .0295286
678.484 .0295088
679.229 .0294893
679.973 .0294700
680.717 .0294509
681.460 .0294321
682.204 .0294136
682.947 .0293952
683.690 .0293771
684.433 .0293592
685.175 .0293414
685.917 .0293236
686.659 .0293060
687.401 .0292885
688.142 .0292711
688.884 .0292538
689.625 .0292367
690.365 .0292197
691.106 .0292028
691.846 .0291859
692.586 .0291690
693.326 .0291520
694.066 .0291348
694.805 .0291175
695.545 .0291001
696.284 .0290827
697.022 .0290654
697.761 .0290482
698.499 .0290312
699.237 .0290145
699.975 .0289981
700.713 .0289821
701.450 .0289665
702.187 .0289512
702.924 .0289363
703.661 .0289217
704.397 .0289075
705.133 .0288937
705.869 .0288803
706.605 .0288673
707.341 .0288547
708.076 .0288425
708.811 .0288306
709.546 .0288192
710.281 .0288080
711.015 .0287970
711.749 .0287863
712.483 .0287756
713.217 .0287650
713.950 .0287544
714.684 .0287436
715.417 .0287327
716.150 .0287214
716.882 .0287096
717.615 .0286974
718.347 .0286846
719.079 .0286712
719.811 .0286573
720.542 .0286428
721.273 .0286278
722.005 .0286122
722.735 .0285962
723.466 .0285798
724.196 .0285629
724.927 .0285457
725.656 .0285282
726.386 .0285104
727.116 .0284926
727.845 .0284747
728.574 .0284569
729.303 .0284394
730.031 .0284223
730.760 .0284055
731.488 .0283892
732.216 .0283733
732.944 .0283579
733.671 .0283429
734.398 .0283284
735.125 .0283144
735.852 .0283008
736.579 .0282876
737.305 .0282749
738.031 .0282626
738.757 .0282507
739.483 .0282392
740.208 .0282279
740.933 .0282170
741.658 .0282063
742.383 .0281957
743.108 .0281853
743.832 .0281750
744.556 .0281647
745.280 .0281543
746.004 .0281438
746.727 .0281331
747.450 .0281221
748.173 .0281108
748.896 .0280991
749.618 .0280871
750.340 .0280747
751.062 .0280619
751.784 .0280486
752.506 .0280348
753.227 .0280205
753.948 .0280058
754.669 .0279907
755.389 .0279750
756.110 .0279590
756.830 .0279426
757.550 .0279258
758.269 .0279087
758.989 .0278913
759.708 .0278737
760.427 .0278558
761.146 .0278377
761.864 .0278193
762.582 .0278009
763.300 .0277822
764.018 .0277635
764.736 .0277446
765.453 .0277257
766.170 .0277068
766.887 .0276880
767.603 .0276694
768.320 .0276510
769.036 .0276331
769.751 .0276156
770.467 .0275985
771.182 .0275821
771.897 .0275663
772.612 .0275511
773.327 .0275366
774.041 .0275228
774.755 .0275098
775.469 .0274977
776.183 .0274864
776.896 .0274759
777.609 .0274661
778.322 .0274572
779.035 .0274489
779.747 .0274411
780.459 .0274339
781.171 .0274272
781.882 .0274209
782.594 .0274149
783.305 .0274092
784.016 .0274038
784.726 .0273985
785.436 .0273934
786.147 .0273852
786.856 .0273798
787.566 .0273743
788.275 .0273686
788.984 .0273626
789.693 .0273564
790.401 .0273500
791.110 .0273432
791.818 .0273361
792.525 .0273286
793.233 .0273210
793.940 .0273130
794.647 .0273085
795.353 .0273003
796.060 .0272919
796.766 .0272833
797.472 .0272744
798.177 .0272654
798.883 .0272562
799.588 .0272468
800.292 .0272374
800.997 .0272278
801.701 .0272183
802.405 .0272087
803.109 .0271991
803.812 .0271895
804.515 .0271800
805.218 .0271703
805.921 .0271607
806.623 .0271509
807.325 .0271411
808.027 .0271313
808.728 .0271215
809.429 .0271116
810.130 .0271018
810.831 .0270919
811.531 .0270821
812.231 .0270723
812.931 .0270626
813.630 .0270530
814.330 .0270437
815.029 .0270346
815.727 .0270258
816.426 .0270174
817.124 .0270094
817.821 .0270018
818.519 .0269945
819.216 .0269877
819.913 .0269813
820.609 .0269755
821.306 .0269701
822.002 .0269654
822.697 .0269612
823.393 .0269577
824.088 .0269547
824.783 .0269521
825.477 .0269500
826.171 .0269481
826.865 .0269464
827.559 .0269449
828.252 .0269436
828.945 .0269424
829.638 .0269414
830.330 .0269404
831.023 .0269395
831.714 .0269385
832.406 .0269374
833.097 .0269362
833.788 .0269347
834.479 .0269330
835.169 .0269310
835.859 .0269287
836.548 .0269262
837.238 .0269233
837.927 .0269202
838.615 .0269168
839.304 .0269130
839.992 .0269088
840.680 .0269042
841.367 .0268992
842.054 .0268938
842.741 .0268880
843.428 .0268817
844.114 .0268751
844.800 .0268680
845.485 .0268603
846.170 .0268521
846.855 .0268432
847.540 .0268337
848.224 .0268235
848.908 .0268127
849.592 .0268013
850.275 .0267892
850.958 .0267765
851.641 .0267632
852.323 .0267492
853.005 .0267345
853.687 .0267192
854.368 .0267032
855.049 .0266865
855.730 .0266692
856.410 .0266512
857.090 .0266327
857.769 .0266136
858.449 .0265940
859.128 .0265740
859.806 .0265536
860.485 .0265330
861.163 .0265120
861.840 .0264909
862.518 .0264697
863.195 .0264484
863.871 .0264272
864.548 .0264060
865.224 .0263850
865.899 .0263642
866.574 .0263436
867.249 .0263233
867.924 .0263033
868.598 .0262837
869.272 .0262644
869.946 .0262456
870.619 .0262272
871.292 .0262092
871.964 .0261917
872.636 .0261746
873.308 .0261580
873.979 .0261418
874.651 .0261261
875.321 .0261108
875.992 .0260959
876.662 .0260815
877.331 .0260676
878.001 .0260541
878.670 .0260410
879.338 .0260284
880.007 .0260161
880.675 .0260043
881.342 .0259928
882.009 .0259816
882.676 .0259709
883.343 .0259605
884.009 .0259506
884.675 .0259410
885.340 .0259319
886.005 .0259231
886.670 .0259146
887.334 .0259065
887.998 .0258986
888.662 .0258910
889.325 .0258836
889.988 .0258765
890.650 .0258697
891.312 .0258633
891.974 .0258571
892.636 .0258513
893.297 .0258457
893.957 .0258404
894.618 .0258352
895.278 .0258300
895.937 .0258249
896.596 .0258198
897.255 .0258144
897.914 .0258089
898.572 .0258030
899.230 .0257968
899.887 .0257901
900.544 .0257828
901.201 .0257751
901.857 .0257606
902.513 .0257511
903.168 .0257409
903.823 .0257300
904.478 .0257185
905.132 .0257063
905.786 .0256934
906.440 .0256798
907.093 .0256657
907.746 .0256510
908.399 .0256358
909.051 .0256201
909.703 .0256041
910.354 .0255952
911.005 .0255789
911.656 .0255624
912.306 .0255456
912.956 .0255288
913.605 .0255120
914.254 .0254953
914.903 .0254787
915.551 .0254624
916.199 .0254463
916.847 .0254305
917.494 .0254149
918.141 .0253995
918.788 .0253843
919.434 .0253692
920.079 .0253545
920.725 .0253400
921.370 .0253258
922.014 .0253118
922.658 .0252982
923.302 .0252847
923.946 .0252715
924.589 .0252583
925.231 .0252452
925.873 .0252322
926.515 .0252193
927.157 .0252065
927.798 .0251939
928.439 .0251815
929.079 .0251695
929.719 .0251579
930.359 .0251467
930.998 .0251360
931.637 .0251257
932.275 .0251159
932.913 .0251067
933.551 .0250981
934.188 .0250902
934.825 .0250830
935.462 .0250765
936.098 .0250708
936.733 .0250659
937.369 .0250616
938.004 .0250579
938.638 .0250549
939.273 .0250524
939.907 .0250505
940.540 .0250492
941.173 .0250484
941.806 .0250482
942.438 .0250485
943.070 .0250492
943.702 .0250503
944.333 .0250516
944.964 .0250531
945.594 .0250548
946.224 .0250564
946.854 .0250580
947.483 .0250596
948.112 .0250609
948.741 .0250621
949.369 .0250631
949.996 .0250638
950.624 .0250643
951.251 .0250645
951.878 .0250645
952.504 .0250643
953.130 .0250639
953.755 .0250634
954.380 .0250627
955.005 .0250619
955.629 .0250611
956.253 .0250602
956.877 .0250593
957.500 .0250585
958.123 .0250577
958.746 .0250571
959.368 .0250567
959.990 .0250564
960.611 .0250564
961.232 .0250566
961.853 .0250569
962.473 .0250574
963.093 .0250580
963.712 .0250588
964.331 .0250597
964.950 .0250607
965.569 .0250619
966.187 .0250630
966.804 .0250641
967.422 .0250651
968.039 .0250659
968.655 .0250664
969.272 .0250666
969.887 .0250665
970.503 .0250661
971.118 .0250654
971.733 .0250643
972.347 .0250629
972.961 .0250610
973.575 .0250586
974.188 .0250555
974.801 .0250518
975.414 .0250474
976.026 .0250423
976.638 .0250365
977.250 .0250300
977.861 .0250229
978.472 .0250152
979.083 .0250069
979.693 .0249981
980.303 .0249886
980.912 .0249719
981.521 .0249612
982.130 .0249501
982.738 .0249386
983.346 .0249269
983.954 .0249150
984.562 .0249032
985.169 .0248916
985.775 .0248802
986.382 .0248692
986.988 .0248587
987.594 .0248487
988.199 .0248392
988.804 .0248303
989.409 .0248283
990.013 .0248204
990.617 .0248131
991.221 .0248065
991.824 .0248004
992.427 .0247950
993.030 .0247901
993.632 .0247857
994.234 .0247818
994.836 .0247783
995.438 .0247751
996.039 .0247721
996.640 .0247695
997.240 .0247670
997.840 .0247647
998.440 .0247626
999.040 .0247607
999.639 .0247588
1000.238 .0247571
1000.836 .0247554
1001.435 .0247537
1002.033 .0247518
1002.630 .0247497
1003.228 .0247472
1003.825 .0247443
1004.422 .0247409
1005.018 .0247370
1005.614 .0247326
1006.210 .0247276
1006.806 .0247220
1007.401 .0247159
1007.996 .0247094
1008.591 .0247025
1009.186 .0246953
1009.780 .0246879
1010.374 .0246803
1010.967 .0246726
1011.561 .0246649
1012.154 .0246572
1012.746 .0246496
1013.339 .0246421
1013.931 .0246348
1014.523 .0246275
1015.115 .0246205
1015.706 .0246136
1016.298 .0246069
1016.888 .0246003
1017.479 .0245940
1018.069 .0245879
1018.660 .0245819
1019.250 .0245761
1019.839 .0245705
1020.429 .0245650
1021.018 .0245598
1021.607 .0245548
1022.195 .0245500
1022.784 .0245456
1023.372 .0245417
1023.960 .0245382
1024.547 .0245352
1025.135 .0245327
1025.722 .0245307
1026.309 .0245290
1026.896 .0245276
1027.483 .0245265
1028.069 .0245254
1028.655 .0245242
1029.241 .0245231
1029.827 .0245220
1030.412 .0245209
1030.997 .0245198
1031.582 .0245188
1032.167 .0245178
1032.752 .0245168
1033.336 .0245157
1033.921 .0245143
1034.505 .0245126
1035.089 .0245105
1035.672 .0245079
1036.256 .0245050
1036.839 .0245018
1037.422 .0244984
1038.005 .0244947
1038.588 .0244910
1039.171 .0244870
1039.753 .0244828
1040.335 .0244784
1040.918 .0244735
1041.500 .0244682
1042.081 .0244625
1042.663 .0244564
1043.244 .0244500
1043.826 .0244434
1044.407 .0244370
1044.988 .0244307
1045.569 .0244247
1046.150 .0244189
1046.730 .0244135
1047.311 .0244082
1047.891 .0244031
1048.471 .0243980
1049.052 .0243929
1049.632 .0243879
1050.211 .0243829
1050.791 .0243781
1051.371 .0243736
1051.950 .0243693
1052.530 .0243653
1053.109 .0243614
1053.688 .0243575
1054.268 .0243535
1054.847 .0243493
1055.426 .0243449
1056.005 .0243403
1056.583 .0243355
1057.162 .0243308
1057.741 .0243262
1058.319 .0243218
1058.898 .0243175
1059.476 .0243134
1060.055 .0243093
1060.633 .0243051
1061.211 .0243008
1061.790 .0242964
1062.368 .0242920
1062.946 .0242875
1063.524 .0242831
1064.102 .0242788
1064.680 .0242748
1065.258 .0242710
1065.836 .0242674
1066.414 .0242641
1066.992 .0242610
1067.570 .0242580
1068.148 .0242553
1068.726 .0242528
1069.304 .0242506
1069.882 .0242487
1070.460 .0242471
1071.038 .0242460
1071.616 .0242452
1072.194 .0242448
1072.772 .0242446
1073.350 .0242445
1073.928 .0242446
1074.506 .0242446
1075.084 .0242447
1075.662 .0242448
1076.240 .0242449
1076.819 .0242452
1077.397 .0242455
1077.976 .0242460
1078.554 .0242466
1079.133 .0242473
1079.711 .0242481
1080.290 .0242489
1080.869 .0242497
1081.448 .0242507
1082.027 .0242517
1082.606 .0242530
1083.185 .0242547
1083.764 .0242569
1084.343 .0242596
1084.923 .0242630
1085.502 .0242671
1086.082 .0242721
1086.662 .0242779
1087.242 .0242845
1087.822 .0242920
1088.402 .0243003
1088.983 .0243094
1089.563 .0243192
1090.144 .0243299
1090.725 .0243415
1091.306 .0243541
1091.887 .0243676
1092.469 .0243820
1093.050 .0243975
1093.632 .0244138
1094.214 .0244309
1094.796 .0244486
1095.379 .0244668
1095.961 .0244853
1096.544 .0245041
1097.127 .0245233
1097.710 .0245427
1098.294 .0245625
1098.877 .0245829
1099.461 .0246039
1100.046 .0246254
1100.630 .0246475
1101.215 .0246699
1101.800 .0246924
1102.385 .0247149
1102.970 .0247373
1103.556 .0247596
1104.142 .0247820
1104.728 .0248047
1105.315 .0248280
1105.902 .0248522
1106.489 .0248777
1107.077 .0249047
1107.664 .0249330
1108.253 .0249627
1108.841 .0249936
1109.430 .0250255
1110.019 .0250584
1110.609 .0250922
1111.198 .0251270
1111.789 .0251630
1112.379 .0252003
1112.970 .0252391
1113.561 .0252794
1114.153 .0253212
1114.745 .0253644
1115.338 .0254087
1115.931 .0254536
1116.524 .0254989
1117.117 .0255444
1117.712 .0255901
1118.306 .0256363
1118.901 .0256831
1119.496 .0257311
1120.092 .0257804
1120.689 .0258312
1121.285 .0258834
1121.882 .0259370
1122.480 .0259919
1123.078 .0260476
1123.677 .0261042
1124.276 .0261616
1124.875 .0262198
1125.476 .0262793
1126.076 .0263407
1126.677 .0264043
1127.279 .0264707
1127.881 .0265402
1128.484 .0266130
1129.087 .0266424
1129.691 .0267191
1130.295 .0267992
1130.900 .0268827
1131.505 .0269699
1132.111 .0270611
1132.718 .0271567
1133.325 .0272572
1133.933 .0273634
1134.541 .0274763
1135.150 .0275962
1135.760 .0277187
1136.370 .0278441
1136.981 .0278464
1137.592 .0279960
1138.204 .0281486
1138.817 .0283061
1139.431 .0284673
1140.045 .0286357
1140.660 .0288107
1141.275 .0289907
1141.891 .0291910
1142.508 .0294138
1143.126 .0296485
1143.744 .0297585
1144.363 .0298861
1144.983 .0304606
