Measurement Sequence started on: 15-12-46-377
Integration time: 28
Scans to Average: 2 
>>>>>Begin Spectral Data<<<<<
432.689 .0000100
433.621 .0000100
434.552 .0000100
435.482 .0000100
436.410 .0000100
437.337 .0000100
438.262 .0261329
439.187 .0554917
440.110 .0920003
441.031 .1331815
441.952 .1073128
442.871 .1121300
443.789 .1166166
444.705 .1208407
445.621 .1248520
446.535 .1286862
447.447 .1309937
448.359 .1316246
449.269 .1302192
450.178 .1265447
451.086 .1206699
451.993 .1130465
452.898 .1044296
453.803 .0956775
454.706 .0875219
455.608 .0804199
456.508 .0745278
457.408 .0705225
458.306 .0674391
459.204 .0649267
460.100 .0628094
460.995 .0609913
461.888 .0594069
462.781 .0580097
463.673 .0567670
464.563 .0556561
465.452 .0546592
466.340 .0537623
467.228 .0529543
468.114 .0522266
468.999 .0515720
469.882 .0509829
470.765 .0504526
471.647 .0499754
472.528 .0495465
473.407 .0491611
474.286 .0488162
475.163 .0485095
476.040 .0482384
476.915 .0480002
477.790 .0477925
478.663 .0476130
479.535 .0474591
480.407 .0473278
481.277 .0472162
482.147 .0471220
483.015 .0470431
483.883 .0469779
484.749 .0469257
485.615 .0468861
486.479 .0468592
487.343 .0468447
488.206 .0468429
489.067 .0468533
489.928 .0468766
490.788 .0469130
491.647 .0469631
492.505 .0470275
493.362 .0471071
494.218 .0472033
495.073 .0473178
495.928 .0475668
496.781 .0477391
497.634 .0479373
498.486 .0481633
499.337 .0484193
500.187 .0487081
501.036 .0490319
501.884 .0493939
502.731 .0497979
503.578 .0502474
504.424 .0505720
505.268 .0511028
506.113 .0516897
506.956 .0523366
507.798 .0530485
508.640 .0538309
509.480 .0546919
510.320 .0556408
511.160 .0566877
511.998 .0578432
512.836 .0591219
513.672 .0605392
514.508 .0621117
515.344 .0638587
516.178 .0657999
517.012 .0679556
517.845 .0703479
518.677 .0729962
519.508 .0759146
520.339 .0791110
521.169 .0825899
521.998 .0863301
522.826 .0902990
523.654 .0944456
524.481 .0987051
525.307 .1030058
526.133 .1072643
526.958 .1113901
527.782 .1152965
528.605 .1189044
529.428 .1221432
530.250 .1249477
531.072 .1272763
531.892 .1290936
532.712 .1303771
533.532 .1311150
534.350 .1313029
535.168 .1309435
535.986 .1300440
536.802 .1286137
537.618 .1266640
538.434 .1242070
539.249 .1212783
540.063 .1179221
540.876 .1141985
541.689 .1101790
542.501 .1059402
543.313 .1015666
544.124 .0971482
544.934 .0927687
545.744 .0885024
546.553 .0844143
547.361 .0805597
548.169 .0769685
548.976 .0736629
549.783 .0706488
550.589 .0679193
551.395 .0654579
552.200 .0632396
553.004 .0612362
553.808 .0594221
554.611 .0577747
555.414 .0562751
556.216 .0549060
557.018 .0536523
557.819 .0525003
558.619 .0514383
559.419 .0504562
560.218 .0495463
561.017 .0486998
561.815 .0479090
562.613 .0471676
563.410 .0464688
564.207 .0458058
565.003 .0451737
565.799 .0445676
566.594 .0439828
567.388 .0434171
568.182 .0428693
568.976 .0423372
569.769 .0418205
570.562 .0413193
571.354 .0408330
572.145 .0403614
572.936 .0399043
573.727 .0394606
574.517 .0390304
575.307 .0386143
576.096 .0382120
576.885 .0378239
577.673 .0374512
578.461 .0370946
579.248 .0367548
580.035 .0364325
580.821 .0361284
581.607 .0358426
582.392 .0355754
583.177 .0353266
583.962 .0350960
584.746 .0348830
585.529 .0346873
586.313 .0345079
587.095 .0343440
587.878 .0341945
588.660 .0340585
589.441 .0339349
590.222 .0338228
591.003 .0337210
591.783 .0336285
592.563 .0335444
593.342 .0334676
594.121 .0333972
594.899 .0333322
595.678 .0332717
596.455 .0332149
597.233 .0331609
598.009 .0331092
598.786 .0330589
599.562 .0330097
600.338 .0329611
601.113 .0329127
601.888 .0328388
602.663 .0327902
603.437 .0327415
604.211 .0326930
604.984 .0326446
605.757 .0325964
606.530 .0325487
607.302 .0325017
608.074 .0324555
608.845 .0324103
609.616 .0323664
610.387 .0323478
611.158 .0323061
611.928 .0322659
612.697 .0322271
613.467 .0321899
614.236 .0321542
615.004 .0321200
615.773 .0320873
616.541 .0320561
617.308 .0320264
618.076 .0319980
618.843 .0319711
619.609 .0319454
620.375 .0319207
621.141 .0318970
621.907 .0318739
622.672 .0318513
623.437 .0318290
624.202 .0318071
624.966 .0317854
625.730 .0317639
626.493 .0317426
627.257 .0317215
628.020 .0317005
628.782 .0316796
629.545 .0316588
630.307 .0316379
631.068 .0316171
631.830 .0315961
632.591 .0315750
633.352 .0315538
634.112 .0315326
634.872 .0315114
635.632 .0314902
636.392 .0314692
637.151 .0314483
637.910 .0314278
638.668 .0314076
639.427 .0313878
640.185 .0313684
640.943 .0313494
641.700 .0313308
642.457 .0313125
643.214 .0312943
643.971 .0312762
644.727 .0312582
645.483 .0312401
646.239 .0312219
646.994 .0312036
647.750 .0311851
648.505 .0311663
649.259 .0311472
650.014 .0311277
650.768 .0311077
651.521 .0310872
652.275 .0310661
653.028 .0310444
653.781 .0310221
654.534 .0309992
655.286 .0309757
656.039 .0309517
656.791 .0309270
657.542 .0309019
658.294 .0308762
659.045 .0308500
659.796 .0308235
660.546 .0307965
661.297 .0307693
662.047 .0307417
662.796 .0307137
663.546 .0306855
664.295 .0306569
665.044 .0306281
665.793 .0305992
666.542 .0305702
667.290 .0305413
668.038 .0305127
668.786 .0304843
669.533 .0304563
670.281 .0304287
671.028 .0304015
671.774 .0303745
672.521 .0303479
673.267 .0303215
674.013 .0302954
674.759 .0302697
675.505 .0302444
676.250 .0302196
676.995 .0301952
677.740 .0301713
678.484 .0301478
679.229 .0301248
679.973 .0301022
680.717 .0300800
681.460 .0300582
682.204 .0300367
682.947 .0300155
683.690 .0299946
684.433 .0299739
685.175 .0299536
685.917 .0299336
686.659 .0299139
687.401 .0298946
688.142 .0298757
688.884 .0298572
689.625 .0298391
690.365 .0298214
691.106 .0298041
691.846 .0297870
692.586 .0297701
693.326 .0297534
694.066 .0297370
694.805 .0297209
695.545 .0297052
696.284 .0296899
697.022 .0296752
697.761 .0296610
698.499 .0296474
699.237 .0296344
699.975 .0296219
700.713 .0296098
701.450 .0295982
702.187 .0295871
702.924 .0295763
703.661 .0295659
704.397 .0295558
705.133 .0295461
705.869 .0295366
706.605 .0295274
707.341 .0295183
708.076 .0295094
708.811 .0295006
709.546 .0294918
710.281 .0294831
711.015 .0294744
711.749 .0294655
712.483 .0294563
713.217 .0294469
713.950 .0294370
714.684 .0294267
715.417 .0294160
716.150 .0294046
716.882 .0293928
717.615 .0293805
718.347 .0293677
719.079 .0293544
719.811 .0293406
720.542 .0293262
721.273 .0293111
722.005 .0292953
722.735 .0292787
723.466 .0292614
724.196 .0292433
724.927 .0292245
725.656 .0292050
726.386 .0291849
727.116 .0291642
727.845 .0291430
728.574 .0291212
729.303 .0290990
730.031 .0290763
730.760 .0290533
731.488 .0290300
732.216 .0290066
732.944 .0289831
733.671 .0289596
734.398 .0289360
735.125 .0289125
735.852 .0288889
736.579 .0288653
737.305 .0288418
738.031 .0288183
738.757 .0287949
739.483 .0287716
740.208 .0287485
740.933 .0287255
741.658 .0287026
742.383 .0286797
743.108 .0286568
743.832 .0286339
744.556 .0286108
745.280 .0285876
746.004 .0285643
746.727 .0285410
747.450 .0285177
748.173 .0284944
748.896 .0284712
749.618 .0284480
750.340 .0284250
751.062 .0284021
751.784 .0283793
752.506 .0283567
753.227 .0283342
753.948 .0283119
754.669 .0282898
755.389 .0282679
756.110 .0282462
756.830 .0282248
757.550 .0282037
758.269 .0281829
758.989 .0281624
759.708 .0281424
760.427 .0281228
761.146 .0281036
761.864 .0280849
762.582 .0280666
763.300 .0280488
764.018 .0280315
764.736 .0280147
765.453 .0279985
766.170 .0279829
766.887 .0279679
767.603 .0279535
768.320 .0279399
769.036 .0279270
769.751 .0279150
770.467 .0279038
771.182 .0278934
771.897 .0278840
772.612 .0278756
773.327 .0278681
774.041 .0278615
774.755 .0278560
775.469 .0278515
776.183 .0278480
776.896 .0278455
777.609 .0278440
778.322 .0278435
779.035 .0278439
779.747 .0278451
780.459 .0278470
781.171 .0278495
781.882 .0278524
782.594 .0278558
783.305 .0278594
784.016 .0278632
784.726 .0278672
785.436 .0278713
786.147 .0278773
786.856 .0278813
787.566 .0278851
788.275 .0278887
788.984 .0278920
789.693 .0278951
790.401 .0278977
791.110 .0278999
791.818 .0279014
792.525 .0279024
793.233 .0279027
793.940 .0279023
794.647 .0279003
795.353 .0278987
796.060 .0278964
796.766 .0278932
797.472 .0278892
798.177 .0278841
798.883 .0278781
799.588 .0278709
800.292 .0278627
800.997 .0278534
801.701 .0278429
802.405 .0278314
803.109 .0278189
803.812 .0278054
804.515 .0277908
805.218 .0277753
805.921 .0277588
806.623 .0277412
807.325 .0277227
808.027 .0277031
808.728 .0276827
809.429 .0276613
810.130 .0276393
810.831 .0276165
811.531 .0275930
812.231 .0275691
812.931 .0275447
813.630 .0275199
814.330 .0274949
815.029 .0274697
815.727 .0274444
816.426 .0274192
817.124 .0273941
817.821 .0273692
818.519 .0273445
819.216 .0273200
819.913 .0272958
820.609 .0272719
821.306 .0272482
822.002 .0272249
822.697 .0272019
823.393 .0271794
824.088 .0271574
824.783 .0271359
825.477 .0271151
826.171 .0270947
826.865 .0270748
827.559 .0270553
828.252 .0270361
828.945 .0270172
829.638 .0269984
830.330 .0269798
831.023 .0269615
831.714 .0269433
832.406 .0269254
833.097 .0269077
833.788 .0268902
834.479 .0268728
835.169 .0268555
835.859 .0268382
836.548 .0268210
837.238 .0268038
837.927 .0267865
838.615 .0267692
839.304 .0267519
839.992 .0267346
840.680 .0267172
841.367 .0266999
842.054 .0266826
842.741 .0266654
843.428 .0266482
844.114 .0266310
844.800 .0266139
845.485 .0265968
846.170 .0265797
846.855 .0265627
847.540 .0265456
848.224 .0265286
848.908 .0265116
849.592 .0264947
850.275 .0264778
850.958 .0264611
851.641 .0264444
852.323 .0264278
853.005 .0264113
853.687 .0263950
854.368 .0263788
855.049 .0263628
855.730 .0263469
856.410 .0263313
857.090 .0263160
857.769 .0263011
858.449 .0262865
859.128 .0262723
859.806 .0262586
860.485 .0262454
861.163 .0262327
861.840 .0262206
862.518 .0262092
863.195 .0261986
863.871 .0261889
864.548 .0261801
865.224 .0261722
865.899 .0261653
866.574 .0261593
867.249 .0261541
867.924 .0261498
868.598 .0261463
869.272 .0261437
869.946 .0261419
870.619 .0261409
871.292 .0261408
871.964 .0261415
872.636 .0261429
873.308 .0261449
873.979 .0261475
874.651 .0261505
875.321 .0261540
875.992 .0261579
876.662 .0261620
877.331 .0261666
878.001 .0261714
878.670 .0261766
879.338 .0261820
880.007 .0261878
880.675 .0261938
881.342 .0262000
882.009 .0262065
882.676 .0262131
883.343 .0262200
884.009 .0262271
884.675 .0262344
885.340 .0262420
886.005 .0262499
886.670 .0262581
887.334 .0262666
887.998 .0262754
888.662 .0262845
889.325 .0262939
889.988 .0263036
890.650 .0263134
891.312 .0263234
891.974 .0263334
892.636 .0263435
893.297 .0263534
893.957 .0263632
894.618 .0263726
895.278 .0263816
895.937 .0263901
896.596 .0263978
897.255 .0264047
897.914 .0264108
898.572 .0264158
899.230 .0264198
899.887 .0264227
900.544 .0264244
901.201 .0264249
901.857 .0264199
902.513 .0264172
903.168 .0264131
903.823 .0264076
904.478 .0264007
905.132 .0263923
905.786 .0263825
906.440 .0263712
907.093 .0263585
907.746 .0263445
908.399 .0263292
909.051 .0263128
909.703 .0262953
910.354 .0262841
911.005 .0262653
911.656 .0262457
912.306 .0262253
912.956 .0262042
913.605 .0261824
914.254 .0261600
914.903 .0261371
915.551 .0261137
916.199 .0260900
916.847 .0260658
917.494 .0260414
918.141 .0260165
918.788 .0259912
919.434 .0259656
920.079 .0259396
920.725 .0259132
921.370 .0258863
922.014 .0258591
922.658 .0258315
923.302 .0258035
923.946 .0257752
924.589 .0257466
925.231 .0257176
925.873 .0256883
926.515 .0256586
927.157 .0256286
927.798 .0255983
928.439 .0255677
929.079 .0255369
929.719 .0255059
930.359 .0254748
930.998 .0254436
931.637 .0254124
932.275 .0253812
932.913 .0253499
933.551 .0253187
934.188 .0252875
934.825 .0252566
935.462 .0252258
936.098 .0251954
936.733 .0251653
937.369 .0251357
938.004 .0251065
938.638 .0250780
939.273 .0250499
939.907 .0250225
940.540 .0249958
941.173 .0249698
941.806 .0249445
942.438 .0249200
943.070 .0248964
943.702 .0248737
944.333 .0248517
944.964 .0248305
945.594 .0248099
946.224 .0247899
946.854 .0247703
947.483 .0247513
948.112 .0247326
948.741 .0247145
949.369 .0246968
949.996 .0246795
950.624 .0246626
951.251 .0246461
951.878 .0246298
952.504 .0246137
953.130 .0245976
953.755 .0245817
954.380 .0245658
955.005 .0245501
955.629 .0245345
956.253 .0245192
956.877 .0245040
957.500 .0244889
958.123 .0244740
958.746 .0244592
959.368 .0244444
959.990 .0244298
960.611 .0244153
961.232 .0244009
961.853 .0243868
962.473 .0243730
963.093 .0243595
963.712 .0243464
964.331 .0243336
964.950 .0243211
965.569 .0243089
966.187 .0242970
966.804 .0242854
967.422 .0242740
968.039 .0242630
968.655 .0242522
969.272 .0242418
969.887 .0242317
970.503 .0242220
971.118 .0242126
971.733 .0242035
972.347 .0241948
972.961 .0241864
973.575 .0241784
974.188 .0241708
974.801 .0241636
975.414 .0241567
976.026 .0241503
976.638 .0241443
977.250 .0241388
977.861 .0241336
978.472 .0241289
979.083 .0241246
979.693 .0241207
980.303 .0241171
980.912 .0241136
981.521 .0241108
982.130 .0241085
982.738 .0241064
983.346 .0241048
983.954 .0241036
984.562 .0241028
985.169 .0241024
985.775 .0241026
986.382 .0241032
986.988 .0241042
987.594 .0241058
988.199 .0241079
988.804 .0241105
989.409 .0241131
990.013 .0241166
990.617 .0241208
991.221 .0241256
991.824 .0241310
992.427 .0241370
993.030 .0241435
993.632 .0241505
994.234 .0241579
994.836 .0241657
995.438 .0241738
996.039 .0241822
996.640 .0241910
997.240 .0242002
997.840 .0242099
998.440 .0242201
999.040 .0242310
999.639 .0242424
1000.238 .0242544
1000.836 .0242669
1001.435 .0242800
1002.033 .0242936
1002.630 .0243077
1003.228 .0243222
1003.825 .0243371
1004.422 .0243525
1005.018 .0243683
1005.614 .0243845
1006.210 .0244011
1006.806 .0244180
1007.401 .0244351
1007.996 .0244523
1008.591 .0244696
1009.186 .0244869
1009.780 .0245041
1010.374 .0245212
1010.967 .0245383
1011.561 .0245553
1012.154 .0245723
1012.746 .0245893
1013.339 .0246064
1013.931 .0246234
1014.523 .0246402
1015.115 .0246569
1015.706 .0246734
1016.298 .0246895
1016.888 .0247053
1017.479 .0247207
1018.069 .0247358
1018.660 .0247507
1019.250 .0247654
1019.839 .0247800
1020.429 .0247944
1021.018 .0248088
1021.607 .0248230
1022.195 .0248370
1022.784 .0248508
1023.372 .0248644
1023.960 .0248776
1024.547 .0248905
1025.135 .0249032
1025.722 .0249158
1026.309 .0249281
1026.896 .0249404
1027.483 .0249526
1028.069 .0249647
1028.655 .0249767
1029.241 .0249885
1029.827 .0250001
1030.412 .0250114
1030.997 .0250224
1031.582 .0250331
1032.167 .0250436
1032.752 .0250539
1033.336 .0250641
1033.921 .0250741
1034.505 .0250841
1035.089 .0250939
1035.672 .0251035
1036.256 .0251127
1036.839 .0251215
1037.422 .0251297
1038.005 .0251372
1038.588 .0251440
1039.171 .0251502
1039.753 .0251556
1040.335 .0251604
1040.918 .0251646
1041.500 .0251682
1042.081 .0251711
1042.663 .0251732
1043.244 .0251746
1043.826 .0251752
1044.407 .0251750
1044.988 .0251741
1045.569 .0251725
1046.150 .0251703
1046.730 .0251675
1047.311 .0251642
1047.891 .0251603
1048.471 .0251559
1049.052 .0251509
1049.632 .0251452
1050.211 .0251388
1050.791 .0251318
1051.371 .0251241
1051.950 .0251157
1052.530 .0251067
1053.109 .0250971
1053.688 .0250870
1054.268 .0250765
1054.847 .0250656
1055.426 .0250545
1056.005 .0250431
1056.583 .0250316
1057.162 .0250200
1057.741 .0250084
1058.319 .0249966
1058.898 .0249848
1059.476 .0249729
1060.055 .0249610
1060.633 .0249488
1061.211 .0249365
1061.790 .0249240
1062.368 .0249112
1062.946 .0248982
1063.524 .0248849
1064.102 .0248714
1064.680 .0248577
1065.258 .0248437
1065.836 .0248297
1066.414 .0248157
1066.992 .0248017
1067.570 .0247878
1068.148 .0247742
1068.726 .0247608
1069.304 .0247477
1069.882 .0247349
1070.460 .0247225
1071.038 .0247105
1071.616 .0246990
1072.194 .0246879
1072.772 .0246771
1073.350 .0246668
1073.928 .0246567
1074.506 .0246467
1075.084 .0246366
1075.662 .0246265
1076.240 .0246162
1076.819 .0246058
1077.397 .0245952
1077.976 .0245846
1078.554 .0245739
1079.133 .0245632
1079.711 .0245525
1080.290 .0245418
1080.869 .0245310
1081.448 .0245201
1082.027 .0245091
1082.606 .0244980
1083.185 .0244868
1083.764 .0244757
1084.343 .0244646
1084.923 .0244538
1085.502 .0244429
1086.082 .0244321
1086.662 .0244212
1087.242 .0244101
1087.822 .0243987
1088.402 .0243870
1088.983 .0243753
1089.563 .0243636
1090.144 .0243521
1090.725 .0243412
1091.306 .0243310
1091.887 .0243219
1092.469 .0243137
1093.050 .0243067
1093.632 .0243009
1094.214 .0242962
1094.796 .0242926
1095.379 .0242900
1095.961 .0242886
1096.544 .0242883
1097.127 .0242891
1097.710 .0242910
1098.294 .0242940
1098.877 .0242979
1099.461 .0243024
1100.046 .0243073
1100.630 .0243122
1101.215 .0243171
1101.800 .0243218
1102.385 .0243264
1102.970 .0243311
1103.556 .0243361
1104.142 .0243416
1104.728 .0243480
1105.315 .0243554
1105.902 .0243641
1106.489 .0243740
1107.077 .0243851
1107.664 .0243972
1108.253 .0244103
1108.841 .0244245
1109.430 .0244398
1110.019 .0244563
1110.609 .0244742
1111.198 .0244935
1111.789 .0245143
1112.379 .0245367
1112.970 .0245604
1113.561 .0245853
1114.153 .0246112
1114.745 .0246379
1115.338 .0246654
1115.931 .0246939
1116.524 .0247236
1117.117 .0247551
1117.712 .0247887
1118.306 .0248249
1118.901 .0248638
1119.496 .0249058
1120.092 .0249507
1120.689 .0249983
1121.285 .0250487
1121.882 .0251013
1122.480 .0251561
1123.078 .0252128
1123.677 .0252714
1124.276 .0253319
1124.875 .0253943
1125.476 .0254588
1126.076 .0255254
1126.677 .0255941
1127.279 .0256646
1127.881 .0257369
1128.484 .0258112
1129.087 .0258419
1129.691 .0259186
1130.295 .0259972
1130.900 .0260783
1131.505 .0261622
1132.111 .0262495
1132.718 .0263406
1133.325 .0264360
1133.933 .0265368
1134.541 .0266400
1135.150 .0267492
1135.760 .0268621
1136.370 .0269840
1136.981 .0270480
1137.592 .0271573
1138.204 .0272654
1138.817 .0273810
1139.431 .0275038
1140.045 .0276337
1140.660 .0277742
1141.275 .0279270
1141.891 .0281110
1142.508 .0282238
1143.126 .0284475
1143.744 .0286118
1144.363 .0289363
1144.983 .0295642
