Measurement Sequence started on: 15-12-46-377
Integration time: 28
Scans to Average: 2 
>>>>>Begin Spectral Data<<<<<
432.689 .0000100
433.621 .0000100
434.552 .0000100
435.482 .0000100
436.410 .0000100
437.337 .0000100
438.262 .0269391
439.187 .0569157
440.110 .0942479
441.031 .1363528
441.952 .1093842
442.871 .1142734
443.789 .1188318
444.705 .1231289
445.621 .1272121
446.535 .1311171
447.447 .1334533
448.359 .1340822
449.269 .1326343
450.178 .1288720
451.086 .1228710
451.993 .1150987
452.898 .1063281
453.803 .0974338
454.706 .0891590
455.608 .0819653
456.508 .0760057
457.408 .0719725
458.306 .0688600
459.204 .0663164
460.100 .0641635
460.995 .0623026
461.888 .0606674
462.781 .0592132
463.673 .0579074
464.563 .0567260
465.452 .0556497
466.340 .0546640
467.228 .0537573
468.114 .0529217
468.999 .0521513
469.882 .0514408
470.765 .0507864
471.647 .0501854
472.528 .0496349
473.407 .0491327
474.286 .0486761
475.163 .0482635
476.040 .0478921
476.915 .0475601
477.790 .0472652
478.663 .0470048
479.535 .0467772
480.407 .0465800
481.277 .0464108
482.147 .0462676
483.015 .0461479
483.883 .0460500
484.749 .0459726
485.615 .0459147
486.479 .0458755
487.343 .0458546
488.206 .0458521
489.067 .0458677
489.928 .0459022
490.788 .0459559
491.647 .0460290
492.505 .0461219
493.362 .0462350
494.218 .0463678
495.073 .0465211
495.928 .0468285
496.781 .0470363
497.634 .0472667
498.486 .0475206
499.337 .0477995
500.187 .0481054
501.036 .0484406
501.884 .0488085
502.731 .0492122
503.578 .0496552
504.424 .0499593
505.268 .0504767
506.113 .0510463
506.956 .0516737
507.798 .0523659
508.640 .0531308
509.480 .0539778
510.320 .0549178
511.160 .0559632
511.998 .0571293
512.836 .0584332
513.672 .0598913
514.508 .0615251
515.344 .0633547
516.178 .0653997
517.012 .0676816
517.845 .0702178
518.677 .0730207
519.508 .0760979
520.339 .0794498
521.169 .0830697
521.998 .0869298
522.826 .0909945
523.654 .0952113
524.481 .0995172
525.307 .1038404
526.133 .1080998
526.958 .1122106
527.782 .1160906
528.605 .1196593
529.428 .1228454
530.250 .1255859
531.072 .1278395
531.892 .1295700
532.712 .1307583
533.532 .1313973
534.350 .1314838
535.168 .1310247
535.986 .1300338
536.802 .1285230
537.618 .1265086
538.434 .1240089
539.249 .1210623
540.063 .1177135
540.876 .1140217
541.689 .1100559
542.501 .1058920
543.313 .1016128
544.124 .0973020
544.934 .0930368
545.744 .0888914
546.553 .0849262
547.361 .0811913
548.169 .0777145
548.976 .0745136
549.783 .0715902
550.589 .0689335
551.395 .0665256
552.200 .0643433
553.004 .0623592
553.808 .0605513
554.611 .0588997
555.414 .0573894
556.216 .0560048
557.018 .0547313
557.819 .0535562
558.619 .0524670
559.419 .0514518
560.218 .0505000
561.017 .0496023
561.815 .0487523
562.613 .0479445
563.410 .0471740
564.207 .0464368
565.003 .0457300
565.799 .0450508
566.594 .0443967
567.388 .0437660
568.182 .0431572
568.976 .0425688
569.769 .0420000
570.562 .0414506
571.354 .0409207
572.145 .0404104
572.936 .0399204
573.727 .0394509
574.517 .0390023
575.307 .0385748
576.096 .0381680
576.885 .0377822
577.673 .0374177
578.461 .0370744
579.248 .0367516
580.035 .0364492
580.821 .0361665
581.607 .0359025
582.392 .0356564
583.177 .0354272
583.962 .0352138
584.746 .0350153
585.529 .0348307
586.313 .0346587
587.095 .0344985
587.878 .0343492
588.660 .0342098
589.441 .0340797
590.222 .0339584
591.003 .0338452
591.783 .0337395
592.563 .0336410
593.342 .0335489
594.121 .0334627
594.899 .0333818
595.678 .0333055
596.455 .0332332
597.233 .0331644
598.009 .0330985
598.786 .0330353
599.562 .0329745
600.338 .0329157
601.113 .0328587
601.888 .0327786
602.663 .0327258
603.437 .0326746
604.211 .0326251
604.984 .0325771
605.757 .0325305
606.530 .0324854
607.302 .0324415
608.074 .0323989
608.845 .0323576
609.616 .0323175
610.387 .0323008
611.158 .0322627
611.928 .0322259
612.697 .0321906
613.467 .0321568
614.236 .0321243
615.004 .0320932
615.773 .0320633
616.541 .0320345
617.308 .0320067
618.076 .0319796
618.843 .0319531
619.609 .0319270
620.375 .0319012
621.141 .0318755
621.907 .0318498
622.672 .0318239
623.437 .0317978
624.202 .0317716
624.966 .0317453
625.730 .0317189
626.493 .0316925
627.257 .0316659
628.020 .0316390
628.782 .0316119
629.545 .0315844
630.307 .0315565
631.068 .0315283
631.830 .0314997
632.591 .0314710
633.352 .0314423
634.112 .0314139
634.872 .0313859
635.632 .0313586
636.392 .0313320
637.151 .0313061
637.910 .0312809
638.668 .0312564
639.427 .0312326
640.185 .0312096
640.943 .0311874
641.700 .0311660
642.457 .0311454
643.214 .0311256
643.971 .0311068
644.727 .0310888
645.483 .0310717
646.239 .0310553
646.994 .0310396
647.750 .0310245
648.505 .0310099
649.259 .0309957
650.014 .0309817
650.768 .0309679
651.521 .0309540
652.275 .0309399
653.028 .0309256
653.781 .0309110
654.534 .0308961
655.286 .0308809
656.039 .0308652
656.791 .0308492
657.542 .0308327
658.294 .0308157
659.045 .0307981
659.796 .0307800
660.546 .0307613
661.297 .0307418
662.047 .0307216
662.796 .0307007
663.546 .0306791
664.295 .0306570
665.044 .0306342
665.793 .0306110
666.542 .0305872
667.290 .0305631
668.038 .0305386
668.786 .0305137
669.533 .0304886
670.281 .0304632
671.028 .0304376
671.774 .0304119
672.521 .0303861
673.267 .0303604
674.013 .0303347
674.759 .0303093
675.505 .0302841
676.250 .0302592
676.995 .0302345
677.740 .0302101
678.484 .0301860
679.229 .0301622
679.973 .0301387
680.717 .0301155
681.460 .0300926
682.204 .0300700
682.947 .0300475
683.690 .0300254
684.433 .0300034
685.175 .0299816
685.917 .0299600
686.659 .0299385
687.401 .0299172
688.142 .0298960
688.884 .0298749
689.625 .0298538
690.365 .0298328
691.106 .0298117
691.846 .0297906
692.586 .0297696
693.326 .0297487
694.066 .0297280
694.805 .0297075
695.545 .0296874
696.284 .0296676
697.022 .0296483
697.761 .0296295
698.499 .0296113
699.237 .0295936
699.975 .0295765
700.713 .0295600
701.450 .0295441
702.187 .0295288
702.924 .0295143
703.661 .0295004
704.397 .0294872
705.133 .0294746
705.869 .0294628
706.605 .0294517
707.341 .0294414
708.076 .0294317
708.811 .0294226
709.546 .0294141
710.281 .0294060
711.015 .0293983
711.749 .0293907
712.483 .0293832
713.217 .0293757
713.950 .0293681
714.684 .0293604
715.417 .0293524
716.150 .0293442
716.882 .0293357
717.615 .0293268
718.347 .0293175
719.079 .0293076
719.811 .0292972
720.542 .0292861
721.273 .0292745
722.005 .0292623
722.735 .0292496
723.466 .0292364
724.196 .0292228
724.927 .0292088
725.656 .0291944
726.386 .0291799
727.116 .0291651
727.845 .0291503
728.574 .0291355
729.303 .0291208
730.031 .0291063
730.760 .0290920
731.488 .0290780
732.216 .0290643
732.944 .0290508
733.671 .0290376
734.398 .0290246
735.125 .0290120
735.852 .0289996
736.579 .0289877
737.305 .0289761
738.031 .0289650
738.757 .0289544
739.483 .0289441
740.208 .0289343
740.933 .0289247
741.658 .0289154
742.383 .0289063
743.108 .0288972
743.832 .0288880
744.556 .0288787
745.280 .0288692
746.004 .0288594
746.727 .0288493
747.450 .0288388
748.173 .0288279
748.896 .0288165
749.618 .0288048
750.340 .0287925
751.062 .0287797
751.784 .0287665
752.506 .0287527
753.227 .0287383
753.948 .0287234
754.669 .0287078
755.389 .0286916
756.110 .0286748
756.830 .0286574
757.550 .0286395
758.269 .0286212
758.989 .0286024
759.708 .0285833
760.427 .0285640
761.146 .0285444
761.864 .0285246
762.582 .0285046
763.300 .0284845
764.018 .0284642
764.736 .0284438
765.453 .0284233
766.170 .0284027
766.887 .0283822
767.603 .0283618
768.320 .0283417
769.036 .0283219
769.751 .0283024
770.467 .0282834
771.182 .0282649
771.897 .0282468
772.612 .0282293
773.327 .0282123
774.041 .0281960
774.755 .0281803
775.469 .0281653
776.183 .0281511
776.896 .0281377
777.609 .0281251
778.322 .0281134
779.035 .0281027
779.747 .0280928
780.459 .0280839
781.171 .0280758
781.882 .0280686
782.594 .0280622
783.305 .0280566
784.016 .0280517
784.726 .0280475
785.436 .0280438
786.147 .0280399
786.856 .0280369
787.566 .0280343
788.275 .0280318
788.984 .0280293
789.693 .0280269
790.401 .0280244
791.110 .0280219
791.818 .0280192
792.525 .0280163
793.233 .0280132
793.940 .0280098
794.647 .0280072
795.353 .0280034
796.060 .0279992
796.766 .0279945
797.472 .0279895
798.177 .0279842
798.883 .0279784
799.588 .0279722
800.292 .0279658
800.997 .0279589
801.701 .0279518
802.405 .0279443
803.109 .0279365
803.812 .0279284
804.515 .0279200
805.218 .0279114
805.921 .0279026
806.623 .0278936
807.325 .0278844
808.027 .0278752
808.728 .0278658
809.429 .0278562
810.130 .0278465
810.831 .0278367
811.531 .0278268
812.231 .0278169
812.931 .0278070
813.630 .0277973
814.330 .0277877
815.029 .0277785
815.727 .0277696
816.426 .0277611
817.124 .0277530
817.821 .0277453
818.519 .0277380
819.216 .0277311
819.913 .0277247
820.609 .0277189
821.306 .0277136
822.002 .0277089
822.697 .0277048
823.393 .0277015
824.088 .0276987
824.783 .0276965
825.477 .0276948
826.171 .0276935
826.865 .0276925
827.559 .0276917
828.252 .0276912
828.945 .0276907
829.638 .0276904
830.330 .0276900
831.023 .0276897
831.714 .0276892
832.406 .0276886
833.097 .0276879
833.788 .0276868
834.479 .0276853
835.169 .0276835
835.859 .0276814
836.548 .0276787
837.238 .0276757
837.927 .0276722
838.615 .0276682
839.304 .0276637
839.992 .0276587
840.680 .0276530
841.367 .0276466
842.054 .0276395
842.741 .0276317
843.428 .0276231
844.114 .0276138
844.800 .0276038
845.485 .0275930
846.170 .0275816
846.855 .0275693
847.540 .0275563
848.224 .0275425
848.908 .0275279
849.592 .0275125
850.275 .0274962
850.958 .0274791
851.641 .0274614
852.323 .0274430
853.005 .0274240
853.687 .0274045
854.368 .0273844
855.049 .0273639
855.730 .0273429
856.410 .0273215
857.090 .0272996
857.769 .0272775
858.449 .0272551
859.128 .0272325
859.806 .0272099
860.485 .0271873
861.163 .0271648
861.840 .0271424
862.518 .0271201
863.195 .0270980
863.871 .0270760
864.548 .0270543
865.224 .0270330
865.899 .0270119
866.574 .0269913
867.249 .0269711
867.924 .0269514
868.598 .0269320
869.272 .0269131
869.946 .0268945
870.619 .0268763
871.292 .0268585
871.964 .0268410
872.636 .0268239
873.308 .0268074
873.979 .0267912
874.651 .0267756
875.321 .0267604
875.992 .0267457
876.662 .0267314
877.331 .0267177
878.001 .0267045
878.670 .0266918
879.338 .0266796
880.007 .0266680
880.675 .0266569
881.342 .0266464
882.009 .0266365
882.676 .0266271
883.343 .0266183
884.009 .0266100
884.675 .0266024
885.340 .0265954
886.005 .0265890
886.670 .0265832
887.334 .0265779
887.998 .0265732
888.662 .0265690
889.325 .0265651
889.988 .0265617
890.650 .0265586
891.312 .0265559
891.974 .0265535
892.636 .0265512
893.297 .0265493
893.957 .0265474
894.618 .0265457
895.278 .0265441
895.937 .0265424
896.596 .0265407
897.255 .0265390
897.914 .0265370
898.572 .0265350
899.230 .0265326
899.887 .0265300
900.544 .0265271
901.201 .0265237
901.857 .0265170
902.513 .0265126
903.168 .0265078
903.823 .0265028
904.478 .0264973
905.132 .0264916
905.786 .0264855
906.440 .0264790
907.093 .0264722
907.746 .0264650
908.399 .0264575
909.051 .0264498
909.703 .0264418
910.354 .0264374
911.005 .0264294
911.656 .0264213
912.306 .0264132
912.956 .0264050
913.605 .0263967
914.254 .0263883
914.903 .0263798
915.551 .0263712
916.199 .0263625
916.847 .0263538
917.494 .0263450
918.141 .0263360
918.788 .0263270
919.434 .0263178
920.079 .0263083
920.725 .0262987
921.370 .0262887
922.014 .0262784
922.658 .0262679
923.302 .0262571
923.946 .0262461
924.589 .0262349
925.231 .0262236
925.873 .0262123
926.515 .0262008
927.157 .0261892
927.798 .0261776
928.439 .0261659
929.079 .0261543
929.719 .0261427
930.359 .0261313
930.998 .0261201
931.637 .0261092
932.275 .0260987
932.913 .0260884
933.551 .0260786
934.188 .0260692
934.825 .0260602
935.462 .0260518
936.098 .0260439
936.733 .0260366
937.369 .0260299
938.004 .0260239
938.638 .0260185
939.273 .0260139
939.907 .0260099
940.540 .0260066
941.173 .0260039
941.806 .0260019
942.438 .0260004
943.070 .0259994
943.702 .0259988
944.333 .0259985
944.964 .0259984
945.594 .0259983
946.224 .0259983
946.854 .0259981
947.483 .0259977
948.112 .0259970
948.741 .0259960
949.369 .0259946
949.996 .0259929
950.624 .0259907
951.251 .0259882
951.878 .0259853
952.504 .0259820
953.130 .0259782
953.755 .0259740
954.380 .0259694
955.005 .0259645
955.629 .0259591
956.253 .0259534
956.877 .0259473
957.500 .0259410
958.123 .0259344
958.746 .0259275
959.368 .0259204
959.990 .0259131
960.611 .0259056
961.232 .0258980
961.853 .0258902
962.473 .0258823
963.093 .0258743
963.712 .0258662
964.331 .0258581
964.950 .0258500
965.569 .0258419
966.187 .0258339
966.804 .0258259
967.422 .0258180
968.039 .0258101
968.655 .0258021
969.272 .0257939
969.887 .0257856
970.503 .0257770
971.118 .0257681
971.733 .0257589
972.347 .0257493
972.961 .0257393
973.575 .0257288
974.188 .0257179
974.801 .0257064
975.414 .0256943
976.026 .0256816
976.638 .0256681
977.250 .0256538
977.861 .0256389
978.472 .0256232
979.083 .0256070
979.693 .0255901
980.303 .0255728
980.912 .0255445
981.521 .0255261
982.130 .0255073
982.738 .0254881
983.346 .0254686
983.954 .0254488
984.562 .0254289
985.169 .0254089
985.775 .0253890
986.382 .0253693
986.988 .0253500
987.594 .0253312
988.199 .0253129
988.804 .0252952
989.409 .0252882
990.013 .0252716
990.617 .0252555
991.221 .0252400
991.824 .0252251
992.427 .0252108
993.030 .0251971
993.632 .0251840
994.234 .0251716
994.836 .0251599
995.438 .0251489
996.039 .0251384
996.640 .0251287
997.240 .0251196
997.840 .0251111
998.440 .0251033
999.040 .0250961
999.639 .0250894
1000.238 .0250834
1000.836 .0250780
1001.435 .0250731
1002.033 .0250687
1002.630 .0250647
1003.228 .0250611
1003.825 .0250579
1004.422 .0250549
1005.018 .0250522
1005.614 .0250497
1006.210 .0250474
1006.806 .0250451
1007.401 .0250428
1007.996 .0250406
1008.591 .0250384
1009.186 .0250363
1009.780 .0250343
1010.374 .0250325
1010.967 .0250308
1011.561 .0250294
1012.154 .0250282
1012.746 .0250273
1013.339 .0250265
1013.931 .0250259
1014.523 .0250254
1015.115 .0250250
1015.706 .0250246
1016.298 .0250242
1016.888 .0250239
1017.479 .0250236
1018.069 .0250235
1018.660 .0250234
1019.250 .0250235
1019.839 .0250237
1020.429 .0250241
1021.018 .0250246
1021.607 .0250252
1022.195 .0250260
1022.784 .0250270
1023.372 .0250284
1023.960 .0250302
1024.547 .0250326
1025.135 .0250356
1025.722 .0250393
1026.309 .0250436
1026.896 .0250486
1027.483 .0250541
1028.069 .0250601
1028.655 .0250663
1029.241 .0250728
1029.827 .0250795
1030.412 .0250864
1030.997 .0250934
1031.582 .0251007
1032.167 .0251082
1032.752 .0251160
1033.336 .0251239
1033.921 .0251318
1034.505 .0251397
1035.089 .0251475
1035.672 .0251551
1036.256 .0251626
1036.839 .0251699
1037.422 .0251771
1038.005 .0251842
1038.588 .0251912
1039.171 .0251981
1039.753 .0252049
1040.335 .0252114
1040.918 .0252176
1041.500 .0252235
1042.081 .0252291
1042.663 .0252343
1043.244 .0252392
1043.826 .0252439
1044.407 .0252485
1044.988 .0252530
1045.569 .0252574
1046.150 .0252617
1046.730 .0252659
1047.311 .0252698
1047.891 .0252735
1048.471 .0252770
1049.052 .0252802
1049.632 .0252833
1050.211 .0252863
1050.791 .0252895
1051.371 .0252928
1051.950 .0252964
1052.530 .0253002
1053.109 .0253042
1053.688 .0253082
1054.268 .0253122
1054.847 .0253163
1055.426 .0253205
1056.005 .0253249
1056.583 .0253296
1057.162 .0253347
1057.741 .0253403
1058.319 .0253462
1058.898 .0253524
1059.476 .0253588
1060.055 .0253651
1060.633 .0253713
1061.211 .0253772
1061.790 .0253828
1062.368 .0253881
1062.946 .0253934
1063.524 .0253988
1064.102 .0254043
1064.680 .0254100
1065.258 .0254160
1065.836 .0254222
1066.414 .0254284
1066.992 .0254346
1067.570 .0254407
1068.148 .0254466
1068.726 .0254525
1069.304 .0254583
1069.882 .0254641
1070.460 .0254701
1071.038 .0254762
1071.616 .0254825
1072.194 .0254888
1072.772 .0254951
1073.350 .0255013
1073.928 .0255072
1074.506 .0255126
1075.084 .0255176
1075.662 .0255223
1076.240 .0255267
1076.819 .0255309
1077.397 .0255353
1077.976 .0255399
1078.554 .0255450
1079.133 .0255507
1079.711 .0255569
1080.290 .0255638
1080.869 .0255713
1081.448 .0255793
1082.027 .0255877
1082.606 .0255967
1083.185 .0256062
1083.764 .0256163
1084.343 .0256272
1084.923 .0256388
1085.502 .0256511
1086.082 .0256643
1086.662 .0256781
1087.242 .0256927
1087.822 .0257077
1088.402 .0257233
1088.983 .0257392
1089.563 .0257554
1090.144 .0257719
1090.725 .0257887
1091.306 .0258057
1091.887 .0258232
1092.469 .0258409
1093.050 .0258589
1093.632 .0258773
1094.214 .0258958
1094.796 .0259143
1095.379 .0259328
1095.961 .0259511
1096.544 .0259692
1097.127 .0259870
1097.710 .0260046
1098.294 .0260221
1098.877 .0260396
1099.461 .0260574
1100.046 .0260757
1100.630 .0260945
1101.215 .0261140
1101.800 .0261343
1102.385 .0261553
1102.970 .0261771
1103.556 .0261996
1104.142 .0262227
1104.728 .0262462
1105.315 .0262701
1105.902 .0262942
1106.489 .0263187
1107.077 .0263435
1107.664 .0263687
1108.253 .0263942
1108.841 .0264203
1109.430 .0264469
1110.019 .0264740
1110.609 .0265015
1111.198 .0265295
1111.789 .0265579
1112.379 .0265866
1112.970 .0266157
1113.561 .0266452
1114.153 .0266754
1114.745 .0267067
1115.338 .0267394
1115.931 .0267739
1116.524 .0268104
1117.117 .0268490
1117.712 .0268896
1118.306 .0269320
1118.901 .0269761
1119.496 .0270214
1120.092 .0270678
1120.689 .0271152
1121.285 .0271634
1121.882 .0272126
1122.480 .0272630
1123.078 .0273148
1123.677 .0273683
1124.276 .0274235
1124.875 .0274806
1125.476 .0275396
1126.076 .0276005
1126.677 .0276632
1127.279 .0277279
1127.881 .0277948
1128.484 .0278641
1129.087 .0278957
1129.691 .0279695
1130.295 .0280464
1130.900 .0281268
1131.505 .0282108
1132.111 .0282987
1132.718 .0283906
1133.325 .0284865
1133.933 .0285868
1134.541 .0286900
1135.150 .0287990
1135.760 .0289160
1136.370 .0290309
1136.981 .0289623
1137.592 .0290676
1138.204 .0291804
1138.817 .0293046
1139.431 .0294417
1140.045 .0295954
1140.660 .0297677
1141.275 .0299501
1141.891 .0301572
1142.508 .0303315
1143.126 .0305888
1143.744 .0309071
1144.363 .0309376
1144.983 .0315045
