Measurement Sequence started on: 15-12-46-377
Integration time: 28
Scans to Average: 2 
>>>>>Begin Spectral Data<<<<<
432.689 .0000100
433.621 .0000100
434.552 .0000100
435.482 .0000100
436.410 .0000100
437.337 .0000100
438.262 .0263701
439.187 .0559620
440.110 .0927472
441.031 .1342291
441.952 .1078333
442.871 .1126395
443.789 .1171108
444.705 .1213155
445.621 .1253026
446.535 .1291083
447.447 .1313740
448.359 .1319530
449.269 .1304848
450.178 .1267361
451.086 .1207812
451.993 .1130772
452.898 .1043863
453.803 .0955708
454.706 .0873662
455.608 .0802302
456.508 .0743172
457.408 .0703062
458.306 .0672217
459.204 .0647100
460.100 .0625952
460.995 .0607797
461.888 .0591981
462.781 .0578034
463.673 .0565612
464.563 .0554451
465.452 .0544338
466.340 .0535110
467.228 .0526645
468.114 .0518841
468.999 .0511636
469.882 .0504963
470.765 .0498770
471.647 .0493017
472.528 .0487676
473.407 .0482717
474.286 .0478128
475.163 .0473905
476.040 .0470034
476.915 .0466507
477.790 .0463313
478.663 .0460438
479.535 .0457872
480.407 .0455606
481.277 .0453626
482.147 .0451916
483.015 .0450466
483.883 .0449269
484.749 .0448316
485.615 .0447606
486.479 .0447133
487.343 .0446894
488.206 .0446880
489.067 .0447076
489.928 .0447467
490.788 .0448044
491.647 .0448796
492.505 .0449718
493.362 .0450810
494.218 .0452076
495.073 .0453522
495.928 .0456346
496.781 .0458302
497.634 .0460470
498.486 .0462854
499.337 .0465464
500.187 .0468312
501.036 .0471414
501.884 .0474789
502.731 .0478471
503.578 .0482496
504.424 .0485288
505.268 .0489968
506.113 .0495107
506.956 .0500749
507.798 .0506948
508.640 .0513775
509.480 .0521324
510.320 .0529701
511.160 .0539024
511.998 .0549430
512.836 .0561067
513.672 .0574101
514.508 .0588707
515.344 .0605086
516.178 .0623448
517.012 .0644018
517.845 .0667000
518.677 .0692581
519.508 .0720948
520.339 .0752197
521.169 .0786377
521.998 .0823313
522.826 .0862715
523.654 .0904087
524.481 .0946817
525.307 .0990203
526.133 .1033426
526.958 .1075628
527.782 .1115942
528.605 .1153552
529.428 .1187752
530.250 .1217899
531.072 .1243553
531.892 .1264328
532.712 .1279976
533.532 .1290305
534.350 .1295203
535.168 .1294665
535.986 .1288727
536.802 .1277418
537.618 .1260808
538.434 .1238989
539.249 .1212271
540.063 .1181059
540.876 .1145943
541.689 .1107625
542.501 .1066876
543.313 .1024542
544.124 .0981472
544.934 .0938495
545.744 .0896366
546.553 .0855703
547.361 .0817041
548.169 .0780684
548.976 .0746874
549.783 .0715694
550.589 .0687150
551.395 .0661161
552.200 .0637555
553.004 .0616115
553.808 .0596624
554.611 .0578900
555.414 .0562772
556.216 .0548069
557.018 .0534638
557.819 .0522337
558.619 .0511030
559.419 .0500594
560.218 .0490928
561.017 .0481941
561.815 .0473560
562.613 .0465715
563.410 .0458342
564.207 .0451393
565.003 .0444823
565.799 .0438586
566.594 .0432641
567.388 .0426957
568.182 .0421497
568.976 .0416220
569.769 .0411108
570.562 .0406145
571.354 .0401321
572.145 .0396637
572.936 .0392095
573.727 .0387703
574.517 .0383463
575.307 .0379383
576.096 .0375461
576.885 .0371702
577.673 .0368105
578.461 .0364670
579.248 .0361398
580.035 .0358295
580.821 .0355357
581.607 .0352588
582.392 .0349988
583.177 .0347558
583.962 .0345294
584.746 .0343192
585.529 .0341247
586.313 .0339451
587.095 .0337791
587.878 .0336260
588.660 .0334846
589.441 .0333540
590.222 .0332331
591.003 .0331211
591.783 .0330172
592.563 .0329208
593.342 .0328310
594.121 .0327475
594.899 .0326695
595.678 .0325965
596.455 .0325278
597.233 .0324627
598.009 .0324005
598.786 .0323406
599.562 .0322825
600.338 .0322258
601.113 .0321703
601.888 .0320897
602.663 .0320366
603.437 .0319847
604.211 .0319341
604.984 .0318847
605.757 .0318364
606.530 .0317894
607.302 .0317435
608.074 .0316988
608.845 .0316554
609.616 .0316133
610.387 .0315962
611.158 .0315568
611.928 .0315193
612.697 .0314836
613.467 .0314499
614.236 .0314183
615.004 .0313889
615.773 .0313617
616.541 .0313368
617.308 .0313139
618.076 .0312929
618.843 .0312738
619.609 .0312562
620.375 .0312400
621.141 .0312248
621.907 .0312106
622.672 .0311970
623.437 .0311841
624.202 .0311717
624.966 .0311597
625.730 .0311480
626.493 .0311365
627.257 .0311249
628.020 .0311131
628.782 .0311008
629.545 .0310879
630.307 .0310743
631.068 .0310599
631.830 .0310449
632.591 .0310293
633.352 .0310133
634.112 .0309970
634.872 .0309804
635.632 .0309635
636.392 .0309464
637.151 .0309290
637.910 .0309112
638.668 .0308931
639.427 .0308746
640.185 .0308558
640.943 .0308367
641.700 .0308171
642.457 .0307972
643.214 .0307769
643.971 .0307562
644.727 .0307351
645.483 .0307135
646.239 .0306915
646.994 .0306690
647.750 .0306460
648.505 .0306225
649.259 .0305983
650.014 .0305735
650.768 .0305479
651.521 .0305216
652.275 .0304945
653.028 .0304667
653.781 .0304382
654.534 .0304091
655.286 .0303794
656.039 .0303493
656.791 .0303186
657.542 .0302874
658.294 .0302559
659.045 .0302240
659.796 .0301918
660.546 .0301595
661.297 .0301271
662.047 .0300948
662.796 .0300627
663.546 .0300308
664.295 .0299991
665.044 .0299679
665.793 .0299370
666.542 .0299066
667.290 .0298767
668.038 .0298474
668.786 .0298187
669.533 .0297908
670.281 .0297638
671.028 .0297376
671.774 .0297124
672.521 .0296882
673.267 .0296651
674.013 .0296429
674.759 .0296219
675.505 .0296019
676.250 .0295829
676.995 .0295650
677.740 .0295479
678.484 .0295318
679.229 .0295164
679.973 .0295017
680.717 .0294878
681.460 .0294745
682.204 .0294618
682.947 .0294497
683.690 .0294380
684.433 .0294267
685.175 .0294157
685.917 .0294049
686.659 .0293942
687.401 .0293836
688.142 .0293730
688.884 .0293623
689.625 .0293516
690.365 .0293409
691.106 .0293301
691.846 .0293192
692.586 .0293083
693.326 .0292971
694.066 .0292858
694.805 .0292743
695.545 .0292626
696.284 .0292508
697.022 .0292389
697.761 .0292269
698.499 .0292148
699.237 .0292025
699.975 .0291902
700.713 .0291776
701.450 .0291650
702.187 .0291521
702.924 .0291390
703.661 .0291256
704.397 .0291121
705.133 .0290984
705.869 .0290844
706.605 .0290701
707.341 .0290556
708.076 .0290407
708.811 .0290255
709.546 .0290098
710.281 .0289938
711.015 .0289773
711.749 .0289604
712.483 .0289430
713.217 .0289253
713.950 .0289071
714.684 .0288886
715.417 .0288696
716.150 .0288502
716.882 .0288302
717.615 .0288098
718.347 .0287887
719.079 .0287671
719.811 .0287450
720.542 .0287223
721.273 .0286990
722.005 .0286753
722.735 .0286511
723.466 .0286265
724.196 .0286016
724.927 .0285763
725.656 .0285508
726.386 .0285251
727.116 .0284992
727.845 .0284733
728.574 .0284474
729.303 .0284216
730.031 .0283960
730.760 .0283707
731.488 .0283457
732.216 .0283212
732.944 .0282971
733.671 .0282736
734.398 .0282507
735.125 .0282285
735.852 .0282068
736.579 .0281858
737.305 .0281653
738.031 .0281455
738.757 .0281262
739.483 .0281074
740.208 .0280892
740.933 .0280716
741.658 .0280545
742.383 .0280380
743.108 .0280221
743.832 .0280068
744.556 .0279920
745.280 .0279776
746.004 .0279635
746.727 .0279497
747.450 .0279361
748.173 .0279225
748.896 .0279091
749.618 .0278957
750.340 .0278825
751.062 .0278694
751.784 .0278565
752.506 .0278438
753.227 .0278315
753.948 .0278195
754.669 .0278079
755.389 .0277965
756.110 .0277855
756.830 .0277746
757.550 .0277639
758.269 .0277534
758.989 .0277431
759.708 .0277329
760.427 .0277230
761.146 .0277134
761.864 .0277041
762.582 .0276952
763.300 .0276868
764.018 .0276787
764.736 .0276710
765.453 .0276637
766.170 .0276568
766.887 .0276502
767.603 .0276440
768.320 .0276382
769.036 .0276328
769.751 .0276278
770.467 .0276234
771.182 .0276195
771.897 .0276162
772.612 .0276135
773.327 .0276114
774.041 .0276099
774.755 .0276089
775.469 .0276085
776.183 .0276084
776.896 .0276088
777.609 .0276095
778.322 .0276105
779.035 .0276117
779.747 .0276132
780.459 .0276149
781.171 .0276167
781.882 .0276187
782.594 .0276208
783.305 .0276229
784.016 .0276250
784.726 .0276269
785.436 .0276287
786.147 .0276299
786.856 .0276305
787.566 .0276306
788.275 .0276299
788.984 .0276284
789.693 .0276261
790.401 .0276229
791.110 .0276187
791.818 .0276137
792.525 .0276076
793.233 .0276005
793.940 .0275925
794.647 .0275853
795.353 .0275756
796.060 .0275649
796.766 .0275531
797.472 .0275404
798.177 .0275268
798.883 .0275122
799.588 .0274968
800.292 .0274806
800.997 .0274636
801.701 .0274457
802.405 .0274271
803.109 .0274077
803.812 .0273875
804.515 .0273665
805.218 .0273449
805.921 .0273226
806.623 .0272998
807.325 .0272765
808.027 .0272529
808.728 .0272289
809.429 .0272045
810.130 .0271799
810.831 .0271551
811.531 .0271300
812.231 .0271048
812.931 .0270794
813.630 .0270538
814.330 .0270281
815.029 .0270024
815.727 .0269766
816.426 .0269509
817.124 .0269253
817.821 .0268997
818.519 .0268743
819.216 .0268490
819.913 .0268239
820.609 .0267991
821.306 .0267746
822.002 .0267504
822.697 .0267267
823.393 .0267035
824.088 .0266809
824.783 .0266587
825.477 .0266372
826.171 .0266162
826.865 .0265958
827.559 .0265760
828.252 .0265567
828.945 .0265381
829.638 .0265201
830.330 .0265026
831.023 .0264858
831.714 .0264695
832.406 .0264536
833.097 .0264382
833.788 .0264233
834.479 .0264088
835.169 .0263947
835.859 .0263812
836.548 .0263682
837.238 .0263559
837.927 .0263442
838.615 .0263331
839.304 .0263226
839.992 .0263128
840.680 .0263034
841.367 .0262945
842.054 .0262861
842.741 .0262780
843.428 .0262703
844.114 .0262631
844.800 .0262562
845.485 .0262497
846.170 .0262436
846.855 .0262378
847.540 .0262322
848.224 .0262269
848.908 .0262218
849.592 .0262169
850.275 .0262121
850.958 .0262076
851.641 .0262031
852.323 .0261989
853.005 .0261948
853.687 .0261908
854.368 .0261868
855.049 .0261830
855.730 .0261793
856.410 .0261757
857.090 .0261722
857.769 .0261689
858.449 .0261659
859.128 .0261632
859.806 .0261608
860.485 .0261588
861.163 .0261570
861.840 .0261557
862.518 .0261547
863.195 .0261541
863.871 .0261540
864.548 .0261543
865.224 .0261552
865.899 .0261567
866.574 .0261587
867.249 .0261613
867.924 .0261644
868.598 .0261680
869.272 .0261720
869.946 .0261764
870.619 .0261810
871.292 .0261860
871.964 .0261913
872.636 .0261968
873.308 .0262025
873.979 .0262086
874.651 .0262148
875.321 .0262211
875.992 .0262275
876.662 .0262340
877.331 .0262404
878.001 .0262467
878.670 .0262528
879.338 .0262589
880.007 .0262647
880.675 .0262705
881.342 .0262761
882.009 .0262815
882.676 .0262866
883.343 .0262915
884.009 .0262960
884.675 .0263002
885.340 .0263041
886.005 .0263076
886.670 .0263108
887.334 .0263137
887.998 .0263162
888.662 .0263183
889.325 .0263201
889.988 .0263214
890.650 .0263223
891.312 .0263228
891.974 .0263227
892.636 .0263222
893.297 .0263212
893.957 .0263197
894.618 .0263177
895.278 .0263150
895.937 .0263118
896.596 .0263078
897.255 .0263031
897.914 .0262975
898.572 .0262911
899.230 .0262837
899.887 .0262754
900.544 .0262662
901.201 .0262560
901.857 .0262366
902.513 .0262241
903.168 .0262107
903.823 .0261965
904.478 .0261814
905.132 .0261654
905.786 .0261485
906.440 .0261306
907.093 .0261119
907.746 .0260924
908.399 .0260720
909.051 .0260509
909.703 .0260292
910.354 .0260168
911.005 .0259942
911.656 .0259710
912.306 .0259473
912.956 .0259230
913.605 .0258981
914.254 .0258727
914.903 .0258468
915.551 .0258204
916.199 .0257934
916.847 .0257660
917.494 .0257380
918.141 .0257094
918.788 .0256804
919.434 .0256507
920.079 .0256206
920.725 .0255899
921.370 .0255588
922.014 .0255272
922.658 .0254951
923.302 .0254626
923.946 .0254297
924.589 .0253964
925.231 .0253628
925.873 .0253290
926.515 .0252948
927.157 .0252605
927.798 .0252261
928.439 .0251915
929.079 .0251570
929.719 .0251225
930.359 .0250882
930.998 .0250540
931.637 .0250200
932.275 .0249865
932.913 .0249534
933.551 .0249208
934.188 .0248889
934.825 .0248576
935.462 .0248270
936.098 .0247972
936.733 .0247682
937.369 .0247399
938.004 .0247123
938.638 .0246855
939.273 .0246596
939.907 .0246345
940.540 .0246103
941.173 .0245870
941.806 .0245645
942.438 .0245428
943.070 .0245218
943.702 .0245015
944.333 .0244818
944.964 .0244627
945.594 .0244440
946.224 .0244258
946.854 .0244082
947.483 .0243910
948.112 .0243744
948.741 .0243582
949.369 .0243425
949.996 .0243273
950.624 .0243124
951.251 .0242980
951.878 .0242840
952.504 .0242704
953.130 .0242573
953.755 .0242447
954.380 .0242327
955.005 .0242212
955.629 .0242104
956.253 .0242001
956.877 .0241903
957.500 .0241811
958.123 .0241724
958.746 .0241642
959.368 .0241566
959.990 .0241496
960.611 .0241433
961.232 .0241377
961.853 .0241330
962.473 .0241290
963.093 .0241257
963.712 .0241233
964.331 .0241215
964.950 .0241204
965.569 .0241199
966.187 .0241200
966.804 .0241208
967.422 .0241221
968.039 .0241240
968.655 .0241265
969.272 .0241294
969.887 .0241328
970.503 .0241366
971.118 .0241407
971.733 .0241451
972.347 .0241498
972.961 .0241547
973.575 .0241598
974.188 .0241650
974.801 .0241704
975.414 .0241758
976.026 .0241812
976.638 .0241867
977.250 .0241921
977.861 .0241974
978.472 .0242026
979.083 .0242077
979.693 .0242127
980.303 .0242177
980.912 .0242251
981.521 .0242303
982.130 .0242357
982.738 .0242413
983.346 .0242472
983.954 .0242534
984.562 .0242600
985.169 .0242670
985.775 .0242746
986.382 .0242826
986.988 .0242913
987.594 .0243005
988.199 .0243103
988.804 .0243207
989.409 .0243282
990.013 .0243395
990.617 .0243512
991.221 .0243636
991.824 .0243763
992.427 .0243896
993.030 .0244032
993.632 .0244172
994.234 .0244316
994.836 .0244462
995.438 .0244612
996.039 .0244764
996.640 .0244918
997.240 .0245075
997.840 .0245235
998.440 .0245397
999.040 .0245561
999.639 .0245726
1000.238 .0245893
1000.836 .0246060
1001.435 .0246227
1002.033 .0246392
1002.630 .0246556
1003.228 .0246718
1003.825 .0246877
1004.422 .0247033
1005.018 .0247186
1005.614 .0247336
1006.210 .0247483
1006.806 .0247627
1007.401 .0247767
1007.996 .0247902
1008.591 .0248034
1009.186 .0248161
1009.780 .0248285
1010.374 .0248405
1010.967 .0248523
1011.561 .0248638
1012.154 .0248752
1012.746 .0248865
1013.339 .0248977
1013.931 .0249087
1014.523 .0249194
1015.115 .0249298
1015.706 .0249399
1016.298 .0249495
1016.888 .0249588
1017.479 .0249677
1018.069 .0249764
1018.660 .0249849
1019.250 .0249932
1019.839 .0250015
1020.429 .0250097
1021.018 .0250177
1021.607 .0250257
1022.195 .0250334
1022.784 .0250408
1023.372 .0250480
1023.960 .0250549
1024.547 .0250617
1025.135 .0250683
1025.722 .0250746
1026.309 .0250809
1026.896 .0250869
1027.483 .0250926
1028.069 .0250980
1028.655 .0251030
1029.241 .0251074
1029.827 .0251112
1030.412 .0251143
1030.997 .0251167
1031.582 .0251187
1032.167 .0251202
1032.752 .0251212
1033.336 .0251219
1033.921 .0251224
1034.505 .0251224
1035.089 .0251222
1035.672 .0251216
1036.256 .0251206
1036.839 .0251191
1037.422 .0251171
1038.005 .0251146
1038.588 .0251115
1039.171 .0251079
1039.753 .0251036
1040.335 .0250987
1040.918 .0250930
1041.500 .0250865
1042.081 .0250793
1042.663 .0250713
1043.244 .0250626
1043.826 .0250534
1044.407 .0250435
1044.988 .0250331
1045.569 .0250223
1046.150 .0250108
1046.730 .0249989
1047.311 .0249865
1047.891 .0249737
1048.471 .0249603
1049.052 .0249465
1049.632 .0249323
1050.211 .0249177
1050.791 .0249029
1051.371 .0248879
1051.950 .0248724
1052.530 .0248567
1053.109 .0248405
1053.688 .0248238
1054.268 .0248067
1054.847 .0247892
1055.426 .0247714
1056.005 .0247534
1056.583 .0247355
1057.162 .0247177
1057.741 .0247002
1058.319 .0246830
1058.898 .0246660
1059.476 .0246493
1060.055 .0246326
1060.633 .0246158
1061.211 .0245989
1061.790 .0245818
1062.368 .0245645
1062.946 .0245473
1063.524 .0245301
1064.102 .0245131
1064.680 .0244964
1065.258 .0244800
1065.836 .0244638
1066.414 .0244478
1066.992 .0244319
1067.570 .0244159
1068.148 .0244000
1068.726 .0243839
1069.304 .0243680
1069.882 .0243522
1070.460 .0243369
1071.038 .0243220
1071.616 .0243078
1072.194 .0242941
1072.772 .0242810
1073.350 .0242682
1073.928 .0242557
1074.506 .0242434
1075.084 .0242311
1075.662 .0242190
1076.240 .0242069
1076.819 .0241951
1077.397 .0241838
1077.976 .0241731
1078.554 .0241633
1079.133 .0241543
1079.711 .0241462
1080.290 .0241391
1080.869 .0241327
1081.448 .0241270
1082.027 .0241221
1082.606 .0241177
1083.185 .0241139
1083.764 .0241107
1084.343 .0241080
1084.923 .0241059
1085.502 .0241042
1086.082 .0241029
1086.662 .0241016
1087.242 .0241002
1087.822 .0240985
1088.402 .0240963
1088.983 .0240937
1089.563 .0240906
1090.144 .0240873
1090.725 .0240838
1091.306 .0240804
1091.887 .0240773
1092.469 .0240746
1093.050 .0240724
1093.632 .0240709
1094.214 .0240699
1094.796 .0240695
1095.379 .0240696
1095.961 .0240702
1096.544 .0240716
1097.127 .0240737
1097.710 .0240768
1098.294 .0240813
1098.877 .0240871
1099.461 .0240944
1100.046 .0241033
1100.630 .0241140
1101.215 .0241262
1101.800 .0241399
1102.385 .0241551
1102.970 .0241716
1103.556 .0241896
1104.142 .0242092
1104.728 .0242307
1105.315 .0242543
1105.902 .0242800
1106.489 .0243079
1107.077 .0243379
1107.664 .0243697
1108.253 .0244031
1108.841 .0244377
1109.430 .0244731
1110.019 .0245091
1110.609 .0245454
1111.198 .0245822
1111.789 .0246194
1112.379 .0246571
1112.970 .0246955
1113.561 .0247342
1114.153 .0247733
1114.745 .0248124
1115.338 .0248514
1115.931 .0248901
1116.524 .0249284
1117.117 .0249663
1117.712 .0250040
1118.306 .0250416
1118.901 .0250795
1119.496 .0251181
1120.092 .0251577
1120.689 .0251984
1121.285 .0252403
1121.882 .0252834
1122.480 .0253273
1123.078 .0253719
1123.677 .0254173
1124.276 .0254637
1124.875 .0255112
1125.476 .0255603
1126.076 .0256116
1126.677 .0256657
1127.279 .0257231
1127.881 .0257842
1128.484 .0258493
1129.087 .0258746
1129.691 .0259453
1130.295 .0260197
1130.900 .0260979
1131.505 .0261802
1132.111 .0262666
1132.718 .0263576
1133.325 .0264536
1133.933 .0265550
1134.541 .0266637
1135.150 .0267764
1135.760 .0268943
1136.370 .0270237
1136.981 .0270071
1137.592 .0271461
1138.204 .0272869
1138.817 .0274273
1139.431 .0275760
1140.045 .0277293
1140.660 .0278896
1141.275 .0280679
1141.891 .0282520
1142.508 .0284985
1143.126 .0286521
1143.744 .0288481
1144.363 .0292234
1144.983 .0292204
