Measurement Sequence started on: 15-12-46-377
Integration time: 28
Scans to Average: 2 
>>>>>Begin Spectral Data<<<<<
432.689 .0000100
433.621 .0000100
434.552 .0000100
435.482 .0000100
436.410 .0000100
437.337 .0000100
438.262 .0266175
439.187 .0564349
440.110 .0934789
441.031 .1352329
441.952 .1079930
442.871 .1127210
443.789 .1171236
444.705 .1212753
445.621 .1252263
446.535 .1290132
447.447 .1312616
448.359 .1318224
449.269 .1303303
450.178 .1265505
451.086 .1205580
451.993 .1128188
452.898 .1041033
453.803 .0952861
454.706 .0871100
455.608 .0800364
456.508 .0742170
457.408 .0703326
458.306 .0673886
459.204 .0650200
460.100 .0630401
460.995 .0613444
461.888 .0598603
462.781 .0585400
463.673 .0573497
464.563 .0562670
465.452 .0552755
466.340 .0543638
467.228 .0535224
468.114 .0527441
468.999 .0520229
469.882 .0513538
470.765 .0507315
471.647 .0501537
472.528 .0496191
473.407 .0491266
474.286 .0486768
475.163 .0482707
476.040 .0479085
476.915 .0475902
477.790 .0473149
478.663 .0470812
479.535 .0468867
480.407 .0467285
481.277 .0466029
482.147 .0465058
483.015 .0464333
483.883 .0463816
484.749 .0463472
485.615 .0463283
486.479 .0463232
487.343 .0463304
488.206 .0463497
489.067 .0463805
489.928 .0464237
490.788 .0464796
491.647 .0465489
492.505 .0466326
493.362 .0467312
494.218 .0468453
495.073 .0469757
495.928 .0472436
496.781 .0474250
497.634 .0476295
498.486 .0478601
499.337 .0481204
500.187 .0484140
501.036 .0487436
501.884 .0491119
502.731 .0495211
503.578 .0499730
504.424 .0502904
505.268 .0508145
506.113 .0513893
506.956 .0520187
507.798 .0527086
508.640 .0534670
509.480 .0543028
510.320 .0552274
511.160 .0562522
511.998 .0573909
512.836 .0586587
513.672 .0600718
514.508 .0616475
515.344 .0634070
516.178 .0653720
517.012 .0675673
517.845 .0700165
518.677 .0727438
519.508 .0757694
520.339 .0791050
521.169 .0827588
521.998 .0867129
522.826 .0909342
523.654 .0953701
524.481 .0999494
525.307 .1045913
526.133 .1091997
526.958 .1136757
527.782 .1179222
528.605 .1218509
529.428 .1253860
530.250 .1284586
531.072 .1310240
531.892 .1330473
532.712 .1345033
533.532 .1353777
534.350 .1356614
535.168 .1353547
535.986 .1344610
536.802 .1329855
537.618 .1309394
538.434 .1283360
539.249 .1252117
540.063 .1216154
540.876 .1176114
541.689 .1132802
542.501 .1087077
543.313 .1039917
544.124 .0992317
544.934 .0945209
545.744 .0899427
546.553 .0855652
547.361 .0814462
548.169 .0776172
548.976 .0740987
549.783 .0708951
550.589 .0679995
551.395 .0653957
552.200 .0630587
553.004 .0609605
553.808 .0590752
554.611 .0573786
555.414 .0558483
556.216 .0544640
557.018 .0532064
557.819 .0520592
558.619 .0510079
559.419 .0500406
560.218 .0491467
561.017 .0483152
561.815 .0475385
562.613 .0468092
563.410 .0461211
564.207 .0454693
565.003 .0448497
565.799 .0442588
566.594 .0436939
567.388 .0431525
568.182 .0426325
568.976 .0421320
569.769 .0416492
570.562 .0411821
571.354 .0407295
572.145 .0402906
572.936 .0398647
573.727 .0394519
574.517 .0390523
575.307 .0386665
576.096 .0382943
576.885 .0379362
577.673 .0375927
578.461 .0372639
579.248 .0369500
580.035 .0366512
580.821 .0363675
581.607 .0360988
582.392 .0358445
583.177 .0356044
583.962 .0353783
584.746 .0351661
585.529 .0349674
586.313 .0347820
587.095 .0346096
587.878 .0344499
588.660 .0343021
589.441 .0341658
590.222 .0340402
591.003 .0339242
591.783 .0338169
592.563 .0337171
593.342 .0336237
594.121 .0335359
594.899 .0334528
595.678 .0333740
596.455 .0332989
597.233 .0332273
598.009 .0331587
598.786 .0330929
599.562 .0330299
600.338 .0329695
601.113 .0329115
601.888 .0328327
602.663 .0327800
603.437 .0327293
604.211 .0326806
604.984 .0326336
605.757 .0325882
606.530 .0325444
607.302 .0325022
608.074 .0324615
608.845 .0324221
609.616 .0323842
610.387 .0323675
611.158 .0323311
611.928 .0322958
612.697 .0322615
613.467 .0322280
614.236 .0321950
615.004 .0321626
615.773 .0321304
616.541 .0320984
617.308 .0320665
618.076 .0320347
618.843 .0320028
619.609 .0319710
620.375 .0319389
621.141 .0319067
621.907 .0318743
622.672 .0318416
623.437 .0318088
624.202 .0317759
624.966 .0317429
625.730 .0317099
626.493 .0316770
627.257 .0316443
628.020 .0316118
628.782 .0315795
629.545 .0315477
630.307 .0315162
631.068 .0314854
631.830 .0314551
632.591 .0314256
633.352 .0313970
634.112 .0313694
634.872 .0313427
635.632 .0313169
636.392 .0312922
637.151 .0312684
637.910 .0312456
638.668 .0312237
639.427 .0312028
640.185 .0311828
640.943 .0311635
641.700 .0311451
642.457 .0311273
643.214 .0311102
643.971 .0310936
644.727 .0310776
645.483 .0310618
646.239 .0310464
646.994 .0310312
647.750 .0310162
648.505 .0310012
649.259 .0309862
650.014 .0309710
650.768 .0309556
651.521 .0309401
652.275 .0309242
653.028 .0309083
653.781 .0308921
654.534 .0308758
655.286 .0308593
656.039 .0308426
656.791 .0308257
657.542 .0308085
658.294 .0307912
659.045 .0307736
659.796 .0307558
660.546 .0307377
661.297 .0307193
662.047 .0307006
662.796 .0306817
663.546 .0306624
664.295 .0306428
665.044 .0306229
665.793 .0306028
666.542 .0305824
667.290 .0305619
668.038 .0305413
668.786 .0305206
669.533 .0304998
670.281 .0304790
671.028 .0304581
671.774 .0304372
672.521 .0304163
673.267 .0303954
674.013 .0303745
674.759 .0303537
675.505 .0303330
676.250 .0303125
676.995 .0302922
677.740 .0302721
678.484 .0302520
679.229 .0302320
679.973 .0302120
680.717 .0301918
681.460 .0301716
682.204 .0301513
682.947 .0301308
683.690 .0301102
684.433 .0300894
685.175 .0300685
685.917 .0300475
686.659 .0300264
687.401 .0300050
688.142 .0299834
688.884 .0299616
689.625 .0299396
690.365 .0299174
691.106 .0298951
691.846 .0298726
692.586 .0298500
693.326 .0298273
694.066 .0298046
694.805 .0297819
695.545 .0297594
696.284 .0297369
697.022 .0297147
697.761 .0296926
698.499 .0296707
699.237 .0296490
699.975 .0296275
700.713 .0296061
701.450 .0295848
702.187 .0295637
702.924 .0295426
703.661 .0295216
704.397 .0295007
705.133 .0294799
705.869 .0294593
706.605 .0294387
707.341 .0294183
708.076 .0293978
708.811 .0293773
709.546 .0293567
710.281 .0293361
711.015 .0293154
711.749 .0292946
712.483 .0292737
713.217 .0292528
713.950 .0292320
714.684 .0292111
715.417 .0291904
716.150 .0291698
716.882 .0291493
717.615 .0291289
718.347 .0291087
719.079 .0290885
719.811 .0290685
720.542 .0290486
721.273 .0290289
722.005 .0290093
722.735 .0289901
723.466 .0289711
724.196 .0289526
724.927 .0289345
725.656 .0289170
726.386 .0289001
727.116 .0288839
727.845 .0288682
728.574 .0288532
729.303 .0288388
730.031 .0288250
730.760 .0288119
731.488 .0287993
732.216 .0287875
732.944 .0287762
733.671 .0287656
734.398 .0287557
735.125 .0287464
735.852 .0287378
736.579 .0287298
737.305 .0287224
738.031 .0287156
738.757 .0287094
739.483 .0287035
740.208 .0286981
740.933 .0286929
741.658 .0286881
742.383 .0286835
743.108 .0286790
743.832 .0286748
744.556 .0286706
745.280 .0286666
746.004 .0286626
746.727 .0286587
747.450 .0286548
748.173 .0286507
748.896 .0286464
749.618 .0286419
750.340 .0286370
751.062 .0286318
751.784 .0286262
752.506 .0286202
753.227 .0286139
753.948 .0286071
754.669 .0286000
755.389 .0285926
756.110 .0285849
756.830 .0285768
757.550 .0285683
758.269 .0285594
758.989 .0285501
759.708 .0285404
760.427 .0285303
761.146 .0285198
761.864 .0285090
762.582 .0284978
763.300 .0284864
764.018 .0284748
764.736 .0284630
765.453 .0284511
766.170 .0284391
766.887 .0284273
767.603 .0284156
768.320 .0284040
769.036 .0283927
769.751 .0283817
770.467 .0283710
771.182 .0283606
771.897 .0283506
772.612 .0283409
773.327 .0283316
774.041 .0283228
774.755 .0283143
775.469 .0283063
776.183 .0282987
776.896 .0282914
777.609 .0282844
778.322 .0282776
779.035 .0282709
779.747 .0282643
780.459 .0282576
781.171 .0282508
781.882 .0282440
782.594 .0282369
783.305 .0282296
784.016 .0282219
784.726 .0282139
785.436 .0282053
786.147 .0281899
786.856 .0281798
787.566 .0281690
788.275 .0281575
788.984 .0281452
789.693 .0281322
790.401 .0281185
791.110 .0281042
791.818 .0280893
792.525 .0280738
793.233 .0280578
793.940 .0280413
794.647 .0280322
795.353 .0280152
796.060 .0279979
796.766 .0279802
797.472 .0279621
798.177 .0279438
798.883 .0279252
799.588 .0279062
800.292 .0278870
800.997 .0278676
801.701 .0278478
802.405 .0278278
803.109 .0278075
803.812 .0277870
804.515 .0277662
805.218 .0277452
805.921 .0277240
806.623 .0277025
807.325 .0276808
808.027 .0276589
808.728 .0276368
809.429 .0276144
810.130 .0275919
810.831 .0275692
811.531 .0275464
812.231 .0275236
812.931 .0275008
813.630 .0274781
814.330 .0274556
815.029 .0274333
815.727 .0274113
816.426 .0273896
817.124 .0273682
817.821 .0273473
818.519 .0273267
819.216 .0273066
819.913 .0272871
820.609 .0272680
821.306 .0272496
822.002 .0272319
822.697 .0272149
823.393 .0271986
824.088 .0271830
824.783 .0271681
825.477 .0271538
826.171 .0271402
826.865 .0271271
827.559 .0271146
828.252 .0271027
828.945 .0270912
829.638 .0270803
830.330 .0270699
831.023 .0270600
831.714 .0270506
832.406 .0270416
833.097 .0270330
833.788 .0270248
834.479 .0270169
835.169 .0270094
835.859 .0270022
836.548 .0269954
837.238 .0269888
837.927 .0269826
838.615 .0269765
839.304 .0269707
839.992 .0269649
840.680 .0269593
841.367 .0269536
842.054 .0269480
842.741 .0269423
843.428 .0269367
844.114 .0269312
844.800 .0269256
845.485 .0269200
846.170 .0269145
846.855 .0269089
847.540 .0269032
848.224 .0268974
848.908 .0268915
849.592 .0268855
850.275 .0268794
850.958 .0268733
851.641 .0268671
852.323 .0268608
853.005 .0268545
853.687 .0268482
854.368 .0268418
855.049 .0268353
855.730 .0268289
856.410 .0268225
857.090 .0268161
857.769 .0268099
858.449 .0268038
859.128 .0267978
859.806 .0267920
860.485 .0267864
861.163 .0267810
861.840 .0267757
862.518 .0267707
863.195 .0267658
863.871 .0267611
864.548 .0267565
865.224 .0267521
865.899 .0267478
866.574 .0267436
867.249 .0267396
867.924 .0267358
868.598 .0267321
869.272 .0267288
869.946 .0267257
870.619 .0267229
871.292 .0267204
871.964 .0267183
872.636 .0267167
873.308 .0267154
873.979 .0267145
874.651 .0267140
875.321 .0267140
875.992 .0267144
876.662 .0267153
877.331 .0267166
878.001 .0267184
878.670 .0267206
879.338 .0267232
880.007 .0267262
880.675 .0267298
881.342 .0267338
882.009 .0267383
882.676 .0267432
883.343 .0267486
884.009 .0267544
884.675 .0267606
885.340 .0267671
886.005 .0267739
886.670 .0267810
887.334 .0267883
887.998 .0267958
888.662 .0268035
889.325 .0268113
889.988 .0268191
890.650 .0268267
891.312 .0268341
891.974 .0268412
892.636 .0268479
893.297 .0268540
893.957 .0268597
894.618 .0268647
895.278 .0268691
895.937 .0268728
896.596 .0268758
897.255 .0268779
897.914 .0268792
898.572 .0268795
899.230 .0268789
899.887 .0268773
900.544 .0268746
901.201 .0268708
901.857 .0268604
902.513 .0268540
903.168 .0268467
903.823 .0268383
904.478 .0268290
905.132 .0268187
905.786 .0268074
906.440 .0267951
907.093 .0267821
907.746 .0267683
908.399 .0267540
909.051 .0267391
909.703 .0267238
910.354 .0267155
911.005 .0267000
911.656 .0266843
912.306 .0266685
912.956 .0266524
913.605 .0266360
914.254 .0266195
914.903 .0266026
915.551 .0265854
916.199 .0265679
916.847 .0265501
917.494 .0265319
918.141 .0265134
918.788 .0264944
919.434 .0264749
920.079 .0264549
920.725 .0264342
921.370 .0264129
922.014 .0263909
922.658 .0263683
923.302 .0263451
923.946 .0263213
924.589 .0262971
925.231 .0262724
925.873 .0262473
926.515 .0262218
927.157 .0261959
927.798 .0261697
928.439 .0261432
929.079 .0261165
929.719 .0260895
930.359 .0260625
930.998 .0260355
931.637 .0260085
932.275 .0259817
932.913 .0259552
933.551 .0259289
934.188 .0259030
934.825 .0258775
935.462 .0258525
936.098 .0258280
936.733 .0258040
937.369 .0257807
938.004 .0257579
938.638 .0257358
939.273 .0257142
939.907 .0256931
940.540 .0256726
941.173 .0256524
941.806 .0256325
942.438 .0256130
943.070 .0255938
943.702 .0255747
944.333 .0255559
944.964 .0255372
945.594 .0255187
946.224 .0255001
946.854 .0254815
947.483 .0254628
948.112 .0254440
948.741 .0254251
949.369 .0254060
949.996 .0253868
950.624 .0253676
951.251 .0253483
951.878 .0253290
952.504 .0253096
953.130 .0252901
953.755 .0252706
954.380 .0252511
955.005 .0252314
955.629 .0252117
956.253 .0251920
956.877 .0251723
957.500 .0251526
958.123 .0251331
958.746 .0251137
959.368 .0250945
959.990 .0250754
960.611 .0250566
961.232 .0250380
961.853 .0250196
962.473 .0250014
963.093 .0249833
963.712 .0249654
964.331 .0249478
964.950 .0249303
965.569 .0249130
966.187 .0248960
966.804 .0248791
967.422 .0248625
968.039 .0248459
968.655 .0248295
969.272 .0248132
969.887 .0247969
970.503 .0247805
971.118 .0247642
971.733 .0247478
972.347 .0247314
972.961 .0247150
973.575 .0246986
974.188 .0246820
974.801 .0246653
975.414 .0246485
976.026 .0246316
976.638 .0246144
977.250 .0245970
977.861 .0245794
978.472 .0245616
979.083 .0245437
979.693 .0245257
980.303 .0245077
980.912 .0244801
981.521 .0244620
982.130 .0244441
982.738 .0244262
983.346 .0244085
983.954 .0243910
984.562 .0243738
985.169 .0243571
985.775 .0243409
986.382 .0243253
986.988 .0243104
987.594 .0242962
988.199 .0242829
988.804 .0242703
989.409 .0242670
990.013 .0242560
990.617 .0242459
991.221 .0242370
991.824 .0242291
992.427 .0242222
993.030 .0242165
993.632 .0242118
994.234 .0242082
994.836 .0242055
995.438 .0242038
996.039 .0242031
996.640 .0242032
997.240 .0242042
997.840 .0242061
998.440 .0242088
999.040 .0242123
999.639 .0242166
1000.238 .0242214
1000.836 .0242268
1001.435 .0242325
1002.033 .0242386
1002.630 .0242450
1003.228 .0242515
1003.825 .0242582
1004.422 .0242650
1005.018 .0242718
1005.614 .0242787
1006.210 .0242856
1006.806 .0242925
1007.401 .0242992
1007.996 .0243058
1008.591 .0243123
1009.186 .0243186
1009.780 .0243249
1010.374 .0243312
1010.967 .0243376
1011.561 .0243442
1012.154 .0243512
1012.746 .0243585
1013.339 .0243662
1013.931 .0243744
1014.523 .0243829
1015.115 .0243920
1015.706 .0244015
1016.298 .0244114
1016.888 .0244220
1017.479 .0244332
1018.069 .0244451
1018.660 .0244577
1019.250 .0244712
1019.839 .0244855
1020.429 .0245006
1021.018 .0245165
1021.607 .0245331
1022.195 .0245505
1022.784 .0245686
1023.372 .0245873
1023.960 .0246068
1024.547 .0246270
1025.135 .0246478
1025.722 .0246694
1026.309 .0246915
1026.896 .0247140
1027.483 .0247368
1028.069 .0247598
1028.655 .0247826
1029.241 .0248051
1029.827 .0248272
1030.412 .0248488
1030.997 .0248698
1031.582 .0248903
1032.167 .0249102
1032.752 .0249295
1033.336 .0249484
1033.921 .0249667
1034.505 .0249846
1035.089 .0250020
1035.672 .0250189
1036.256 .0250352
1036.839 .0250511
1037.422 .0250665
1038.005 .0250816
1038.588 .0250964
1039.171 .0251111
1039.753 .0251257
1040.335 .0251402
1040.918 .0251547
1041.500 .0251691
1042.081 .0251833
1042.663 .0251974
1043.244 .0252113
1043.826 .0252249
1044.407 .0252382
1044.988 .0252514
1045.569 .0252646
1046.150 .0252777
1046.730 .0252908
1047.311 .0253041
1047.891 .0253174
1048.471 .0253307
1049.052 .0253441
1049.632 .0253573
1050.211 .0253704
1050.791 .0253833
1051.371 .0253959
1051.950 .0254083
1052.530 .0254205
1053.109 .0254325
1053.688 .0254443
1054.268 .0254558
1054.847 .0254672
1055.426 .0254782
1056.005 .0254890
1056.583 .0254994
1057.162 .0255094
1057.741 .0255191
1058.319 .0255284
1058.898 .0255374
1059.476 .0255463
1060.055 .0255550
1060.633 .0255636
1061.211 .0255722
1061.790 .0255809
1062.368 .0255897
1062.946 .0255986
1063.524 .0256077
1064.102 .0256171
1064.680 .0256266
1065.258 .0256364
1065.836 .0256465
1066.414 .0256569
1066.992 .0256677
1067.570 .0256787
1068.148 .0256899
1068.726 .0257014
1069.304 .0257130
1069.882 .0257248
1070.460 .0257365
1071.038 .0257480
1071.616 .0257594
1072.194 .0257704
1072.772 .0257809
1073.350 .0257907
1073.928 .0257998
1074.506 .0258082
1075.084 .0258158
1075.662 .0258226
1076.240 .0258288
1076.819 .0258345
1077.397 .0258399
1077.976 .0258451
1078.554 .0258502
1079.133 .0258554
1079.711 .0258607
1080.290 .0258661
1080.869 .0258719
1081.448 .0258779
1082.027 .0258843
1082.606 .0258911
1083.185 .0258984
1083.764 .0259061
1084.343 .0259144
1084.923 .0259233
1085.502 .0259326
1086.082 .0259425
1086.662 .0259528
1087.242 .0259636
1087.822 .0259749
1088.402 .0259868
1088.983 .0259995
1089.563 .0260129
1090.144 .0260271
1090.725 .0260423
1091.306 .0260586
1091.887 .0260759
1092.469 .0260943
1093.050 .0261137
1093.632 .0261342
1094.214 .0261554
1094.796 .0261772
1095.379 .0261994
1095.961 .0262218
1096.544 .0262440
1097.127 .0262660
1097.710 .0262874
1098.294 .0263084
1098.877 .0263288
1099.461 .0263486
1100.046 .0263681
1100.630 .0263871
1101.215 .0264058
1101.800 .0264240
1102.385 .0264418
1102.970 .0264592
1103.556 .0264762
1104.142 .0264930
1104.728 .0265096
1105.315 .0265263
1105.902 .0265432
1106.489 .0265605
1107.077 .0265785
1107.664 .0265970
1108.253 .0266160
1108.841 .0266353
1109.430 .0266546
1110.019 .0266737
1110.609 .0266925
1111.198 .0267107
1111.789 .0267285
1112.379 .0267460
1112.970 .0267633
1113.561 .0267810
1114.153 .0267992
1114.745 .0268185
1115.338 .0268389
1115.931 .0268607
1116.524 .0268840
1117.117 .0269085
1117.712 .0269344
1118.306 .0269616
1118.901 .0269902
1119.496 .0270202
1120.092 .0270520
1120.689 .0270856
1121.285 .0271212
1121.882 .0271591
1122.480 .0271991
1123.078 .0272413
1123.677 .0272855
1124.276 .0273313
1124.875 .0273788
1125.476 .0274280
1126.076 .0274789
1126.677 .0275318
1127.279 .0275872
1127.881 .0276451
1128.484 .0277059
1129.087 .0277308
1129.691 .0277964
1130.295 .0278648
1130.900 .0279361
1131.505 .0280100
1132.111 .0280862
1132.718 .0281642
1133.325 .0282433
1133.933 .0283228
1134.541 .0284092
1135.150 .0284940
1135.760 .0285760
1136.370 .0286492
1136.981 .0287592
1137.592 .0288547
1138.204 .0289522
1138.817 .0290520
1139.431 .0291532
1140.045 .0292523
1140.660 .0293462
1141.275 .0294259
1141.891 .0294859
1142.508 .0297319
1143.126 .0297441
1143.744 .0297144
1144.363 .0295260
1144.983 .0292828
