Measurement Sequence started on: 15-12-46-377
Integration time: 28
Scans to Average: 2 
>>>>>Begin Spectral Data<<<<<
432.689 .0000100
433.621 .0000100
434.552 .0000100
435.482 .0000100
436.410 .0000100
437.337 .0000100
438.262 .0266068
439.187 .0563531
440.110 .0933938
441.031 .1352191
441.952 .1091074
442.871 .1140566
443.789 .1186779
444.705 .1230398
445.621 .1271882
446.535 .1311574
447.447 .1335717
448.359 .1342851
449.269 .1329309
450.178 .1292718
451.086 .1233798
451.993 .1157171
452.898 .1070487
453.803 .0982444
454.706 .0900437
455.608 .0829060
456.508 .0769862
457.408 .0729699
458.306 .0698677
459.204 .0673276
460.100 .0651723
460.995 .0633050
461.888 .0616612
462.781 .0601992
463.673 .0588878
464.563 .0577066
465.452 .0566382
466.340 .0556680
467.228 .0547836
468.114 .0539751
468.999 .0532343
469.882 .0525544
470.765 .0519297
471.647 .0513568
472.528 .0508336
473.407 .0503583
474.286 .0499297
475.163 .0495468
476.040 .0492074
476.915 .0489096
477.790 .0486506
478.663 .0484271
479.535 .0482356
480.407 .0480733
481.277 .0479371
482.147 .0478242
483.015 .0477326
483.883 .0476599
484.749 .0476041
485.615 .0475639
486.479 .0475374
487.343 .0475239
488.206 .0475228
489.067 .0475340
489.928 .0475583
490.788 .0475972
491.647 .0476515
492.505 .0477224
493.362 .0478113
494.218 .0479187
495.073 .0480451
495.928 .0483100
496.781 .0484874
497.634 .0486854
498.486 .0489054
499.337 .0491498
500.187 .0494216
501.036 .0497242
501.884 .0500612
502.731 .0504366
503.578 .0508542
504.424 .0511481
505.268 .0516409
506.113 .0521851
506.956 .0527833
507.798 .0534411
508.640 .0541661
509.480 .0549687
510.320 .0558621
511.160 .0568620
511.998 .0579866
512.836 .0592564
513.672 .0606903
514.508 .0623100
515.344 .0641350
516.178 .0661847
517.012 .0684786
517.845 .0710322
518.677 .0738634
519.508 .0769868
520.339 .0804108
521.169 .0841381
521.998 .0881437
522.826 .0923937
523.654 .0968321
524.481 .1013873
525.307 .1059760
526.133 .1105031
526.958 .1148707
527.782 .1189827
528.605 .1227513
529.428 .1261024
530.250 .1289704
531.072 .1313165
531.892 .1331061
532.712 .1343198
533.532 .1349491
534.350 .1349908
535.168 .1344528
535.986 .1333439
536.802 .1316698
537.618 .1294420
538.434 .1266754
539.249 .1234122
540.063 .1197023
540.876 .1156145
541.689 .1112321
542.501 .1066462
543.313 .1019537
544.124 .0972510
544.934 .0926273
545.744 .0881601
546.553 .0839113
547.361 .0799301
548.169 .0762398
548.976 .0728569
549.783 .0697839
550.589 .0670119
551.395 .0645245
552.200 .0622984
553.004 .0603060
553.808 .0585243
554.611 .0569306
555.414 .0555031
556.216 .0542204
557.018 .0530628
557.819 .0520128
558.619 .0510540
559.419 .0501717
560.218 .0493551
561.017 .0485942
561.815 .0478817
562.613 .0472116
563.410 .0465779
564.207 .0459756
565.003 .0454007
565.799 .0448491
566.594 .0443168
567.388 .0438005
568.182 .0432980
568.976 .0428069
569.769 .0423256
570.562 .0418535
571.354 .0413905
572.145 .0409375
572.936 .0404956
573.727 .0400650
574.517 .0396466
575.307 .0392409
576.096 .0388480
576.885 .0384685
577.673 .0381029
578.461 .0377511
579.248 .0374134
580.035 .0370901
580.821 .0367815
581.607 .0364879
582.392 .0362101
583.177 .0359487
583.962 .0357042
584.746 .0354766
585.529 .0352656
586.313 .0350706
587.095 .0348909
587.878 .0347254
588.660 .0345728
589.441 .0344321
590.222 .0343021
591.003 .0341820
591.783 .0340709
592.563 .0339683
593.342 .0338733
594.121 .0337852
594.899 .0337033
595.678 .0336269
596.455 .0335551
597.233 .0334871
598.009 .0334221
598.786 .0333596
599.562 .0332989
600.338 .0332396
601.113 .0331815
601.888 .0330974
602.663 .0330416
603.437 .0329869
604.211 .0329332
604.984 .0328805
605.757 .0328289
606.530 .0327783
607.302 .0327287
608.074 .0326801
608.845 .0326326
609.616 .0325861
610.387 .0325657
611.158 .0325216
611.928 .0324788
612.697 .0324375
613.467 .0323977
614.236 .0323595
615.004 .0323231
615.773 .0322885
616.541 .0322556
617.308 .0322245
618.076 .0321951
618.843 .0321673
619.609 .0321409
620.375 .0321159
621.141 .0320921
621.907 .0320692
622.672 .0320471
623.437 .0320257
624.202 .0320047
624.966 .0319841
625.730 .0319637
626.493 .0319434
627.257 .0319229
628.020 .0319021
628.782 .0318810
629.545 .0318594
630.307 .0318375
631.068 .0318151
631.830 .0317923
632.591 .0317691
633.352 .0317456
634.112 .0317218
634.872 .0316977
635.632 .0316734
636.392 .0316488
637.151 .0316242
637.910 .0315996
638.668 .0315753
639.427 .0315514
640.185 .0315281
640.943 .0315055
641.700 .0314838
642.457 .0314629
643.214 .0314429
643.971 .0314236
644.727 .0314051
645.483 .0313873
646.239 .0313700
646.994 .0313531
647.750 .0313366
648.505 .0313204
649.259 .0313043
650.014 .0312883
650.768 .0312721
651.521 .0312557
652.275 .0312389
653.028 .0312216
653.781 .0312037
654.534 .0311851
655.286 .0311657
656.039 .0311454
656.791 .0311241
657.542 .0311019
658.294 .0310787
659.045 .0310546
659.796 .0310296
660.546 .0310037
661.297 .0309770
662.047 .0309496
662.796 .0309214
663.546 .0308927
664.295 .0308633
665.044 .0308334
665.793 .0308033
666.542 .0307729
667.290 .0307426
668.038 .0307123
668.786 .0306823
669.533 .0306525
670.281 .0306230
671.028 .0305939
671.774 .0305651
672.521 .0305366
673.267 .0305084
674.013 .0304806
674.759 .0304532
675.505 .0304261
676.250 .0303993
676.995 .0303729
677.740 .0303468
678.484 .0303209
679.229 .0302952
679.973 .0302697
680.717 .0302444
681.460 .0302192
682.204 .0301940
682.947 .0301687
683.690 .0301434
684.433 .0301179
685.175 .0300922
685.917 .0300664
686.659 .0300403
687.401 .0300141
688.142 .0299879
688.884 .0299617
689.625 .0299355
690.365 .0299094
691.106 .0298835
691.846 .0298577
692.586 .0298321
693.326 .0298066
694.066 .0297812
694.805 .0297562
695.545 .0297314
696.284 .0297070
697.022 .0296829
697.761 .0296593
698.499 .0296361
699.237 .0296135
699.975 .0295913
700.713 .0295698
701.450 .0295488
702.187 .0295284
702.924 .0295086
703.661 .0294894
704.397 .0294708
705.133 .0294528
705.869 .0294353
706.605 .0294182
707.341 .0294016
708.076 .0293853
708.811 .0293695
709.546 .0293541
710.281 .0293391
711.015 .0293245
711.749 .0293101
712.483 .0292961
713.217 .0292824
713.950 .0292690
714.684 .0292559
715.417 .0292431
716.150 .0292306
716.882 .0292183
717.615 .0292063
718.347 .0291946
719.079 .0291830
719.811 .0291716
720.542 .0291603
721.273 .0291491
722.005 .0291379
722.735 .0291269
723.466 .0291161
724.196 .0291054
724.927 .0290950
725.656 .0290848
726.386 .0290747
727.116 .0290649
727.845 .0290552
728.574 .0290457
729.303 .0290365
730.031 .0290274
730.760 .0290185
731.488 .0290098
732.216 .0290013
732.944 .0289930
733.671 .0289849
734.398 .0289770
735.125 .0289693
735.852 .0289618
736.579 .0289546
737.305 .0289477
738.031 .0289409
738.757 .0289342
739.483 .0289275
740.208 .0289208
740.933 .0289139
741.658 .0289066
742.383 .0288990
743.108 .0288910
743.832 .0288824
744.556 .0288733
745.280 .0288637
746.004 .0288536
746.727 .0288428
747.450 .0288314
748.173 .0288194
748.896 .0288067
749.618 .0287932
750.340 .0287790
751.062 .0287640
751.784 .0287481
752.506 .0287315
753.227 .0287140
753.948 .0286957
754.669 .0286768
755.389 .0286573
756.110 .0286373
756.830 .0286168
757.550 .0285960
758.269 .0285749
758.989 .0285535
759.708 .0285319
760.427 .0285100
761.146 .0284879
761.864 .0284655
762.582 .0284428
763.300 .0284198
764.018 .0283967
764.736 .0283734
765.453 .0283501
766.170 .0283266
766.887 .0283031
767.603 .0282794
768.320 .0282557
769.036 .0282319
769.751 .0282080
770.467 .0281841
771.182 .0281601
771.897 .0281363
772.612 .0281125
773.327 .0280889
774.041 .0280655
774.755 .0280423
775.469 .0280195
776.183 .0279970
776.896 .0279750
777.609 .0279535
778.322 .0279327
779.035 .0279125
779.747 .0278930
780.459 .0278743
781.171 .0278563
781.882 .0278390
782.594 .0278225
783.305 .0278066
784.016 .0277915
784.726 .0277770
785.436 .0277632
786.147 .0277447
786.856 .0277320
787.566 .0277198
788.275 .0277079
788.984 .0276964
789.693 .0276850
790.401 .0276737
791.110 .0276624
791.818 .0276510
792.525 .0276396
793.233 .0276281
793.940 .0276164
794.647 .0276094
795.353 .0275974
796.060 .0275853
796.766 .0275729
797.472 .0275603
798.177 .0275474
798.883 .0275344
799.588 .0275211
800.292 .0275077
800.997 .0274942
801.701 .0274806
802.405 .0274670
803.109 .0274534
803.812 .0274399
804.515 .0274264
805.218 .0274129
805.921 .0273995
806.623 .0273862
807.325 .0273731
808.027 .0273603
808.728 .0273479
809.429 .0273358
810.130 .0273241
810.831 .0273129
811.531 .0273021
812.231 .0272918
812.931 .0272819
813.630 .0272726
814.330 .0272638
815.029 .0272556
815.727 .0272481
816.426 .0272415
817.124 .0272357
817.821 .0272308
818.519 .0272267
819.216 .0272236
819.913 .0272212
820.609 .0272196
821.306 .0272187
822.002 .0272186
822.697 .0272192
823.393 .0272205
824.088 .0272227
824.783 .0272255
825.477 .0272291
826.171 .0272332
826.865 .0272379
827.559 .0272430
828.252 .0272485
828.945 .0272542
829.638 .0272601
830.330 .0272662
831.023 .0272725
831.714 .0272787
832.406 .0272850
833.097 .0272911
833.788 .0272970
834.479 .0273027
835.169 .0273081
835.859 .0273131
836.548 .0273178
837.238 .0273222
837.927 .0273263
838.615 .0273300
839.304 .0273333
839.992 .0273361
840.680 .0273384
841.367 .0273401
842.054 .0273411
842.741 .0273416
843.428 .0273414
844.114 .0273407
844.800 .0273393
845.485 .0273374
846.170 .0273348
846.855 .0273316
847.540 .0273275
848.224 .0273225
848.908 .0273166
849.592 .0273097
850.275 .0273019
850.958 .0272931
851.641 .0272834
852.323 .0272728
853.005 .0272614
853.687 .0272491
854.368 .0272361
855.049 .0272222
855.730 .0272075
856.410 .0271921
857.090 .0271759
857.769 .0271591
858.449 .0271416
859.128 .0271235
859.806 .0271049
860.485 .0270859
861.163 .0270665
861.840 .0270468
862.518 .0270269
863.195 .0270070
863.871 .0269869
864.548 .0269668
865.224 .0269467
865.899 .0269267
866.574 .0269067
867.249 .0268867
867.924 .0268667
868.598 .0268467
869.272 .0268268
869.946 .0268070
870.619 .0267873
871.292 .0267676
871.964 .0267480
872.636 .0267286
873.308 .0267093
873.979 .0266901
874.651 .0266709
875.321 .0266519
875.992 .0266329
876.662 .0266140
877.331 .0265951
878.001 .0265762
878.670 .0265575
879.338 .0265387
880.007 .0265200
880.675 .0265015
881.342 .0264830
882.009 .0264647
882.676 .0264467
883.343 .0264288
884.009 .0264112
884.675 .0263939
885.340 .0263768
886.005 .0263600
886.670 .0263435
887.334 .0263272
887.998 .0263112
888.662 .0262955
889.325 .0262800
889.988 .0262649
890.650 .0262501
891.312 .0262355
891.974 .0262213
892.636 .0262073
893.297 .0261936
893.957 .0261800
894.618 .0261666
895.278 .0261532
895.937 .0261398
896.596 .0261263
897.255 .0261126
897.914 .0260985
898.572 .0260841
899.230 .0260694
899.887 .0260541
900.544 .0260384
901.201 .0260221
901.857 .0259950
902.513 .0259773
903.168 .0259590
903.823 .0259402
904.478 .0259207
905.132 .0259005
905.786 .0258798
906.440 .0258584
907.093 .0258365
907.746 .0258142
908.399 .0257914
909.051 .0257682
909.703 .0257447
910.354 .0257323
911.005 .0257087
911.656 .0256848
912.306 .0256607
912.956 .0256364
913.605 .0256121
914.254 .0255878
914.903 .0255637
915.551 .0255398
916.199 .0255161
916.847 .0254929
917.494 .0254700
918.141 .0254474
918.788 .0254252
919.434 .0254034
920.079 .0253820
920.725 .0253609
921.370 .0253401
922.014 .0253197
922.658 .0252996
923.302 .0252798
923.946 .0252604
924.589 .0252413
925.231 .0252225
925.873 .0252039
926.515 .0251856
927.157 .0251676
927.798 .0251499
928.439 .0251325
929.079 .0251155
929.719 .0250989
930.359 .0250827
930.998 .0250671
931.637 .0250520
932.275 .0250377
932.913 .0250240
933.551 .0250110
934.188 .0249989
934.825 .0249877
935.462 .0249773
936.098 .0249678
936.733 .0249591
937.369 .0249512
938.004 .0249440
938.638 .0249378
939.273 .0249324
939.907 .0249279
940.540 .0249245
941.173 .0249221
941.806 .0249207
942.438 .0249204
943.070 .0249210
943.702 .0249225
944.333 .0249248
944.964 .0249279
945.594 .0249316
946.224 .0249359
946.854 .0249408
947.483 .0249462
948.112 .0249521
948.741 .0249584
949.369 .0249649
949.996 .0249716
950.624 .0249783
951.251 .0249849
951.878 .0249913
952.504 .0249975
953.130 .0250035
953.755 .0250094
954.380 .0250150
955.005 .0250206
955.629 .0250260
956.253 .0250312
956.877 .0250364
957.500 .0250413
958.123 .0250461
958.746 .0250509
959.368 .0250555
959.990 .0250603
960.611 .0250652
961.232 .0250703
961.853 .0250755
962.473 .0250810
963.093 .0250866
963.712 .0250923
964.331 .0250980
964.950 .0251039
965.569 .0251097
966.187 .0251155
966.804 .0251214
967.422 .0251273
968.039 .0251332
968.655 .0251392
969.272 .0251452
969.887 .0251512
970.503 .0251571
971.118 .0251630
971.733 .0251688
972.347 .0251744
972.961 .0251799
973.575 .0251851
974.188 .0251901
974.801 .0251947
975.414 .0251990
976.026 .0252029
976.638 .0252065
977.250 .0252096
977.861 .0252123
978.472 .0252146
979.083 .0252164
979.693 .0252177
980.303 .0252186
980.912 .0252180
981.521 .0252174
982.130 .0252164
982.738 .0252148
983.346 .0252128
983.954 .0252105
984.562 .0252079
985.169 .0252051
985.775 .0252021
986.382 .0251990
986.988 .0251958
987.594 .0251926
988.199 .0251893
988.804 .0251862
989.409 .0251847
990.013 .0251820
990.617 .0251796
991.221 .0251775
991.824 .0251757
992.427 .0251743
993.030 .0251730
993.632 .0251718
994.234 .0251707
994.836 .0251696
995.438 .0251685
996.039 .0251674
996.640 .0251664
997.240 .0251655
997.840 .0251649
998.440 .0251644
999.040 .0251641
999.639 .0251639
1000.238 .0251638
1000.836 .0251637
1001.435 .0251636
1002.033 .0251634
1002.630 .0251632
1003.228 .0251630
1003.825 .0251629
1004.422 .0251627
1005.018 .0251626
1005.614 .0251622
1006.210 .0251617
1006.806 .0251608
1007.401 .0251594
1007.996 .0251574
1008.591 .0251548
1009.186 .0251516
1009.780 .0251478
1010.374 .0251435
1010.967 .0251388
1011.561 .0251336
1012.154 .0251280
1012.746 .0251222
1013.339 .0251160
1013.931 .0251096
1014.523 .0251030
1015.115 .0250964
1015.706 .0250897
1016.298 .0250831
1016.888 .0250767
1017.479 .0250706
1018.069 .0250648
1018.660 .0250592
1019.250 .0250539
1019.839 .0250488
1020.429 .0250439
1021.018 .0250390
1021.607 .0250343
1022.195 .0250296
1022.784 .0250250
1023.372 .0250205
1023.960 .0250161
1024.547 .0250119
1025.135 .0250078
1025.722 .0250038
1026.309 .0249999
1026.896 .0249961
1027.483 .0249923
1028.069 .0249885
1028.655 .0249848
1029.241 .0249812
1029.827 .0249774
1030.412 .0249737
1030.997 .0249698
1031.582 .0249657
1032.167 .0249614
1032.752 .0249568
1033.336 .0249517
1033.921 .0249462
1034.505 .0249402
1035.089 .0249336
1035.672 .0249266
1036.256 .0249191
1036.839 .0249112
1037.422 .0249028
1038.005 .0248939
1038.588 .0248846
1039.171 .0248749
1039.753 .0248648
1040.335 .0248544
1040.918 .0248437
1041.500 .0248327
1042.081 .0248215
1042.663 .0248102
1043.244 .0247987
1043.826 .0247872
1044.407 .0247755
1044.988 .0247637
1045.569 .0247516
1046.150 .0247394
1046.730 .0247269
1047.311 .0247140
1047.891 .0247009
1048.471 .0246875
1049.052 .0246738
1049.632 .0246598
1050.211 .0246456
1050.791 .0246312
1051.371 .0246168
1051.950 .0246022
1052.530 .0245875
1053.109 .0245729
1053.688 .0245581
1054.268 .0245434
1054.847 .0245287
1055.426 .0245140
1056.005 .0244992
1056.583 .0244846
1057.162 .0244699
1057.741 .0244554
1058.319 .0244410
1058.898 .0244267
1059.476 .0244125
1060.055 .0243985
1060.633 .0243846
1061.211 .0243708
1061.790 .0243569
1062.368 .0243431
1062.946 .0243290
1063.524 .0243150
1064.102 .0243008
1064.680 .0242866
1065.258 .0242726
1065.836 .0242588
1066.414 .0242454
1066.992 .0242325
1067.570 .0242201
1068.148 .0242082
1068.726 .0241967
1069.304 .0241856
1069.882 .0241750
1070.460 .0241648
1071.038 .0241551
1071.616 .0241459
1072.194 .0241373
1072.772 .0241294
1073.350 .0241223
1073.928 .0241160
1074.506 .0241104
1075.084 .0241055
1075.662 .0241011
1076.240 .0240970
1076.819 .0240933
1077.397 .0240899
1077.976 .0240868
1078.554 .0240841
1079.133 .0240818
1079.711 .0240800
1080.290 .0240787
1080.869 .0240781
1081.448 .0240779
1082.027 .0240782
1082.606 .0240789
1083.185 .0240798
1083.764 .0240809
1084.343 .0240821
1084.923 .0240834
1085.502 .0240848
1086.082 .0240865
1086.662 .0240883
1087.242 .0240904
1087.822 .0240928
1088.402 .0240955
1088.983 .0240984
1089.563 .0241016
1090.144 .0241049
1090.725 .0241082
1091.306 .0241115
1091.887 .0241148
1092.469 .0241181
1093.050 .0241217
1093.632 .0241258
1094.214 .0241305
1094.796 .0241361
1095.379 .0241430
1095.961 .0241511
1096.544 .0241605
1097.127 .0241710
1097.710 .0241826
1098.294 .0241948
1098.877 .0242076
1099.461 .0242208
1100.046 .0242346
1100.630 .0242490
1101.215 .0242644
1101.800 .0242808
1102.385 .0242984
1102.970 .0243173
1103.556 .0243373
1104.142 .0243585
1104.728 .0243803
1105.315 .0244027
1105.902 .0244257
1106.489 .0244492
1107.077 .0244737
1107.664 .0244993
1108.253 .0245267
1108.841 .0245559
1109.430 .0245874
1110.019 .0246207
1110.609 .0246559
1111.198 .0246927
1111.789 .0247308
1112.379 .0247699
1112.970 .0248099
1113.561 .0248510
1114.153 .0248932
1114.745 .0249368
1115.338 .0249824
1115.931 .0250299
1116.524 .0250796
1117.117 .0251313
1117.712 .0251846
1118.306 .0252393
1118.901 .0252950
1119.496 .0253514
1120.092 .0254087
1120.689 .0254671
1121.285 .0255267
1121.882 .0255879
1122.480 .0256510
1123.078 .0257159
1123.677 .0257826
1124.276 .0258508
1124.875 .0259203
1125.476 .0259907
1126.076 .0260620
1126.677 .0261343
1127.279 .0262081
1127.881 .0262838
1128.484 .0263619
1129.087 .0263969
1129.691 .0264786
1130.295 .0265632
1130.900 .0266507
1131.505 .0267411
1132.111 .0268343
1132.718 .0269304
1133.325 .0270289
1133.933 .0271295
1134.541 .0272366
1135.150 .0273473
1135.760 .0274620
1136.370 .0275649
1136.981 .0275846
1137.592 .0277288
1138.204 .0278725
1138.817 .0280125
1139.431 .0281591
1140.045 .0283059
1140.660 .0284561
1141.275 .0285946
1141.891 .0287265
1142.508 .0289817
1143.126 .0291485
1143.744 .0293252
1144.363 .0290578
1144.983 .0291370
