BestFit value for E:\RC_data\Compressed_For_Future_Analysis_Lite\test_shlomo\aqueous_test\GoodSpectraLarge_Full\0012_2025-06-24_09-45-30\Interpretation_History\2025-07-21_16-23-34\ResultsGraphs\BestFit\(Run)spectra_09-46-28-584_BestFit.txt
600.203 0.0585417
600.975 0.0585398
601.747 0.0585374
602.518 0.0585345
603.289 0.0585311
604.059 0.0585271
604.829 0.0585226
605.599 0.0585176
606.369 0.0585120
607.138 0.0585059
607.906 0.0584994
608.675 0.0584923
609.443 0.0584847
610.210 0.0584768
610.977 0.0584683
611.744 0.0584595
612.511 0.0584503
613.277 0.0584408
614.043 0.0584310
614.809 0.0584209
615.574 0.0584106
616.339 0.0584001
617.104 0.0583895
617.868 0.0583787
618.632 0.0583678
619.395 0.0583569
620.159 0.0583459
620.922 0.0583349
621.684 0.0583239
622.447 0.0583129
623.209 0.0583020
623.970 0.0582911
624.732 0.0582802
625.493 0.0582693
626.254 0.0582585
627.014 0.0582477
627.774 0.0582369
628.534 0.0582261
629.294 0.0582152
630.053 0.0582042
630.812 0.0581932
631.571 0.0581820
632.329 0.0581707
633.087 0.0581592
633.845 0.0581474
634.602 0.0581354
635.359 0.0581230
636.116 0.0581104
636.873 0.0580973
637.629 0.0580839
638.385 0.0580700
639.141 0.0580556
639.897 0.0580408
640.652 0.0580255
641.407 0.0580096
642.161 0.0579933
642.916 0.0579764
643.670 0.0579590
644.424 0.0579410
645.177 0.0579226
645.931 0.0579036
646.684 0.0578841
647.436 0.0578642
648.189 0.0578439
648.941 0.0578231
649.693 0.0578020
650.445 0.0577805
651.196 0.0577588
651.947 0.0577368
652.698 0.0577146
653.449 0.0576922
654.199 0.0576697
654.949 0.0576472
655.699 0.0576246
656.449 0.0576020
657.198 0.0575795
657.947 0.0575571
658.696 0.0575348
659.445 0.0575127
660.193 0.0574908
660.941 0.0574691
661.689 0.0574477
662.436 0.0574265
663.184 0.0574057
663.931 0.0573851
664.678 0.0573648
665.424 0.0573448
666.171 0.0573250
666.917 0.0573055
667.663 0.0572863
668.408 0.0572673
669.154 0.0572485
669.899 0.0572299
670.644 0.0572114
671.388 0.0571931
672.133 0.0571747
672.877 0.0571564
673.621 0.0571380
674.365 0.0571196
675.108 0.0571010
675.851 0.0570823
676.594 0.0570633
677.337 0.0570441
678.080 0.0570245
678.822 0.0570046
679.564 0.0569842
680.306 0.0569634
681.047 0.0569422
681.789 0.0569204
682.530 0.0568981
683.271 0.0568753
684.012 0.0568518
684.752 0.0568278
685.492 0.0568031
686.232 0.0567779
686.972 0.0567520
687.712 0.0567255
688.451 0.0566985
689.190 0.0566709
689.929 0.0566427
690.667 0.0566141
691.406 0.0565849
692.144 0.0565553
692.882 0.0565252
693.620 0.0564948
694.357 0.0564641
695.095 0.0564331
695.832 0.0564019
696.569 0.0563706
697.305 0.0563391
698.042 0.0563075
698.778 0.0562760
699.514 0.0562445
700.249 0.0562132
700.985 0.0561820
701.720 0.0561511
702.455 0.0561204
703.190 0.0560900
703.925 0.0560599
704.659 0.0560303
705.393 0.0560011
706.127 0.0559724
706.861 0.0559441
707.595 0.0559163
708.328 0.0558891
709.061 0.0558625
709.794 0.0558364
710.527 0.0558108
711.259 0.0557858
711.991 0.0557613
712.723 0.0557373
713.455 0.0557138
714.186 0.0556908
714.918 0.0556682
715.649 0.0556460
716.380 0.0556242
717.110 0.0556027
717.841 0.0555815
718.571 0.0555605
719.301 0.0555397
720.031 0.0555190
720.760 0.0554984
721.490 0.0554777
722.219 0.0554571
722.948 0.0554363
723.676 0.0554153
724.405 0.0553941
725.133 0.0553726
725.861 0.0553508
726.589 0.0553286
727.317 0.0553059
728.044 0.0552827
728.771 0.0552590
729.498 0.0552347
730.225 0.0552098
730.951 0.0551843
731.677 0.0551581
732.403 0.0551311
733.129 0.0551035
733.855 0.0550751
734.580 0.0550460
735.305 0.0550161
736.030 0.0549855
736.755 0.0549542
737.479 0.0549221
738.203 0.0548894
738.927 0.0548560
739.651 0.0548219
740.375 0.0547872
741.098 0.0547519
741.821 0.0547161
742.544 0.0546798
743.267 0.0546431
743.989 0.0546060
744.711 0.0545685
745.433 0.0545308
746.155 0.0544929
746.877 0.0544548
747.598 0.0544166
748.319 0.0543784
749.040 0.0543403
749.760 0.0543023
750.481 0.0542644
751.201 0.0542267
751.921 0.0541894
752.640 0.0541524
753.360 0.0541157
754.079 0.0540796
754.798 0.0540440
755.517 0.0540089
756.235 0.0539744
756.953 0.0539406
757.671 0.0539075
758.389 0.0538750
759.107 0.0538433
759.824 0.0538123
760.541 0.0537822
761.258 0.0537528
761.974 0.0537242
762.691 0.0536964
763.407 0.0536693
764.123 0.0536431
764.838 0.0536177
765.554 0.0535929
766.269 0.0535690
766.984 0.0535457
767.699 0.0535230
768.413 0.0535011
769.127 0.0534797
769.841 0.0534588
770.555 0.0534384
771.268 0.0534185
771.982 0.0533989
772.694 0.0533797
773.407 0.0533608
774.120 0.0533420
774.832 0.0533234
775.544 0.0533049
776.256 0.0532864
776.967 0.0532679
777.678 0.0532492
778.389 0.0532304
779.100 0.0532113
779.810 0.0531919
780.521 0.0531722
781.231 0.0531520
781.940 0.0531313
782.650 0.0531101
783.359 0.0530884
784.068 0.0530660
784.776 0.0530429
785.485 0.0530191
786.193 0.0529945
786.901 0.0529691
787.609 0.0529430
788.316 0.0529159
789.023 0.0528881
789.730 0.0528593
790.436 0.0528297
791.143 0.0527991
791.849 0.0527677
792.555 0.0527353
793.260 0.0527022
793.965 0.0526681
794.670 0.0526332
795.375 0.0525974
796.080 0.0525608
796.784 0.0525235
797.488 0.0524855
798.191 0.0524467
798.895 0.0524073
799.598 0.0523673
800.301 0.0523267
801.003 0.0522857
801.705 0.0522442
802.408 0.0522023
803.109 0.0521601
803.811 0.0521176
804.512 0.0520749
805.213 0.0520320
805.913 0.0519892
806.614 0.0519462
807.314 0.0519033
808.014 0.0518606
808.713 0.0518181
809.412 0.0517758
810.111 0.0517338
810.810 0.0516921
811.508 0.0516510
812.206 0.0516103
812.904 0.0515702
813.602 0.0515306
814.299 0.0514918
814.996 0.0514537
815.692 0.0514163
816.389 0.0513796
817.085 0.0513439
817.781 0.0513090
818.476 0.0512750
819.171 0.0512419
819.866 0.0512097
820.561 0.0511785
821.255 0.0511484
821.949 0.0511191
822.643 0.0510909
823.336 0.0510637
824.029 0.0510375
824.722 0.0510122
825.415 0.0509879
826.107 0.0509646
826.799 0.0509422
827.490 0.0509207
828.182 0.0509001
828.873 0.0508804
829.563 0.0508615
830.254 0.0508433
830.944 0.0508259
831.634 0.0508092
832.323 0.0507932
833.012 0.0507777
833.701 0.0507628
834.390 0.0507483
835.078 0.0507343
835.766 0.0507206
836.453 0.0507073
837.141 0.0506942
837.828 0.0506814
838.514 0.0506686
839.201 0.0506559
839.887 0.0506432
840.572 0.0506304
841.258 0.0506175
841.943 0.0506045
842.628 0.0505911
843.312 0.0505775
843.996 0.0505635
844.680 0.0505491
845.363 0.0505341
846.046 0.0505187
846.729 0.0505026
847.412 0.0504860
848.094 0.0504686
848.776 0.0504505
849.457 0.0504316
850.139 0.0504120
850.819 0.0503915
851.500 0.0503701
852.180 0.0503478
852.860 0.0503246
853.540 0.0503004
854.219 0.0502753
854.898 0.0502491
855.576 0.0502220
856.254 0.0501939
856.932 0.0501648
857.610 0.0501347
858.287 0.0501036
858.964 0.0500715
859.640 0.0500384
860.317 0.0500044
860.993 0.0499694
861.668 0.0499335
862.343 0.0498967
863.018 0.0498590
863.693 0.0498204
864.367 0.0497811
865.041 0.0497410
865.714 0.0497002
866.387 0.0496587
867.060 0.0496165
867.732 0.0495738
868.404 0.0495305
869.076 0.0494867
869.748 0.0494425
870.419 0.0493979
871.089 0.0493529
871.760 0.0493077
872.430 0.0492622
873.099 0.0492167
873.769 0.0491709
874.438 0.0491252
875.106 0.0490795
875.774 0.0490338
876.442 0.0489883
877.110 0.0489429
877.777 0.0488979
878.444 0.0488531
879.110 0.0488087
879.776 0.0487647
880.442 0.0487212
881.108 0.0486781
881.773 0.0486357
882.437 0.0485940
883.102 0.0485528
883.766 0.0485124
884.429 0.0484728
885.093 0.0484339
885.755 0.0483960
886.418 0.0483588
887.080 0.0483226
887.742 0.0482873
888.403 0.0482530
889.064 0.0482197
889.725 0.0481874
890.385 0.0481562
891.045 0.0481259
891.705 0.0480967
892.364 0.0480687
893.023 0.0480417
893.682 0.0480157
894.340 0.0479909
894.998 0.0479671
895.655 0.0479444
896.312 0.0479228
896.969 0.0479022
897.625 0.0478827
898.281 0.0478643
898.937 0.0478468
899.592 0.0478303
900.247 0.0478148
900.901 0.0478002
901.555 0.0477865
902.209 0.0477737
902.862 0.0477617
903.515 0.0477506
904.168 0.0477402
904.820 0.0477305
905.472 0.0477215
906.123 0.0477132
906.774 0.0477054
907.425 0.0476982
908.076 0.0476915
908.726 0.0476853
909.375 0.0476795
910.024 0.0476740
910.673 0.0476688
911.322 0.0476639
911.970 0.0476591
912.618 0.0476545
913.265 0.0476500
913.912 0.0476456
914.558 0.0476411
915.205 0.0476366
915.850 0.0476319
916.496 0.0476271
917.141 0.0476221
917.786 0.0476168
918.430 0.0476112
919.074 0.0476052
919.718 0.0475988
920.361 0.0475919
921.004 0.0475845
921.646 0.0475766
922.288 0.0475681
922.930 0.0475590
923.571 0.0475492
924.212 0.0475387
924.853 0.0475275
925.493 0.0475155
926.133 0.0475026
926.772 0.0474890
927.411 0.0474745
928.050 0.0474591
928.688 0.0474429
929.326 0.0474257
929.963 0.0474075
930.600 0.0473884
931.237 0.0473683
931.874 0.0473472
932.510 0.0473252
933.145 0.0473022
933.780 0.0472781
934.415 0.0472531
935.050 0.0472270
935.684 0.0471999
936.318 0.0471719
936.951 0.0471429
937.584 0.0471128
938.217 0.0470818
938.849 0.0470499
939.481 0.0470170
940.112 0.0469833
940.743 0.0469486
941.374 0.0469130
942.004 0.0468766
942.634 0.0468393
943.264 0.0468013
943.893 0.0467625
944.522 0.0467229
945.150 0.0466826
945.778 0.0466417
946.406 0.0466001
947.033 0.0465579
947.660 0.0465152
948.287 0.0464718
948.913 0.0464281
949.539 0.0463838
950.165 0.0463392
950.790 0.0462942
951.414 0.0462489
952.039 0.0462033
952.663 0.0461574
953.286 0.0461115
953.910 0.0460652
954.533 0.0460189
955.155 0.0459726
955.777 0.0459263
956.399 0.0458800
957.020 0.0458338
957.641 0.0457877
958.262 0.0457417
958.882 0.0456960
959.502 0.0456505
960.122 0.0456073
960.741 0.0455727
961.360 0.0455383
961.979 0.0455044
962.597 0.0454709
963.214 0.0454379
963.832 0.0454054
964.449 0.0453734
965.066 0.0453420
965.682 0.0453112
966.298 0.0452811
966.914 0.0452516
967.529 0.0452229
968.144 0.0451949
968.758 0.0451676
969.373 0.0451411
969.986 0.0451155
970.600 0.0450907
971.213 0.0450667
971.826 0.0450437
972.438 0.0450215
973.050 0.0450003
973.662 0.0449800
974.274 0.0449606
974.885 0.0449422
975.495 0.0449248
976.106 0.0449083
976.716 0.0448929
977.325 0.0448784
977.935 0.0448649
978.544 0.0448524
979.152 0.0448410
979.761 0.0448305
980.369 0.0448210
980.976 0.0448125
981.584 0.0448050
982.191 0.0447984
982.797 0.0447929
983.404 0.0447883
984.010 0.0447846
984.615 0.0447819
985.221 0.0447800
985.826 0.0447791
986.430 0.0447791
987.035 0.0447799
987.639 0.0447815
988.243 0.0447840
988.846 0.0447872
989.449 0.0447913
990.052 0.0447960
990.654 0.0448015
991.256 0.0448077
991.858 0.0448145
992.460 0.0448220
993.061 0.0448301
993.662 0.0448387
994.262 0.0448479
994.863 0.0448576
995.463 0.0448677
996.062 0.0448783
996.662 0.0448893
997.261 0.0449007
997.860 0.0449124
998.458 0.0449243
999.056 0.0449366
999.654 0.0449490
1000.252 0.0449579
1000.849 0.0449617
1001.446 0.0449657
1002.043 0.0449697
1002.639 0.0449738
1003.235 0.0449779
1003.831 0.0449820
1004.427 0.0449860
1005.022 0.0449899
1005.617 0.0449937
1006.212 0.0449973
1006.806 0.0450007
1007.401 0.0450038
1007.995 0.0450067
1008.588 0.0450093
1009.182 0.0450115
1009.775 0.0450134
1010.368 0.0450148
1010.96 0.0450158
1011.553 0.0450164
1012.145 0.0450164
1012.737 0.0450159
1013.328 0.0450148
1013.92 0.0450132
1014.511 0.0450109
1015.102 0.0450080
1015.692 0.0450044
1016.283 0.0450002
1016.873 0.0449952
1017.463 0.0449895
1018.052 0.0449831
1018.642 0.0449759
1019.231 0.0449679
1019.82 0.0449591
1020.409 0.0449494
1020.997 0.0449390
1021.585 0.0449277
1022.173 0.0449155
1022.761 0.0449024
1023.349 0.0448885
1023.936 0.0448737
1024.524 0.0448579
1025.111 0.0448413
1025.697 0.0448237
1026.284 0.0448053
1026.87 0.0447859
1027.457 0.0447656
1028.043 0.0447443
1028.628 0.0447222
1029.214 0.0446991
1029.80 0.0446751
1030.385 0.0446503
1030.97 0.0446245
1031.555 0.0445978
1032.139 0.0445702
1032.724 0.0445417
1033.308 0.0445124
1033.893 0.0444822
1034.477 0.0444512
1035.06 0.0444193
1035.644 0.0443866
1036.228 0.0443531
1036.811 0.0443188
1037.394 0.0442838
1037.977 0.0442480
1038.56 0.0442114
1039.143 0.0441742
1039.726 0.0441362
1040.308 0.0440976
1040.891 0.0440583
1041.473 0.0440184
1042.055 0.0439779
1042.637 0.0439368
1043.219 0.0438952
1043.801 0.0438530
1044.382 0.0438103
1044.964 0.0437671
1045.545 0.0437236
1046.127 0.0436795
1046.708 0.0436351
1047.289 0.0435903
1047.87 0.0435452
1048.451 0.0434998
1049.032 0.0434541
1049.612 0.0434082
1050.193 0.0433620
1050.774 0.0433157
1051.354 0.0432692
1051.935 0.0432225
1052.515 0.0431759
1053.095 0.0431291
1053.675 0.0430823
1054.256 0.0430354
1054.836 0.0429887
1055.416 0.0429420
1055.996 0.0428954
1056.576 0.0428489
1057.156 0.0428025
1057.735 0.0427564
1058.315 0.0427105
1058.895 0.0426648
1059.475 0.0426193
1060.055 0.0425742
1060.634 0.0425295
1061.214 0.0424850
1061.794 0.0424410
1062.373 0.0423974
1062.953 0.0423542
1063.533 0.0423115
1064.113 0.0422693
1064.692 0.0422276
1065.272 0.0421865
1065.852 0.0421459
1066.431 0.0421060
1067.011 0.0420666
1067.591 0.0420278
1068.171 0.0419898
1068.751 0.0419524
1069.331 0.0419157
1069.91 0.0418798
1070.49 0.0418446
1071.071 0.0418101
1071.651 0.0417765
1072.231 0.0417436
1072.811 0.0417116
1073.391 0.0416804
1073.972 0.0416499
1074.552 0.0416204
1075.133 0.0415917
1075.713 0.0415639
1076.294 0.0415370
1076.875 0.0415109
1077.456 0.0414858
1078.037 0.0414616
1078.618 0.0414383
1079.199 0.0414159
1079.78 0.0413945
1080.362 0.0413739
1080.943 0.0413544
1081.525 0.0413357
1082.107 0.0413180
1082.689 0.0413012
1083.271 0.0412854
1083.853 0.0412705
1084.436 0.0412565
1085.018 0.0412435
1085.601 0.0412314
1086.184 0.0412202
1086.767 0.0412099
1087.351 0.0412005
1087.934 0.0411920
1088.518 0.0411845
1089.102 0.0411777
1089.686 0.0411719
1090.27 0.0411669
1090.855 0.0411628
1091.439 0.0411595
1092.024 0.0411570
1092.609 0.0411553
1093.195 0.0411543
1093.78 0.0411542
1094.366 0.0411548
1094.952 0.0411562
1095.539 0.0411582
1096.125 0.0411610
1096.712 0.0411644
1097.299 0.0411685
1097.887 0.0411732
1098.475 0.0411786
1099.063 0.0411845
1099.651 0.0411910
1100.239 0.0411980
1100.828 0.0412056
1101.417 0.0412136
1102.007 0.0412221
1102.597 0.0412311
1103.187 0.0412405
1103.777 0.0412502
1104.368 0.0412604
1104.959 0.0412708
1105.551 0.0412816
1106.143 0.0412927
1106.735 0.0413040
1107.328 0.0413155
1107.921 0.0413272
1108.514 0.0413391
1109.108 0.0413512
1109.702 0.0413633
1110.296 0.0413755
1110.891 0.0413878
1111.486 0.0414001
1112.082 0.0414123
1112.678 0.0414246
1113.275 0.0414367
1113.872 0.0414488
1114.469 0.0414607
1115.067 0.0414725
1115.665 0.0414841
1116.264 0.0414954
1116.864 0.0415066
1117.463 0.0415174
1118.063 0.0415279
1118.664 0.0415381
1119.265 0.0415480
1119.867 0.0415574
1120.469 0.0415664
1121.072 0.0415750
1121.675 0.0415831
1122.279 0.0415907
1122.883 0.0415978
1123.488 0.0416043
1124.093 0.0416102
1124.699 0.0416155
1125.305 0.0416202
1125.912 0.0416243
1126.52 0.0416277
1127.128 0.0416303
1127.737 0.0416323
1128.346 0.0416335
1128.956 0.0416339
1129.567 0.0416336
1130.178 0.0416324
1130.79 0.0416304
1131.402 0.0416276
1132.015 0.0416239
1132.629 0.0416194
1133.243 0.0416139
1133.858 0.0416075
1134.474 0.0416002
1135.09 0.0415920
1135.707 0.0415828
1136.325 0.0415727
1136.943 0.0415615
1137.562 0.0415494
1138.182 0.0415363
1138.802 0.0415222
1139.423 0.0415070
1140.045 0.0414909
1140.668 0.0414737
1141.291 0.0414555
1141.916 0.0414362
1142.54 0.0414159
1143.166 0.0413945
1143.793 0.0413721
1144.42 0.0413487
1145.048 0.0413242
