Measurement Sequence started on: 09-46-08-630
Integration time: 30
Scans to Average: 2 
>>>>>Begin Spectral Data<<<<<
434.745 .1181849
435.665 .1065384
436.585 .0958396
437.503 .0872073
438.420 .0821173
439.335 .0815486
440.249 .0773368
441.162 .0740916
442.074 .0715988
442.984 .0696734
443.894 .0681234
444.802 .0668764
445.708 .0658470
446.614 .0649971
447.518 .0642912
448.422 .0636927
449.324 .0631920
450.224 .0627740
451.124 .0624050
452.022 .0620990
452.920 .0618200
453.816 .0615656
454.711 .0613252
455.605 .0611051
456.497 .0608935
457.389 .0606927
458.279 .0605073
459.169 .0603452
460.057 .0601983
460.944 .0600722
461.830 .0599556
462.715 .0598507
463.599 .0597492
464.482 .0596460
465.363 .0595384
466.244 .0594335
467.124 .0593277
468.002 .0592259
468.880 .0591294
469.756 .0590457
470.632 .0589693
471.506 .0589086
472.379 .0588619
473.252 .0588271
474.123 .0588019
474.994 .0587897
475.863 .0587810
476.731 .0587783
477.599 .0587837
478.465 .0587956
479.331 .0588184
480.195 .0588524
481.059 .0588985
481.921 .0589575
482.783 .0590350
483.643 .0591236
484.503 .0592236
485.362 .0593343
486.220 .0594425
487.077 .0595454
487.933 .0596368
488.788 .0597145
489.642 .0597776
490.496 .0598288
491.348 .0598714
492.200 .0599020
493.050 .0599308
493.900 .0599535
494.749 .0599760
495.597 .0599982
496.445 .0600130
497.291 .0600206
498.136 .0600230
498.981 .0600200
499.825 .0600128
500.668 .0600100
501.510 .0600200
502.352 .0600465
503.192 .0600911
504.032 .0601558
504.871 .0602385
505.709 .0603347
506.546 .0604421
507.383 .0605478
508.219 .0606537
509.054 .0607519
509.888 .0608497
510.722 .0609513
511.554 .0610631
512.386 .0611925
513.217 .0613366
514.048 .0615020
514.877 .0616923
515.706 .0618874
516.535 .0620915
517.362 .0623013
518.189 .0625108
519.015 .0627200
519.840 .0629323
520.665 .0631468
521.489 .0633816
522.312 .0636375
523.134 .0639238
523.956 .0642309
524.777 .0645794
525.598 .0649508
526.417 .0653361
527.236 .0657302
528.055 .0661219
528.872 .0664879
529.690 .0668441
530.506 .0671795
531.322 .0675023
532.137 .0678109
532.951 .0681120
533.765 .0683910
534.578 .0686619
535.391 .0688973
536.203 .0690839
537.014 .0692093
537.824 .0692679
538.634 .0692300
539.444 .0691042
540.253 .0689023
541.061 .0686410
541.868 .0683228
542.675 .0679677
543.482 .0675714
544.288 .0671565
545.093 .0667183
545.897 .0662517
546.702 .0657719
547.505 .0652831
548.308 .0647824
549.110 .0642836
549.912 .0637945
550.713 .0633321
551.514 .0628935
552.314 .0624902
553.114 .0621203
553.913 .0617890
554.711 .0614948
555.509 .0612410
556.306 .0610299
557.103 .0608650
557.900 .0607314
558.695 .0606216
559.491 .0605311
560.285 .0604481
561.080 .0603616
561.873 .0602709
562.667 .0601648
563.459 .0600546
564.252 .0599390
565.043 .0598218
565.835 .0596987
566.625 .0595779
567.416 .0594481
568.205 .0593024
568.995 .0591382
569.783 .0589528
570.572 .0587460
571.360 .0585290
572.147 .0582957
572.934 .0580634
573.720 .0578320
574.506 .0576164
575.292 .0574084
576.077 .0572151
576.862 .0570267
577.646 .0568389
578.429 .0566528
579.213 .0564693
579.996 .0562845
580.778 .0561054
581.560 .0559318
582.341 .0557707
583.123 .0556186
583.903 .0554822
584.684 .0553596
585.463 .0552550
586.243 .0551613
587.022 .0550796
587.800 .0550030
588.578 .0549336
589.356 .0548680
590.134 .0548048
590.911 .0547465
591.687 .0546916
592.463 .0546395
593.239 .0545905
594.014 .0545436
594.789 .0545006
595.564 .0544582
596.338 .0544185
597.112 .0543792
597.885 .0543399
598.658 .0542999
599.431 .0542584
600.203 .0542165
600.975 .0541749
601.747 .0541345
602.518 .0540969
603.289 .0540630
604.059 .0540323
604.829 .0540058
605.599 .0539829
606.369 .0539628
607.138 .0539440
607.906 .0539252
608.675 .0539055
609.443 .0538836
610.210 .0538593
610.977 .0538333
611.744 .0538062
612.511 .0537788
613.277 .0537503
614.043 .0537223
614.809 .0536943
615.574 .0536670
616.339 .0536404
617.104 .0536150
617.868 .0535904
618.632 .0535657
619.395 .0535415
620.159 .0535175
620.922 .0534943
621.684 .0534724
622.447 .0534518
623.209 .0534330
623.970 .0534162
624.732 .0534008
625.493 .0533862
626.254 .0533730
627.014 .0533595
627.774 .0533450
628.534 .0533289
629.294 .0533106
630.053 .0532893
630.812 .0532655
631.571 .0532408
632.329 .0532145
633.087 .0531879
633.845 .0531613
634.602 .0531339
635.359 .0531065
636.116 .0530788
636.873 .0530504
637.629 .0530217
638.385 .0529941
639.141 .0529670
639.897 .0529409
640.652 .0529164
641.407 .0528935
642.161 .0528727
642.916 .0528537
643.670 .0528355
644.424 .0528173
645.177 .0527995
645.931 .0527816
646.684 .0527624
647.436 .0527430
648.189 .0527237
648.941 .0527053
649.693 .0526877
650.445 .0526705
651.196 .0526537
651.947 .0526367
652.698 .0526182
653.449 .0525973
654.199 .0525732
654.949 .0525463
655.699 .0525163
656.449 .0524839
657.198 .0524499
657.947 .0524154
658.696 .0523809
659.445 .0523473
660.193 .0523152
660.941 .0522846
661.689 .0522550
662.436 .0522261
663.184 .0521981
663.931 .0521706
664.678 .0521432
665.424 .0521158
666.171 .0520889
666.917 .0520625
667.663 .0520358
668.408 .0520093
669.154 .0519830
669.899 .0519566
670.644 .0519295
671.388 .0519007
672.133 .0518702
672.877 .0518382
673.621 .0518045
674.365 .0517691
675.108 .0517327
675.851 .0516959
676.594 .0516585
677.337 .0516217
678.080 .0515858
678.822 .0515511
679.564 .0515171
680.306 .0514840
681.047 .0514511
681.789 .0514188
682.530 .0513870
683.271 .0513563
684.012 .0513277
684.752 .0513011
685.492 .0512762
686.232 .0512529
686.972 .0512310
687.712 .0512096
688.451 .0511878
689.190 .0511659
689.929 .0511436
690.667 .0511216
691.406 .0510999
692.144 .0510790
692.882 .0510594
693.620 .0510414
694.357 .0510240
695.095 .0510070
695.832 .0509900
696.569 .0509721
697.305 .0509530
698.042 .0509325
698.778 .0509100
699.514 .0508862
700.249 .0508608
700.985 .0508342
701.720 .0508066
702.455 .0507777
703.190 .0507476
703.925 .0507165
704.659 .0506837
705.393 .0506494
706.127 .0506133
706.861 .0505763
707.595 .0505381
708.328 .0504991
709.061 .0504598
709.794 .0504202
710.527 .0503809
711.259 .0503420
711.991 .0503035
712.723 .0502655
713.455 .0502273
714.186 .0501889
714.918 .0501503
715.649 .0501115
716.380 .0500724
717.110 .0500341
717.841 .0499970
718.571 .0499615
719.301 .0499269
720.031 .0498937
720.760 .0498608
721.490 .0498274
722.219 .0497924
722.948 .0497554
723.676 .0497165
724.405 .0496755
725.133 .0496335
725.861 .0495921
726.589 .0495513
727.317 .0495123
728.044 .0494746
728.771 .0494386
729.498 .0494033
730.225 .0493682
730.951 .0493324
731.677 .0492968
732.403 .0492612
733.129 .0492259
733.855 .0491919
734.580 .0491606
735.305 .0491317
736.030 .0491054
736.755 .0490815
737.479 .0490591
738.203 .0490373
738.927 .0490152
739.651 .0489919
740.375 .0489678
741.098 .0489429
741.821 .0489177
742.544 .0488930
743.267 .0488686
743.989 .0488445
744.711 .0488208
745.433 .0487969
746.155 .0487733
746.877 .0487493
747.598 .0487247
748.319 .0487001
749.040 .0486755
749.760 .0486508
750.481 .0486265
751.201 .0486032
751.921 .0485801
752.640 .0485568
753.360 .0485334
754.079 .0485093
754.798 .0484847
755.517 .0484599
756.235 .0484342
756.953 .0484074
757.671 .0483808
758.389 .0483533
759.107 .0483250
759.824 .0482963
760.541 .0482674
761.258 .0482380
761.974 .0482086
762.691 .0481792
763.407 .0481494
764.123 .0481202
764.838 .0480913
765.554 .0480618
766.269 .0480324
766.984 .0480019
767.699 .0479709
768.413 .0479393
769.127 .0479076
769.841 .0478754
770.555 .0478429
771.268 .0478105
771.982 .0477781
772.694 .0477451
773.407 .0477120
774.120 .0476779
774.832 .0476434
775.544 .0476079
776.256 .0475717
776.967 .0475350
777.678 .0474984
778.389 .0474620
779.100 .0474246
779.810 .0473867
780.521 .0473486
781.231 .0473096
781.940 .0472698
782.650 .0472290
783.359 .0471875
784.068 .0471450
784.776 .0471021
785.485 .0470585
786.193 .0470147
786.901 .0469711
787.609 .0469279
788.316 .0468858
789.023 .0468448
789.730 .0468052
790.436 .0467668
791.143 .0467302
791.849 .0466956
792.555 .0466620
793.260 .0466298
793.965 .0465986
794.670 .0465685
795.375 .0465390
796.080 .0465101
796.784 .0464822
797.488 .0464548
798.191 .0464284
798.895 .0464023
799.598 .0463767
800.301 .0463514
801.003 .0463263
801.705 .0463012
802.408 .0462755
803.109 .0462493
803.811 .0462224
804.512 .0461948
805.213 .0461670
805.913 .0461385
806.614 .0461101
807.314 .0460816
808.014 .0460537
808.713 .0460259
809.412 .0459988
810.111 .0459722
810.810 .0459457
811.508 .0459192
812.206 .0458925
812.904 .0458649
813.602 .0458365
814.299 .0458076
814.996 .0457788
815.692 .0457502
816.389 .0457224
817.085 .0456954
817.781 .0456706
818.476 .0456473
819.171 .0456257
819.866 .0456053
820.561 .0455861
821.255 .0455673
821.949 .0455489
822.643 .0455311
823.336 .0455138
824.029 .0454966
824.722 .0454800
825.415 .0454637
826.107 .0454480
826.799 .0454321
827.490 .0454163
828.182 .0454002
828.873 .0453839
829.563 .0453663
830.254 .0453477
830.944 .0453288
831.634 .0453092
832.323 .0452889
833.012 .0452680
833.701 .0452462
834.390 .0452238
835.078 .0452004
835.766 .0451766
836.453 .0451526
837.141 .0451288
837.828 .0451053
838.514 .0450822
839.201 .0450602
839.887 .0450389
840.572 .0450184
841.258 .0449982
841.943 .0449780
842.628 .0449566
843.312 .0449344
843.996 .0449115
844.680 .0448882
845.363 .0448645
846.046 .0448409
846.729 .0448176
847.412 .0447945
848.094 .0447717
848.776 .0447486
849.457 .0447246
850.139 .0446996
850.819 .0446727
851.500 .0446435
852.180 .0446126
852.860 .0445802
853.540 .0445469
854.219 .0445139
854.898 .0444811
855.576 .0444484
856.254 .0444162
856.932 .0443840
857.610 .0443516
858.287 .0443181
858.964 .0442834
859.640 .0442473
860.317 .0442105
860.993 .0441731
861.668 .0441356
862.343 .0440985
863.018 .0440625
863.693 .0440270
864.367 .0439922
865.041 .0439574
865.714 .0439228
866.387 .0438881
867.060 .0438534
867.732 .0438179
868.404 .0437822
869.076 .0437462
869.748 .0437103
870.419 .0436745
871.089 .0436387
871.760 .0436024
872.430 .0435666
873.099 .0435308
873.769 .0434954
874.438 .0434600
875.106 .0434252
875.774 .0433911
876.442 .0433578
877.110 .0433250
877.777 .0432929
878.444 .0432622
879.110 .0432326
879.776 .0432043
880.442 .0431776
881.108 .0431522
881.773 .0431283
882.437 .0431055
883.102 .0430833
883.766 .0430613
884.429 .0430394
885.093 .0430176
885.755 .0429962
886.418 .0429753
887.080 .0429549
887.742 .0429351
888.403 .0429162
889.064 .0428978
889.725 .0428795
890.385 .0428612
891.045 .0428431
891.705 .0428245
892.364 .0428055
893.023 .0427864
893.682 .0427681
894.340 .0427507
894.998 .0427348
895.655 .0427207
896.312 .0427087
896.969 .0426986
897.625 .0426901
898.281 .0426830
898.937 .0426766
899.592 .0426704
900.247 .0426642
900.901 .0426577
901.555 .0426513
902.209 .0426449
902.862 .0426390
903.515 .0426342
904.168 .0426307
904.820 .0426284
905.472 .0426273
906.123 .0426270
906.774 .0426274
907.425 .0426275
908.076 .0426266
908.726 .0426246
909.375 .0426208
910.024 .0426156
910.673 .0426088
911.322 .0426006
911.970 .0425915
912.618 .0425820
913.265 .0425723
913.912 .0425622
914.558 .0425519
915.205 .0425407
915.850 .0425287
916.496 .0425152
917.141 .0424997
917.786 .0424819
918.430 .0424617
919.074 .0424398
919.718 .0424159
920.361 .0423911
921.004 .0423661
921.646 .0423414
922.288 .0423175
922.930 .0422939
923.571 .0422701
924.212 .0422455
924.853 .0422199
925.493 .0421934
926.133 .0421660
926.772 .0421382
927.411 .0421104
928.050 .0420830
928.688 .0420561
929.326 .0420296
929.963 .0420031
930.600 .0419768
931.237 .0419502
931.874 .0419242
932.510 .0418984
933.145 .0418730
933.780 .0418488
934.415 .0418263
935.050 .0418050
935.684 .0417846
936.318 .0417641
936.951 .0417432
937.584 .0417216
938.217 .0416992
938.849 .0416757
939.481 .0416522
940.112 .0416287
940.743 .0416051
941.374 .0415811
942.004 .0415565
942.634 .0415302
943.264 .0415026
943.893 .0414729
944.522 .0414409
945.150 .0414067
945.778 .0413707
946.406 .0413335
947.033 .0412961
947.660 .0412582
948.287 .0412194
948.913 .0411798
949.539 .0411397
950.165 .0410984
950.790 .0410560
951.414 .0410134
952.039 .0409709
952.663 .0409292
953.286 .0408873
953.910 .0408454
954.533 .0408035
955.155 .0407614
955.777 .0407186
956.399 .0406753
957.020 .0406319
957.641 .0405885
958.262 .0405454
958.882 .0405031
959.502 .0404615
960.122 .0404208
960.741 .0403806
961.360 .0403413
961.979 .0403032
962.597 .0402664
963.214 .0402303
963.832 .0401966
964.449 .0401647
965.066 .0401341
965.682 .0401052
966.298 .0400777
966.914 .0400514
967.529 .0400257
968.144 .0400003
968.758 .0399757
969.373 .0399518
969.986 .0399286
970.600 .0399051
971.213 .0398823
971.826 .0398596
972.438 .0398370
973.050 .0398140
973.662 .0397914
974.274 .0397688
974.885 .0397464
975.495 .0397242
976.106 .0397025
976.716 .0396816
977.325 .0396612
977.935 .0396418
978.544 .0396236
979.152 .0396059
979.761 .0395890
980.369 .0395725
980.976 .0395572
981.584 .0395420
982.191 .0395275
982.797 .0395133
983.404 .0395001
984.010 .0394881
984.615 .0394766
985.221 .0394659
985.826 .0394566
986.430 .0394477
987.035 .0394389
987.639 .0394301
988.243 .0394213
988.846 .0394118
989.449 .0394020
990.052 .0393918
990.654 .0393818
991.256 .0393723
991.858 .0393642
992.460 .0393570
993.061 .0393521
993.662 .0393488
994.262 .0393471
994.863 .0393462
995.463 .0393459
996.062 .0393452
996.662 .0393438
997.261 .0393416
997.860 .0393390
998.458 .0393368
999.056 .0393357
999.654 .0393357
1000.252 .0393376
1000.849 .0393409
1001.446 .0393453
1002.043 .0393498
1002.639 .0393540
1003.235 .0393570
1003.831 .0393584
1004.427 .0393587
1005.022 .0393584
1005.617 .0393581
1006.212 .0393578
1006.806 .0393581
1007.401 .0393600
1007.995 .0393630
1008.588 .0393666
1009.182 .0393710
1009.775 .0393759
1010.368 .0393810
1010.960 .0393856
1011.553 .0393896
1012.145 .0393938
1012.737 .0393983
1013.328 .0394026
1013.920 .0394072
1014.511 .0394125
1015.102 .0394193
1015.692 .0394271
1016.283 .0394364
1016.873 .0394475
1017.463 .0394591
1018.052 .0394707
1018.642 .0394817
1019.231 .0394914
1019.820 .0394998
1020.409 .0395069
1020.997 .0395128
1021.585 .0395176
1022.173 .0395220
1022.761 .0395263
1023.349 .0395307
1023.936 .0395351
1024.524 .0395385
1025.111 .0395404
1025.697 .0395408
1026.284 .0395399
1026.870 .0395379
1027.457 .0395360
1028.043 .0395353
1028.628 .0395355
1029.214 .0395372
1029.800 .0395397
1030.385 .0395434
1030.970 .0395477
1031.555 .0395518
1032.139 .0395548
1032.724 .0395561
1033.308 .0395547
1033.893 .0395506
1034.477 .0395435
1035.060 .0395337
1035.644 .0395206
1036.228 .0395043
1036.811 .0394850
1037.394 .0394627
1037.977 .0394378
1038.560 .0394121
1039.143 .0393860
1039.726 .0393603
1040.308 .0393344
1040.891 .0393089
1041.473 .0392840
1042.055 .0392596
1042.637 .0392357
1043.219 .0392122
1043.801 .0391893
1044.382 .0391670
1044.964 .0391443
1045.545 .0391226
1046.127 .0391018
1046.708 .0390817
1047.289 .0390611
1047.870 .0390398
1048.451 .0390175
1049.032 .0389936
1049.612 .0389691
1050.193 .0389437
1050.774 .0389177
1051.354 .0388919
1051.935 .0388660
1052.515 .0388402
1053.095 .0388156
1053.675 .0387925
1054.256 .0387711
1054.836 .0387517
1055.416 .0387337
1055.996 .0387163
1056.576 .0387007
1057.156 .0386866
1057.735 .0386731
1058.315 .0386599
1058.895 .0386468
1059.475 .0386326
1060.055 .0386176
1060.634 .0386002
1061.214 .0385803
1061.794 .0385587
1062.373 .0385345
1062.953 .0385083
1063.533 .0384820
1064.113 .0384563
1064.692 .0384320
1065.272 .0384097
1065.852 .0383893
1066.431 .0383688
1067.011 .0383482
1067.591 .0383253
1068.171 .0383005
1068.751 .0382731
1069.331 .0382440
1069.910 .0382137
1070.490 .0381855
1071.071 .0381603
1071.651 .0381373
1072.231 .0381184
1072.811 .0381014
1073.391 .0380835
1073.972 .0380630
1074.552 .0380383
1075.133 .0380107
1075.713 .0379789
1076.294 .0379461
1076.875 .0379124
1077.456 .0378812
1078.037 .0378517
1078.618 .0378246
1079.199 .0377992
1079.780 .0377759
1080.362 .0377536
1080.943 .0377303
1081.525 .0377068
1082.107 .0376843
1082.689 .0376630
1083.271 .0376443
1083.853 .0376282
1084.436 .0376169
1085.018 .0376071
1085.601 .0376002
1086.184 .0375935
1086.767 .0375868
1087.351 .0375809
1087.934 .0375748
1088.518 .0375684
1089.102 .0375621
1089.686 .0375559
1090.270 .0375505
1090.855 .0375469
1091.439 .0375448
1092.024 .0375434
1092.609 .0375433
1093.195 .0375428
1093.780 .0375418
1094.366 .0375404
1094.952 .0375381
1095.539 .0375362
1096.125 .0375353
1096.712 .0375363
1097.299 .0375381
1097.887 .0375434
1098.475 .0375515
1099.063 .0375594
1099.651 .0375690
1100.239 .0375763
1100.828 .0375796
1101.417 .0375791
1102.007 .0375741
1102.597 .0375654
1103.187 .0375560
1103.777 .0375463
1104.368 .0375363
1104.959 .0375286
1105.551 .0375225
1106.143 .0375161
1106.735 .0375111
1107.328 .0375081
1107.921 .0375050
1108.514 .0375039
1109.108 .0375085
1109.702 .0375152
1110.296 .0375273
1110.891 .0375424
1111.486 .0375594
1112.082 .0375767
1112.678 .0375936
1113.275 .0376085
1113.872 .0376217
1114.469 .0376350
1115.067 .0376496
1115.665 .0376676
1116.264 .0376929
1116.864 .0377238
1117.463 .0377610
1118.063 .0378031
1118.664 .0378467
1119.265 .0378876
1119.867 .0379255
1120.469 .0379590
1121.072 .0379881
1121.675 .0380150
1122.279 .0380399
1122.883 .0380685
1123.488 .0381029
1124.093 .0381428
1124.699 .0381900
1125.305 .0382443
1125.912 .0383023
1126.520 .0383612
1127.128 .0384215
1127.737 .0384803
1128.346 .0385367
1128.956 .0385955
1129.567 .0386554
1130.178 .0387210
1130.790 .0387931
1131.402 .0388746
1132.015 .0389665
1132.629 .0390735
1133.243 .0391908
1133.858 .0393173
1134.474 .0394565
1135.090 .0396011
1135.707 .0397468
1136.325 .0398939
1136.943 .0400358
1137.562 .0401705
1138.182 .0402968
1138.802 .0404194
1139.423 .0405388
1140.045 .0406603
1140.668 .0407767
1141.291 .0408797
1141.916 .0409815
1142.540 .0412586
1143.166 .0413689
1143.793 .0412392
1144.420 .0410269
1145.048 .0413403
