Measurement Sequence started on: 09-46-08-630
Integration time: 30
Scans to Average: 2 
>>>>>Begin Spectral Data<<<<<
434.745 .1349296
435.665 .1160314
436.585 .1038475
437.503 .0933556
438.420 .0888815
439.335 .0887116
440.249 .0838947
441.162 .0803321
442.074 .0775777
442.984 .0754497
443.894 .0736994
444.802 .0722545
445.708 .0710866
446.614 .0701007
447.518 .0692366
448.422 .0684766
449.324 .0677735
450.224 .0671307
451.124 .0665297
452.022 .0659954
452.920 .0655003
453.816 .0650603
454.711 .0646712
455.605 .0643305
456.497 .0640257
457.389 .0637585
458.279 .0635103
459.169 .0632967
460.057 .0631125
460.944 .0629594
461.830 .0628340
462.715 .0627376
463.599 .0626517
464.482 .0625807
465.363 .0625215
466.244 .0624739
467.124 .0624246
468.002 .0623857
468.880 .0623555
469.756 .0623339
470.632 .0623209
471.506 .0623125
472.379 .0623085
473.252 .0623088
474.123 .0623015
474.994 .0622888
475.863 .0622745
476.731 .0622599
477.599 .0622462
478.465 .0622391
479.331 .0622398
480.195 .0622423
481.059 .0622469
481.921 .0622492
482.783 .0622480
483.643 .0622396
484.503 .0622266
485.362 .0622094
486.220 .0621945
487.077 .0621781
487.933 .0621612
488.788 .0621500
489.642 .0621368
490.496 .0621208
491.348 .0620991
492.200 .0620715
493.050 .0620444
493.900 .0620145
494.749 .0619928
495.597 .0619785
496.445 .0619763
497.291 .0619799
498.136 .0619885
498.981 .0620007
499.825 .0620093
500.668 .0620180
501.510 .0620283
502.352 .0620438
503.192 .0620635
504.032 .0620981
504.871 .0621382
505.709 .0621892
506.546 .0622527
507.383 .0623194
508.219 .0623938
509.054 .0624706
509.888 .0625532
510.722 .0626476
511.554 .0627650
512.386 .0629060
513.217 .0630695
514.048 .0632663
514.877 .0634858
515.706 .0637176
516.535 .0639601
517.362 .0642191
518.189 .0644863
519.015 .0647644
519.840 .0650571
520.665 .0653548
521.489 .0656718
522.312 .0659987
523.134 .0663442
523.956 .0667042
524.777 .0670757
525.598 .0674507
526.417 .0678217
527.236 .0681853
528.055 .0685334
528.872 .0688511
529.690 .0691542
530.506 .0694394
531.322 .0696915
532.137 .0699252
532.951 .0701496
533.765 .0703525
534.578 .0705309
535.391 .0706732
536.203 .0707646
537.014 .0707920
537.824 .0707458
538.634 .0706109
539.444 .0703992
540.253 .0701390
541.061 .0698303
541.868 .0694878
542.675 .0691380
543.482 .0687837
544.288 .0684227
545.093 .0680632
545.897 .0676906
546.702 .0673093
547.505 .0669165
548.308 .0665147
549.110 .0661068
549.912 .0656992
550.713 .0653066
551.514 .0649341
552.314 .0645817
553.114 .0642443
553.913 .0639134
554.711 .0635806
555.509 .0632456
556.306 .0629155
557.103 .0625867
557.900 .0622745
558.695 .0619772
559.491 .0617015
560.285 .0614464
561.080 .0612092
561.873 .0609873
562.667 .0607697
563.459 .0605625
564.252 .0603486
565.043 .0601264
565.835 .0599027
566.625 .0596802
567.416 .0594625
568.205 .0592436
568.995 .0590184
569.783 .0587818
570.572 .0585389
571.360 .0582850
572.147 .0580177
572.934 .0577479
573.720 .0574749
574.506 .0572081
575.292 .0569462
576.077 .0566987
576.862 .0564613
577.646 .0562383
578.429 .0560301
579.213 .0558307
579.996 .0556425
580.778 .0554638
581.560 .0552980
582.341 .0551504
583.123 .0550191
583.903 .0549046
584.684 .0548033
585.463 .0547185
586.243 .0546420
587.022 .0545691
587.800 .0544961
588.578 .0544210
589.356 .0543396
590.134 .0542559
590.911 .0541701
591.687 .0540838
592.463 .0539996
593.239 .0539205
594.014 .0538441
594.789 .0537711
595.564 .0536986
596.338 .0536270
597.112 .0535545
597.885 .0534823
598.658 .0534083
599.431 .0533347
600.203 .0532639
600.975 .0531959
601.747 .0531306
602.518 .0530700
603.289 .0530133
604.059 .0529596
604.829 .0529074
605.599 .0528569
606.369 .0528063
607.138 .0527560
607.906 .0527056
608.675 .0526562
609.443 .0526078
610.210 .0525609
610.977 .0525151
611.744 .0524714
612.511 .0524299
613.277 .0523910
614.043 .0523552
614.809 .0523227
615.574 .0522929
616.339 .0522664
617.104 .0522430
617.868 .0522237
618.632 .0522072
619.395 .0521936
620.159 .0521823
620.922 .0521737
621.684 .0521663
622.447 .0521595
623.209 .0521529
623.970 .0521472
624.732 .0521397
625.493 .0521301
626.254 .0521178
627.014 .0521034
627.774 .0520864
628.534 .0520671
629.294 .0520444
630.053 .0520186
630.812 .0519896
631.571 .0519580
632.329 .0519228
633.087 .0518859
633.845 .0518467
634.602 .0518063
635.359 .0517643
636.116 .0517210
636.873 .0516762
637.629 .0516307
638.385 .0515843
639.141 .0515364
639.897 .0514860
640.652 .0514348
641.407 .0513829
642.161 .0513306
642.916 .0512783
643.670 .0512267
644.424 .0511757
645.177 .0511255
645.931 .0510756
646.684 .0510252
647.436 .0509757
648.189 .0509275
648.941 .0508803
649.693 .0508347
650.445 .0507915
651.196 .0507505
651.947 .0507119
652.698 .0506752
653.449 .0506394
654.199 .0506040
654.949 .0505692
655.699 .0505333
656.449 .0504962
657.198 .0504581
657.947 .0504197
658.696 .0503808
659.445 .0503432
660.193 .0503062
660.941 .0502706
661.689 .0502375
662.436 .0502066
663.184 .0501773
663.931 .0501503
664.678 .0501251
665.424 .0501016
666.171 .0500789
666.917 .0500575
667.663 .0500362
668.408 .0500158
669.154 .0499955
669.899 .0499748
670.644 .0499537
671.388 .0499321
672.133 .0499089
672.877 .0498839
673.621 .0498574
674.365 .0498287
675.108 .0497977
675.851 .0497645
676.594 .0497290
677.337 .0496913
678.080 .0496512
678.822 .0496092
679.564 .0495653
680.306 .0495201
681.047 .0494739
681.789 .0494270
682.530 .0493797
683.271 .0493324
684.012 .0492858
684.752 .0492397
685.492 .0491941
686.232 .0491486
686.972 .0491031
687.712 .0490577
688.451 .0490121
689.190 .0489661
689.929 .0489206
690.667 .0488759
691.406 .0488320
692.144 .0487892
692.882 .0487483
693.620 .0487098
694.357 .0486736
695.095 .0486397
695.832 .0486075
696.569 .0485764
697.305 .0485462
698.042 .0485162
698.778 .0484866
699.514 .0484576
700.249 .0484287
700.985 .0484003
701.720 .0483730
702.455 .0483462
703.190 .0483195
703.925 .0482935
704.659 .0482677
705.393 .0482411
706.127 .0482130
706.861 .0481838
707.595 .0481536
708.328 .0481228
709.061 .0480910
709.794 .0480586
710.527 .0480263
711.259 .0479941
711.991 .0479612
712.723 .0479286
713.455 .0478962
714.186 .0478638
714.918 .0478311
715.649 .0477988
716.380 .0477668
717.110 .0477357
717.841 .0477060
718.571 .0476776
719.301 .0476499
720.031 .0476233
720.760 .0475966
721.490 .0475699
722.219 .0475425
722.948 .0475138
723.676 .0474834
724.405 .0474519
725.133 .0474184
725.861 .0473833
726.589 .0473470
727.317 .0473097
728.044 .0472708
728.771 .0472308
729.498 .0471897
730.225 .0471471
730.951 .0471034
731.677 .0470590
732.403 .0470136
733.129 .0469684
733.855 .0469232
734.580 .0468790
735.305 .0468354
736.030 .0467928
736.755 .0467502
737.479 .0467081
738.203 .0466663
738.927 .0466242
739.651 .0465821
740.375 .0465404
741.098 .0464989
741.821 .0464575
742.544 .0464161
743.267 .0463752
743.989 .0463340
744.711 .0462927
745.433 .0462504
746.155 .0462079
746.877 .0461653
747.598 .0461232
748.319 .0460819
749.040 .0460420
749.760 .0460037
750.481 .0459665
751.201 .0459307
751.921 .0458964
752.640 .0458632
753.360 .0458311
754.079 .0457997
754.798 .0457692
755.517 .0457393
756.235 .0457098
756.953 .0456808
757.671 .0456524
758.389 .0456242
759.107 .0455960
759.824 .0455678
760.541 .0455401
761.258 .0455134
761.974 .0454875
762.691 .0454625
763.407 .0454386
764.123 .0454155
764.838 .0453926
765.554 .0453699
766.269 .0453473
766.984 .0453242
767.699 .0453009
768.413 .0452775
769.127 .0452541
769.841 .0452312
770.555 .0452086
771.268 .0451864
771.982 .0451647
772.694 .0451428
773.407 .0451205
774.120 .0450970
774.832 .0450726
775.544 .0450466
776.256 .0450189
776.967 .0449902
777.678 .0449606
778.389 .0449311
779.100 .0449022
779.810 .0448738
780.521 .0448468
781.231 .0448210
781.940 .0447960
782.650 .0447713
783.359 .0447465
784.068 .0447208
784.776 .0446945
785.485 .0446673
786.193 .0446395
786.901 .0446110
787.609 .0445828
788.316 .0445544
789.023 .0445258
789.730 .0444968
790.436 .0444669
791.143 .0444354
791.849 .0444027
792.555 .0443680
793.260 .0443316
793.965 .0442937
794.670 .0442547
795.375 .0442145
796.080 .0441741
796.784 .0441332
797.488 .0440920
798.191 .0440506
798.895 .0440092
799.598 .0439677
800.301 .0439266
801.003 .0438862
801.705 .0438463
802.408 .0438066
803.109 .0437675
803.811 .0437283
804.512 .0436890
805.213 .0436496
805.913 .0436100
806.614 .0435706
807.314 .0435313
808.014 .0434922
808.713 .0434539
809.412 .0434162
810.111 .0433791
810.810 .0433416
811.508 .0433039
812.206 .0432657
812.904 .0432267
813.602 .0431871
814.299 .0431477
814.996 .0431087
815.692 .0430708
816.389 .0430345
817.085 .0429998
817.781 .0429665
818.476 .0429340
819.171 .0429022
819.866 .0428702
820.561 .0428379
821.255 .0428051
821.949 .0427722
822.643 .0427405
823.336 .0427102
824.029 .0426810
824.722 .0426536
825.415 .0426281
826.107 .0426041
826.799 .0425810
827.490 .0425586
828.182 .0425366
828.873 .0425152
829.563 .0424942
830.254 .0424739
830.944 .0424549
831.634 .0424378
832.323 .0424222
833.012 .0424080
833.701 .0423955
834.390 .0423846
835.078 .0423750
835.766 .0423667
836.453 .0423595
837.141 .0423528
837.828 .0423467
838.514 .0423410
839.201 .0423357
839.887 .0423307
840.572 .0423253
841.258 .0423195
841.943 .0423135
842.628 .0423071
843.312 .0423003
843.996 .0422936
844.680 .0422874
845.363 .0422810
846.046 .0422738
846.729 .0422657
847.412 .0422567
848.094 .0422462
848.776 .0422339
849.457 .0422197
850.139 .0422038
850.819 .0421868
851.500 .0421687
852.180 .0421506
852.860 .0421327
853.540 .0421152
854.219 .0420980
854.898 .0420810
855.576 .0420633
856.254 .0420446
856.932 .0420247
857.610 .0420034
858.287 .0419806
858.964 .0419564
859.640 .0419311
860.317 .0419055
860.993 .0418798
861.668 .0418543
862.343 .0418282
863.018 .0418025
863.693 .0417760
864.367 .0417488
865.041 .0417202
865.714 .0416903
866.387 .0416590
867.060 .0416268
867.732 .0415927
868.404 .0415571
869.076 .0415203
869.748 .0414827
870.419 .0414439
871.089 .0414048
871.760 .0413651
872.430 .0413255
873.099 .0412854
873.769 .0412451
874.438 .0412040
875.106 .0411629
875.774 .0411218
876.442 .0410806
877.110 .0410397
877.777 .0409997
878.444 .0409604
879.110 .0409227
879.776 .0408866
880.442 .0408524
881.108 .0408194
881.773 .0407880
882.437 .0407577
883.102 .0407282
883.766 .0406990
884.429 .0406702
885.093 .0406413
885.755 .0406122
886.418 .0405821
887.080 .0405509
887.742 .0405189
888.403 .0404858
889.064 .0404518
889.725 .0404171
890.385 .0403824
891.045 .0403480
891.705 .0403136
892.364 .0402798
893.023 .0402470
893.682 .0402146
894.340 .0401826
894.998 .0401510
895.655 .0401205
896.312 .0400911
896.969 .0400632
897.625 .0400374
898.281 .0400141
898.937 .0399931
899.592 .0399738
900.247 .0399558
900.901 .0399394
901.555 .0399240
902.209 .0399089
902.862 .0398941
903.515 .0398797
904.168 .0398656
904.820 .0398520
905.472 .0398390
906.123 .0398266
906.774 .0398149
907.425 .0398034
908.076 .0397922
908.726 .0397810
909.375 .0397700
910.024 .0397590
910.673 .0397482
911.322 .0397375
911.970 .0397264
912.618 .0397148
913.265 .0397030
913.912 .0396912
914.558 .0396793
915.205 .0396674
915.850 .0396558
916.496 .0396444
917.141 .0396332
917.786 .0396220
918.430 .0396104
919.074 .0395983
919.718 .0395855
920.361 .0395720
921.004 .0395581
921.646 .0395448
922.288 .0395322
922.930 .0395206
923.571 .0395098
924.212 .0394995
924.853 .0394893
925.493 .0394792
926.133 .0394691
926.772 .0394586
927.411 .0394477
928.050 .0394365
928.688 .0394248
929.326 .0394132
929.963 .0394012
930.600 .0393890
931.237 .0393767
931.874 .0393642
932.510 .0393514
933.145 .0393384
933.780 .0393252
934.415 .0393120
935.050 .0392989
935.684 .0392860
936.318 .0392736
936.951 .0392620
937.584 .0392511
938.217 .0392409
938.849 .0392311
939.481 .0392217
940.112 .0392123
940.743 .0392030
941.374 .0391933
942.004 .0391831
942.634 .0391722
943.264 .0391603
943.893 .0391477
944.522 .0391346
945.150 .0391203
945.778 .0391051
946.406 .0390885
947.033 .0390705
947.660 .0390505
948.287 .0390288
948.913 .0390054
949.539 .0389802
950.165 .0389536
950.790 .0389259
951.414 .0388970
952.039 .0388677
952.663 .0388376
953.286 .0388065
953.910 .0387744
954.533 .0387413
955.155 .0387066
955.777 .0386714
956.399 .0386357
957.020 .0385997
957.641 .0385635
958.262 .0385276
958.882 .0384916
959.502 .0384554
960.122 .0384198
960.741 .0383845
961.360 .0383498
961.979 .0383153
962.597 .0382810
963.214 .0382471
963.832 .0382135
964.449 .0381797
965.066 .0381459
965.682 .0381126
966.298 .0380799
966.914 .0380478
967.529 .0380168
968.144 .0379869
968.758 .0379579
969.373 .0379289
969.986 .0378997
970.600 .0378701
971.213 .0378400
971.826 .0378087
972.438 .0377775
973.050 .0377461
973.662 .0377151
974.274 .0376841
974.885 .0376536
975.495 .0376236
976.106 .0375936
976.716 .0375634
977.325 .0375332
977.935 .0375035
978.544 .0374739
979.152 .0374439
979.761 .0374143
980.369 .0373848
980.976 .0373549
981.584 .0373247
982.191 .0372947
982.797 .0372651
983.404 .0372360
984.010 .0372071
984.615 .0371785
985.221 .0371503
985.826 .0371212
986.430 .0370907
987.035 .0370587
987.639 .0370256
988.243 .0369915
988.846 .0369571
989.449 .0369234
990.052 .0368917
990.654 .0368619
991.256 .0368347
991.858 .0368096
992.460 .0367861
993.061 .0367638
993.662 .0367432
994.262 .0367247
994.863 .0367081
995.463 .0366938
996.062 .0366817
996.662 .0366725
997.261 .0366651
997.860 .0366586
998.458 .0366533
999.056 .0366484
999.654 .0366431
1000.252 .0366369
1000.849 .0366310
1001.446 .0366247
1002.043 .0366187
1002.639 .0366132
1003.235 .0366075
1003.831 .0366024
1004.427 .0365975
1005.022 .0365925
1005.617 .0365883
1006.212 .0365853
1006.806 .0365829
1007.401 .0365815
1007.995 .0365823
1008.588 .0365837
1009.182 .0365866
1009.775 .0365907
1010.368 .0365958
1010.960 .0366006
1011.553 .0366063
1012.145 .0366119
1012.737 .0366178
1013.328 .0366251
1013.920 .0366327
1014.511 .0366415
1015.102 .0366523
1015.692 .0366638
1016.283 .0366762
1016.873 .0366897
1017.463 .0367037
1018.052 .0367172
1018.642 .0367308
1019.231 .0367438
1019.820 .0367564
1020.409 .0367687
1020.997 .0367814
1021.585 .0367934
1022.173 .0368062
1022.761 .0368186
1023.349 .0368300
1023.936 .0368405
1024.524 .0368492
1025.111 .0368557
1025.697 .0368607
1026.284 .0368646
1026.870 .0368675
1027.457 .0368704
1028.043 .0368739
1028.628 .0368778
1029.214 .0368830
1029.800 .0368894
1030.385 .0368970
1030.970 .0369054
1031.555 .0369149
1032.139 .0369241
1032.724 .0369338
1033.308 .0369440
1033.893 .0369539
1034.477 .0369641
1035.060 .0369737
1035.644 .0369824
1036.228 .0369894
1036.811 .0369951
1037.394 .0369994
1037.977 .0370016
1038.560 .0370024
1039.143 .0370010
1039.726 .0369983
1040.308 .0369939
1040.891 .0369872
1041.473 .0369789
1042.055 .0369689
1042.637 .0369575
1043.219 .0369444
1043.801 .0369309
1044.382 .0369175
1044.964 .0369051
1045.545 .0368946
1046.127 .0368859
1046.708 .0368793
1047.289 .0368743
1047.870 .0368703
1048.451 .0368664
1049.032 .0368628
1049.612 .0368588
1050.193 .0368541
1050.774 .0368498
1051.354 .0368459
1051.935 .0368422
1052.515 .0368398
1053.095 .0368386
1053.675 .0368382
1054.256 .0368382
1054.836 .0368396
1055.416 .0368415
1055.996 .0368437
1056.576 .0368456
1057.156 .0368476
1057.735 .0368489
1058.315 .0368500
1058.895 .0368495
1059.475 .0368475
1060.055 .0368438
1060.634 .0368377
1061.214 .0368286
1061.794 .0368194
1062.373 .0368090
1062.953 .0367975
1063.533 .0367845
1064.113 .0367701
1064.692 .0367523
1065.272 .0367316
1065.852 .0367089
1066.431 .0366837
1067.011 .0366569
1067.591 .0366305
1068.171 .0366039
1068.751 .0365799
1069.331 .0365586
1069.910 .0365392
1070.490 .0365213
1071.071 .0365044
1071.651 .0364855
1072.231 .0364648
1072.811 .0364434
1073.391 .0364202
1073.972 .0363962
1074.552 .0363736
1075.133 .0363505
1075.713 .0363274
1076.294 .0363053
1076.875 .0362817
1077.456 .0362567
1078.037 .0362307
1078.618 .0362027
1079.199 .0361735
1079.780 .0361466
1080.362 .0361216
1080.943 .0360985
1081.525 .0360790
1082.107 .0360595
1082.689 .0360371
1083.271 .0360136
1083.853 .0359863
1084.436 .0359540
1085.018 .0359192
1085.601 .0358820
1086.184 .0358432
1086.767 .0358057
1087.351 .0357696
1087.934 .0357341
1088.518 .0357007
1089.102 .0356690
1089.686 .0356358
1090.270 .0356039
1090.855 .0355736
1091.439 .0355433
1092.024 .0355169
1092.609 .0354955
1093.195 .0354776
1093.780 .0354650
1094.366 .0354569
1094.952 .0354514
1095.539 .0354496
1096.125 .0354498
1096.712 .0354494
1097.299 .0354501
1097.887 .0354529
1098.475 .0354549
1099.063 .0354565
1099.651 .0354590
1100.239 .0354586
1100.828 .0354571
1101.417 .0354523
1102.007 .0354447
1102.597 .0354349
1103.187 .0354251
1103.777 .0354128
1104.368 .0353996
1104.959 .0353885
1105.551 .0353769
1106.143 .0353648
1106.735 .0353545
1107.328 .0353431
1107.921 .0353318
1108.514 .0353205
1109.108 .0353096
1109.702 .0352971
1110.296 .0352853
1110.891 .0352696
1111.486 .0352531
1112.082 .0352349
1112.678 .0352163
1113.275 .0351992
1113.872 .0351840
1114.469 .0351739
1115.067 .0351676
1115.665 .0351670
1116.264 .0351755
1116.864 .0351930
1117.463 .0352222
1118.063 .0352595
1118.664 .0353084
1119.265 .0353647
1119.867 .0354272
1120.469 .0354937
1121.072 .0355633
1121.675 .0356362
1122.279 .0357107
1122.883 .0357862
1123.488 .0358631
1124.093 .0359457
1124.699 .0360347
1125.305 .0361259
1125.912 .0362200
1126.520 .0363109
1127.128 .0363978
1127.737 .0364763
1128.346 .0365439
1128.956 .0366029
1129.567 .0366548
1130.178 .0367068
1130.790 .0367623
1131.402 .0368240
1132.015 .0368964
1132.629 .0369808
1133.243 .0370759
1133.858 .0371764
1134.474 .0372801
1135.090 .0373825
1135.707 .0374871
1136.325 .0375896
1136.943 .0376900
1137.562 .0377881
1138.182 .0378934
1138.802 .0380057
1139.423 .0381166
1140.045 .0382373
1140.668 .0383626
1141.291 .0384910
1141.916 .0385874
1142.540 .0386803
1143.166 .0389698
1143.793 .0390162
1144.420 .0391265
1145.048 .0382419
