BestFit value for E:\RC_data\Compressed_For_Future_Analysis_Lite\test_shlomo\aqueous_test\GoodSpectraLarge_Full\0012_2025-06-24_09-45-30\Interpretation_History\2025-07-21_16-23-34\ResultsGraphs\BestFit\(Run)spectra_09-46-25-416_BestFit.txt
600.203 0.0477471
600.975 0.0476866
601.747 0.0476263
602.518 0.0475662
603.289 0.0475063
604.059 0.0474466
604.829 0.0473870
605.599 0.0473275
606.369 0.0472680
607.138 0.0472087
607.906 0.0471496
608.675 0.0470903
609.443 0.0470312
610.210 0.0469722
610.977 0.0469132
611.744 0.0468541
612.511 0.0467951
613.277 0.0467362
614.043 0.0466773
614.809 0.0466183
615.574 0.0465595
616.339 0.0465007
617.104 0.0464419
617.868 0.0463832
618.632 0.0463246
619.395 0.0462661
620.159 0.0462077
620.922 0.0461494
621.684 0.0460913
622.447 0.0460333
623.209 0.0459755
623.970 0.0459180
624.732 0.0458606
625.493 0.0458035
626.254 0.0457467
627.014 0.0456902
627.774 0.0456339
628.534 0.0455780
629.294 0.0455224
630.053 0.0454672
630.812 0.0454123
631.571 0.0453578
632.329 0.0453037
633.087 0.0452500
633.845 0.0451966
634.602 0.0451437
635.359 0.0450912
636.116 0.0450391
636.873 0.0449873
637.629 0.0449360
638.385 0.0448850
639.141 0.0448344
639.897 0.0447841
640.652 0.0447342
641.407 0.0446846
642.161 0.0446353
642.916 0.0445862
643.670 0.0445375
644.424 0.0444890
645.177 0.0444407
645.931 0.0443925
646.684 0.0443446
647.436 0.0442968
648.189 0.0442491
648.941 0.0442015
649.693 0.0441540
650.445 0.0441064
651.196 0.0440590
651.947 0.0440115
652.698 0.0439640
653.449 0.0439164
654.199 0.0438688
654.949 0.0438211
655.699 0.0437733
656.449 0.0437253
657.198 0.0436773
657.947 0.0436292
658.696 0.0435809
659.445 0.0435324
660.193 0.0434839
660.941 0.0434352
661.689 0.0433864
662.436 0.0433376
663.184 0.0432885
663.931 0.0432394
664.678 0.0431901
665.424 0.0431409
666.171 0.0430915
666.917 0.0430422
667.663 0.0429928
668.408 0.0429435
669.154 0.0428941
669.899 0.0428449
670.644 0.0427957
671.388 0.0427467
672.133 0.0426978
672.877 0.0426490
673.621 0.0426005
674.365 0.0425522
675.108 0.0425041
675.851 0.0424564
676.594 0.0424089
677.337 0.0423618
678.080 0.0423149
678.822 0.0422685
679.564 0.0422225
680.306 0.0421769
681.047 0.0421317
681.789 0.0420869
682.530 0.0420426
683.271 0.0419988
684.012 0.0419554
684.752 0.0419126
685.492 0.0418702
686.232 0.0418282
686.972 0.0417868
687.712 0.0417457
688.451 0.0417052
689.190 0.0416652
689.929 0.0416255
690.667 0.0415863
691.406 0.0415475
692.144 0.0415091
692.882 0.0414710
693.620 0.0414333
694.357 0.0413959
695.095 0.0413588
695.832 0.0413219
696.569 0.0412853
697.305 0.0412490
698.042 0.0412127
698.778 0.0411766
699.514 0.0411407
700.249 0.0411048
700.985 0.0410690
701.720 0.0410332
702.455 0.0409973
703.190 0.0409615
703.925 0.0409255
704.659 0.0408895
705.393 0.0408533
706.127 0.0408170
706.861 0.0407804
707.595 0.0407437
708.328 0.0407068
709.061 0.0406696
709.794 0.0406322
710.527 0.0405945
711.259 0.0405565
711.991 0.0405182
712.723 0.0404797
713.455 0.0404408
714.186 0.0404016
714.918 0.0403621
715.649 0.0403223
716.380 0.0402822
717.110 0.0402418
717.841 0.0402011
718.571 0.0401602
719.301 0.0401190
720.031 0.0400775
720.760 0.0400359
721.490 0.0399940
722.219 0.0399520
722.948 0.0399098
723.676 0.0398676
724.405 0.0398252
725.133 0.0397827
725.861 0.0397402
726.589 0.0396977
727.317 0.0396553
728.044 0.0396129
728.771 0.0395706
729.498 0.0395284
730.225 0.0394864
730.951 0.0394446
731.677 0.0394030
732.403 0.0393617
733.129 0.0393206
733.855 0.0392799
734.580 0.0392395
735.305 0.0391996
736.030 0.0391600
736.755 0.0391208
737.479 0.0390822
738.203 0.0390440
738.927 0.0390063
739.651 0.0389691
740.375 0.0389324
741.098 0.0388963
741.821 0.0388608
742.544 0.0388258
743.267 0.0387914
743.989 0.0387576
744.711 0.0387244
745.433 0.0386918
746.155 0.0386597
746.877 0.0386282
747.598 0.0385973
748.319 0.0385670
749.040 0.0385372
749.760 0.0385079
750.481 0.0384792
751.201 0.0384510
751.921 0.0384232
752.640 0.0383959
753.360 0.0383690
754.079 0.0383426
754.798 0.0383165
755.517 0.0382908
756.235 0.0382654
756.953 0.0382403
757.671 0.0382154
758.389 0.0381908
759.107 0.0381663
759.824 0.0381420
760.541 0.0381178
761.258 0.0380937
761.974 0.0380697
762.691 0.0380457
763.407 0.0380216
764.123 0.0379975
764.838 0.0379733
765.554 0.0379489
766.269 0.0379245
766.984 0.0378998
767.699 0.0378749
768.413 0.0378497
769.127 0.0378243
769.841 0.0377986
770.555 0.0377725
771.268 0.0377461
771.982 0.0377193
772.694 0.0376921
773.407 0.0376645
774.120 0.0376364
774.832 0.0376080
775.544 0.0375791
776.256 0.0375497
776.967 0.0375198
777.678 0.0374895
778.389 0.0374587
779.100 0.0374274
779.810 0.0373957
780.521 0.0373634
781.231 0.0373307
781.940 0.0372976
782.650 0.0372640
783.359 0.0372300
784.068 0.0371955
784.776 0.0371607
785.485 0.0371255
786.193 0.0370899
786.901 0.0370539
787.609 0.0370177
788.316 0.0369812
789.023 0.0369444
789.730 0.0369074
790.436 0.0368702
791.143 0.0368327
791.849 0.0367952
792.555 0.0367575
793.260 0.0367198
793.965 0.0366820
794.670 0.0366443
795.375 0.0366065
796.080 0.0365688
796.784 0.0365312
797.488 0.0364937
798.191 0.0364565
798.895 0.0364193
799.598 0.0363825
800.301 0.0363459
801.003 0.0363096
801.705 0.0362737
802.408 0.0362380
803.109 0.0362029
803.811 0.0361681
804.512 0.0361338
805.213 0.0361000
805.913 0.0360667
806.614 0.0360339
807.314 0.0360017
808.014 0.0359700
808.713 0.0359389
809.412 0.0359085
810.111 0.0358787
810.810 0.0358495
811.508 0.0358210
812.206 0.0357931
812.904 0.0357659
813.602 0.0357393
814.299 0.0357135
814.996 0.0356884
815.692 0.0356639
816.389 0.0356401
817.085 0.0356170
817.781 0.0355945
818.476 0.0355728
819.171 0.0355517
819.866 0.0355312
820.561 0.0355113
821.255 0.0354921
821.949 0.0354735
822.643 0.0354554
823.336 0.0354379
824.029 0.0354210
824.722 0.0354045
825.415 0.0353886
826.107 0.0353731
826.799 0.0353581
827.490 0.0353434
828.182 0.0353292
828.873 0.0353153
829.563 0.0353017
830.254 0.0352884
830.944 0.0352754
831.634 0.0352626
832.323 0.0352500
833.012 0.0352375
833.701 0.0352252
834.390 0.0352129
835.078 0.0352008
835.766 0.0351886
836.453 0.0351764
837.141 0.0351642
837.828 0.0351519
838.514 0.0351395
839.201 0.0351269
839.887 0.0351141
840.572 0.0351012
841.258 0.0350880
841.943 0.0350745
842.628 0.0350608
843.312 0.0350467
843.996 0.0350323
844.680 0.0350174
845.363 0.0350022
846.046 0.0349866
846.729 0.0349705
847.412 0.0349539
848.094 0.0349369
848.776 0.0349193
849.457 0.0349013
850.139 0.0348827
850.819 0.0348635
851.500 0.0348438
852.180 0.0348235
852.860 0.0348027
853.540 0.0347812
854.219 0.0347592
854.898 0.0347366
855.576 0.0347134
856.254 0.0346896
856.932 0.0346652
857.610 0.0346402
858.287 0.0346147
858.964 0.0345886
859.640 0.0345619
860.317 0.0345346
860.993 0.0345068
861.668 0.0344784
862.343 0.0344496
863.018 0.0344202
863.693 0.0343903
864.367 0.0343600
865.041 0.0343292
865.714 0.0342980
866.387 0.0342664
867.060 0.0342344
867.732 0.0342021
868.404 0.0341694
869.076 0.0341363
869.748 0.0341030
870.419 0.0340695
871.089 0.0340357
871.760 0.0340017
872.430 0.0339675
873.099 0.0339332
873.769 0.0338987
874.438 0.0338642
875.106 0.0338297
875.774 0.0337951
876.442 0.0337605
877.110 0.0337259
877.777 0.0336915
878.444 0.0336571
879.110 0.0336229
879.776 0.0335888
880.442 0.0335548
881.108 0.0335211
881.773 0.0334877
882.437 0.0334546
883.102 0.0334217
883.766 0.0333892
884.429 0.0333570
885.093 0.0333252
885.755 0.0332939
886.418 0.0332630
887.080 0.0332325
887.742 0.0332025
888.403 0.0331731
889.064 0.0331442
889.725 0.0331157
890.385 0.0330879
891.045 0.0330607
891.705 0.0330340
892.364 0.0330080
893.023 0.0329826
893.682 0.0329578
894.340 0.0329337
894.998 0.0329103
895.655 0.0328875
896.312 0.0328655
896.969 0.0328441
897.625 0.0328234
898.281 0.0328034
898.937 0.0327841
899.592 0.0327656
900.247 0.0327477
900.901 0.0327306
901.555 0.0327141
902.209 0.0326984
902.862 0.0326833
903.515 0.0326690
904.168 0.0326553
904.820 0.0326423
905.472 0.0326299
906.123 0.0326183
906.774 0.0326072
907.425 0.0325968
908.076 0.0325870
908.726 0.0325779
909.375 0.0325693
910.024 0.0325613
910.673 0.0325538
911.322 0.0325469
911.970 0.0325405
912.618 0.0325346
913.265 0.0325291
913.912 0.0325242
914.558 0.0325196
915.205 0.0325155
915.850 0.0325118
916.496 0.0325084
917.141 0.0325053
917.786 0.0325026
918.430 0.0325002
919.074 0.0324980
919.718 0.0324961
920.361 0.0324944
921.004 0.0324928
921.646 0.0324915
922.288 0.0324902
922.930 0.0324891
923.571 0.0324880
924.212 0.0324870
924.853 0.0324861
925.493 0.0324851
926.133 0.0324841
926.772 0.0324830
927.411 0.0324819
928.050 0.0324807
928.688 0.0324793
929.326 0.0324778
929.963 0.0324761
930.600 0.0324742
931.237 0.0324721
931.874 0.0324697
932.510 0.0324671
933.145 0.0324641
933.780 0.0324609
934.415 0.0324573
935.050 0.0324533
935.684 0.0324490
936.318 0.0324442
936.951 0.0324391
937.584 0.0324335
938.217 0.0324275
938.849 0.0324210
939.481 0.0324141
940.112 0.0324066
940.743 0.0323987
941.374 0.0323902
942.004 0.0323812
942.634 0.0323716
943.264 0.0323615
943.893 0.0323509
944.522 0.0323396
945.150 0.0323278
945.778 0.0323155
946.406 0.0323025
947.033 0.0322889
947.660 0.0322748
948.287 0.0322600
948.913 0.0322447
949.539 0.0322287
950.165 0.0322121
950.790 0.0321950
951.414 0.0321772
952.039 0.0321589
952.663 0.0321399
953.286 0.0321204
953.910 0.0321003
954.533 0.0320796
955.155 0.0320584
955.777 0.0320366
956.399 0.0320143
957.020 0.0319914
957.641 0.0319679
958.262 0.0319440
958.882 0.0319195
959.502 0.0318946
960.122 0.0318701
960.741 0.0318492
961.360 0.0318278
961.979 0.0318059
962.597 0.0317836
963.214 0.0317609
963.832 0.0317377
964.449 0.0317142
965.066 0.0316902
965.682 0.0316660
966.298 0.0316414
966.914 0.0316164
967.529 0.0315912
968.144 0.0315657
968.758 0.0315399
969.373 0.0315138
969.986 0.0314876
970.600 0.0314611
971.213 0.0314345
971.826 0.0314077
972.438 0.0313807
973.050 0.0313537
973.662 0.0313265
974.274 0.0312992
974.885 0.0312719
975.495 0.0312445
976.106 0.0312171
976.716 0.0311898
977.325 0.0311624
977.935 0.0311351
978.544 0.0311079
979.152 0.0310808
979.761 0.0310537
980.369 0.0310268
980.976 0.0310000
981.584 0.0309734
982.191 0.0309470
982.797 0.0309208
983.404 0.0308948
984.010 0.0308691
984.615 0.0308437
985.221 0.0308185
985.826 0.0307936
986.430 0.0307691
987.035 0.0307448
987.639 0.0307210
988.243 0.0306975
988.846 0.0306744
989.449 0.0306516
990.052 0.0306293
990.654 0.0306075
991.256 0.0305861
991.858 0.0305651
992.460 0.0305446
993.061 0.0305245
993.662 0.0305050
994.262 0.0304860
994.863 0.0304675
995.463 0.0304495
996.062 0.0304321
996.662 0.0304152
997.261 0.0303988
997.860 0.0303830
998.458 0.0303678
999.056 0.0303532
999.654 0.0303391
1000.252 0.0303239
1000.849 0.0303067
1001.446 0.0302902
1002.043 0.0302743
1002.639 0.0302590
1003.235 0.0302443
1003.831 0.0302303
1004.427 0.0302168
1005.022 0.0302040
1005.617 0.0301918
1006.212 0.0301802
1006.806 0.0301693
1007.401 0.0301590
1007.995 0.0301492
1008.588 0.0301401
1009.182 0.0301316
1009.775 0.0301238
1010.368 0.0301165
1010.96 0.0301098
1011.553 0.0301037
1012.145 0.0300981
1012.737 0.0300932
1013.328 0.0300888
1013.92 0.0300850
1014.511 0.0300817
1015.102 0.0300790
1015.692 0.0300768
1016.283 0.0300751
1016.873 0.0300739
1017.463 0.0300732
1018.052 0.0300731
1018.642 0.0300734
1019.231 0.0300741
1019.82 0.0300754
1020.409 0.0300770
1020.997 0.0300791
1021.585 0.0300816
1022.173 0.0300845
1022.761 0.0300878
1023.349 0.0300915
1023.936 0.0300955
1024.524 0.0300999
1025.111 0.0301046
1025.697 0.0301096
1026.284 0.0301149
1026.87 0.0301205
1027.457 0.0301263
1028.043 0.0301324
1028.628 0.0301387
1029.214 0.0301453
1029.80 0.0301520
1030.385 0.0301590
1030.97 0.0301661
1031.555 0.0301733
1032.139 0.0301807
1032.724 0.0301882
1033.308 0.0301958
1033.893 0.0302035
1034.477 0.0302112
1035.06 0.0302190
1035.644 0.0302268
1036.228 0.0302347
1036.811 0.0302425
1037.394 0.0302503
1037.977 0.0302581
1038.56 0.0302658
1039.143 0.0302734
1039.726 0.0302810
1040.308 0.0302885
1040.891 0.0302958
1041.473 0.0303030
1042.055 0.0303101
1042.637 0.0303170
1043.219 0.0303237
1043.801 0.0303302
1044.382 0.0303365
1044.964 0.0303425
1045.545 0.0303483
1046.127 0.0303539
1046.708 0.0303592
1047.289 0.0303642
1047.87 0.0303689
1048.451 0.0303733
1049.032 0.0303774
1049.612 0.0303812
1050.193 0.0303846
1050.774 0.0303876
1051.354 0.0303902
1051.935 0.0303925
1052.515 0.0303944
1053.095 0.0303958
1053.675 0.0303969
1054.256 0.0303975
1054.836 0.0303977
1055.416 0.0303974
1055.996 0.0303967
1056.576 0.0303955
1057.156 0.0303939
1057.735 0.0303917
1058.315 0.0303891
1058.895 0.0303860
1059.475 0.0303824
1060.055 0.0303782
1060.634 0.0303736
1061.214 0.0303684
1061.794 0.0303627
1062.373 0.0303565
1062.953 0.0303498
1063.533 0.0303425
1064.113 0.0303347
1064.692 0.0303263
1065.272 0.0303174
1065.852 0.0303079
1066.431 0.0302979
1067.011 0.0302873
1067.591 0.0302762
1068.171 0.0302646
1068.751 0.0302523
1069.331 0.0302396
1069.91 0.0302263
1070.49 0.0302124
1071.071 0.0301979
1071.651 0.0301830
1072.231 0.0301675
1072.811 0.0301514
1073.391 0.0301348
1073.972 0.0301177
1074.552 0.0301000
1075.133 0.0300818
1075.713 0.0300631
1076.294 0.0300439
1076.875 0.0300242
1077.456 0.0300039
1078.037 0.0299832
1078.618 0.0299619
1079.199 0.0299402
1079.78 0.0299180
1080.362 0.0298953
1080.943 0.0298722
1081.525 0.0298486
1082.107 0.0298245
1082.689 0.0298001
1083.271 0.0297752
1083.853 0.0297498
1084.436 0.0297241
1085.018 0.0296980
1085.601 0.0296714
1086.184 0.0296445
1086.767 0.0296172
1087.351 0.0295896
1087.934 0.0295616
1088.518 0.0295333
1089.102 0.0295046
1089.686 0.0294757
1090.27 0.0294464
1090.855 0.0294169
1091.439 0.0293871
1092.024 0.0293570
1092.609 0.0293267
1093.195 0.0292961
1093.78 0.0292654
1094.366 0.0292344
1094.952 0.0292032
1095.539 0.0291718
1096.125 0.0291403
1096.712 0.0291087
1097.299 0.0290768
1097.887 0.0290449
1098.475 0.0290128
1099.063 0.0289807
1099.651 0.0289485
1100.239 0.0289162
1100.828 0.0288839
1101.417 0.0288515
1102.007 0.0288191
1102.597 0.0287867
1103.187 0.0287543
1103.777 0.0287220
1104.368 0.0286897
1104.959 0.0286574
1105.551 0.0286252
1106.143 0.0285930
1106.735 0.0285610
1107.328 0.0285291
1107.921 0.0284973
1108.514 0.0284657
1109.108 0.0284342
1109.702 0.0284029
1110.296 0.0283718
1110.891 0.0283409
1111.486 0.0283102
1112.082 0.0282798
1112.678 0.0282495
1113.275 0.0282196
1113.872 0.0281899
1114.469 0.0281605
1115.067 0.0281314
1115.665 0.0281026
1116.264 0.0280741
1116.864 0.0280459
1117.463 0.0280182
1118.063 0.0279908
1118.664 0.0279637
1119.265 0.0279371
1119.867 0.0279108
1120.469 0.0278850
1121.072 0.0278596
1121.675 0.0278346
1122.279 0.0278101
1122.883 0.0277860
1123.488 0.0277624
1124.093 0.0277393
1124.699 0.0277167
1125.305 0.0276946
1125.912 0.0276730
1126.52 0.0276519
1127.128 0.0276313
1127.737 0.0276112
1128.346 0.0275918
1128.956 0.0275728
1129.567 0.0275544
1130.178 0.0275366
1130.79 0.0275194
1131.402 0.0275027
1132.015 0.0274867
1132.629 0.0274712
1133.243 0.0274563
1133.858 0.0274420
1134.474 0.0274283
1135.09 0.0274153
1135.707 0.0274029
1136.325 0.0273910
1136.943 0.0273799
1137.562 0.0273693
1138.182 0.0273594
1138.802 0.0273501
1139.423 0.0273414
1140.045 0.0273334
1140.668 0.0273260
1141.291 0.0273193
1141.916 0.0273131
1142.54 0.0273077
1143.166 0.0273028
1143.793 0.0272986
1144.42 0.0272951
1145.048 0.0272921
