Measurement Sequence started on: 15-12-46-377
Integration time: 28
Scans to Average: 2 
>>>>>Begin Spectral Data<<<<<
432.689 .0000100
433.621 .0000100
434.552 .0000100
435.482 .0000100
436.410 .0000100
437.337 .0000100
438.262 .0262973
439.187 .0556564
440.110 .0921635
441.031 .1333009
441.952 .1732139
442.871 .2045297
443.789 .2215605
444.705 .2223859
445.621 .2094108
446.535 .1879176
447.447 .1636588
448.359 .1266821
449.269 .1084415
450.178 .0969606
451.086 .0889214
451.993 .0828140
452.898 .0780423
453.803 .0741474
454.706 .0709001
455.608 .0681346
456.508 .0657505
457.408 .0636717
458.306 .0618449
459.204 .0602254
460.100 .0587808
460.995 .0574913
461.888 .0563140
462.781 .0552314
463.673 .0542271
464.563 .0532983
465.452 .0524379
466.340 .0516251
467.228 .0508737
468.114 .0501599
468.999 .0494930
469.882 .0488615
470.765 .0482659
471.647 .0477052
472.528 .0471724
473.407 .0466810
474.286 .0462267
475.163 .0458183
476.040 .0454563
476.915 .0451410
477.790 .0448682
478.663 .0446327
479.535 .0444347
480.407 .0442579
481.277 .0441060
482.147 .0439810
483.015 .0438746
483.883 .0437943
484.749 .0437389
485.615 .0437101
486.479 .0437032
487.343 .0437161
488.206 .0437382
489.067 .0437671
489.928 .0437959
490.788 .0438235
491.647 .0438538
492.505 .0438923
493.362 .0439441
494.218 .0440105
495.073 .0441056
495.928 .0442312
496.781 .0443740
497.634 .0445508
498.486 .0447423
499.337 .0449560
500.187 .0451849
501.036 .0454301
501.884 .0457054
502.731 .0460060
503.578 .0463359
504.424 .0466825
505.268 .0470544
506.113 .0474597
506.956 .0478824
507.798 .0483495
508.640 .0488637
509.480 .0494250
510.320 .0500602
511.160 .0507701
511.998 .0515661
512.836 .0524580
513.672 .0534545
514.508 .0545509
515.344 .0557763
516.178 .0571509
517.012 .0587104
517.845 .0605083
518.677 .0626169
519.508 .0650125
520.339 .0677400
521.169 .0708413
521.998 .0742857
522.826 .0781367
523.654 .0824314
524.481 .0871174
525.307 .0923286
526.133 .0980103
526.958 .1041711
527.782 .1107394
528.605 .1176207
529.428 .1246562
530.250 .1313647
531.072 .1375188
531.892 .1426831
532.712 .1466078
533.532 .1491583
534.350 .1500776
535.168 .1493389
535.986 .1470286
536.802 .1432919
537.618 .1383696
538.434 .1324838
539.249 .1260433
540.063 .1192429
540.876 .1123755
541.689 .1056450
542.501 .0992580
543.313 .0933614
544.124 .0880798
544.934 .0833385
545.744 .0791306
546.553 .0753783
547.361 .0720502
548.169 .0691100
548.976 .0664877
549.783 .0641391
550.589 .0620059
551.395 .0600430
552.200 .0582766
553.004 .0566549
553.808 .0551825
554.611 .0538667
555.414 .0527072
556.216 .0516687
557.018 .0507535
557.819 .0499251
558.619 .0491629
559.419 .0484501
560.218 .0477761
561.017 .0471193
561.815 .0464824
562.613 .0458530
563.410 .0452293
564.207 .0446162
565.003 .0440194
565.799 .0434168
566.594 .0428207
567.388 .0422446
568.182 .0416737
568.976 .0411084
569.769 .0405593
570.562 .0400253
571.354 .0395075
572.145 .0390026
572.936 .0385139
573.727 .0380354
574.517 .0375764
575.307 .0371325
576.096 .0367090
576.885 .0363116
577.673 .0359405
578.461 .0355914
579.248 .0352703
580.035 .0349717
580.821 .0346855
581.607 .0344130
582.392 .0341554
583.177 .0339105
583.962 .0336797
584.746 .0334655
585.529 .0332701
586.313 .0330925
587.095 .0329343
587.878 .0327906
588.660 .0326633
589.441 .0325493
590.222 .0324447
591.003 .0323492
591.783 .0322618
592.563 .0321817
593.342 .0321077
594.121 .0320401
594.899 .0319790
595.678 .0319216
596.455 .0318679
597.233 .0318173
598.009 .0317685
598.786 .0317209
599.562 .0316739
600.338 .0316273
601.113 .0315823
601.888 .0315391
602.663 .0314978
603.437 .0314584
604.211 .0314211
604.984 .0313859
605.757 .0313511
606.530 .0313170
607.302 .0312825
608.074 .0312469
608.845 .0312107
609.616 .0311736
610.387 .0311367
611.158 .0311009
611.928 .0310679
612.697 .0310383
613.467 .0310115
614.236 .0309877
615.004 .0309654
615.773 .0309445
616.541 .0309245
617.308 .0309048
618.076 .0308849
618.843 .0308655
619.609 .0308472
620.375 .0308306
621.141 .0308158
621.907 .0308036
622.672 .0307931
623.437 .0307831
624.202 .0307727
624.966 .0307614
625.730 .0307484
626.493 .0307342
627.257 .0307182
628.020 .0307006
628.782 .0306810
629.545 .0306599
630.307 .0306364
631.068 .0306114
631.830 .0305844
632.591 .0305549
633.352 .0305233
634.112 .0304911
634.872 .0304583
635.632 .0304265
636.392 .0303964
637.151 .0303681
637.910 .0303407
638.668 .0303140
639.427 .0302868
640.185 .0302591
640.943 .0302314
641.700 .0302044
642.457 .0301785
643.214 .0301551
643.971 .0301346
644.727 .0301183
645.483 .0301055
646.239 .0300952
646.994 .0300860
647.750 .0300766
648.505 .0300663
649.259 .0300542
650.014 .0300408
650.768 .0300261
651.521 .0300113
652.275 .0299969
653.028 .0299827
653.781 .0299689
654.534 .0299543
655.286 .0299385
656.039 .0299207
656.791 .0298996
657.542 .0298751
658.294 .0298473
659.045 .0298181
659.796 .0297873
660.546 .0297566
661.297 .0297261
662.047 .0296968
662.796 .0296681
663.546 .0296399
664.295 .0296122
665.044 .0295855
665.793 .0295595
666.542 .0295344
667.290 .0295108
668.038 .0294886
668.786 .0294677
669.533 .0294483
670.281 .0294298
671.028 .0294129
671.774 .0293961
672.521 .0293796
673.267 .0293631
674.013 .0293473
674.759 .0293312
675.505 .0293149
676.250 .0292986
676.995 .0292817
677.740 .0292649
678.484 .0292480
679.229 .0292312
679.973 .0292152
680.717 .0292002
681.460 .0291864
682.204 .0291740
682.947 .0291636
683.690 .0291541
684.433 .0291458
685.175 .0291384
685.917 .0291308
686.659 .0291230
687.401 .0291148
688.142 .0291061
688.884 .0290972
689.625 .0290876
690.365 .0290770
691.106 .0290649
691.846 .0290515
692.586 .0290362
693.326 .0290188
694.066 .0289995
694.805 .0289785
695.545 .0289562
696.284 .0289334
697.022 .0289098
697.761 .0288863
698.499 .0288638
699.237 .0288417
699.975 .0288203
700.713 .0288002
701.450 .0287813
702.187 .0287635
702.924 .0287473
703.661 .0287325
704.397 .0287189
705.133 .0287064
705.869 .0286944
706.605 .0286822
707.341 .0286702
708.076 .0286579
708.811 .0286450
709.546 .0286326
710.281 .0286202
711.015 .0286073
711.749 .0285947
712.483 .0285820
713.217 .0285688
713.950 .0285549
714.684 .0285402
715.417 .0285239
716.150 .0285064
716.882 .0284877
717.615 .0284682
718.347 .0284486
719.079 .0284297
719.811 .0284108
720.542 .0283924
721.273 .0283742
722.005 .0283559
722.735 .0283374
723.466 .0283189
724.196 .0282995
724.927 .0282799
725.656 .0282597
726.386 .0282402
727.116 .0282210
727.845 .0282032
728.574 .0281866
729.303 .0281716
730.031 .0281581
730.760 .0281460
731.488 .0281350
732.216 .0281253
732.944 .0281161
733.671 .0281077
734.398 .0280995
735.125 .0280917
735.852 .0280844
736.579 .0280774
737.305 .0280709
738.031 .0280652
738.757 .0280597
739.483 .0280543
740.208 .0280488
740.933 .0280429
741.658 .0280363
742.383 .0280282
743.108 .0280193
743.832 .0280093
744.556 .0279988
745.280 .0279877
746.004 .0279763
746.727 .0279647
747.450 .0279535
748.173 .0279420
748.896 .0279308
749.618 .0279195
750.340 .0279083
751.062 .0278966
751.784 .0278849
752.506 .0278729
753.227 .0278608
753.948 .0278490
754.669 .0278378
755.389 .0278270
756.110 .0278164
756.830 .0278061
757.550 .0277961
758.269 .0277862
758.989 .0277761
759.708 .0277653
760.427 .0277536
761.146 .0277409
761.864 .0277270
762.582 .0277116
763.300 .0276955
764.018 .0276790
764.736 .0276623
765.453 .0276451
766.170 .0276279
766.887 .0276105
767.603 .0275927
768.320 .0275746
769.036 .0275557
769.751 .0275365
770.467 .0275169
771.182 .0274971
771.897 .0274779
772.612 .0274598
773.327 .0274432
774.041 .0274286
774.755 .0274157
775.469 .0274044
776.183 .0273943
776.896 .0273853
777.609 .0273775
778.322 .0273702
779.035 .0273635
779.747 .0273573
780.459 .0273518
781.171 .0273477
781.882 .0273439
782.594 .0273412
783.305 .0273393
784.016 .0273374
784.726 .0273349
785.436 .0273317
786.147 .0273274
786.856 .0273225
787.566 .0273168
788.275 .0273102
788.984 .0273033
789.693 .0272957
790.401 .0272877
791.110 .0272790
791.818 .0272697
792.525 .0272599
793.233 .0272493
793.940 .0272386
794.647 .0272274
795.353 .0272162
796.060 .0272050
796.766 .0271938
797.472 .0271825
798.177 .0271705
798.883 .0271576
799.588 .0271440
800.292 .0271297
800.997 .0271145
801.701 .0270988
802.405 .0270829
803.109 .0270673
803.812 .0270518
804.515 .0270362
805.218 .0270202
805.921 .0270037
806.623 .0269863
807.325 .0269678
808.027 .0269487
808.728 .0269292
809.429 .0269095
810.130 .0268903
810.831 .0268717
811.531 .0268539
812.231 .0268368
812.931 .0268206
813.630 .0268048
814.330 .0267895
815.029 .0267743
815.727 .0267589
816.426 .0267438
817.124 .0267290
817.821 .0267141
818.519 .0266996
819.216 .0266859
819.913 .0266732
820.609 .0266617
821.306 .0266517
822.002 .0266435
822.697 .0266371
823.393 .0266327
824.088 .0266295
824.783 .0266271
825.477 .0266256
826.171 .0266240
826.865 .0266225
827.559 .0266214
828.252 .0266201
828.945 .0266191
829.638 .0266185
830.330 .0266188
831.023 .0266193
831.714 .0266204
832.406 .0266215
833.097 .0266221
833.788 .0266218
834.479 .0266200
835.169 .0266163
835.859 .0266118
836.548 .0266064
837.238 .0266003
837.927 .0265942
838.615 .0265887
839.304 .0265840
839.992 .0265803
840.680 .0265774
841.367 .0265750
842.054 .0265728
842.741 .0265705
843.428 .0265679
844.114 .0265649
844.800 .0265617
845.485 .0265581
846.170 .0265542
846.855 .0265504
847.540 .0265460
848.224 .0265413
848.908 .0265360
849.592 .0265295
850.275 .0265216
850.958 .0265120
851.641 .0265012
852.323 .0264893
853.005 .0264767
853.687 .0264632
854.368 .0264494
855.049 .0264353
855.730 .0264210
856.410 .0264062
857.090 .0263907
857.769 .0263748
858.449 .0263580
859.128 .0263405
859.806 .0263225
860.485 .0263050
861.163 .0262884
861.840 .0262726
862.518 .0262576
863.195 .0262435
863.871 .0262298
864.548 .0262163
865.224 .0262026
865.899 .0261886
866.574 .0261741
867.249 .0261593
867.924 .0261446
868.598 .0261304
869.272 .0261168
869.946 .0261048
870.619 .0260938
871.292 .0260841
871.964 .0260748
872.636 .0260661
873.308 .0260575
873.979 .0260490
874.651 .0260404
875.321 .0260315
875.992 .0260225
876.662 .0260138
877.331 .0260053
878.001 .0259975
878.670 .0259903
879.338 .0259842
880.007 .0259788
880.675 .0259743
881.342 .0259704
882.009 .0259667
882.676 .0259633
883.343 .0259603
884.009 .0259571
884.675 .0259536
885.340 .0259501
886.005 .0259462
886.670 .0259420
887.334 .0259379
887.998 .0259338
888.662 .0259299
889.325 .0259259
889.988 .0259217
890.650 .0259173
891.312 .0259126
891.974 .0259075
892.636 .0259017
893.297 .0258959
893.957 .0258898
894.618 .0258832
895.278 .0258766
895.937 .0258701
896.596 .0258640
897.255 .0258580
897.914 .0258521
898.572 .0258458
899.230 .0258391
899.887 .0258318
900.544 .0258239
901.201 .0258159
901.857 .0258072
902.513 .0257981
903.168 .0257887
903.823 .0257786
904.478 .0257674
905.132 .0257550
905.786 .0257414
906.440 .0257263
907.093 .0257100
907.746 .0256925
908.399 .0256744
909.051 .0256564
909.703 .0256385
910.354 .0256208
911.005 .0256034
911.656 .0255859
912.306 .0255678
912.956 .0255494
913.605 .0255299
914.254 .0255096
914.903 .0254887
915.551 .0254680
916.199 .0254475
916.847 .0254273
917.494 .0254079
918.141 .0253894
918.788 .0253715
919.434 .0253542
920.079 .0253367
920.725 .0253195
921.370 .0253023
922.014 .0252851
922.658 .0252680
923.302 .0252514
923.946 .0252349
924.589 .0252185
925.231 .0252022
925.873 .0251860
926.515 .0251693
927.157 .0251524
927.798 .0251349
928.439 .0251172
929.079 .0250988
929.719 .0250801
930.359 .0250612
930.998 .0250423
931.637 .0250233
932.275 .0250046
932.913 .0249863
933.551 .0249679
934.188 .0249495
934.825 .0249315
935.462 .0249138
936.098 .0248967
936.733 .0248805
937.369 .0248659
938.004 .0248529
938.638 .0248415
939.273 .0248315
939.907 .0248229
940.540 .0248151
941.173 .0248077
941.806 .0248007
942.438 .0247939
943.070 .0247876
943.702 .0247817
944.333 .0247764
944.964 .0247719
945.594 .0247683
946.224 .0247649
946.854 .0247621
947.483 .0247594
948.112 .0247564
948.741 .0247529
949.369 .0247494
949.996 .0247453
950.624 .0247412
951.251 .0247373
951.878 .0247338
952.504 .0247310
953.130 .0247286
953.755 .0247264
954.380 .0247249
955.005 .0247231
955.629 .0247207
956.253 .0247174
956.877 .0247134
957.500 .0247083
958.123 .0247019
958.746 .0246941
959.368 .0246853
959.990 .0246759
960.611 .0246660
961.232 .0246562
961.853 .0246473
962.473 .0246395
963.093 .0246323
963.712 .0246260
964.331 .0246199
964.950 .0246136
965.569 .0246080
966.187 .0246029
966.804 .0245989
967.422 .0245970
968.039 .0245974
968.655 .0246006
969.272 .0246060
969.887 .0246128
970.503 .0246197
971.118 .0246263
971.733 .0246314
972.347 .0246342
972.961 .0246349
973.575 .0246341
974.188 .0246319
974.801 .0246292
975.414 .0246259
976.026 .0246221
976.638 .0246178
977.250 .0246125
977.861 .0246057
978.472 .0245977
979.083 .0245880
979.693 .0245767
980.303 .0245645
980.912 .0245521
981.521 .0245391
982.130 .0245266
982.738 .0245150
983.346 .0245040
983.954 .0244937
984.562 .0244840
985.169 .0244741
985.775 .0244641
986.382 .0244540
986.988 .0244431
987.594 .0244320
988.199 .0244212
988.804 .0244108
989.409 .0244016
990.013 .0243947
990.617 .0243894
991.221 .0243859
991.824 .0243846
992.427 .0243847
993.030 .0243851
993.632 .0243855
994.234 .0243857
994.836 .0243856
995.438 .0243857
996.039 .0243859
996.640 .0243869
997.240 .0243891
997.840 .0243930
998.440 .0243982
999.040 .0244044
999.639 .0244113
1000.238 .0244186
1000.836 .0244256
1001.435 .0244321
1002.033 .0244377
1002.630 .0244422
1003.228 .0244462
1003.825 .0244504
1004.422 .0244543
1005.018 .0244584
1005.614 .0244632
1006.210 .0244687
1006.806 .0244744
1007.401 .0244799
1007.996 .0244845
1008.591 .0244874
1009.186 .0244886
1009.780 .0244875
1010.374 .0244841
1010.967 .0244795
1011.561 .0244741
1012.154 .0244682
1012.746 .0244630
1013.339 .0244582
1013.931 .0244541
1014.523 .0244510
1015.115 .0244487
1015.706 .0244468
1016.298 .0244454
1016.888 .0244441
1017.479 .0244430
1018.069 .0244417
1018.660 .0244406
1019.250 .0244396
1019.839 .0244391
1020.429 .0244397
1021.018 .0244416
1021.607 .0244455
1022.195 .0244515
1022.784 .0244591
1023.372 .0244687
1023.960 .0244793
1024.547 .0244902
1025.135 .0245010
1025.722 .0245106
1026.309 .0245196
1026.896 .0245283
1027.483 .0245375
1028.069 .0245480
1028.655 .0245605
1029.241 .0245748
1029.827 .0245900
1030.412 .0246059
1030.997 .0246214
1031.582 .0246350
1032.167 .0246470
1032.752 .0246564
1033.336 .0246634
1033.921 .0246686
1034.505 .0246732
1035.089 .0246767
1035.672 .0246805
1036.256 .0246837
1036.839 .0246860
1037.422 .0246867
1038.005 .0246863
1038.588 .0246834
1039.171 .0246793
1039.753 .0246742
1040.335 .0246679
1040.918 .0246601
1041.500 .0246526
1042.081 .0246448
1042.663 .0246369
1043.244 .0246297
1043.826 .0246231
1044.407 .0246169
1044.988 .0246121
1045.569 .0246078
1046.150 .0246035
1046.730 .0245996
1047.311 .0245956
1047.891 .0245900
1048.471 .0245835
1049.052 .0245764
1049.632 .0245683
1050.211 .0245610
1050.791 .0245547
1051.371 .0245490
1051.950 .0245451
1052.530 .0245436
1053.109 .0245430
1053.688 .0245428
1054.268 .0245426
1054.847 .0245415
1055.426 .0245392
1056.005 .0245367
1056.583 .0245342
1057.162 .0245321
1057.741 .0245316
1058.319 .0245328
1058.898 .0245354
1059.476 .0245398
1060.055 .0245446
1060.633 .0245492
1061.211 .0245536
1061.790 .0245579
1062.368 .0245609
1062.946 .0245628
1063.524 .0245647
1064.102 .0245652
1064.680 .0245639
1065.258 .0245605
1065.836 .0245556
1066.414 .0245478
1066.992 .0245380
1067.570 .0245266
1068.148 .0245141
1068.726 .0245015
1069.304 .0244907
1069.882 .0244814
1070.460 .0244741
1071.038 .0244680
1071.616 .0244618
1072.194 .0244552
1072.772 .0244494
1073.350 .0244425
1073.928 .0244359
1074.506 .0244310
1075.084 .0244276
1075.662 .0244248
1076.240 .0244251
1076.819 .0244272
1077.397 .0244304
1077.976 .0244350
1078.554 .0244386
1079.133 .0244402
1079.711 .0244400
1080.290 .0244392
1080.869 .0244368
1081.448 .0244357
1082.027 .0244355
1082.606 .0244363
1083.185 .0244404
1083.764 .0244467
1084.343 .0244548
1084.923 .0244658
1085.502 .0244788
1086.082 .0244924
1086.662 .0245054
1087.242 .0245202
1087.822 .0245350
1088.402 .0245517
1088.983 .0245688
1089.563 .0245858
1090.144 .0246015
1090.725 .0246158
1091.306 .0246264
1091.887 .0246345
1092.469 .0246407
1093.050 .0246439
1093.632 .0246455
1094.214 .0246466
1094.796 .0246464
1095.379 .0246455
1095.961 .0246442
1096.544 .0246428
1097.127 .0246393
1097.710 .0246349
1098.294 .0246293
1098.877 .0246243
1099.461 .0246209
1100.046 .0246195
1100.630 .0246206
1101.215 .0246267
1101.800 .0246362
1102.385 .0246485
1102.970 .0246649
1103.556 .0246855
1104.142 .0247081
1104.728 .0247345
1105.315 .0247643
1105.902 .0247980
1106.489 .0248351
1107.077 .0248749
1107.664 .0249147
1108.253 .0249549
1108.841 .0249945
1109.430 .0250328
1110.019 .0250688
1110.609 .0251070
1111.198 .0251434
1111.789 .0251843
1112.379 .0252277
1112.970 .0252740
1113.561 .0253249
1114.153 .0253822
1114.745 .0254448
1115.338 .0255124
1115.931 .0255837
1116.524 .0256565
1117.117 .0257301
1117.712 .0258038
1118.306 .0258727
1118.901 .0259383
1119.496 .0259990
1120.092 .0260558
1120.689 .0261043
1121.285 .0261482
1121.882 .0261839
1122.480 .0262150
1123.078 .0262416
1123.677 .0262600
1124.276 .0262724
1124.875 .0262814
1125.476 .0262890
1126.076 .0262954
1126.677 .0263052
1127.279 .0263202
1127.881 .0263433
1128.484 .0263793
1129.087 .0264254
1129.691 .0264857
1130.295 .0265554
1130.900 .0266373
1131.505 .0267280
1132.111 .0268254
1132.718 .0269289
1133.325 .0270358
1133.933 .0271479
1134.541 .0272620
1135.150 .0273787
1135.760 .0274974
1136.370 .0276179
1136.981 .0277435
1137.592 .0278693
1138.204 .0279947
1138.817 .0281245
1139.431 .0282634
1140.045 .0284036
1140.660 .0285448
1141.275 .0287052
1141.891 .0288647
1142.508 .0291300
1143.126 .0291509
1143.744 .0291940
1144.363 .0298697
1144.983 .0296654
