Measurement Sequence started on: 15-12-46-377
Integration time: 28
Scans to Average: 2 
>>>>>Begin Spectral Data<<<<<
432.689 .0000100
433.621 .0000100
434.552 .0000100
435.482 .0000100
436.410 .0000100
437.337 .0000100
438.262 .0269357
439.187 .0571672
440.110 .0947182
441.031 .1371171
441.952 .1783125
442.871 .2108472
443.789 .2287636
444.705 .2300675
445.621 .2171768
446.535 .1954857
447.447 .1708293
448.359 .1330048
449.269 .1141552
450.178 .1022612
451.086 .0938227
451.993 .0873815
452.898 .0822667
453.803 .0781471
454.706 .0747186
455.608 .0718156
456.508 .0692678
457.408 .0670338
458.306 .0650169
459.204 .0631804
460.100 .0614914
460.995 .0599707
461.888 .0586070
462.781 .0573793
463.673 .0562639
464.563 .0552684
465.452 .0543389
466.340 .0534708
467.228 .0526486
468.114 .0518670
468.999 .0511207
469.882 .0504136
470.765 .0497513
471.647 .0491442
472.528 .0486023
473.407 .0481321
474.286 .0477229
475.163 .0473687
476.040 .0470620
476.915 .0467788
477.790 .0465127
478.663 .0462649
479.535 .0460375
480.407 .0458364
481.277 .0456623
482.147 .0455249
483.015 .0454221
483.883 .0453561
484.749 .0453288
485.615 .0453271
486.479 .0453545
487.343 .0453993
488.206 .0454468
489.067 .0454942
489.928 .0455407
490.788 .0455822
491.647 .0456256
492.505 .0456787
493.362 .0457461
494.218 .0458304
495.073 .0459433
495.928 .0460877
496.781 .0462583
497.634 .0464658
498.486 .0466955
499.337 .0469426
500.187 .0472055
501.036 .0474760
501.884 .0477543
502.731 .0480549
503.578 .0483787
504.424 .0487269
505.268 .0490923
506.113 .0494793
506.956 .0498778
507.798 .0502922
508.640 .0507170
509.480 .0511544
510.320 .0516197
511.160 .0521392
511.998 .0527090
512.836 .0533495
513.672 .0540871
514.508 .0549291
515.344 .0558587
516.178 .0569218
517.012 .0581270
517.845 .0595184
518.677 .0611433
519.508 .0630809
520.339 .0653861
521.169 .0681441
521.998 .0713946
522.826 .0751420
523.654 .0793936
524.481 .0841735
525.307 .0894304
526.133 .0951384
526.958 .1012966
527.782 .1078102
528.605 .1145823
529.428 .1215807
530.250 .1282664
531.072 .1344150
531.892 .1396948
532.712 .1438626
533.532 .1466548
534.350 .1478929
535.168 .1475169
535.986 .1455745
536.802 .1422919
537.618 .1378351
538.434 .1323588
539.249 .1263551
540.063 .1199695
540.876 .1134338
541.689 .1069489
542.501 .1007490
543.313 .0949913
544.124 .0897483
544.934 .0849970
545.744 .0806555
546.553 .0767320
547.361 .0732146
548.169 .0700716
548.976 .0672120
549.783 .0646367
550.589 .0623037
551.395 .0601972
552.200 .0582965
553.004 .0565821
553.808 .0550280
554.611 .0536605
555.414 .0524365
556.216 .0513461
557.018 .0503725
557.819 .0495074
558.619 .0487221
559.419 .0480153
560.218 .0473613
561.017 .0467571
561.815 .0461737
562.613 .0456087
563.410 .0450457
564.207 .0444889
565.003 .0439328
565.799 .0433820
566.594 .0428386
567.388 .0423229
568.182 .0418273
568.976 .0413533
569.769 .0409010
570.562 .0404632
571.354 .0400324
572.145 .0396057
572.936 .0391810
573.727 .0387546
574.517 .0383276
575.307 .0379115
576.096 .0375023
576.885 .0371030
577.673 .0367227
578.461 .0363562
579.248 .0360080
580.035 .0356760
580.821 .0353596
581.607 .0350588
582.392 .0347773
583.177 .0345144
583.962 .0342690
584.746 .0340437
585.529 .0338370
586.313 .0336457
587.095 .0334725
587.878 .0333135
588.660 .0331672
589.441 .0330343
590.222 .0329127
591.003 .0328027
591.783 .0327035
592.563 .0326147
593.342 .0325363
594.121 .0324643
594.899 .0323993
595.678 .0323390
596.455 .0322825
597.233 .0322291
598.009 .0321778
598.786 .0321291
599.562 .0320834
600.338 .0320410
601.113 .0320028
601.888 .0319681
602.663 .0319369
603.437 .0319102
604.211 .0318848
604.984 .0318623
605.757 .0318409
606.530 .0318198
607.302 .0317981
608.074 .0317756
608.845 .0317524
609.616 .0317279
610.387 .0317027
611.158 .0316784
611.928 .0316534
612.697 .0316297
613.467 .0316061
614.236 .0315827
615.004 .0315597
615.773 .0315372
616.541 .0315135
617.308 .0314900
618.076 .0314654
618.843 .0314402
619.609 .0314145
620.375 .0313901
621.141 .0313665
621.907 .0313443
622.672 .0313244
623.437 .0313070
624.202 .0312906
624.966 .0312763
625.730 .0312621
626.493 .0312477
627.257 .0312322
628.020 .0312155
628.782 .0311968
629.545 .0311776
630.307 .0311579
631.068 .0311377
631.830 .0311168
632.591 .0310962
633.352 .0310751
634.112 .0310533
634.872 .0310303
635.632 .0310056
636.392 .0309785
637.151 .0309498
637.910 .0309187
638.668 .0308861
639.427 .0308528
640.185 .0308199
640.943 .0307867
641.700 .0307542
642.457 .0307229
643.214 .0306920
643.971 .0306619
644.727 .0306329
645.483 .0306044
646.239 .0305761
646.994 .0305484
647.750 .0305217
648.505 .0304959
649.259 .0304715
650.014 .0304481
650.768 .0304259
651.521 .0304053
652.275 .0303856
653.028 .0303661
653.781 .0303472
654.534 .0303283
655.286 .0303083
656.039 .0302877
656.791 .0302665
657.542 .0302450
658.294 .0302239
659.045 .0302035
659.796 .0301840
660.546 .0301650
661.297 .0301466
662.047 .0301284
662.796 .0301094
663.546 .0300901
664.295 .0300700
665.044 .0300498
665.793 .0300296
666.542 .0300106
667.290 .0299923
668.038 .0299758
668.786 .0299608
669.533 .0299468
670.281 .0299335
671.028 .0299205
671.774 .0299073
672.521 .0298938
673.267 .0298801
674.013 .0298667
674.759 .0298535
675.505 .0298417
676.250 .0298305
676.995 .0298198
677.740 .0298094
678.484 .0297984
679.229 .0297862
679.973 .0297726
680.717 .0297576
681.460 .0297412
682.204 .0297242
682.947 .0297073
683.690 .0296914
684.433 .0296768
685.175 .0296636
685.917 .0296516
686.659 .0296405
687.401 .0296298
688.142 .0296190
688.884 .0296080
689.625 .0295967
690.365 .0295848
691.106 .0295730
691.846 .0295608
692.586 .0295487
693.326 .0295366
694.066 .0295246
694.805 .0295126
695.545 .0294999
696.284 .0294861
697.022 .0294715
697.761 .0294559
698.499 .0294394
699.237 .0294221
699.975 .0294042
700.713 .0293859
701.450 .0293670
702.187 .0293474
702.924 .0293271
703.661 .0293066
704.397 .0292862
705.133 .0292655
705.869 .0292449
706.605 .0292247
707.341 .0292045
708.076 .0291847
708.811 .0291640
709.546 .0291422
710.281 .0291186
711.015 .0290932
711.749 .0290653
712.483 .0290355
713.217 .0290041
713.950 .0289717
714.684 .0289389
715.417 .0289060
716.150 .0288731
716.882 .0288411
717.615 .0288100
718.347 .0287800
719.079 .0287507
719.811 .0287225
720.542 .0286956
721.273 .0286705
722.005 .0286462
722.735 .0286233
723.466 .0286016
724.196 .0285812
724.927 .0285612
725.656 .0285419
726.386 .0285230
727.116 .0285049
727.845 .0284877
728.574 .0284712
729.303 .0284552
730.031 .0284403
730.760 .0284255
731.488 .0284109
732.216 .0283962
732.944 .0283817
733.671 .0283675
734.398 .0283542
735.125 .0283418
735.852 .0283307
736.579 .0283210
737.305 .0283130
738.031 .0283064
738.757 .0283010
739.483 .0282959
740.208 .0282910
740.933 .0282861
741.658 .0282806
742.383 .0282747
743.108 .0282684
743.832 .0282614
744.556 .0282543
745.280 .0282464
746.004 .0282377
746.727 .0282290
747.450 .0282202
748.173 .0282115
748.896 .0282028
749.618 .0281951
750.340 .0281881
751.062 .0281819
751.784 .0281775
752.506 .0281743
753.227 .0281725
753.948 .0281723
754.669 .0281728
755.389 .0281745
756.110 .0281766
756.830 .0281791
757.550 .0281813
758.269 .0281835
758.989 .0281851
759.708 .0281854
760.427 .0281850
761.146 .0281839
761.864 .0281813
762.582 .0281775
763.300 .0281725
764.018 .0281662
764.736 .0281585
765.453 .0281494
766.170 .0281388
766.887 .0281276
767.603 .0281157
768.320 .0281035
769.036 .0280911
769.751 .0280796
770.467 .0280685
771.182 .0280580
771.897 .0280484
772.612 .0280394
773.327 .0280306
774.041 .0280218
774.755 .0280125
775.469 .0280032
776.183 .0279929
776.896 .0279816
777.609 .0279691
778.322 .0279559
779.035 .0279413
779.747 .0279250
780.459 .0279076
781.171 .0278891
781.882 .0278692
782.594 .0278478
783.305 .0278250
784.016 .0278015
784.726 .0277771
785.436 .0277526
786.147 .0277280
786.856 .0277044
787.566 .0276817
788.275 .0276598
788.984 .0276387
789.693 .0276185
790.401 .0275980
791.110 .0275772
791.818 .0275558
792.525 .0275337
793.233 .0275109
793.940 .0274877
794.647 .0274642
795.353 .0274407
796.060 .0274168
796.766 .0273923
797.472 .0273667
798.177 .0273400
798.883 .0273118
799.588 .0272824
800.292 .0272523
800.997 .0272221
801.701 .0271919
802.405 .0271623
803.109 .0271343
803.812 .0271078
804.515 .0270824
805.218 .0270581
805.921 .0270344
806.623 .0270112
807.325 .0269885
808.027 .0269663
808.728 .0269446
809.429 .0269239
810.130 .0269040
810.831 .0268849
811.531 .0268664
812.231 .0268486
812.931 .0268313
813.630 .0268142
814.330 .0267976
815.029 .0267809
815.727 .0267647
816.426 .0267493
817.124 .0267348
817.821 .0267207
818.519 .0267073
819.216 .0266948
819.913 .0266830
820.609 .0266718
821.306 .0266613
822.002 .0266518
822.697 .0266435
823.393 .0266364
824.088 .0266303
824.783 .0266253
825.477 .0266215
826.171 .0266178
826.865 .0266149
827.559 .0266123
828.252 .0266098
828.945 .0266077
829.638 .0266060
830.330 .0266045
831.023 .0266033
831.714 .0266017
832.406 .0266003
833.097 .0265985
833.788 .0265964
834.479 .0265931
835.169 .0265896
835.859 .0265862
836.548 .0265828
837.238 .0265803
837.927 .0265793
838.615 .0265793
839.304 .0265807
839.992 .0265832
840.680 .0265865
841.367 .0265905
842.054 .0265955
842.741 .0266007
843.428 .0266068
844.114 .0266141
844.800 .0266223
845.485 .0266315
846.170 .0266419
846.855 .0266528
847.540 .0266634
848.224 .0266732
848.908 .0266819
849.592 .0266890
850.275 .0266951
850.958 .0266999
851.641 .0267040
852.323 .0267076
853.005 .0267107
853.687 .0267133
854.368 .0267157
855.049 .0267179
855.730 .0267192
856.410 .0267195
857.090 .0267191
857.769 .0267179
858.449 .0267161
859.128 .0267145
859.806 .0267133
860.485 .0267131
861.163 .0267139
861.840 .0267154
862.518 .0267172
863.195 .0267190
863.871 .0267201
864.548 .0267203
865.224 .0267194
865.899 .0267174
866.574 .0267143
867.249 .0267106
867.924 .0267064
868.598 .0267017
869.272 .0266966
869.946 .0266911
870.619 .0266845
871.292 .0266769
871.964 .0266672
872.636 .0266555
873.308 .0266420
873.979 .0266271
874.651 .0266106
875.321 .0265933
875.992 .0265753
876.662 .0265574
877.331 .0265399
878.001 .0265226
878.670 .0265054
879.338 .0264886
880.007 .0264714
880.675 .0264534
881.342 .0264345
882.009 .0264148
882.676 .0263943
883.343 .0263733
884.009 .0263520
884.675 .0263302
885.340 .0263083
886.005 .0262860
886.670 .0262635
887.334 .0262410
887.998 .0262181
888.662 .0261943
889.325 .0261700
889.988 .0261448
890.650 .0261190
891.312 .0260923
891.974 .0260652
892.636 .0260382
893.297 .0260113
893.957 .0259844
894.618 .0259578
895.278 .0259315
895.937 .0259054
896.596 .0258789
897.255 .0258522
897.914 .0258246
898.572 .0257965
899.230 .0257678
899.887 .0257386
900.544 .0257094
901.201 .0256806
901.857 .0256522
902.513 .0256245
903.168 .0255972
903.823 .0255698
904.478 .0255422
905.132 .0255143
905.786 .0254859
906.440 .0254571
907.093 .0254283
907.746 .0253996
908.399 .0253711
909.051 .0253434
909.703 .0253160
910.354 .0252888
911.005 .0252619
911.656 .0252348
912.306 .0252070
912.956 .0251787
913.605 .0251503
914.254 .0251222
914.903 .0250945
915.551 .0250681
916.199 .0250434
916.847 .0250204
917.494 .0249993
918.141 .0249797
918.788 .0249615
919.434 .0249449
920.079 .0249292
920.725 .0249143
921.370 .0249005
922.014 .0248877
922.658 .0248754
923.302 .0248641
923.946 .0248536
924.589 .0248429
925.231 .0248319
925.873 .0248206
926.515 .0248080
927.157 .0247943
927.798 .0247791
928.439 .0247628
929.079 .0247459
929.719 .0247287
930.359 .0247113
930.998 .0246944
931.637 .0246783
932.275 .0246624
932.913 .0246466
933.551 .0246313
934.188 .0246159
934.825 .0246009
935.462 .0245869
936.098 .0245737
936.733 .0245621
937.369 .0245529
938.004 .0245453
938.638 .0245393
939.273 .0245345
939.907 .0245300
940.540 .0245255
941.173 .0245211
941.806 .0245165
942.438 .0245119
943.070 .0245082
943.702 .0245055
944.333 .0245033
944.964 .0245027
945.594 .0245028
946.224 .0245036
946.854 .0245051
947.483 .0245069
948.112 .0245084
948.741 .0245107
949.369 .0245133
949.996 .0245165
950.624 .0245208
951.251 .0245260
951.878 .0245316
952.504 .0245377
953.130 .0245439
953.755 .0245496
954.380 .0245551
955.005 .0245607
955.629 .0245662
956.253 .0245725
956.877 .0245800
957.500 .0245888
958.123 .0245993
958.746 .0246114
959.368 .0246245
959.990 .0246387
960.611 .0246531
961.232 .0246678
961.853 .0246826
962.473 .0246974
963.093 .0247119
963.712 .0247261
964.331 .0247402
964.950 .0247541
965.569 .0247680
966.187 .0247815
966.804 .0247946
967.422 .0248073
968.039 .0248194
968.655 .0248305
969.272 .0248407
969.887 .0248503
970.503 .0248596
971.118 .0248688
971.733 .0248780
972.347 .0248873
972.961 .0248971
973.575 .0249070
974.188 .0249168
974.801 .0249260
975.414 .0249343
976.026 .0249415
976.638 .0249472
977.250 .0249520
977.861 .0249557
978.472 .0249587
979.083 .0249616
979.693 .0249636
980.303 .0249642
980.912 .0249637
981.521 .0249621
982.130 .0249594
982.738 .0249560
983.346 .0249526
983.954 .0249492
984.562 .0249465
985.169 .0249445
985.775 .0249428
986.382 .0249418
986.988 .0249408
987.594 .0249390
988.199 .0249365
988.804 .0249339
989.409 .0249308
990.013 .0249280
990.617 .0249264
991.221 .0249253
991.824 .0249245
992.427 .0249238
993.030 .0249231
993.632 .0249222
994.234 .0249215
994.836 .0249207
995.438 .0249203
996.039 .0249210
996.640 .0249220
997.240 .0249238
997.840 .0249264
998.440 .0249290
999.040 .0249312
999.639 .0249319
1000.238 .0249309
1000.836 .0249275
1001.435 .0249222
1002.033 .0249153
1002.630 .0249070
1003.228 .0248977
1003.825 .0248875
1004.422 .0248774
1005.018 .0248673
1005.614 .0248571
1006.210 .0248469
1006.806 .0248371
1007.401 .0248268
1007.996 .0248160
1008.591 .0248044
1009.186 .0247922
1009.780 .0247798
1010.374 .0247671
1010.967 .0247540
1011.561 .0247409
1012.154 .0247276
1012.746 .0247145
1013.339 .0247014
1013.931 .0246885
1014.523 .0246755
1015.115 .0246621
1015.706 .0246487
1016.298 .0246351
1016.888 .0246210
1017.479 .0246066
1018.069 .0245919
1018.660 .0245772
1019.250 .0245622
1019.839 .0245470
1020.429 .0245323
1021.018 .0245180
1021.607 .0245046
1022.195 .0244915
1022.784 .0244779
1023.372 .0244638
1023.960 .0244484
1024.547 .0244313
1025.135 .0244121
1025.722 .0243908
1026.309 .0243673
1026.896 .0243432
1027.483 .0243194
1028.069 .0242966
1028.655 .0242753
1029.241 .0242557
1029.827 .0242379
1030.412 .0242210
1030.997 .0242051
1031.582 .0241899
1032.167 .0241756
1032.752 .0241630
1033.336 .0241510
1033.921 .0241406
1034.505 .0241317
1035.089 .0241249
1035.672 .0241187
1036.256 .0241133
1036.839 .0241070
1037.422 .0240999
1038.005 .0240916
1038.588 .0240822
1039.171 .0240721
1039.753 .0240612
1040.335 .0240498
1040.918 .0240378
1041.500 .0240240
1042.081 .0240083
1042.663 .0239892
1043.244 .0239684
1043.826 .0239445
1044.407 .0239188
1044.988 .0238918
1045.569 .0238652
1046.150 .0238403
1046.730 .0238177
1047.311 .0237973
1047.891 .0237790
1048.471 .0237623
1049.052 .0237463
1049.632 .0237302
1050.211 .0237151
1050.791 .0237008
1051.371 .0236885
1051.950 .0236792
1052.530 .0236739
1053.109 .0236721
1053.688 .0236738
1054.268 .0236778
1054.847 .0236828
1055.426 .0236877
1056.005 .0236906
1056.583 .0236909
1057.162 .0236886
1057.741 .0236837
1058.319 .0236759
1058.898 .0236667
1059.476 .0236561
1060.055 .0236451
1060.633 .0236326
1061.211 .0236187
1061.790 .0236030
1062.368 .0235864
1062.946 .0235681
1063.524 .0235479
1064.102 .0235271
1064.680 .0235065
1065.258 .0234856
1065.836 .0234665
1066.414 .0234492
1066.992 .0234350
1067.570 .0234249
1068.148 .0234190
1068.726 .0234165
1069.304 .0234181
1069.882 .0234226
1070.460 .0234292
1071.038 .0234364
1071.616 .0234441
1072.194 .0234513
1072.772 .0234584
1073.350 .0234675
1073.928 .0234766
1074.506 .0234873
1075.084 .0235001
1075.662 .0235139
1076.240 .0235285
1076.819 .0235422
1077.397 .0235546
1077.976 .0235658
1078.554 .0235763
1079.133 .0235866
1079.711 .0235969
1080.290 .0236097
1080.869 .0236242
1081.448 .0236409
1082.027 .0236574
1082.606 .0236740
1083.185 .0236899
1083.764 .0237063
1084.343 .0237208
1084.923 .0237357
1085.502 .0237523
1086.082 .0237706
1086.662 .0237910
1087.242 .0238139
1087.822 .0238365
1088.402 .0238595
1088.983 .0238804
1089.563 .0238990
1090.144 .0239156
1090.725 .0239323
1091.306 .0239490
1091.887 .0239699
1092.469 .0239954
1093.050 .0240246
1093.632 .0240568
1094.214 .0240928
1094.796 .0241285
1095.379 .0241617
1095.961 .0241911
1096.544 .0242154
1097.127 .0242357
1097.710 .0242536
1098.294 .0242695
1098.877 .0242872
1099.461 .0243086
1100.046 .0243326
1100.630 .0243584
1101.215 .0243855
1101.800 .0244116
1102.385 .0244348
1102.970 .0244555
1103.556 .0244732
1104.142 .0244890
1104.728 .0245067
1105.315 .0245266
1105.902 .0245497
1106.489 .0245790
1107.077 .0246132
1107.664 .0246524
1108.253 .0246958
1108.841 .0247407
1109.430 .0247855
1110.019 .0248284
1110.609 .0248707
1111.198 .0249106
1111.789 .0249484
1112.379 .0249874
1112.970 .0250261
1113.561 .0250673
1114.153 .0251128
1114.745 .0251608
1115.338 .0252147
1115.931 .0252724
1116.524 .0253320
1117.117 .0253916
1117.712 .0254520
1118.306 .0255130
1118.901 .0255714
1119.496 .0256290
1120.092 .0256876
1120.689 .0257456
1121.285 .0258050
1121.882 .0258659
1122.480 .0259282
1123.078 .0259951
1123.677 .0260649
1124.276 .0261378
1124.875 .0262164
1125.476 .0262993
1126.076 .0263902
1126.677 .0264868
1127.279 .0265874
1127.881 .0266910
1128.484 .0267928
1129.087 .0268926
1129.691 .0269854
1130.295 .0270727
1130.900 .0271538
1131.505 .0272319
1132.111 .0273090
1132.718 .0273824
1133.325 .0274578
1133.933 .0275333
1134.541 .0276076
1135.150 .0276802
1135.760 .0277524
1136.370 .0278245
1136.981 .0278958
1137.592 .0279721
1138.204 .0280503
1138.817 .0281357
1139.431 .0282315
1140.045 .0283390
1140.660 .0284667
1141.275 .0286085
1141.891 .0287458
1142.508 .0288565
1143.126 .0291201
1143.744 .0294316
1144.363 .0295201
1144.983 .0291071
