Measurement Sequence started on: 15-12-46-377
Integration time: 28
Scans to Average: 2 
>>>>>Begin Spectral Data<<<<<
432.689 .0000100
433.621 .0000100
434.552 .0000100
435.482 .0000100
436.410 .0000100
437.337 .0000100
438.262 .0273180
439.187 .0576780
440.110 .0953629
441.031 .1378858
441.952 .1790772
442.871 .2113766
443.789 .2289151
444.705 .2297349
445.621 .2163666
446.535 .1942460
447.447 .1692713
448.359 .1310561
449.269 .1122885
450.178 .1004125
451.086 .0919238
451.993 .0854338
452.898 .0802932
453.803 .0760901
454.706 .0726140
455.608 .0696782
456.508 .0671821
457.408 .0650657
458.306 .0632096
459.204 .0615705
460.100 .0601003
460.995 .0587842
461.888 .0575926
462.781 .0565145
463.673 .0555242
464.563 .0546244
465.452 .0538048
466.340 .0530446
467.228 .0523413
468.114 .0516891
468.999 .0510883
469.882 .0505291
470.765 .0500097
471.647 .0495331
472.528 .0490857
473.407 .0486788
474.286 .0483065
475.163 .0479694
476.040 .0476674
476.915 .0473928
477.790 .0471491
478.663 .0469342
479.535 .0467457
480.407 .0465852
481.277 .0464520
482.147 .0463434
483.015 .0462566
483.883 .0461847
484.749 .0461282
485.615 .0460875
486.479 .0460530
487.343 .0460336
488.206 .0460229
489.067 .0460137
489.928 .0460058
490.788 .0460017
491.647 .0460064
492.505 .0460198
493.362 .0460448
494.218 .0460896
495.073 .0461494
495.928 .0462368
496.781 .0463415
497.634 .0464645
498.486 .0466043
499.337 .0467618
500.187 .0469323
501.036 .0471258
501.884 .0473399
502.731 .0475914
503.578 .0478811
504.424 .0482159
505.268 .0485850
506.113 .0490037
506.956 .0494625
507.798 .0499633
508.640 .0505007
509.480 .0510933
510.320 .0517417
511.160 .0524681
511.998 .0532831
512.836 .0542060
513.672 .0552429
514.508 .0564138
515.344 .0577129
516.178 .0591796
517.012 .0608061
517.845 .0626348
518.677 .0646880
519.508 .0670188
520.339 .0696113
521.169 .0725658
521.998 .0758899
522.826 .0796525
523.654 .0838333
524.481 .0884802
525.307 .0936161
526.133 .0992457
526.958 .1053229
527.782 .1117808
528.605 .1185317
529.428 .1254924
530.250 .1321578
531.072 .1383575
531.892 .1436896
532.712 .1479423
533.532 .1508008
534.350 .1520964
535.168 .1516881
535.986 .1496441
536.802 .1460975
537.618 .1412628
538.434 .1353732
539.249 .1288727
540.063 .1219472
540.876 .1149490
541.689 .1080735
542.501 .1015633
543.313 .0955234
544.124 .0900757
544.934 .0851768
545.744 .0807896
546.553 .0768546
547.361 .0733852
548.169 .0703438
548.976 .0676605
549.783 .0652801
550.589 .0631559
551.395 .0612433
552.200 .0595289
553.004 .0579799
553.808 .0565571
554.611 .0552732
555.414 .0541324
556.216 .0531042
557.018 .0521789
557.819 .0513483
558.619 .0505737
559.419 .0498536
560.218 .0491574
561.017 .0484555
561.815 .0477399
562.613 .0470155
563.410 .0462843
564.207 .0455479
565.003 .0448321
565.799 .0441436
566.594 .0434816
567.388 .0428745
568.182 .0422985
568.976 .0417532
569.769 .0412266
570.562 .0407155
571.354 .0402112
572.145 .0397170
572.936 .0392349
573.727 .0387693
574.517 .0383355
575.307 .0379341
576.096 .0375562
576.885 .0372056
577.673 .0368779
578.461 .0365662
579.248 .0362604
580.035 .0359639
580.821 .0356743
581.607 .0353989
582.392 .0351387
583.177 .0348964
583.962 .0346730
584.746 .0344732
585.529 .0342927
586.313 .0341292
587.095 .0339824
587.878 .0338478
588.660 .0337237
589.441 .0336096
590.222 .0335023
591.003 .0334056
591.783 .0333170
592.563 .0332360
593.342 .0331606
594.121 .0330886
594.899 .0330195
595.678 .0329502
596.455 .0328825
597.233 .0328160
598.009 .0327502
598.786 .0326870
599.562 .0326263
600.338 .0325697
601.113 .0325168
601.888 .0324674
602.663 .0324208
603.437 .0323767
604.211 .0323336
604.984 .0322900
605.757 .0322468
606.530 .0322042
607.302 .0321620
608.074 .0321202
608.845 .0320792
609.616 .0320393
610.387 .0320007
611.158 .0319637
611.928 .0319269
612.697 .0318913
613.467 .0318550
614.236 .0318192
615.004 .0317847
615.773 .0317513
616.541 .0317200
617.308 .0316910
618.076 .0316651
618.843 .0316408
619.609 .0316188
620.375 .0315999
621.141 .0315829
621.907 .0315685
622.672 .0315562
623.437 .0315455
624.202 .0315367
624.966 .0315285
625.730 .0315198
626.493 .0315099
627.257 .0314975
628.020 .0314814
628.782 .0314619
629.545 .0314397
630.307 .0314153
631.068 .0313896
631.830 .0313642
632.591 .0313378
633.352 .0313106
634.112 .0312826
634.872 .0312530
635.632 .0312210
636.392 .0311869
637.151 .0311501
637.910 .0311120
638.668 .0310737
639.427 .0310362
640.185 .0310003
640.943 .0309667
641.700 .0309353
642.457 .0309058
643.214 .0308781
643.971 .0308519
644.727 .0308270
645.483 .0308040
646.239 .0307818
646.994 .0307606
647.750 .0307398
648.505 .0307199
649.259 .0307010
650.014 .0306828
650.768 .0306654
651.521 .0306492
652.275 .0306344
653.028 .0306209
653.781 .0306082
654.534 .0305959
655.286 .0305828
656.039 .0305680
656.791 .0305509
657.542 .0305306
658.294 .0305075
659.045 .0304828
659.796 .0304568
660.546 .0304310
661.297 .0304053
662.047 .0303806
662.796 .0303570
663.546 .0303343
664.295 .0303114
665.044 .0302876
665.793 .0302632
666.542 .0302376
667.290 .0302117
668.038 .0301860
668.786 .0301613
669.533 .0301383
670.281 .0301173
671.028 .0300979
671.774 .0300797
672.521 .0300629
673.267 .0300470
674.013 .0300318
674.759 .0300171
675.505 .0300024
676.250 .0299883
676.995 .0299746
677.740 .0299615
678.484 .0299483
679.229 .0299353
679.973 .0299221
680.717 .0299084
681.460 .0298936
682.204 .0298779
682.947 .0298621
683.690 .0298463
684.433 .0298297
685.175 .0298127
685.917 .0297946
686.659 .0297757
687.401 .0297555
688.142 .0297344
688.884 .0297121
689.625 .0296894
690.365 .0296662
691.106 .0296432
691.846 .0296209
692.586 .0295999
693.326 .0295795
694.066 .0295600
694.805 .0295409
695.545 .0295218
696.284 .0295023
697.022 .0294831
697.761 .0294640
698.499 .0294448
699.237 .0294256
699.975 .0294066
700.713 .0293876
701.450 .0293691
702.187 .0293508
702.924 .0293328
703.661 .0293148
704.397 .0292966
705.133 .0292778
705.869 .0292589
706.605 .0292399
707.341 .0292206
708.076 .0292011
708.811 .0291817
709.546 .0291624
710.281 .0291427
711.015 .0291230
711.749 .0291029
712.483 .0290822
713.217 .0290609
713.950 .0290387
714.684 .0290157
715.417 .0289922
716.150 .0289687
716.882 .0289455
717.615 .0289231
718.347 .0289014
719.079 .0288801
719.811 .0288596
720.542 .0288392
721.273 .0288189
722.005 .0287984
722.735 .0287783
723.466 .0287585
724.196 .0287392
724.927 .0287202
725.656 .0287019
726.386 .0286848
727.116 .0286688
727.845 .0286536
728.574 .0286386
729.303 .0286239
730.031 .0286090
730.760 .0285938
731.488 .0285787
732.216 .0285634
732.944 .0285486
733.671 .0285343
734.398 .0285203
735.125 .0285070
735.852 .0284943
736.579 .0284827
737.305 .0284721
738.031 .0284626
738.757 .0284535
739.483 .0284448
740.208 .0284368
740.933 .0284296
741.658 .0284227
742.383 .0284163
743.108 .0284097
743.832 .0284035
744.556 .0283967
745.280 .0283899
746.004 .0283828
746.727 .0283758
747.450 .0283688
748.173 .0283616
748.896 .0283538
749.618 .0283461
750.340 .0283378
751.062 .0283292
751.784 .0283198
752.506 .0283101
753.227 .0282994
753.948 .0282882
754.669 .0282765
755.389 .0282648
756.110 .0282529
756.830 .0282417
757.550 .0282303
758.269 .0282188
758.989 .0282072
759.708 .0281946
760.427 .0281813
761.146 .0281674
761.864 .0281525
762.582 .0281367
763.300 .0281203
764.018 .0281040
764.736 .0280875
765.453 .0280716
766.170 .0280563
766.887 .0280416
767.603 .0280278
768.320 .0280143
769.036 .0280009
769.751 .0279877
770.467 .0279741
771.182 .0279604
771.897 .0279464
772.612 .0279327
773.327 .0279192
774.041 .0279066
774.755 .0278946
775.469 .0278833
776.183 .0278730
776.896 .0278634
777.609 .0278543
778.322 .0278457
779.035 .0278371
779.747 .0278286
780.459 .0278202
781.171 .0278123
781.882 .0278047
782.594 .0277980
783.305 .0277920
784.016 .0277867
784.726 .0277819
785.436 .0277771
786.147 .0277718
786.856 .0277662
787.566 .0277599
788.275 .0277524
788.984 .0277439
789.693 .0277344
790.401 .0277239
791.110 .0277124
791.818 .0277000
792.525 .0276868
793.233 .0276731
793.940 .0276586
794.647 .0276436
795.353 .0276284
796.060 .0276137
796.766 .0275991
797.472 .0275847
798.177 .0275707
798.883 .0275564
799.588 .0275421
800.292 .0275277
800.997 .0275131
801.701 .0274984
802.405 .0274841
803.109 .0274703
803.812 .0274570
804.515 .0274442
805.218 .0274313
805.921 .0274179
806.623 .0274037
807.325 .0273877
808.027 .0273701
808.728 .0273508
809.429 .0273300
810.130 .0273079
810.831 .0272856
811.531 .0272627
812.231 .0272396
812.931 .0272162
813.630 .0271921
814.330 .0271674
815.029 .0271424
815.727 .0271170
816.426 .0270921
817.124 .0270680
817.821 .0270455
818.519 .0270249
819.216 .0270073
819.913 .0269926
820.609 .0269808
821.306 .0269718
822.002 .0269651
822.697 .0269602
823.393 .0269569
824.088 .0269545
824.783 .0269526
825.477 .0269510
826.171 .0269494
826.865 .0269478
827.559 .0269465
828.252 .0269455
828.945 .0269445
829.638 .0269434
830.330 .0269421
831.023 .0269399
831.714 .0269367
832.406 .0269327
833.097 .0269278
833.788 .0269223
834.479 .0269167
835.169 .0269112
835.859 .0269064
836.548 .0269028
837.238 .0268999
837.927 .0268977
838.615 .0268957
839.304 .0268935
839.992 .0268902
840.680 .0268863
841.367 .0268814
842.054 .0268756
842.741 .0268696
843.428 .0268637
844.114 .0268579
844.800 .0268529
845.485 .0268484
846.170 .0268443
846.855 .0268407
847.540 .0268373
848.224 .0268333
848.908 .0268297
849.592 .0268258
850.275 .0268218
850.958 .0268177
851.641 .0268141
852.323 .0268109
853.005 .0268084
853.687 .0268063
854.368 .0268042
855.049 .0268019
855.730 .0267990
856.410 .0267947
857.090 .0267893
857.769 .0267825
858.449 .0267746
859.128 .0267656
859.806 .0267565
860.485 .0267475
861.163 .0267391
861.840 .0267311
862.518 .0267235
863.195 .0267155
863.871 .0267069
864.548 .0266974
865.224 .0266874
865.899 .0266767
866.574 .0266656
867.249 .0266541
867.924 .0266427
868.598 .0266311
869.272 .0266200
869.946 .0266088
870.619 .0265976
871.292 .0265859
871.964 .0265739
872.636 .0265613
873.308 .0265484
873.979 .0265353
874.651 .0265226
875.321 .0265101
875.992 .0264982
876.662 .0264870
877.331 .0264767
878.001 .0264675
878.670 .0264589
879.338 .0264507
880.007 .0264435
880.675 .0264367
881.342 .0264303
882.009 .0264242
882.676 .0264187
883.343 .0264130
884.009 .0264072
884.675 .0264014
885.340 .0263954
886.005 .0263889
886.670 .0263823
887.334 .0263758
887.998 .0263694
888.662 .0263631
889.325 .0263567
889.988 .0263506
890.650 .0263447
891.312 .0263384
891.974 .0263318
892.636 .0263247
893.297 .0263177
893.957 .0263103
894.618 .0263026
895.278 .0262951
895.937 .0262879
896.596 .0262811
897.255 .0262744
897.914 .0262678
898.572 .0262608
899.230 .0262528
899.887 .0262438
900.544 .0262332
901.201 .0262214
901.857 .0262085
902.513 .0261946
903.168 .0261796
903.823 .0261638
904.478 .0261464
905.132 .0261278
905.786 .0261074
906.440 .0260852
907.093 .0260612
907.746 .0260356
908.399 .0260090
909.051 .0259822
909.703 .0259555
910.354 .0259292
911.005 .0259036
911.656 .0258788
912.306 .0258535
912.956 .0258286
913.605 .0258037
914.254 .0257789
914.903 .0257541
915.551 .0257302
916.199 .0257073
916.847 .0256858
917.494 .0256658
918.141 .0256468
918.788 .0256290
919.434 .0256123
920.079 .0255955
920.725 .0255783
921.370 .0255614
922.014 .0255446
922.658 .0255275
923.302 .0255109
923.946 .0254943
924.589 .0254775
925.231 .0254604
925.873 .0254432
926.515 .0254251
927.157 .0254068
927.798 .0253883
928.439 .0253690
929.079 .0253500
929.719 .0253307
930.359 .0253106
930.998 .0252897
931.637 .0252675
932.275 .0252433
932.913 .0252171
933.551 .0251900
934.188 .0251621
934.825 .0251344
935.462 .0251083
936.098 .0250839
936.733 .0250620
937.369 .0250429
938.004 .0250261
938.638 .0250109
939.273 .0249977
939.907 .0249858
940.540 .0249751
941.173 .0249661
941.806 .0249593
942.438 .0249550
943.070 .0249534
943.702 .0249541
944.333 .0249564
944.964 .0249599
945.594 .0249638
946.224 .0249668
946.854 .0249693
947.483 .0249709
948.112 .0249716
948.741 .0249716
949.369 .0249711
949.996 .0249700
950.624 .0249688
951.251 .0249676
951.878 .0249658
952.504 .0249638
953.130 .0249615
953.755 .0249590
954.380 .0249564
955.005 .0249540
955.629 .0249515
956.253 .0249489
956.877 .0249464
957.500 .0249434
958.123 .0249397
958.746 .0249360
959.368 .0249318
959.990 .0249279
960.611 .0249239
961.232 .0249202
961.853 .0249167
962.473 .0249139
963.093 .0249114
963.712 .0249090
964.331 .0249067
964.950 .0249045
965.569 .0249024
966.187 .0249009
966.804 .0249004
967.422 .0249013
968.039 .0249038
968.655 .0249079
969.272 .0249129
969.887 .0249186
970.503 .0249243
971.118 .0249298
971.733 .0249345
972.347 .0249385
972.961 .0249415
973.575 .0249441
974.188 .0249463
974.801 .0249484
975.414 .0249501
976.026 .0249513
976.638 .0249519
977.250 .0249515
977.861 .0249502
978.472 .0249481
979.083 .0249451
979.693 .0249416
980.303 .0249373
980.912 .0249325
981.521 .0249279
982.130 .0249236
982.738 .0249199
983.346 .0249172
983.954 .0249152
984.562 .0249142
985.169 .0249137
985.775 .0249137
986.382 .0249137
986.988 .0249140
987.594 .0249144
988.199 .0249145
988.804 .0249145
989.409 .0249149
990.013 .0249152
990.617 .0249163
991.221 .0249177
991.824 .0249196
992.427 .0249220
993.030 .0249245
993.632 .0249270
994.234 .0249297
994.836 .0249327
995.438 .0249357
996.039 .0249386
996.640 .0249415
997.240 .0249441
997.840 .0249463
998.440 .0249484
999.040 .0249500
999.639 .0249509
1000.238 .0249511
1000.836 .0249506
1001.435 .0249496
1002.033 .0249488
1002.630 .0249477
1003.228 .0249475
1003.825 .0249479
1004.422 .0249489
1005.018 .0249503
1005.614 .0249526
1006.210 .0249558
1006.806 .0249597
1007.401 .0249644
1007.996 .0249693
1008.591 .0249746
1009.186 .0249806
1009.780 .0249866
1010.374 .0249928
1010.967 .0249985
1011.561 .0250032
1012.154 .0250057
1012.746 .0250058
1013.339 .0250031
1013.931 .0249979
1014.523 .0249908
1015.115 .0249825
1015.706 .0249736
1016.298 .0249647
1016.888 .0249563
1017.479 .0249486
1018.069 .0249415
1018.660 .0249346
1019.250 .0249277
1019.839 .0249207
1020.429 .0249137
1021.018 .0249081
1021.607 .0249034
1022.195 .0249005
1022.784 .0248992
1023.372 .0248994
1023.960 .0249006
1024.547 .0249016
1025.135 .0249016
1025.722 .0249002
1026.309 .0248982
1026.896 .0248958
1027.483 .0248925
1028.069 .0248901
1028.655 .0248892
1029.241 .0248896
1029.827 .0248905
1030.412 .0248920
1030.997 .0248931
1031.582 .0248940
1032.167 .0248939
1032.752 .0248924
1033.336 .0248900
1033.921 .0248878
1034.505 .0248851
1035.089 .0248821
1035.672 .0248792
1036.256 .0248759
1036.839 .0248720
1037.422 .0248685
1038.005 .0248639
1038.588 .0248580
1039.171 .0248513
1039.753 .0248441
1040.335 .0248361
1040.918 .0248275
1041.500 .0248181
1042.081 .0248077
1042.663 .0247968
1043.244 .0247852
1043.826 .0247720
1044.407 .0247583
1044.988 .0247441
1045.569 .0247282
1046.150 .0247105
1046.730 .0246913
1047.311 .0246711
1047.891 .0246502
1048.471 .0246296
1049.052 .0246095
1049.632 .0245904
1050.211 .0245731
1050.791 .0245568
1051.371 .0245419
1051.950 .0245296
1052.530 .0245190
1053.109 .0245108
1053.688 .0245045
1054.268 .0245018
1054.847 .0245025
1055.426 .0245070
1056.005 .0245146
1056.583 .0245242
1057.162 .0245331
1057.741 .0245404
1058.319 .0245440
1058.898 .0245445
1059.476 .0245410
1060.055 .0245335
1060.633 .0245224
1061.211 .0245087
1061.790 .0244933
1062.368 .0244770
1062.946 .0244590
1063.524 .0244412
1064.102 .0244216
1064.680 .0244003
1065.258 .0243770
1065.836 .0243527
1066.414 .0243287
1066.992 .0243063
1067.570 .0242867
1068.148 .0242716
1068.726 .0242607
1069.304 .0242553
1069.882 .0242543
1070.460 .0242578
1071.038 .0242639
1071.616 .0242697
1072.194 .0242751
1072.772 .0242799
1073.350 .0242827
1073.928 .0242838
1074.506 .0242835
1075.084 .0242834
1075.662 .0242832
1076.240 .0242836
1076.819 .0242848
1077.397 .0242875
1077.976 .0242916
1078.554 .0242965
1079.133 .0243017
1079.711 .0243073
1080.290 .0243126
1080.869 .0243179
1081.448 .0243241
1082.027 .0243297
1082.606 .0243351
1083.185 .0243402
1083.764 .0243468
1084.343 .0243554
1084.923 .0243647
1085.502 .0243758
1086.082 .0243889
1086.662 .0244033
1087.242 .0244175
1087.822 .0244294
1088.402 .0244390
1088.983 .0244443
1089.563 .0244467
1090.144 .0244463
1090.725 .0244467
1091.306 .0244479
1091.887 .0244536
1092.469 .0244649
1093.050 .0244818
1093.632 .0245019
1094.214 .0245242
1094.796 .0245478
1095.379 .0245703
1095.961 .0245904
1096.544 .0246091
1097.127 .0246259
1097.710 .0246450
1098.294 .0246644
1098.877 .0246869
1099.461 .0247126
1100.046 .0247414
1100.630 .0247692
1101.215 .0247975
1101.800 .0248233
1102.385 .0248457
1102.970 .0248650
1103.556 .0248837
1104.142 .0249026
1104.728 .0249242
1105.315 .0249490
1105.902 .0249773
1106.489 .0250070
1107.077 .0250406
1107.664 .0250726
1108.253 .0251058
1108.841 .0251402
1109.430 .0251756
1110.019 .0252124
1110.609 .0252532
1111.198 .0252973
1111.789 .0253452
1112.379 .0253966
1112.970 .0254518
1113.561 .0255074
1114.153 .0255644
1114.745 .0256220
1115.338 .0256801
1115.931 .0257394
1116.524 .0258000
1117.117 .0258587
1117.712 .0259173
1118.306 .0259753
1118.901 .0260318
1119.496 .0260865
1120.092 .0261421
1120.689 .0261964
1121.285 .0262526
1121.882 .0263102
1122.480 .0263701
1123.078 .0264316
1123.677 .0264921
1124.276 .0265511
1124.875 .0266063
1125.476 .0266569
1126.076 .0267050
1126.677 .0267478
1127.279 .0267933
1127.881 .0268429
1128.484 .0268997
1129.087 .0269622
1129.691 .0270338
1130.295 .0271151
1130.900 .0272014
1131.505 .0272913
1132.111 .0273843
1132.718 .0274749
1133.325 .0275677
1133.933 .0276632
1134.541 .0277621
1135.150 .0278643
1135.760 .0279771
1136.370 .0280902
1136.981 .0282141
1137.592 .0283408
1138.204 .0284705
1138.817 .0286000
1139.431 .0287300
1140.045 .0288556
1140.660 .0289807
1141.275 .0290990
1141.891 .0292209
1142.508 .0293312
1143.126 .0294395
1143.744 .0296840
1144.363 .0295907
1144.983 .0298392
