Measurement Sequence started on: 15-12-46-377
Integration time: 28
Scans to Average: 2 
>>>>>Begin Spectral Data<<<<<
432.689 .0000100
433.621 .0000100
434.552 .0000100
435.482 .0000100
436.410 .0000100
437.337 .0000100
438.262 .0268683
439.187 .0569748
440.110 .0945104
441.031 .1368832
441.952 .1781190
442.871 .2107276
443.789 .2288808
444.705 .2304725
445.621 .2179723
446.535 .1967034
447.447 .1724628
448.359 .1350644
449.269 .1165558
450.178 .1047819
451.086 .0964243
451.993 .0899574
452.898 .0847729
453.803 .0804737
454.706 .0769359
455.608 .0739153
456.508 .0713344
457.408 .0691273
458.306 .0671685
459.204 .0653978
460.100 .0637761
460.995 .0622691
461.888 .0608650
462.781 .0595640
463.673 .0583539
464.563 .0572537
465.452 .0562519
466.340 .0553231
467.228 .0544698
468.114 .0536696
468.999 .0529209
469.882 .0521963
470.765 .0515197
471.647 .0508832
472.528 .0502910
473.407 .0497614
474.286 .0492885
475.163 .0488747
476.040 .0485207
476.915 .0482176
477.790 .0479595
478.663 .0477424
479.535 .0475637
480.407 .0474239
481.277 .0473219
482.147 .0472534
483.015 .0472186
483.883 .0472044
484.749 .0472190
485.615 .0472467
486.479 .0472850
487.343 .0473397
488.206 .0474065
489.067 .0474869
489.928 .0475838
490.788 .0476996
491.647 .0478345
492.505 .0479881
493.362 .0481590
494.218 .0483345
495.073 .0485131
495.928 .0486935
496.781 .0488718
497.634 .0490592
498.486 .0492641
499.337 .0494818
500.187 .0497300
501.036 .0500170
501.884 .0503354
502.731 .0506844
503.578 .0510632
504.424 .0514589
505.268 .0518635
506.113 .0522659
506.956 .0526630
507.798 .0530791
508.640 .0535292
509.480 .0540288
510.320 .0546086
511.160 .0553017
511.998 .0561014
512.836 .0570378
513.672 .0581123
514.508 .0593224
515.344 .0606664
516.178 .0621595
517.012 .0638234
517.845 .0656893
518.677 .0678158
519.508 .0702168
520.339 .0729613
521.169 .0761099
521.998 .0796393
522.826 .0835980
523.654 .0879942
524.481 .0928212
525.307 .0980744
526.133 .1037250
526.958 .1097377
527.782 .1160972
528.605 .1226765
529.428 .1293734
530.250 .1357923
531.072 .1417371
531.892 .1468460
532.712 .1508670
533.532 .1535722
534.350 .1547180
535.168 .1542220
535.986 .1521652
536.802 .1485888
537.618 .1437827
538.434 .1379605
539.249 .1315502
540.063 .1248239
540.876 .1180700
541.689 .1115007
542.501 .1053346
543.313 .0997057
544.124 .0946225
544.934 .0900075
545.744 .0858501
546.553 .0820619
547.361 .0786281
548.169 .0755376
548.976 .0727189
549.783 .0701794
550.589 .0679028
551.395 .0658183
552.200 .0639183
553.004 .0621649
553.808 .0605251
554.611 .0589960
555.414 .0575728
556.216 .0562283
557.018 .0549778
557.819 .0538108
558.619 .0527394
559.419 .0517357
560.218 .0508169
561.017 .0499599
561.815 .0491598
562.613 .0484071
563.410 .0476795
564.207 .0469750
565.003 .0462949
565.799 .0456326
566.594 .0449914
567.388 .0443805
568.182 .0437972
568.976 .0432392
569.769 .0427129
570.562 .0422085
571.354 .0417258
572.145 .0412558
572.936 .0407913
573.727 .0403302
574.517 .0398739
575.307 .0394204
576.096 .0389766
576.885 .0385497
577.673 .0381494
578.461 .0377778
579.248 .0374397
580.035 .0371340
580.821 .0368560
581.607 .0365995
582.392 .0363561
583.177 .0361204
583.962 .0358961
584.746 .0356786
585.529 .0354709
586.313 .0352745
587.095 .0350933
587.878 .0349284
588.660 .0347811
589.441 .0346490
590.222 .0345302
591.003 .0344218
591.783 .0343223
592.563 .0342265
593.342 .0341344
594.121 .0340462
594.899 .0339628
595.678 .0338836
596.455 .0338112
597.233 .0337422
598.009 .0336776
598.786 .0336170
599.562 .0335596
600.338 .0335035
601.113 .0334490
601.888 .0333953
602.663 .0333418
603.437 .0332894
604.211 .0332374
604.984 .0331853
605.757 .0331340
606.530 .0330828
607.302 .0330315
608.074 .0329803
608.845 .0329314
609.616 .0328834
610.387 .0328384
611.158 .0327972
611.928 .0327583
612.697 .0327224
613.467 .0326896
614.236 .0326593
615.004 .0326311
615.773 .0326045
616.541 .0325788
617.308 .0325538
618.076 .0325305
618.843 .0325082
619.609 .0324874
620.375 .0324682
621.141 .0324498
621.907 .0324311
622.672 .0324124
623.437 .0323926
624.202 .0323713
624.966 .0323490
625.730 .0323250
626.493 .0322992
627.257 .0322720
628.020 .0322433
628.782 .0322137
629.545 .0321835
630.307 .0321530
631.068 .0321217
631.830 .0320906
632.591 .0320590
633.352 .0320274
634.112 .0319958
634.872 .0319638
635.632 .0319315
636.392 .0318986
637.151 .0318648
637.910 .0318306
638.668 .0317966
639.427 .0317631
640.185 .0317296
640.943 .0316970
641.700 .0316649
642.457 .0316334
643.214 .0316031
643.971 .0315735
644.727 .0315459
645.483 .0315203
646.239 .0314965
646.994 .0314750
647.750 .0314567
648.505 .0314410
649.259 .0314276
650.014 .0314158
650.768 .0314049
651.521 .0313942
652.275 .0313825
653.028 .0313697
653.781 .0313562
654.534 .0313422
655.286 .0313274
656.039 .0313120
656.791 .0312967
657.542 .0312795
658.294 .0312615
659.045 .0312418
659.796 .0312207
660.546 .0311978
661.297 .0311732
662.047 .0311471
662.796 .0311206
663.546 .0310936
664.295 .0310662
665.044 .0310394
665.793 .0310136
666.542 .0309872
667.290 .0309613
668.038 .0309355
668.786 .0309099
669.533 .0308843
670.281 .0308590
671.028 .0308333
671.774 .0308078
672.521 .0307823
673.267 .0307569
674.013 .0307322
674.759 .0307084
675.505 .0306853
676.250 .0306633
676.995 .0306422
677.740 .0306215
678.484 .0306007
679.229 .0305804
679.973 .0305600
680.717 .0305397
681.460 .0305188
682.204 .0304972
682.947 .0304758
683.690 .0304545
684.433 .0304334
685.175 .0304124
685.917 .0303913
686.659 .0303703
687.401 .0303486
688.142 .0303268
688.884 .0303042
689.625 .0302811
690.365 .0302575
691.106 .0302333
691.846 .0302084
692.586 .0301830
693.326 .0301574
694.066 .0301319
694.805 .0301063
695.545 .0300807
696.284 .0300547
697.022 .0300280
697.761 .0300014
698.499 .0299744
699.237 .0299470
699.975 .0299198
700.713 .0298926
701.450 .0298656
702.187 .0298393
702.924 .0298138
703.661 .0297893
704.397 .0297657
705.133 .0297435
705.869 .0297219
706.605 .0297014
707.341 .0296818
708.076 .0296624
708.811 .0296441
709.546 .0296263
710.281 .0296085
711.015 .0295913
711.749 .0295744
712.483 .0295581
713.217 .0295417
713.950 .0295255
714.684 .0295088
715.417 .0294919
716.150 .0294749
716.882 .0294577
717.615 .0294399
718.347 .0294218
719.079 .0294026
719.811 .0293833
720.542 .0293637
721.273 .0293436
722.005 .0293231
722.735 .0293025
723.466 .0292817
724.196 .0292604
724.927 .0292384
725.656 .0292163
726.386 .0291941
727.116 .0291718
727.845 .0291495
728.574 .0291276
729.303 .0291069
730.031 .0290877
730.760 .0290703
731.488 .0290545
732.216 .0290403
732.944 .0290276
733.671 .0290160
734.398 .0290055
735.125 .0289961
735.852 .0289876
736.579 .0289804
737.305 .0289744
738.031 .0289697
738.757 .0289664
739.483 .0289647
740.208 .0289641
740.933 .0289647
741.658 .0289653
742.383 .0289655
743.108 .0289654
743.832 .0289649
744.556 .0289638
745.280 .0289620
746.004 .0289597
746.727 .0289571
747.450 .0289546
748.173 .0289520
748.896 .0289495
749.618 .0289472
750.340 .0289451
751.062 .0289423
751.784 .0289382
752.506 .0289329
753.227 .0289259
753.948 .0289174
754.669 .0289074
755.389 .0288956
756.110 .0288829
756.830 .0288690
757.550 .0288545
758.269 .0288390
758.989 .0288233
759.708 .0288065
760.427 .0287889
761.146 .0287705
761.864 .0287514
762.582 .0287315
763.300 .0287115
764.018 .0286918
764.736 .0286723
765.453 .0286530
766.170 .0286344
766.887 .0286166
767.603 .0286000
768.320 .0285841
769.036 .0285691
769.751 .0285551
770.467 .0285420
771.182 .0285293
771.897 .0285169
772.612 .0285045
773.327 .0284918
774.041 .0284784
774.755 .0284639
775.469 .0284486
776.183 .0284327
776.896 .0284159
777.609 .0283990
778.322 .0283821
779.035 .0283658
779.747 .0283501
780.459 .0283348
781.171 .0283201
781.882 .0283058
782.594 .0282924
783.305 .0282795
784.016 .0282670
784.726 .0282557
785.436 .0282449
786.147 .0282347
786.856 .0282250
787.566 .0282154
788.275 .0282058
788.984 .0281961
789.693 .0281854
790.401 .0281737
791.110 .0281608
791.818 .0281466
792.525 .0281308
793.233 .0281140
793.940 .0280956
794.647 .0280757
795.353 .0280548
796.060 .0280331
796.766 .0280099
797.472 .0279860
798.177 .0279615
798.883 .0279369
799.588 .0279126
800.292 .0278890
800.997 .0278665
801.701 .0278455
802.405 .0278256
803.109 .0278064
803.812 .0277877
804.515 .0277695
805.218 .0277509
805.921 .0277318
806.623 .0277124
807.325 .0276925
808.027 .0276725
808.728 .0276524
809.429 .0276325
810.130 .0276123
810.831 .0275922
811.531 .0275716
812.231 .0275506
812.931 .0275292
813.630 .0275078
814.330 .0274864
815.029 .0274654
815.727 .0274451
816.426 .0274261
817.124 .0274081
817.821 .0273920
818.519 .0273774
819.216 .0273641
819.913 .0273521
820.609 .0273411
821.306 .0273303
822.002 .0273205
822.697 .0273110
823.393 .0273024
824.088 .0272947
824.783 .0272887
825.477 .0272835
826.171 .0272799
826.865 .0272783
827.559 .0272777
828.252 .0272777
828.945 .0272790
829.638 .0272802
830.330 .0272819
831.023 .0272843
831.714 .0272871
832.406 .0272907
833.097 .0272955
833.788 .0273009
834.479 .0273070
835.169 .0273132
835.859 .0273192
836.548 .0273241
837.238 .0273285
837.927 .0273314
838.615 .0273330
839.304 .0273342
839.992 .0273351
840.680 .0273357
841.367 .0273361
842.054 .0273368
842.741 .0273381
843.428 .0273397
844.114 .0273417
844.800 .0273440
845.485 .0273466
846.170 .0273489
846.855 .0273510
847.540 .0273522
848.224 .0273530
848.908 .0273527
849.592 .0273514
850.275 .0273490
850.958 .0273460
851.641 .0273428
852.323 .0273395
853.005 .0273362
853.687 .0273323
854.368 .0273272
855.049 .0273212
855.730 .0273139
856.410 .0273052
857.090 .0272955
857.769 .0272851
858.449 .0272744
859.128 .0272639
859.806 .0272535
860.485 .0272438
861.163 .0272347
861.840 .0272261
862.518 .0272176
863.195 .0272087
863.871 .0271996
864.548 .0271903
865.224 .0271813
865.899 .0271725
866.574 .0271640
867.249 .0271563
867.924 .0271491
868.598 .0271423
869.272 .0271360
869.946 .0271306
870.619 .0271259
871.292 .0271219
871.964 .0271185
872.636 .0271159
873.308 .0271143
873.979 .0271129
874.651 .0271116
875.321 .0271100
875.992 .0271076
876.662 .0271038
877.331 .0270983
878.001 .0270913
878.670 .0270830
879.338 .0270739
880.007 .0270645
880.675 .0270546
881.342 .0270447
882.009 .0270347
882.676 .0270246
883.343 .0270143
884.009 .0270037
884.675 .0269928
885.340 .0269818
886.005 .0269705
886.670 .0269592
887.334 .0269485
887.998 .0269386
888.662 .0269293
889.325 .0269208
889.988 .0269126
890.650 .0269049
891.312 .0268975
891.974 .0268909
892.636 .0268848
893.297 .0268798
893.957 .0268750
894.618 .0268703
895.278 .0268657
895.937 .0268607
896.596 .0268550
897.255 .0268491
897.914 .0268421
898.572 .0268341
899.230 .0268252
899.887 .0268157
900.544 .0268053
901.201 .0267943
901.857 .0267818
902.513 .0267677
903.168 .0267513
903.823 .0267323
904.478 .0267107
905.132 .0266866
905.786 .0266600
906.440 .0266312
907.093 .0266004
907.746 .0265681
908.399 .0265344
909.051 .0265004
909.703 .0264659
910.354 .0264311
911.005 .0263964
911.656 .0263620
912.306 .0263277
912.956 .0262943
913.605 .0262614
914.254 .0262295
914.903 .0261986
915.551 .0261681
916.199 .0261388
916.847 .0261105
917.494 .0260834
918.141 .0260573
918.788 .0260323
919.434 .0260083
920.079 .0259845
920.725 .0259611
921.370 .0259375
922.014 .0259135
922.658 .0258887
923.302 .0258626
923.946 .0258352
924.589 .0258069
925.231 .0257775
925.873 .0257476
926.515 .0257177
927.157 .0256877
927.798 .0256576
928.439 .0256273
929.079 .0255968
929.719 .0255657
930.359 .0255341
930.998 .0255024
931.637 .0254707
932.275 .0254398
932.913 .0254100
933.551 .0253821
934.188 .0253561
934.825 .0253318
935.462 .0253092
936.098 .0252881
936.733 .0252684
937.369 .0252497
938.004 .0252323
938.638 .0252164
939.273 .0252020
939.907 .0251892
940.540 .0251782
941.173 .0251690
941.806 .0251616
942.438 .0251556
943.070 .0251505
943.702 .0251460
944.333 .0251417
944.964 .0251374
945.594 .0251333
946.224 .0251293
946.854 .0251256
947.483 .0251222
948.112 .0251196
948.741 .0251171
949.369 .0251144
949.996 .0251114
950.624 .0251074
951.251 .0251025
951.878 .0250962
952.504 .0250883
953.130 .0250795
953.755 .0250705
954.380 .0250616
955.005 .0250528
955.629 .0250445
956.253 .0250365
956.877 .0250290
957.500 .0250220
958.123 .0250152
958.746 .0250087
959.368 .0250025
959.990 .0249971
960.611 .0249926
961.232 .0249897
961.853 .0249886
962.473 .0249894
963.093 .0249917
963.712 .0249946
964.331 .0249975
964.950 .0249996
965.569 .0250010
966.187 .0250019
966.804 .0250021
967.422 .0250022
968.039 .0250027
968.655 .0250037
969.272 .0250052
969.887 .0250080
970.503 .0250109
971.118 .0250139
971.733 .0250166
972.347 .0250189
972.961 .0250206
973.575 .0250223
974.188 .0250240
974.801 .0250258
975.414 .0250288
976.026 .0250326
976.638 .0250364
977.250 .0250409
977.861 .0250461
978.472 .0250511
979.083 .0250558
979.693 .0250595
980.303 .0250620
980.912 .0250635
981.521 .0250641
982.130 .0250637
982.738 .0250629
983.346 .0250625
983.954 .0250622
984.562 .0250621
985.169 .0250626
985.775 .0250631
986.382 .0250641
986.988 .0250655
987.594 .0250673
988.199 .0250693
988.804 .0250717
989.409 .0250746
990.013 .0250783
990.617 .0250827
991.221 .0250876
991.824 .0250934
992.427 .0251004
993.030 .0251079
993.632 .0251168
994.234 .0251268
994.836 .0251387
995.438 .0251522
996.039 .0251669
996.640 .0251817
997.240 .0251970
997.840 .0252121
998.440 .0252267
999.040 .0252403
999.639 .0252536
1000.238 .0252656
1000.836 .0252769
1001.435 .0252875
1002.033 .0252982
1002.630 .0253085
1003.228 .0253193
1003.825 .0253296
1004.422 .0253406
1005.018 .0253508
1005.614 .0253607
1006.210 .0253698
1006.806 .0253783
1007.401 .0253857
1007.996 .0253920
1008.591 .0253970
1009.186 .0254020
1009.780 .0254061
1010.374 .0254103
1010.967 .0254140
1011.561 .0254180
1012.154 .0254213
1012.746 .0254239
1013.339 .0254258
1013.931 .0254267
1014.523 .0254260
1015.115 .0254252
1015.706 .0254239
1016.298 .0254233
1016.888 .0254235
1017.479 .0254260
1018.069 .0254302
1018.660 .0254365
1019.250 .0254448
1019.839 .0254541
1020.429 .0254646
1021.018 .0254759
1021.607 .0254867
1022.195 .0254978
1022.784 .0255083
1023.372 .0255179
1023.960 .0255265
1024.547 .0255348
1025.135 .0255430
1025.722 .0255510
1026.309 .0255600
1026.896 .0255698
1027.483 .0255805
1028.069 .0255920
1028.655 .0256040
1029.241 .0256155
1029.827 .0256272
1030.412 .0256386
1030.997 .0256503
1031.582 .0256626
1032.167 .0256757
1032.752 .0256901
1033.336 .0257054
1033.921 .0257207
1034.505 .0257353
1035.089 .0257478
1035.672 .0257585
1036.256 .0257661
1036.839 .0257702
1037.422 .0257713
1038.005 .0257707
1038.588 .0257688
1039.171 .0257662
1039.753 .0257634
1040.335 .0257600
1040.918 .0257559
1041.500 .0257508
1042.081 .0257434
1042.663 .0257347
1043.244 .0257250
1043.826 .0257147
1044.407 .0257040
1044.988 .0256941
1045.569 .0256834
1046.150 .0256727
1046.730 .0256626
1047.311 .0256517
1047.891 .0256392
1048.471 .0256262
1049.052 .0256122
1049.632 .0255985
1050.211 .0255850
1050.791 .0255718
1051.371 .0255598
1051.950 .0255498
1052.530 .0255392
1053.109 .0255275
1053.688 .0255155
1054.268 .0255034
1054.847 .0254898
1055.426 .0254761
1056.005 .0254623
1056.583 .0254487
1057.162 .0254360
1057.741 .0254235
1058.319 .0254119
1058.898 .0254013
1059.476 .0253902
1060.055 .0253786
1060.633 .0253657
1061.211 .0253513
1061.790 .0253359
1062.368 .0253208
1062.946 .0253079
1063.524 .0252963
1064.102 .0252868
1064.680 .0252792
1065.258 .0252726
1065.836 .0252654
1066.414 .0252557
1066.992 .0252440
1067.570 .0252303
1068.148 .0252127
1068.726 .0251938
1069.304 .0251733
1069.882 .0251535
1070.460 .0251347
1071.038 .0251160
1071.616 .0250968
1072.194 .0250767
1072.772 .0250544
1073.350 .0250291
1073.928 .0250009
1074.506 .0249714
1075.084 .0249413
1075.662 .0249132
1076.240 .0248887
1076.819 .0248690
1077.397 .0248549
1077.976 .0248469
1078.554 .0248424
1079.133 .0248410
1079.711 .0248400
1080.290 .0248375
1080.869 .0248338
1081.448 .0248277
1082.027 .0248205
1082.606 .0248130
1083.185 .0248076
1083.764 .0248055
1084.343 .0248079
1084.923 .0248141
1085.502 .0248213
1086.082 .0248295
1086.662 .0248351
1087.242 .0248368
1087.822 .0248334
1088.402 .0248259
1088.983 .0248150
1089.563 .0248028
1090.144 .0247917
1090.725 .0247832
1091.306 .0247784
1091.887 .0247775
1092.469 .0247801
1093.050 .0247838
1093.632 .0247862
1094.214 .0247874
1094.796 .0247881
1095.379 .0247907
1095.961 .0247948
1096.544 .0248016
1097.127 .0248106
1097.710 .0248233
1098.294 .0248375
1098.877 .0248517
1099.461 .0248652
1100.046 .0248783
1100.630 .0248911
1101.215 .0249043
1101.800 .0249186
1102.385 .0249351
1102.970 .0249558
1103.556 .0249803
1104.142 .0250052
1104.728 .0250305
1105.315 .0250537
1105.902 .0250737
1106.489 .0250908
1107.077 .0251071
1107.664 .0251224
1108.253 .0251387
1108.841 .0251575
1109.430 .0251792
1110.019 .0252026
1110.609 .0252273
1111.198 .0252508
1111.789 .0252750
1112.379 .0252988
1112.970 .0253189
1113.561 .0253381
1114.153 .0253576
1114.745 .0253790
1115.338 .0254040
1115.931 .0254321
1116.524 .0254651
1117.117 .0255032
1117.712 .0255447
1118.306 .0255870
1118.901 .0256324
1119.496 .0256773
1120.092 .0257197
1120.689 .0257576
1121.285 .0257899
1121.882 .0258133
1122.480 .0258340
1123.078 .0258536
1123.677 .0258721
1124.276 .0258950
1124.875 .0259223
1125.476 .0259552
1126.076 .0259986
1126.677 .0260476
1127.279 .0261016
1127.881 .0261600
1128.484 .0262190
1129.087 .0262753
1129.691 .0263342
1130.295 .0263962
1130.900 .0264634
1131.505 .0265398
1132.111 .0266278
1132.718 .0267210
1133.325 .0268231
1133.933 .0269300
1134.541 .0270410
1135.150 .0271583
1135.760 .0272759
1136.370 .0273926
1136.981 .0275133
1137.592 .0276339
1138.204 .0277604
1138.817 .0278881
1139.431 .0280280
1140.045 .0281775
1140.660 .0283453
1141.275 .0285253
1141.891 .0287006
1142.508 .0288954
1143.126 .0291408
1143.744 .0295085
1144.363 .0296329
1144.983 .0292708
