Measurement Sequence started on: 15-12-46-377
Integration time: 28
Scans to Average: 2 
>>>>>Begin Spectral Data<<<<<
432.689 .0000100
433.621 .0000100
434.552 .0000100
435.482 .0000100
436.410 .0000100
437.337 .0000100
438.262 .0275114
439.187 .0580581
440.110 .0959177
441.031 .1385429
441.952 .1798559
442.871 .2121728
443.789 .2296167
444.705 .2302601
445.621 .2166748
446.535 .1943708
447.447 .1693073
448.359 .1309888
449.269 .1123340
450.178 .1006837
451.086 .0924820
451.993 .0861891
452.898 .0812439
453.803 .0771819
454.706 .0737661
455.608 .0708268
456.508 .0682697
457.408 .0660321
458.306 .0640593
459.204 .0623131
460.100 .0607420
460.995 .0593348
461.888 .0580583
462.781 .0568852
463.673 .0557943
464.563 .0547712
465.452 .0538088
466.340 .0528958
467.228 .0520531
468.114 .0512695
468.999 .0505536
469.882 .0499067
470.765 .0493234
471.647 .0488019
472.528 .0483405
473.407 .0479328
474.286 .0475762
475.163 .0472610
476.040 .0469808
476.915 .0467307
477.790 .0465115
478.663 .0463218
479.535 .0461637
480.407 .0460362
481.277 .0459415
482.147 .0458702
483.015 .0458247
483.883 .0457975
484.749 .0457865
485.615 .0457902
486.479 .0458089
487.343 .0458426
488.206 .0458954
489.067 .0459639
489.928 .0460533
490.788 .0461603
491.647 .0462854
492.505 .0464244
493.362 .0465774
494.218 .0467439
495.073 .0469210
495.928 .0471140
496.781 .0473218
497.634 .0475434
498.486 .0477794
499.337 .0480307
500.187 .0482978
501.036 .0485715
501.884 .0488521
502.731 .0491512
503.578 .0494650
504.424 .0498004
505.268 .0501519
506.113 .0505280
506.956 .0509265
507.798 .0513636
508.640 .0518346
509.480 .0523713
510.320 .0529808
511.160 .0537005
511.998 .0545315
512.836 .0554945
513.672 .0565809
514.508 .0578008
515.344 .0591533
516.178 .0606540
517.012 .0622948
517.845 .0641420
518.677 .0662263
519.508 .0686011
520.339 .0713092
521.169 .0744411
521.998 .0779948
522.826 .0820509
523.654 .0866010
524.481 .0916492
525.307 .0971914
526.133 .1032580
526.958 .1098346
527.782 .1168891
528.605 .1242944
529.428 .1319619
530.250 .1393562
531.072 .1462094
531.892 .1520475
532.712 .1565662
533.532 .1594781
534.350 .1605569
535.168 .1596676
535.986 .1569436
536.802 .1525857
537.618 .1468883
538.434 .1401107
539.249 .1328041
540.063 .1251871
540.876 .1175718
541.689 .1102028
542.501 .1032986
543.313 .0970084
544.124 .0914043
544.934 .0863966
545.744 .0819404
546.553 .0779854
547.361 .0744999
548.169 .0714367
548.976 .0687534
549.783 .0664030
550.589 .0643146
551.395 .0624318
552.200 .0607308
553.004 .0591627
553.808 .0577000
554.611 .0563644
555.414 .0551415
556.216 .0540169
557.018 .0529945
557.819 .0520629
558.619 .0512110
559.419 .0504140
560.218 .0496663
561.017 .0489318
561.815 .0482131
562.613 .0475081
563.410 .0468043
564.207 .0461193
565.003 .0454572
565.799 .0448244
566.594 .0442085
567.388 .0436167
568.182 .0430391
568.976 .0424615
569.769 .0418891
570.562 .0413171
571.354 .0407465
572.145 .0401836
572.936 .0396340
573.727 .0391009
574.517 .0385967
575.307 .0381211
576.096 .0376752
576.885 .0372602
577.673 .0368764
578.461 .0365220
579.248 .0361958
580.035 .0359004
580.821 .0356274
581.607 .0353730
582.392 .0351374
583.177 .0349175
583.962 .0347145
584.746 .0345258
585.529 .0343521
586.313 .0341954
587.095 .0340520
587.878 .0339205
588.660 .0337997
589.441 .0336884
590.222 .0335837
591.003 .0334864
591.783 .0333957
592.563 .0333100
593.342 .0332293
594.121 .0331521
594.899 .0330788
595.678 .0330093
596.455 .0329435
597.233 .0328803
598.009 .0328203
598.786 .0327635
599.562 .0327085
600.338 .0326564
601.113 .0326063
601.888 .0325582
602.663 .0325104
603.437 .0324626
604.211 .0324148
604.984 .0323666
605.757 .0323187
606.530 .0322723
607.302 .0322276
608.074 .0321855
608.845 .0321476
609.616 .0321131
610.387 .0320820
611.158 .0320548
611.928 .0320305
612.697 .0320079
613.467 .0319863
614.236 .0319667
615.004 .0319471
615.773 .0319283
616.541 .0319105
617.308 .0318934
618.076 .0318778
618.843 .0318632
619.609 .0318497
620.375 .0318380
621.141 .0318267
621.907 .0318141
622.672 .0317998
623.437 .0317835
624.202 .0317637
624.966 .0317400
625.730 .0317136
626.493 .0316852
627.257 .0316545
628.020 .0316240
628.782 .0315932
629.545 .0315637
630.307 .0315348
631.068 .0315056
631.830 .0314764
632.591 .0314456
633.352 .0314128
634.112 .0313785
634.872 .0313436
635.632 .0313089
636.392 .0312738
637.151 .0312408
637.910 .0312090
638.668 .0311784
639.427 .0311493
640.185 .0311211
640.943 .0310941
641.700 .0310682
642.457 .0310424
643.214 .0310174
643.971 .0309930
644.727 .0309691
645.483 .0309455
646.239 .0309219
646.994 .0308978
647.750 .0308732
648.505 .0308483
649.259 .0308247
650.014 .0308018
650.768 .0307803
651.521 .0307606
652.275 .0307427
653.028 .0307259
653.781 .0307082
654.534 .0306902
655.286 .0306706
656.039 .0306490
656.791 .0306257
657.542 .0305994
658.294 .0305725
659.045 .0305456
659.796 .0305187
660.546 .0304919
661.297 .0304650
662.047 .0304379
662.796 .0304099
663.546 .0303815
664.295 .0303525
665.044 .0303232
665.793 .0302945
666.542 .0302665
667.290 .0302395
668.038 .0302142
668.786 .0301902
669.533 .0301671
670.281 .0301451
671.028 .0301228
671.774 .0301001
672.521 .0300777
673.267 .0300556
674.013 .0300345
674.759 .0300137
675.505 .0299938
676.250 .0299741
676.995 .0299550
677.740 .0299360
678.484 .0299165
679.229 .0298970
679.973 .0298777
680.717 .0298583
681.460 .0298393
682.204 .0298205
682.947 .0298029
683.690 .0297857
684.433 .0297695
685.175 .0297535
685.917 .0297377
686.659 .0297220
687.401 .0297064
688.142 .0296904
688.884 .0296748
689.625 .0296589
690.365 .0296422
691.106 .0296247
691.846 .0296065
692.586 .0295869
693.326 .0295665
694.066 .0295460
694.805 .0295260
695.545 .0295066
696.284 .0294885
697.022 .0294713
697.761 .0294555
698.499 .0294407
699.237 .0294265
699.975 .0294125
700.713 .0293985
701.450 .0293843
702.187 .0293700
702.924 .0293562
703.661 .0293434
704.397 .0293312
705.133 .0293206
705.869 .0293109
706.605 .0293017
707.341 .0292925
708.076 .0292829
708.811 .0292727
709.546 .0292611
710.281 .0292481
711.015 .0292336
711.749 .0292179
712.483 .0292022
713.217 .0291865
713.950 .0291714
714.684 .0291565
715.417 .0291417
716.150 .0291260
716.882 .0291095
717.615 .0290916
718.347 .0290722
719.079 .0290515
719.811 .0290299
720.542 .0290075
721.273 .0289854
722.005 .0289640
722.735 .0289437
723.466 .0289249
724.196 .0289070
724.927 .0288893
725.656 .0288717
726.386 .0288540
727.116 .0288361
727.845 .0288181
728.574 .0287999
729.303 .0287820
730.031 .0287650
730.760 .0287490
731.488 .0287341
732.216 .0287203
732.944 .0287077
733.671 .0286956
734.398 .0286838
735.125 .0286721
735.852 .0286603
736.579 .0286488
737.305 .0286376
738.031 .0286263
738.757 .0286154
739.483 .0286048
740.208 .0285946
740.933 .0285846
741.658 .0285747
742.383 .0285644
743.108 .0285540
743.832 .0285428
744.556 .0285311
745.280 .0285191
746.004 .0285065
746.727 .0284934
747.450 .0284802
748.173 .0284666
748.896 .0284529
749.618 .0284389
750.340 .0284250
751.062 .0284105
751.784 .0283959
752.506 .0283808
753.227 .0283654
753.948 .0283499
754.669 .0283341
755.389 .0283176
756.110 .0283012
756.830 .0282842
757.550 .0282673
758.269 .0282498
758.989 .0282321
759.708 .0282136
760.427 .0281945
761.146 .0281741
761.864 .0281524
762.582 .0281296
763.300 .0281058
764.018 .0280814
764.736 .0280572
765.453 .0280337
766.170 .0280116
766.887 .0279910
767.603 .0279721
768.320 .0279544
769.036 .0279379
769.751 .0279218
770.467 .0279057
771.182 .0278898
771.897 .0278738
772.612 .0278578
773.327 .0278428
774.041 .0278292
774.755 .0278164
775.469 .0278048
776.183 .0277938
776.896 .0277833
777.609 .0277725
778.322 .0277609
779.035 .0277485
779.747 .0277354
780.459 .0277220
781.171 .0277083
781.882 .0276946
782.594 .0276818
783.305 .0276697
784.016 .0276582
784.726 .0276469
785.436 .0276357
786.147 .0276241
786.856 .0276124
787.566 .0276007
788.275 .0275891
788.984 .0275781
789.693 .0275679
790.401 .0275584
791.110 .0275496
791.818 .0275414
792.525 .0275334
793.233 .0275256
793.940 .0275179
794.647 .0275095
795.353 .0275008
796.060 .0274920
796.766 .0274827
797.472 .0274733
798.177 .0274635
798.883 .0274535
799.588 .0274432
800.292 .0274329
800.997 .0274219
801.701 .0274106
802.405 .0273992
803.109 .0273873
803.812 .0273750
804.515 .0273624
805.218 .0273490
805.921 .0273352
806.623 .0273213
807.325 .0273071
808.027 .0272933
808.728 .0272800
809.429 .0272670
810.130 .0272548
810.831 .0272431
811.531 .0272314
812.231 .0272196
812.931 .0272074
813.630 .0271945
814.330 .0271806
815.029 .0271661
815.727 .0271512
816.426 .0271361
817.124 .0271213
817.821 .0271065
818.519 .0270923
819.216 .0270788
819.913 .0270657
820.609 .0270537
821.306 .0270425
822.002 .0270325
822.697 .0270242
823.393 .0270175
824.088 .0270124
824.783 .0270088
825.477 .0270066
826.171 .0270055
826.865 .0270054
827.559 .0270064
828.252 .0270086
828.945 .0270116
829.638 .0270155
830.330 .0270198
831.023 .0270244
831.714 .0270291
832.406 .0270333
833.097 .0270367
833.788 .0270390
834.479 .0270401
835.169 .0270399
835.859 .0270392
836.548 .0270382
837.238 .0270371
837.927 .0270363
838.615 .0270364
839.304 .0270366
839.992 .0270369
840.680 .0270375
841.367 .0270375
842.054 .0270372
842.741 .0270366
843.428 .0270360
844.114 .0270356
844.800 .0270355
845.485 .0270356
846.170 .0270354
846.855 .0270355
847.540 .0270346
848.224 .0270324
848.908 .0270291
849.592 .0270241
850.275 .0270174
850.958 .0270093
851.641 .0270001
852.323 .0269900
853.005 .0269797
853.687 .0269691
854.368 .0269583
855.049 .0269477
855.730 .0269366
856.410 .0269246
857.090 .0269118
857.769 .0268979
858.449 .0268825
859.128 .0268662
859.806 .0268494
860.485 .0268322
861.163 .0268156
861.840 .0268001
862.518 .0267858
863.195 .0267728
863.871 .0267606
864.548 .0267490
865.224 .0267374
865.899 .0267257
866.574 .0267134
867.249 .0267002
867.924 .0266869
868.598 .0266731
869.272 .0266596
869.946 .0266466
870.619 .0266347
871.292 .0266238
871.964 .0266137
872.636 .0266041
873.308 .0265945
873.979 .0265845
874.651 .0265740
875.321 .0265631
875.992 .0265518
876.662 .0265406
877.331 .0265299
878.001 .0265198
878.670 .0265107
879.338 .0265024
880.007 .0264953
880.675 .0264888
881.342 .0264825
882.009 .0264760
882.676 .0264691
883.343 .0264622
884.009 .0264545
884.675 .0264464
885.340 .0264388
886.005 .0264318
886.670 .0264257
887.334 .0264207
887.998 .0264166
888.662 .0264131
889.325 .0264100
889.988 .0264068
890.650 .0264030
891.312 .0263985
891.974 .0263935
892.636 .0263880
893.297 .0263826
893.957 .0263777
894.618 .0263729
895.278 .0263691
895.937 .0263658
896.596 .0263619
897.255 .0263568
897.914 .0263503
898.572 .0263418
899.230 .0263314
899.887 .0263189
900.544 .0263048
901.201 .0262896
901.857 .0262744
902.513 .0262591
903.168 .0262439
903.823 .0262290
904.478 .0262140
905.132 .0261984
905.786 .0261818
906.440 .0261633
907.093 .0261433
907.746 .0261217
908.399 .0260988
909.051 .0260749
909.703 .0260503
910.354 .0260256
911.005 .0260015
911.656 .0259778
912.306 .0259544
912.956 .0259314
913.605 .0259087
914.254 .0258861
914.903 .0258635
915.551 .0258411
916.199 .0258190
916.847 .0257976
917.494 .0257773
918.141 .0257579
918.788 .0257395
919.434 .0257219
920.079 .0257047
920.725 .0256877
921.370 .0256700
922.014 .0256515
922.658 .0256319
923.302 .0256110
923.946 .0255887
924.589 .0255650
925.231 .0255401
925.873 .0255143
926.515 .0254878
927.157 .0254607
927.798 .0254331
928.439 .0254053
929.079 .0253771
929.719 .0253490
930.359 .0253206
930.998 .0252921
931.637 .0252636
932.275 .0252356
932.913 .0252080
933.551 .0251814
934.188 .0251560
934.825 .0251324
935.462 .0251104
936.098 .0250905
936.733 .0250724
937.369 .0250557
938.004 .0250402
938.638 .0250256
939.273 .0250116
939.907 .0249986
940.540 .0249865
941.173 .0249757
941.806 .0249666
942.438 .0249592
943.070 .0249529
943.702 .0249474
944.333 .0249425
944.964 .0249374
945.594 .0249312
946.224 .0249239
946.854 .0249152
947.483 .0249058
948.112 .0248960
948.741 .0248863
949.369 .0248769
949.996 .0248681
950.624 .0248597
951.251 .0248511
951.878 .0248426
952.504 .0248334
953.130 .0248228
953.755 .0248118
954.380 .0248000
955.005 .0247876
955.629 .0247753
956.253 .0247637
956.877 .0247530
957.500 .0247431
958.123 .0247340
958.746 .0247248
959.368 .0247158
959.990 .0247066
960.611 .0246967
961.232 .0246866
961.853 .0246769
962.473 .0246677
963.093 .0246593
963.712 .0246525
964.331 .0246469
964.950 .0246425
965.569 .0246395
966.187 .0246374
966.804 .0246364
967.422 .0246366
968.039 .0246382
968.655 .0246405
969.272 .0246435
969.887 .0246467
970.503 .0246492
971.118 .0246511
971.733 .0246522
972.347 .0246524
972.961 .0246518
973.575 .0246506
974.188 .0246489
974.801 .0246465
975.414 .0246441
976.026 .0246407
976.638 .0246363
977.250 .0246304
977.861 .0246231
978.472 .0246144
979.083 .0246052
979.693 .0245954
980.303 .0245855
980.912 .0245764
981.521 .0245678
982.130 .0245593
982.738 .0245511
983.346 .0245427
983.954 .0245345
984.562 .0245262
985.169 .0245184
985.775 .0245107
986.382 .0245046
986.988 .0245000
987.594 .0244971
988.199 .0244959
988.804 .0244964
989.409 .0244976
990.013 .0244994
990.617 .0245013
991.221 .0245032
991.824 .0245058
992.427 .0245095
993.030 .0245142
993.632 .0245209
994.234 .0245289
994.836 .0245388
995.438 .0245496
996.039 .0245609
996.640 .0245716
997.240 .0245813
997.840 .0245901
998.440 .0245973
999.040 .0246034
999.639 .0246089
1000.238 .0246141
1000.836 .0246194
1001.435 .0246247
1002.033 .0246299
1002.630 .0246350
1003.228 .0246402
1003.825 .0246452
1004.422 .0246503
1005.018 .0246557
1005.614 .0246621
1006.210 .0246693
1006.806 .0246775
1007.401 .0246867
1007.996 .0246965
1008.591 .0247072
1009.186 .0247183
1009.780 .0247294
1010.374 .0247407
1010.967 .0247520
1011.561 .0247634
1012.154 .0247743
1012.746 .0247846
1013.339 .0247946
1013.931 .0248040
1014.523 .0248128
1015.115 .0248209
1015.706 .0248283
1016.298 .0248353
1016.888 .0248421
1017.479 .0248487
1018.069 .0248547
1018.660 .0248607
1019.250 .0248670
1019.839 .0248736
1020.429 .0248814
1021.018 .0248907
1021.607 .0249013
1022.195 .0249134
1022.784 .0249263
1023.372 .0249390
1023.960 .0249518
1024.547 .0249645
1025.135 .0249768
1025.722 .0249889
1026.309 .0250020
1026.896 .0250159
1027.483 .0250318
1028.069 .0250495
1028.655 .0250682
1029.241 .0250863
1029.827 .0251040
1030.412 .0251201
1030.997 .0251337
1031.582 .0251457
1032.167 .0251573
1032.752 .0251688
1033.336 .0251810
1033.921 .0251939
1034.505 .0252075
1035.089 .0252212
1035.672 .0252347
1036.256 .0252462
1036.839 .0252554
1037.422 .0252629
1038.005 .0252693
1038.588 .0252748
1039.171 .0252819
1039.753 .0252905
1040.335 .0253010
1040.918 .0253133
1041.500 .0253262
1042.081 .0253378
1042.663 .0253484
1043.244 .0253573
1043.826 .0253634
1044.407 .0253664
1044.988 .0253684
1045.569 .0253690
1046.150 .0253693
1046.730 .0253700
1047.311 .0253709
1047.891 .0253728
1048.471 .0253758
1049.052 .0253784
1049.632 .0253814
1050.211 .0253850
1050.791 .0253882
1051.371 .0253910
1051.950 .0253943
1052.530 .0253966
1053.109 .0253983
1053.688 .0253998
1054.268 .0254011
1054.847 .0254020
1055.426 .0254034
1056.005 .0254054
1056.583 .0254086
1057.162 .0254123
1057.741 .0254145
1058.319 .0254148
1058.898 .0254138
1059.476 .0254091
1060.055 .0254014
1060.633 .0253924
1061.211 .0253832
1061.790 .0253752
1062.368 .0253690
1062.946 .0253657
1063.524 .0253658
1064.102 .0253687
1064.680 .0253723
1065.258 .0253745
1065.836 .0253747
1066.414 .0253717
1066.992 .0253654
1067.570 .0253583
1068.148 .0253506
1068.726 .0253438
1069.304 .0253392
1069.882 .0253364
1070.460 .0253342
1071.038 .0253320
1071.616 .0253294
1072.194 .0253256
1072.772 .0253210
1073.350 .0253154
1073.928 .0253090
1074.506 .0253044
1075.084 .0253010
1075.662 .0252987
1076.240 .0252966
1076.819 .0252940
1077.397 .0252897
1077.976 .0252846
1078.554 .0252785
1079.133 .0252729
1079.711 .0252693
1080.290 .0252686
1080.869 .0252692
1081.448 .0252711
1082.027 .0252733
1082.606 .0252749
1083.185 .0252760
1083.764 .0252761
1084.343 .0252738
1084.923 .0252718
1085.502 .0252701
1086.082 .0252699
1086.662 .0252719
1087.242 .0252770
1087.822 .0252834
1088.402 .0252915
1088.983 .0253009
1089.563 .0253083
1090.144 .0253128
1090.725 .0253162
1091.306 .0253169
1091.887 .0253162
1092.469 .0253144
1093.050 .0253130
1093.632 .0253121
1094.214 .0253139
1094.796 .0253179
1095.379 .0253247
1095.961 .0253354
1096.544 .0253512
1097.127 .0253699
1097.710 .0253916
1098.294 .0254158
1098.877 .0254402
1099.461 .0254655
1100.046 .0254925
1100.630 .0255192
1101.215 .0255451
1101.800 .0255716
1102.385 .0255983
1102.970 .0256228
1103.556 .0256470
1104.142 .0256691
1104.728 .0256885
1105.315 .0257039
1105.902 .0257143
1106.489 .0257201
1107.077 .0257199
1107.664 .0257184
1108.253 .0257141
1108.841 .0257073
1109.430 .0257016
1110.019 .0256949
1110.609 .0256895
1111.198 .0256863
1111.789 .0256854
1112.379 .0256852
1112.970 .0256854
1113.561 .0256895
1114.153 .0256955
1114.745 .0257054
1115.338 .0257236
1115.931 .0257471
1116.524 .0257753
1117.117 .0258087
1117.712 .0258420
1118.306 .0258749
1118.901 .0259094
1119.496 .0259372
1120.092 .0259607
1120.689 .0259808
1121.285 .0259981
1121.882 .0260113
1122.480 .0260259
1123.078 .0260447
1123.677 .0260647
1124.276 .0260900
1124.875 .0261226
1125.476 .0261567
1126.076 .0261982
1126.677 .0262430
1127.279 .0262911
1127.881 .0263444
1128.484 .0264007
1129.087 .0264573
1129.691 .0265220
1130.295 .0265944
1130.900 .0266715
1131.505 .0267558
1132.111 .0268506
1132.718 .0269519
1133.325 .0270596
1133.933 .0271718
1134.541 .0272878
1135.150 .0274047
1135.760 .0275227
1136.370 .0276364
1136.981 .0277494
1137.592 .0278629
1138.204 .0279766
1138.817 .0280938
1139.431 .0282221
1140.045 .0283579
1140.660 .0284927
1141.275 .0286367
1141.891 .0287968
1142.508 .0290680
1143.126 .0292124
1143.744 .0290319
1144.363 .0293850
1144.983 .0298536
