Measurement Sequence started on: 15-12-46-377
Integration time: 28
Scans to Average: 2 
>>>>>Begin Spectral Data<<<<<
432.689 .0000100
433.621 .0000100
434.552 .0000100
435.482 .0000100
436.410 .0000100
437.337 .0000100
438.262 .0259649
439.187 .0551186
440.110 .0914617
441.031 .1325677
441.952 .1725996
442.871 .2043051
443.789 .2219669
444.705 .2235740
445.621 .2114627
446.535 .1907316
447.447 .1670545
448.359 .1306339
449.269 .1124646
450.178 .1009100
451.086 .0927294
451.993 .0865132
452.898 .0816116
453.803 .0776328
454.706 .0743315
455.608 .0714839
456.508 .0689966
457.408 .0667934
458.306 .0648033
459.204 .0629997
460.100 .0613731
460.995 .0599155
461.888 .0586126
462.781 .0574483
463.673 .0563871
464.563 .0554284
465.452 .0545402
466.340 .0537142
467.228 .0529246
468.114 .0521726
468.999 .0514736
469.882 .0508248
470.765 .0502336
471.647 .0496986
472.528 .0492095
473.407 .0487630
474.286 .0483584
475.163 .0479970
476.040 .0476759
476.915 .0473956
477.790 .0471582
478.663 .0469653
479.535 .0468059
480.407 .0466815
481.277 .0465859
482.147 .0465135
483.015 .0464504
483.883 .0463947
484.749 .0463385
485.615 .0462909
486.479 .0462577
487.343 .0462483
488.206 .0462655
489.067 .0463048
489.928 .0463606
490.788 .0464247
491.647 .0464972
492.505 .0465788
493.362 .0466614
494.218 .0467567
495.073 .0468678
495.928 .0470029
496.781 .0471678
497.634 .0473782
498.486 .0476256
499.337 .0479194
500.187 .0482439
501.036 .0485967
501.884 .0489658
502.731 .0493548
503.578 .0497699
504.424 .0502040
505.268 .0506657
506.113 .0511564
506.956 .0516691
507.798 .0522166
508.640 .0527889
509.480 .0534006
510.320 .0540555
511.160 .0547697
511.998 .0555497
512.836 .0564262
513.672 .0574117
514.508 .0585222
515.344 .0597642
516.178 .0611626
517.012 .0627253
517.845 .0644802
518.677 .0664583
519.508 .0686856
520.339 .0712084
521.169 .0741017
521.998 .0773766
522.826 .0811212
523.654 .0852993
524.481 .0899351
525.307 .0950386
526.133 .1005745
526.958 .1064679
527.782 .1126925
528.605 .1190852
529.428 .1255598
530.250 .1317313
531.072 .1374347
531.892 .1422547
532.712 .1459788
533.532 .1483649
534.350 .1492034
535.168 .1483663
535.986 .1459476
536.802 .1420686
537.618 .1371039
538.434 .1312279
539.249 .1249032
540.063 .1183763
540.876 .1119771
541.689 .1058166
542.501 .1000281
543.313 .0946815
544.124 .0898197
544.934 .0853664
545.744 .0812771
546.553 .0775053
547.361 .0741328
548.169 .0711187
548.976 .0684127
549.783 .0660184
550.589 .0638984
551.395 .0619587
552.200 .0601938
553.004 .0585726
553.808 .0570319
554.611 .0555944
555.414 .0542551
556.216 .0530165
557.018 .0518973
557.819 .0509070
558.619 .0500106
559.419 .0492161
560.218 .0485134
561.017 .0478544
561.815 .0472170
562.613 .0465986
563.410 .0459668
564.207 .0453219
565.003 .0446764
565.799 .0440335
566.594 .0434045
567.388 .0428278
568.182 .0422838
568.976 .0417757
569.769 .0413073
570.562 .0408660
571.354 .0404388
572.145 .0400207
572.936 .0396002
573.727 .0391718
574.517 .0387435
575.307 .0383188
576.096 .0379016
576.885 .0375066
577.673 .0371387
578.461 .0367987
579.248 .0364843
580.035 .0361873
580.821 .0359046
581.607 .0356340
582.392 .0353680
583.177 .0351113
583.962 .0348658
584.746 .0346372
585.529 .0344262
586.313 .0342324
587.095 .0340583
587.878 .0339031
588.660 .0337660
589.441 .0336434
590.222 .0335339
591.003 .0334381
591.783 .0333522
592.563 .0332771
593.342 .0332128
594.121 .0331562
594.899 .0331068
595.678 .0330641
596.455 .0330249
597.233 .0329888
598.009 .0329525
598.786 .0329170
599.562 .0328829
600.338 .0328482
601.113 .0328129
601.888 .0327759
602.663 .0327379
603.437 .0326979
604.211 .0326552
604.984 .0326096
605.757 .0325614
606.530 .0325110
607.302 .0324590
608.074 .0324065
608.845 .0323549
609.616 .0323052
610.387 .0322587
611.158 .0322152
611.928 .0321750
612.697 .0321376
613.467 .0321041
614.236 .0320730
615.004 .0320449
615.773 .0320192
616.541 .0319953
617.308 .0319736
618.076 .0319536
618.843 .0319346
619.609 .0319168
620.375 .0318985
621.141 .0318794
621.907 .0318581
622.672 .0318345
623.437 .0318075
624.202 .0317777
624.966 .0317450
625.730 .0317101
626.493 .0316730
627.257 .0316347
628.020 .0315956
628.782 .0315560
629.545 .0315162
630.307 .0314757
631.068 .0314354
631.830 .0313947
632.591 .0313530
633.352 .0313119
634.112 .0312708
634.872 .0312308
635.632 .0311920
636.392 .0311545
637.151 .0311191
637.910 .0310867
638.668 .0310571
639.427 .0310296
640.185 .0310049
640.943 .0309820
641.700 .0309606
642.457 .0309404
643.214 .0309213
643.971 .0309028
644.727 .0308861
645.483 .0308709
646.239 .0308564
646.994 .0308441
647.750 .0308334
648.505 .0308239
649.259 .0308158
650.014 .0308082
650.768 .0308004
651.521 .0307919
652.275 .0307826
653.028 .0307721
653.781 .0307606
654.534 .0307484
655.286 .0307352
656.039 .0307216
656.791 .0307080
657.542 .0306935
658.294 .0306789
659.045 .0306640
659.796 .0306479
660.546 .0306303
661.297 .0306108
662.047 .0305890
662.796 .0305654
663.546 .0305400
664.295 .0305133
665.044 .0304856
665.793 .0304579
666.542 .0304305
667.290 .0304041
668.038 .0303792
668.786 .0303556
669.533 .0303333
670.281 .0303120
671.028 .0302908
671.774 .0302702
672.521 .0302505
673.267 .0302318
674.013 .0302143
674.759 .0301980
675.505 .0301828
676.250 .0301684
676.995 .0301539
677.740 .0301387
678.484 .0301215
679.229 .0301022
679.973 .0300803
680.717 .0300563
681.460 .0300302
682.204 .0300031
682.947 .0299752
683.690 .0299478
684.433 .0299201
685.175 .0298920
685.917 .0298636
686.659 .0298344
687.401 .0298042
688.142 .0297732
688.884 .0297412
689.625 .0297098
690.365 .0296793
691.106 .0296500
691.846 .0296221
692.586 .0295957
693.326 .0295704
694.066 .0295456
694.805 .0295209
695.545 .0294958
696.284 .0294698
697.022 .0294437
697.761 .0294172
698.499 .0293905
699.237 .0293646
699.975 .0293393
700.713 .0293146
701.450 .0292905
702.187 .0292665
702.924 .0292431
703.661 .0292203
704.397 .0291986
705.133 .0291781
705.869 .0291590
706.605 .0291415
707.341 .0291250
708.076 .0291098
708.811 .0290953
709.546 .0290808
710.281 .0290666
711.015 .0290522
711.749 .0290375
712.483 .0290228
713.217 .0290081
713.950 .0289938
714.684 .0289796
715.417 .0289652
716.150 .0289506
716.882 .0289358
717.615 .0289206
718.347 .0289048
719.079 .0288889
719.811 .0288736
720.542 .0288585
721.273 .0288438
722.005 .0288295
722.735 .0288158
723.466 .0288020
724.196 .0287887
724.927 .0287754
725.656 .0287629
726.386 .0287511
727.116 .0287402
727.845 .0287298
728.574 .0287204
729.303 .0287112
730.031 .0287021
730.760 .0286932
731.488 .0286839
732.216 .0286737
732.944 .0286638
733.671 .0286542
734.398 .0286451
735.125 .0286372
735.852 .0286311
736.579 .0286263
737.305 .0286228
738.031 .0286202
738.757 .0286181
739.483 .0286161
740.208 .0286142
740.933 .0286114
741.658 .0286076
742.383 .0286030
743.108 .0285975
743.832 .0285913
744.556 .0285849
745.280 .0285782
746.004 .0285711
746.727 .0285644
747.450 .0285576
748.173 .0285502
748.896 .0285424
749.618 .0285341
750.340 .0285248
751.062 .0285138
751.784 .0285018
752.506 .0284889
753.227 .0284753
753.948 .0284612
754.669 .0284471
755.389 .0284330
756.110 .0284190
756.830 .0284046
757.550 .0283897
758.269 .0283738
758.989 .0283565
759.708 .0283371
760.427 .0283163
761.146 .0282939
761.864 .0282700
762.582 .0282444
763.300 .0282177
764.018 .0281898
764.736 .0281610
765.453 .0281315
766.170 .0281019
766.887 .0280722
767.603 .0280427
768.320 .0280132
769.036 .0279845
769.751 .0279562
770.467 .0279285
771.182 .0279014
771.897 .0278747
772.612 .0278484
773.327 .0278227
774.041 .0277977
774.755 .0277739
775.469 .0277516
776.183 .0277306
776.896 .0277106
777.609 .0276923
778.322 .0276749
779.035 .0276580
779.747 .0276414
780.459 .0276253
781.171 .0276093
781.882 .0275935
782.594 .0275778
783.305 .0275624
784.016 .0275475
784.726 .0275332
785.436 .0275192
786.147 .0275057
786.856 .0274932
787.566 .0274813
788.275 .0274706
788.984 .0274609
789.693 .0274519
790.401 .0274433
791.110 .0274346
791.818 .0274256
792.525 .0274161
793.233 .0274058
793.940 .0273950
794.647 .0273846
795.353 .0273741
796.060 .0273641
796.766 .0273544
797.472 .0273449
798.177 .0273353
798.883 .0273251
799.588 .0273141
800.292 .0273023
800.997 .0272901
801.701 .0272769
802.405 .0272636
803.109 .0272506
803.812 .0272379
804.515 .0272255
805.218 .0272133
805.921 .0272007
806.623 .0271875
807.325 .0271746
808.027 .0271617
808.728 .0271494
809.429 .0271383
810.130 .0271282
810.831 .0271197
811.531 .0271128
812.231 .0271068
812.931 .0271009
813.630 .0270954
814.330 .0270893
815.029 .0270830
815.727 .0270767
816.426 .0270707
817.124 .0270657
817.821 .0270621
818.519 .0270600
819.216 .0270590
819.913 .0270594
820.609 .0270604
821.306 .0270614
822.002 .0270629
822.697 .0270638
823.393 .0270654
824.088 .0270678
824.783 .0270714
825.477 .0270761
826.171 .0270822
826.865 .0270897
827.559 .0270987
828.252 .0271087
828.945 .0271193
829.638 .0271300
830.330 .0271413
831.023 .0271523
831.714 .0271629
832.406 .0271733
833.097 .0271830
833.788 .0271914
834.479 .0271988
835.169 .0272045
835.859 .0272092
836.548 .0272131
837.238 .0272166
837.927 .0272196
838.615 .0272221
839.304 .0272241
839.992 .0272250
840.680 .0272248
841.367 .0272239
842.054 .0272216
842.741 .0272185
843.428 .0272152
844.114 .0272118
844.800 .0272086
845.485 .0272057
846.170 .0272027
846.855 .0271990
847.540 .0271940
848.224 .0271874
848.908 .0271788
849.592 .0271687
850.275 .0271572
850.958 .0271443
851.641 .0271306
852.323 .0271160
853.005 .0271003
853.687 .0270833
854.368 .0270647
855.049 .0270440
855.730 .0270211
856.410 .0269963
857.090 .0269696
857.769 .0269417
858.449 .0269128
859.128 .0268835
859.806 .0268538
860.485 .0268241
861.163 .0267945
861.840 .0267652
862.518 .0267358
863.195 .0267065
863.871 .0266770
864.548 .0266477
865.224 .0266181
865.899 .0265886
866.574 .0265589
867.249 .0265293
867.924 .0265000
868.598 .0264712
869.272 .0264430
869.946 .0264158
870.619 .0263891
871.292 .0263635
871.964 .0263385
872.636 .0263138
873.308 .0262891
873.979 .0262646
874.651 .0262399
875.321 .0262151
875.992 .0261903
876.662 .0261658
877.331 .0261413
878.001 .0261175
878.670 .0260937
879.338 .0260698
880.007 .0260461
880.675 .0260229
881.342 .0259999
882.009 .0259776
882.676 .0259557
883.343 .0259345
884.009 .0259140
884.675 .0258945
885.340 .0258755
886.005 .0258570
886.670 .0258396
887.334 .0258231
887.998 .0258074
888.662 .0257929
889.325 .0257797
889.988 .0257680
890.650 .0257576
891.312 .0257480
891.974 .0257387
892.636 .0257297
893.297 .0257211
893.957 .0257124
894.618 .0257039
895.278 .0256955
895.937 .0256871
896.596 .0256793
897.255 .0256719
897.914 .0256644
898.572 .0256570
899.230 .0256499
899.887 .0256422
900.544 .0256339
901.201 .0256249
901.857 .0256153
902.513 .0256054
903.168 .0255952
903.823 .0255845
904.478 .0255733
905.132 .0255620
905.786 .0255502
906.440 .0255377
907.093 .0255245
907.746 .0255103
908.399 .0254954
909.051 .0254801
909.703 .0254643
910.354 .0254485
911.005 .0254334
911.656 .0254195
912.306 .0254063
912.956 .0253943
913.605 .0253831
914.254 .0253724
914.903 .0253619
915.551 .0253511
916.199 .0253404
916.847 .0253297
917.494 .0253191
918.141 .0253094
918.788 .0253013
919.434 .0252951
920.079 .0252904
920.725 .0252878
921.370 .0252869
922.014 .0252867
922.658 .0252868
923.302 .0252871
923.946 .0252874
924.589 .0252873
925.231 .0252869
925.873 .0252865
926.515 .0252864
927.157 .0252864
927.798 .0252861
928.439 .0252855
929.079 .0252843
929.719 .0252818
930.359 .0252775
930.998 .0252721
931.637 .0252654
932.275 .0252576
932.913 .0252495
933.551 .0252414
934.188 .0252336
934.825 .0252262
935.462 .0252196
936.098 .0252137
936.733 .0252090
937.369 .0252055
938.004 .0252031
938.638 .0252025
939.273 .0252040
939.907 .0252073
940.540 .0252126
941.173 .0252200
941.806 .0252291
942.438 .0252395
943.070 .0252510
943.702 .0252631
944.333 .0252762
944.964 .0252904
945.594 .0253055
946.224 .0253216
946.854 .0253386
947.483 .0253563
948.112 .0253745
948.741 .0253925
949.369 .0254100
949.996 .0254265
950.624 .0254418
951.251 .0254559
951.878 .0254688
952.504 .0254806
953.130 .0254913
953.755 .0255008
954.380 .0255091
955.005 .0255155
955.629 .0255200
956.253 .0255225
956.877 .0255231
957.500 .0255224
958.123 .0255202
958.746 .0255168
959.368 .0255134
959.990 .0255099
960.611 .0255059
961.232 .0255019
961.853 .0254974
962.473 .0254924
963.093 .0254868
963.712 .0254809
964.331 .0254749
964.950 .0254688
965.569 .0254634
966.187 .0254582
966.804 .0254540
967.422 .0254508
968.039 .0254476
968.655 .0254446
969.272 .0254417
969.887 .0254381
970.503 .0254333
971.118 .0254280
971.733 .0254227
972.347 .0254174
972.961 .0254120
973.575 .0254067
974.188 .0254009
974.801 .0253946
975.414 .0253870
976.026 .0253772
976.638 .0253656
977.250 .0253518
977.861 .0253357
978.472 .0253183
979.083 .0252994
979.693 .0252795
980.303 .0252584
980.912 .0252371
981.521 .0252150
982.130 .0251920
982.738 .0251686
983.346 .0251453
983.954 .0251216
984.562 .0250979
985.169 .0250740
985.775 .0250501
986.382 .0250265
986.988 .0250031
987.594 .0249799
988.199 .0249573
988.804 .0249354
989.409 .0249139
990.013 .0248930
990.617 .0248730
991.221 .0248531
991.824 .0248335
992.427 .0248142
993.030 .0247949
993.632 .0247758
994.234 .0247568
994.836 .0247380
995.438 .0247194
996.039 .0247005
996.640 .0246809
997.240 .0246603
997.840 .0246393
998.440 .0246175
999.040 .0245951
999.639 .0245729
1000.238 .0245504
1000.836 .0245281
1001.435 .0245063
1002.033 .0244843
1002.630 .0244622
1003.228 .0244402
1003.825 .0244183
1004.422 .0243970
1005.018 .0243764
1005.614 .0243574
1006.210 .0243398
1006.806 .0243244
1007.401 .0243099
1007.996 .0242959
1008.591 .0242824
1009.186 .0242689
1009.780 .0242549
1010.374 .0242406
1010.967 .0242256
1011.561 .0242101
1012.154 .0241942
1012.746 .0241780
1013.339 .0241607
1013.931 .0241423
1014.523 .0241231
1015.115 .0241030
1015.706 .0240823
1016.298 .0240616
1016.888 .0240418
1017.479 .0240237
1018.069 .0240073
1018.660 .0239919
1019.250 .0239778
1019.839 .0239652
1020.429 .0239539
1021.018 .0239434
1021.607 .0239344
1022.195 .0239276
1022.784 .0239223
1023.372 .0239197
1023.960 .0239199
1024.547 .0239229
1025.135 .0239280
1025.722 .0239337
1026.309 .0239398
1026.896 .0239457
1027.483 .0239506
1028.069 .0239535
1028.655 .0239550
1029.241 .0239556
1029.827 .0239548
1030.412 .0239532
1030.997 .0239516
1031.582 .0239505
1032.167 .0239498
1032.752 .0239491
1033.336 .0239479
1033.921 .0239455
1034.505 .0239411
1035.089 .0239341
1035.672 .0239253
1036.256 .0239151
1036.839 .0239041
1037.422 .0238945
1038.005 .0238879
1038.588 .0238849
1039.171 .0238852
1039.753 .0238888
1040.335 .0238948
1040.918 .0239023
1041.500 .0239095
1042.081 .0239153
1042.663 .0239197
1043.244 .0239227
1043.826 .0239241
1044.407 .0239248
1044.988 .0239267
1045.569 .0239292
1046.150 .0239323
1046.730 .0239362
1047.311 .0239404
1047.891 .0239440
1048.471 .0239467
1049.052 .0239479
1049.632 .0239472
1050.211 .0239455
1050.791 .0239419
1051.371 .0239376
1051.950 .0239339
1052.530 .0239311
1053.109 .0239296
1053.688 .0239300
1054.268 .0239328
1054.847 .0239372
1055.426 .0239435
1056.005 .0239514
1056.583 .0239602
1057.162 .0239692
1057.741 .0239785
1058.319 .0239886
1058.898 .0239992
1059.476 .0240103
1060.055 .0240213
1060.633 .0240332
1061.211 .0240449
1061.790 .0240563
1062.368 .0240682
1062.946 .0240803
1063.524 .0240933
1064.102 .0241071
1064.680 .0241207
1065.258 .0241349
1065.836 .0241479
1066.414 .0241594
1066.992 .0241682
1067.570 .0241750
1068.148 .0241785
1068.726 .0241814
1069.304 .0241862
1069.882 .0241947
1070.460 .0242061
1071.038 .0242221
1071.616 .0242403
1072.194 .0242607
1072.772 .0242804
1073.350 .0242982
1073.928 .0243125
1074.506 .0243247
1075.084 .0243331
1075.662 .0243411
1076.240 .0243497
1076.819 .0243620
1077.397 .0243770
1077.976 .0243956
1078.554 .0244155
1079.133 .0244358
1079.711 .0244546
1080.290 .0244726
1080.869 .0244891
1081.448 .0245046
1082.027 .0245197
1082.606 .0245374
1083.185 .0245574
1083.764 .0245815
1084.343 .0246101
1084.923 .0246431
1085.502 .0246785
1086.082 .0247157
1086.662 .0247519
1087.242 .0247874
1087.822 .0248234
1088.402 .0248594
1088.983 .0248948
1089.563 .0249307
1090.144 .0249661
1090.725 .0250004
1091.306 .0250335
1091.887 .0250649
1092.469 .0250927
1093.050 .0251190
1093.632 .0251424
1094.214 .0251635
1094.796 .0251849
1095.379 .0252086
1095.961 .0252338
1096.544 .0252617
1097.127 .0252917
1097.710 .0253211
1098.294 .0253498
1098.877 .0253782
1099.461 .0254034
1100.046 .0254293
1100.630 .0254549
1101.215 .0254810
1101.800 .0255089
1102.385 .0255417
1102.970 .0255762
1103.556 .0256140
1104.142 .0256544
1104.728 .0256948
1105.315 .0257329
1105.902 .0257707
1106.489 .0258063
1107.077 .0258420
1107.664 .0258790
1108.253 .0259181
1108.841 .0259584
1109.430 .0260036
1110.019 .0260473
1110.609 .0260906
1111.198 .0261332
1111.789 .0261742
1112.379 .0262124
1112.970 .0262481
1113.561 .0262835
1114.153 .0263202
1114.745 .0263603
1115.338 .0264053
1115.931 .0264511
1116.524 .0264997
1117.117 .0265481
1117.712 .0265955
1118.306 .0266401
1118.901 .0266836
1119.496 .0267270
1120.092 .0267725
1120.689 .0268198
1121.285 .0268676
1121.882 .0269167
1122.480 .0269674
1123.078 .0270197
1123.677 .0270674
1124.276 .0271086
1124.875 .0271464
1125.476 .0271808
1126.076 .0272159
1126.677 .0272524
1127.279 .0272934
1127.881 .0273434
1128.484 .0273999
1129.087 .0274615
1129.691 .0275281
1130.295 .0276002
1130.900 .0276774
1131.505 .0277599
1132.111 .0278446
1132.718 .0279337
1133.325 .0280313
1133.933 .0281400
1134.541 .0282575
1135.150 .0283870
1135.760 .0285257
1136.370 .0286694
1136.981 .0288199
1137.592 .0289710
1138.204 .0291180
1138.817 .0292620
1139.431 .0294020
1140.045 .0295423
1140.660 .0296715
1141.275 .0298078
1141.891 .0299149
1142.508 .0300721
1143.126 .0303794
1143.744 .0301978
1144.363 .0306022
1144.983 .0298633
