Measurement Sequence started on: 15-12-46-377
Integration time: 28
Scans to Average: 2 
>>>>>Begin Spectral Data<<<<<
432.689 .0000100
433.621 .0000100
434.552 .0000100
435.482 .0000100
436.410 .0000100
437.337 .0000100
438.262 .0269256
439.187 .0569116
440.110 .0941825
441.031 .1362278
441.952 .1770210
442.871 .2090834
443.789 .2266161
444.705 .2276863
445.621 .2147588
446.535 .1931724
447.447 .1687682
448.359 .1313026
449.269 .1129615
450.178 .1014095
451.086 .0932210
451.993 .0869406
452.898 .0819673
453.803 .0778789
454.706 .0744467
455.608 .0715364
456.508 .0690518
457.408 .0668994
458.306 .0649949
459.204 .0632926
460.100 .0617514
460.995 .0603596
461.888 .0590853
462.781 .0578929
463.673 .0567765
464.563 .0557455
465.452 .0547689
466.340 .0538537
467.228 .0530061
468.114 .0522146
468.999 .0514830
469.882 .0508015
470.765 .0501729
471.647 .0495940
472.528 .0490652
473.407 .0485882
474.286 .0481575
475.163 .0477780
476.040 .0474405
476.915 .0471484
477.790 .0468999
478.663 .0466963
479.535 .0465283
480.407 .0463933
481.277 .0462887
482.147 .0462120
483.015 .0461592
483.883 .0461227
484.749 .0461017
485.615 .0460967
486.479 .0460967
487.343 .0461056
488.206 .0461217
489.067 .0461468
489.928 .0461807
490.788 .0462269
491.647 .0462843
492.505 .0463594
493.362 .0464542
494.218 .0465625
495.073 .0466838
495.928 .0468221
496.781 .0469645
497.634 .0471218
498.486 .0472936
499.337 .0474845
500.187 .0476923
501.036 .0479278
501.884 .0481903
502.731 .0484826
503.578 .0488106
504.424 .0491689
505.268 .0495549
506.113 .0499846
506.956 .0504441
507.798 .0509469
508.640 .0515087
509.480 .0521386
510.320 .0528443
511.160 .0536409
511.998 .0545210
512.836 .0554971
513.672 .0565831
514.508 .0577717
515.344 .0590858
516.178 .0605731
517.012 .0622574
517.845 .0641836
518.677 .0663886
519.508 .0688873
520.339 .0716803
521.169 .0748218
521.998 .0782887
522.826 .0820982
523.654 .0863682
524.481 .0910599
525.307 .0962475
526.133 .1019505
526.958 .1081060
527.782 .1146408
528.605 .1214059
529.428 .1282239
530.250 .1345302
531.072 .1401468
531.892 .1447115
532.712 .1479246
533.532 .1497656
534.350 .1500773
535.168 .1488322
535.986 .1462158
536.802 .1423530
537.618 .1373890
538.434 .1315712
539.249 .1252978
540.063 .1186511
540.876 .1119617
541.689 .1054782
542.501 .0993666
543.313 .0938047
544.124 .0889075
544.934 .0845666
545.744 .0807290
546.553 .0773496
547.361 .0743017
548.169 .0715440
548.976 .0690422
549.783 .0667403
550.589 .0646426
551.395 .0627287
552.200 .0610001
553.004 .0594151
553.808 .0579696
554.611 .0566627
555.414 .0554587
556.216 .0543399
557.018 .0533184
557.819 .0523519
558.619 .0514429
559.419 .0505680
560.218 .0497478
561.017 .0489649
561.815 .0482114
562.613 .0474813
563.410 .0467724
564.207 .0460827
565.003 .0454169
565.799 .0447668
566.594 .0441437
567.388 .0435556
568.182 .0429962
568.976 .0424539
569.769 .0419375
570.562 .0414313
571.354 .0409373
572.145 .0404523
572.936 .0399820
573.727 .0395148
574.517 .0390619
575.307 .0386274
576.096 .0382110
576.885 .0378133
577.673 .0374367
578.461 .0370756
579.248 .0367274
580.035 .0363906
580.821 .0360662
581.607 .0357539
582.392 .0354587
583.177 .0351814
583.962 .0349260
584.746 .0346921
585.529 .0344800
586.313 .0342892
587.095 .0341191
587.878 .0339678
588.660 .0338299
589.441 .0337048
590.222 .0335927
591.003 .0334942
591.783 .0334036
592.563 .0333222
593.342 .0332471
594.121 .0331736
594.899 .0331033
595.678 .0330342
596.455 .0329659
597.233 .0329008
598.009 .0328384
598.786 .0327800
599.562 .0327250
600.338 .0326745
601.113 .0326272
601.888 .0325830
602.663 .0325403
603.437 .0324986
604.211 .0324563
604.984 .0324163
605.757 .0323767
606.530 .0323384
607.302 .0323022
608.074 .0322678
608.845 .0322355
609.616 .0322043
610.387 .0321741
611.158 .0321456
611.928 .0321175
612.697 .0320904
613.467 .0320630
614.236 .0320360
615.004 .0320096
615.773 .0319840
616.541 .0319582
617.308 .0319334
618.076 .0319093
618.843 .0318858
619.609 .0318639
620.375 .0318442
621.141 .0318266
621.907 .0318105
622.672 .0317965
623.437 .0317826
624.202 .0317680
624.966 .0317523
625.730 .0317349
626.493 .0317160
627.257 .0316954
628.020 .0316737
628.782 .0316511
629.545 .0316289
630.307 .0316065
631.068 .0315836
631.830 .0315609
632.591 .0315370
633.352 .0315114
634.112 .0314839
634.872 .0314557
635.632 .0314265
636.392 .0313963
637.151 .0313660
637.910 .0313360
638.668 .0313063
639.427 .0312763
640.185 .0312455
640.943 .0312142
641.700 .0311825
642.457 .0311499
643.214 .0311168
643.971 .0310837
644.727 .0310507
645.483 .0310188
646.239 .0309874
646.994 .0309569
647.750 .0309268
648.505 .0308979
649.259 .0308708
650.014 .0308450
650.768 .0308209
651.521 .0307986
652.275 .0307780
653.028 .0307593
653.781 .0307410
654.534 .0307224
655.286 .0307031
656.039 .0306830
656.791 .0306602
657.542 .0306350
658.294 .0306074
659.045 .0305784
659.796 .0305479
660.546 .0305167
661.297 .0304844
662.047 .0304518
662.796 .0304193
663.546 .0303868
664.295 .0303540
665.044 .0303216
665.793 .0302897
666.542 .0302583
667.290 .0302279
668.038 .0301993
668.786 .0301717
669.533 .0301462
670.281 .0301225
671.028 .0301005
671.774 .0300797
672.521 .0300604
673.267 .0300421
674.013 .0300249
674.759 .0300088
675.505 .0299932
676.250 .0299772
676.995 .0299613
677.740 .0299446
678.484 .0299270
679.229 .0299086
679.973 .0298895
680.717 .0298695
681.460 .0298502
682.204 .0298315
682.947 .0298133
683.690 .0297968
684.433 .0297816
685.175 .0297675
685.917 .0297542
686.659 .0297412
687.401 .0297286
688.142 .0297164
688.884 .0297050
689.625 .0296937
690.365 .0296831
691.106 .0296730
691.846 .0296631
692.586 .0296534
693.326 .0296434
694.066 .0296323
694.805 .0296205
695.545 .0296073
696.284 .0295927
697.022 .0295772
697.761 .0295611
698.499 .0295445
699.237 .0295281
699.975 .0295113
700.713 .0294945
701.450 .0294779
702.187 .0294618
702.924 .0294460
703.661 .0294311
704.397 .0294173
705.133 .0294046
705.869 .0293934
706.605 .0293835
707.341 .0293747
708.076 .0293674
708.811 .0293603
709.546 .0293532
710.281 .0293460
711.015 .0293380
711.749 .0293292
712.483 .0293194
713.217 .0293086
713.950 .0292969
714.684 .0292844
715.417 .0292711
716.150 .0292570
716.882 .0292426
717.615 .0292272
718.347 .0292110
719.079 .0291941
719.811 .0291760
720.542 .0291575
721.273 .0291388
722.005 .0291199
722.735 .0291008
723.466 .0290816
724.196 .0290621
724.927 .0290420
725.656 .0290210
726.386 .0289990
727.116 .0289763
727.845 .0289534
728.574 .0289301
729.303 .0289070
730.031 .0288852
730.760 .0288648
731.488 .0288452
732.216 .0288271
732.944 .0288104
733.671 .0287947
734.398 .0287798
735.125 .0287661
735.852 .0287533
736.579 .0287414
737.305 .0287305
738.031 .0287202
738.757 .0287106
739.483 .0287014
740.208 .0286920
740.933 .0286821
741.658 .0286716
742.383 .0286601
743.108 .0286476
743.832 .0286344
744.556 .0286211
745.280 .0286068
746.004 .0285919
746.727 .0285765
747.450 .0285602
748.173 .0285430
748.896 .0285251
749.618 .0285065
750.340 .0284873
751.062 .0284677
751.784 .0284483
752.506 .0284287
753.227 .0284098
753.948 .0283911
754.669 .0283725
755.389 .0283537
756.110 .0283347
756.830 .0283148
757.550 .0282946
758.269 .0282742
758.989 .0282534
759.708 .0282324
760.427 .0282116
761.146 .0281913
761.864 .0281717
762.582 .0281532
763.300 .0281353
764.018 .0281178
764.736 .0281005
765.453 .0280832
766.170 .0280655
766.887 .0280475
767.603 .0280294
768.320 .0280110
769.036 .0279926
769.751 .0279744
770.467 .0279564
771.182 .0279393
771.897 .0279229
772.612 .0279070
773.327 .0278914
774.041 .0278761
774.755 .0278608
775.469 .0278461
776.183 .0278325
776.896 .0278197
777.609 .0278082
778.322 .0277979
779.035 .0277886
779.747 .0277805
780.459 .0277735
781.171 .0277672
781.882 .0277608
782.594 .0277550
783.305 .0277489
784.016 .0277431
784.726 .0277377
785.436 .0277322
786.147 .0277267
786.856 .0277214
787.566 .0277156
788.275 .0277093
788.984 .0277031
789.693 .0276967
790.401 .0276901
791.110 .0276832
791.818 .0276760
792.525 .0276684
793.233 .0276609
793.940 .0276532
794.647 .0276450
795.353 .0276370
796.060 .0276290
796.766 .0276210
797.472 .0276137
798.177 .0276068
798.883 .0276004
799.588 .0275941
800.292 .0275878
800.997 .0275811
801.701 .0275738
802.405 .0275664
803.109 .0275590
803.812 .0275522
804.515 .0275460
805.218 .0275401
805.921 .0275350
806.623 .0275302
807.325 .0275254
808.027 .0275200
808.728 .0275138
809.429 .0275066
810.130 .0274983
810.831 .0274893
811.531 .0274801
812.231 .0274707
812.931 .0274613
813.630 .0274520
814.330 .0274427
815.029 .0274332
815.727 .0274235
816.426 .0274133
817.124 .0274032
817.821 .0273932
818.519 .0273835
819.216 .0273743
819.913 .0273664
820.609 .0273599
821.306 .0273550
822.002 .0273520
822.697 .0273505
823.393 .0273509
824.088 .0273527
824.783 .0273558
825.477 .0273595
826.171 .0273638
826.865 .0273685
827.559 .0273730
828.252 .0273774
828.945 .0273816
829.638 .0273858
830.330 .0273904
831.023 .0273954
831.714 .0274009
832.406 .0274066
833.097 .0274123
833.788 .0274174
834.479 .0274220
835.169 .0274254
835.859 .0274277
836.548 .0274290
837.238 .0274296
837.927 .0274298
838.615 .0274296
839.304 .0274296
839.992 .0274299
840.680 .0274302
841.367 .0274302
842.054 .0274292
842.741 .0274274
843.428 .0274244
844.114 .0274206
844.800 .0274160
845.485 .0274109
846.170 .0274051
846.855 .0273987
847.540 .0273920
848.224 .0273846
848.908 .0273767
849.592 .0273677
850.275 .0273581
850.958 .0273475
851.641 .0273360
852.323 .0273236
853.005 .0273104
853.687 .0272966
854.368 .0272817
855.049 .0272652
855.730 .0272478
856.410 .0272293
857.090 .0272097
857.769 .0271896
858.449 .0271693
859.128 .0271490
859.806 .0271289
860.485 .0271094
861.163 .0270904
861.840 .0270719
862.518 .0270535
863.195 .0270352
863.871 .0270168
864.548 .0269984
865.224 .0269793
865.899 .0269604
866.574 .0269419
867.249 .0269236
867.924 .0269052
868.598 .0268873
869.272 .0268696
869.946 .0268524
870.619 .0268348
871.292 .0268178
871.964 .0268008
872.636 .0267843
873.308 .0267676
873.979 .0267512
874.651 .0267351
875.321 .0267188
875.992 .0267023
876.662 .0266856
877.331 .0266686
878.001 .0266516
878.670 .0266345
879.338 .0266179
880.007 .0266018
880.675 .0265864
881.342 .0265710
882.009 .0265565
882.676 .0265422
883.343 .0265279
884.009 .0265139
884.675 .0265002
885.340 .0264867
886.005 .0264738
886.670 .0264620
887.334 .0264512
887.998 .0264417
888.662 .0264333
889.325 .0264254
889.988 .0264185
890.650 .0264118
891.312 .0264047
891.974 .0263974
892.636 .0263902
893.297 .0263823
893.957 .0263738
894.618 .0263650
895.278 .0263554
895.937 .0263454
896.596 .0263357
897.255 .0263255
897.914 .0263155
898.572 .0263058
899.230 .0262962
899.887 .0262866
900.544 .0262769
901.201 .0262662
901.857 .0262544
902.513 .0262416
903.168 .0262273
903.823 .0262108
904.478 .0261928
905.132 .0261735
905.786 .0261529
906.440 .0261311
907.093 .0261078
907.746 .0260830
908.399 .0260569
909.051 .0260292
909.703 .0259999
910.354 .0259693
911.005 .0259379
911.656 .0259065
912.306 .0258755
912.956 .0258454
913.605 .0258162
914.254 .0257888
914.903 .0257632
915.551 .0257390
916.199 .0257161
916.847 .0256943
917.494 .0256742
918.141 .0256553
918.788 .0256374
919.434 .0256211
920.079 .0256057
920.725 .0255917
921.370 .0255783
922.014 .0255652
922.658 .0255517
923.302 .0255377
923.946 .0255230
924.589 .0255073
925.231 .0254903
925.873 .0254725
926.515 .0254535
927.157 .0254339
927.798 .0254136
928.439 .0253923
929.079 .0253709
929.719 .0253494
930.359 .0253273
930.998 .0253060
931.637 .0252852
932.275 .0252652
932.913 .0252459
933.551 .0252277
934.188 .0252101
934.825 .0251933
935.462 .0251778
936.098 .0251633
936.733 .0251511
937.369 .0251412
938.004 .0251328
938.638 .0251263
939.273 .0251212
939.907 .0251165
940.540 .0251120
941.173 .0251075
941.806 .0251026
942.438 .0250979
943.070 .0250940
943.702 .0250908
944.333 .0250884
944.964 .0250873
945.594 .0250866
946.224 .0250857
946.854 .0250842
947.483 .0250815
948.112 .0250773
948.741 .0250728
949.369 .0250679
949.996 .0250634
950.624 .0250600
951.251 .0250578
951.878 .0250568
952.504 .0250568
953.130 .0250567
953.755 .0250565
954.380 .0250556
955.005 .0250539
955.629 .0250512
956.253 .0250486
956.877 .0250468
957.500 .0250458
958.123 .0250459
958.746 .0250472
959.368 .0250488
959.990 .0250509
960.611 .0250524
961.232 .0250533
961.853 .0250540
962.473 .0250545
963.093 .0250545
963.712 .0250551
964.331 .0250562
964.950 .0250583
965.569 .0250610
966.187 .0250648
966.804 .0250690
967.422 .0250735
968.039 .0250783
968.655 .0250831
969.272 .0250881
969.887 .0250939
970.503 .0250999
971.118 .0251070
971.733 .0251146
972.347 .0251227
972.961 .0251309
973.575 .0251388
974.188 .0251456
974.801 .0251510
975.414 .0251545
976.026 .0251565
976.638 .0251564
977.250 .0251553
977.861 .0251534
978.472 .0251514
979.083 .0251492
979.693 .0251476
980.303 .0251460
980.912 .0251448
981.521 .0251435
982.130 .0251421
982.738 .0251402
983.346 .0251386
983.954 .0251371
984.562 .0251362
985.169 .0251362
985.775 .0251370
986.382 .0251387
986.988 .0251411
987.594 .0251435
988.199 .0251458
988.804 .0251475
989.409 .0251486
990.013 .0251485
990.617 .0251480
991.221 .0251473
991.824 .0251472
992.427 .0251482
993.030 .0251503
993.632 .0251538
994.234 .0251589
994.836 .0251650
995.438 .0251721
996.039 .0251800
996.640 .0251882
997.240 .0251969
997.840 .0252059
998.440 .0252154
999.040 .0252255
999.639 .0252362
1000.238 .0252472
1000.836 .0252578
1001.435 .0252683
1002.033 .0252776
1002.630 .0252858
1003.228 .0252933
1003.825 .0252991
1004.422 .0253040
1005.018 .0253085
1005.614 .0253129
1006.210 .0253175
1006.806 .0253232
1007.401 .0253295
1007.996 .0253365
1008.591 .0253447
1009.186 .0253538
1009.780 .0253641
1010.374 .0253752
1010.967 .0253866
1011.561 .0253974
1012.154 .0254081
1012.746 .0254180
1013.339 .0254263
1013.931 .0254337
1014.523 .0254398
1015.115 .0254443
1015.706 .0254474
1016.298 .0254498
1016.888 .0254515
1017.479 .0254532
1018.069 .0254554
1018.660 .0254572
1019.250 .0254596
1019.839 .0254620
1020.429 .0254647
1021.018 .0254681
1021.607 .0254724
1022.195 .0254773
1022.784 .0254828
1023.372 .0254901
1023.960 .0254990
1024.547 .0255094
1025.135 .0255215
1025.722 .0255350
1026.309 .0255489
1026.896 .0255632
1027.483 .0255770
1028.069 .0255902
1028.655 .0256027
1029.241 .0256141
1029.827 .0256243
1030.412 .0256331
1030.997 .0256409
1031.582 .0256479
1032.167 .0256533
1032.752 .0256588
1033.336 .0256627
1033.921 .0256666
1034.505 .0256703
1035.089 .0256738
1035.672 .0256766
1036.256 .0256786
1036.839 .0256795
1037.422 .0256796
1038.005 .0256790
1038.588 .0256783
1039.171 .0256770
1039.753 .0256762
1040.335 .0256765
1040.918 .0256774
1041.500 .0256790
1042.081 .0256816
1042.663 .0256840
1043.244 .0256859
1043.826 .0256865
1044.407 .0256851
1044.988 .0256829
1045.569 .0256795
1046.150 .0256765
1046.730 .0256731
1047.311 .0256712
1047.891 .0256707
1048.471 .0256711
1049.052 .0256721
1049.632 .0256727
1050.211 .0256716
1050.791 .0256687
1051.371 .0256633
1051.950 .0256567
1052.530 .0256488
1053.109 .0256418
1053.688 .0256345
1054.268 .0256290
1054.847 .0256244
1055.426 .0256207
1056.005 .0256158
1056.583 .0256107
1057.162 .0256030
1057.741 .0255930
1058.319 .0255806
1058.898 .0255665
1059.476 .0255521
1060.055 .0255376
1060.633 .0255219
1061.211 .0255066
1061.790 .0254904
1062.368 .0254734
1062.946 .0254534
1063.524 .0254323
1064.102 .0254091
1064.680 .0253846
1065.258 .0253596
1065.836 .0253353
1066.414 .0253134
1066.992 .0252939
1067.570 .0252773
1068.148 .0252636
1068.726 .0252529
1069.304 .0252436
1069.882 .0252367
1070.460 .0252327
1071.038 .0252305
1071.616 .0252298
1072.194 .0252302
1072.772 .0252323
1073.350 .0252347
1073.928 .0252361
1074.506 .0252354
1075.084 .0252320
1075.662 .0252259
1076.240 .0252146
1076.819 .0251993
1077.397 .0251800
1077.976 .0251584
1078.554 .0251348
1079.133 .0251113
1079.711 .0250882
1080.290 .0250676
1080.869 .0250486
1081.448 .0250304
1082.027 .0250133
1082.606 .0249968
1083.185 .0249818
1083.764 .0249697
1084.343 .0249604
1084.923 .0249554
1085.502 .0249546
1086.082 .0249608
1086.662 .0249715
1087.242 .0249874
1087.822 .0250065
1088.402 .0250280
1088.983 .0250494
1089.563 .0250678
1090.144 .0250837
1090.725 .0250970
1091.306 .0251079
1091.887 .0251178
1092.469 .0251265
1093.050 .0251352
1093.632 .0251437
1094.214 .0251528
1094.796 .0251608
1095.379 .0251692
1095.961 .0251768
1096.544 .0251824
1097.127 .0251864
1097.710 .0251885
1098.294 .0251898
1098.877 .0251929
1099.461 .0251999
1100.046 .0252086
1100.630 .0252195
1101.215 .0252344
1101.800 .0252511
1102.385 .0252689
1102.970 .0252867
1103.556 .0253051
1104.142 .0253236
1104.728 .0253437
1105.315 .0253643
1105.902 .0253860
1106.489 .0254118
1107.077 .0254388
1107.664 .0254652
1108.253 .0254900
1108.841 .0255114
1109.430 .0255284
1110.019 .0255389
1110.609 .0255459
1111.198 .0255479
1111.789 .0255467
1112.379 .0255452
1112.970 .0255446
1113.561 .0255471
1114.153 .0255545
1114.745 .0255682
1115.338 .0255893
1115.931 .0256155
1116.524 .0256472
1117.117 .0256825
1117.712 .0257207
1118.306 .0257594
1118.901 .0257981
1119.496 .0258362
1120.092 .0258783
1120.689 .0259226
1121.285 .0259707
1121.882 .0260241
1122.480 .0260825
1123.078 .0261429
1123.677 .0262011
1124.276 .0262587
1124.875 .0263131
1125.476 .0263600
1126.076 .0264035
1126.677 .0264394
1127.279 .0264719
1127.881 .0265053
1128.484 .0265411
1129.087 .0265807
1129.691 .0266264
1130.295 .0266766
1130.900 .0267290
1131.505 .0267859
1132.111 .0268480
1132.718 .0269128
1133.325 .0269853
1133.933 .0270645
1134.541 .0271478
1135.150 .0272332
1135.760 .0273238
1136.370 .0274157
1136.981 .0275095
1137.592 .0276018
1138.204 .0276909
1138.817 .0277797
1139.431 .0278773
1140.045 .0279787
1140.660 .0280804
1141.275 .0281779
1141.891 .0282800
1142.508 .0285651
1143.126 .0286042
1143.744 .0285178
1144.363 .0284392
1144.983 .0287584
