Measurement Sequence started on: 15-12-46-377
Integration time: 28
Scans to Average: 2 
>>>>>Begin Spectral Data<<<<<
432.689 .0000100
433.621 .0000100
434.552 .0000100
435.482 .0000100
436.410 .0000100
437.337 .0000100
438.262 .0283386
439.187 .0599922
440.110 .0993108
441.031 .1435648
441.952 .1864608
442.871 .2201134
443.789 .2383251
444.705 .2390581
445.621 .2249713
446.535 .2017542
447.447 .1756232
448.359 .1358102
449.269 .1161961
450.178 .1039082
451.086 .0953412
451.993 .0888276
452.898 .0837019
453.803 .0795388
454.706 .0760612
455.608 .0730562
456.508 .0704419
457.408 .0681429
458.306 .0661116
459.204 .0642870
460.100 .0626475
460.995 .0611864
461.888 .0598755
462.781 .0586816
463.673 .0576023
464.563 .0565994
465.452 .0556513
466.340 .0547364
467.228 .0538679
468.114 .0530430
468.999 .0522821
469.882 .0515832
470.765 .0509585
471.647 .0504075
472.528 .0499291
473.407 .0495089
474.286 .0491404
475.163 .0488102
476.040 .0485079
476.915 .0482244
477.790 .0479629
478.663 .0477185
479.535 .0475015
480.407 .0473137
481.277 .0471571
482.147 .0470217
483.015 .0469045
483.883 .0467938
484.749 .0466890
485.615 .0465861
486.479 .0464940
487.343 .0464172
488.206 .0463610
489.067 .0463328
489.928 .0463403
490.788 .0463801
491.647 .0464556
492.505 .0465596
493.362 .0466905
494.218 .0468430
495.073 .0470116
495.928 .0471994
496.781 .0474070
497.634 .0476395
498.486 .0478986
499.337 .0481898
500.187 .0485103
501.036 .0488477
501.884 .0491967
502.731 .0495562
503.578 .0499238
504.424 .0502943
505.268 .0506702
506.113 .0510678
506.956 .0514993
507.798 .0519746
508.640 .0524985
509.480 .0530985
510.320 .0537808
511.160 .0545582
511.998 .0554296
512.836 .0563913
513.672 .0574520
514.508 .0586229
515.344 .0599145
516.178 .0613788
517.012 .0630368
517.845 .0649364
518.677 .0671104
519.508 .0695652
520.339 .0723319
521.169 .0754360
521.998 .0789203
522.826 .0828124
523.654 .0871499
524.481 .0919622
525.307 .0972929
526.133 .1031544
526.958 .1095245
527.782 .1162838
528.605 .1232748
529.428 .1303908
530.250 .1370897
531.072 .1431469
531.892 .1482067
532.712 .1520627
533.532 .1545473
534.350 .1554554
535.168 .1547585
535.986 .1524840
536.802 .1488279
537.618 .1439610
538.434 .1380453
539.249 .1315804
540.063 .1247117
540.876 .1177899
541.689 .1110133
542.501 .1046376
543.313 .0988163
544.124 .0935810
544.934 .0888958
545.744 .0846580
546.553 .0808218
547.361 .0773341
548.169 .0741744
548.976 .0712850
549.783 .0686483
550.589 .0662428
551.395 .0640314
552.200 .0620250
553.004 .0601848
553.808 .0584880
554.611 .0569362
555.414 .0555282
556.216 .0542450
557.018 .0530850
557.819 .0520537
558.619 .0511139
559.419 .0502597
560.218 .0494803
561.017 .0487621
561.815 .0480840
562.613 .0474443
563.410 .0468202
564.207 .0462183
565.003 .0456343
565.799 .0450617
566.594 .0444998
567.388 .0439648
568.182 .0434456
568.976 .0429342
569.769 .0424368
570.562 .0419545
571.354 .0414710
572.145 .0409999
572.936 .0405336
573.727 .0400682
574.517 .0396079
575.307 .0391529
576.096 .0387064
576.885 .0382778
577.673 .0378667
578.461 .0374755
579.248 .0371102
580.035 .0367724
580.821 .0364592
581.607 .0361658
582.392 .0358963
583.177 .0356452
583.962 .0354107
584.746 .0351928
585.529 .0349862
586.313 .0347940
587.095 .0346156
587.878 .0344503
588.660 .0342994
589.441 .0341608
590.222 .0340354
591.003 .0339213
591.783 .0338141
592.563 .0337128
593.342 .0336160
594.121 .0335212
594.899 .0334307
595.678 .0333429
596.455 .0332597
597.233 .0331821
598.009 .0331111
598.786 .0330475
599.562 .0329900
600.338 .0329389
601.113 .0328919
601.888 .0328484
602.663 .0328081
603.437 .0327690
604.211 .0327307
604.984 .0326937
605.757 .0326579
606.530 .0326220
607.302 .0325874
608.074 .0325542
608.845 .0325226
609.616 .0324926
610.387 .0324654
611.158 .0324415
611.928 .0324205
612.697 .0324024
613.467 .0323855
614.236 .0323692
615.004 .0323522
615.773 .0323331
616.541 .0323122
617.308 .0322902
618.076 .0322685
618.843 .0322467
619.609 .0322270
620.375 .0322082
621.141 .0321904
621.907 .0321737
622.672 .0321565
623.437 .0321372
624.202 .0321152
624.966 .0320907
625.730 .0320641
626.493 .0320363
627.257 .0320084
628.020 .0319816
628.782 .0319571
629.545 .0319338
630.307 .0319117
631.068 .0318906
631.830 .0318700
632.591 .0318487
633.352 .0318274
634.112 .0318053
634.872 .0317825
635.632 .0317593
636.392 .0317353
637.151 .0317103
637.910 .0316837
638.668 .0316548
639.427 .0316243
640.185 .0315921
640.943 .0315587
641.700 .0315249
642.457 .0314920
643.214 .0314596
643.971 .0314276
644.727 .0313963
645.483 .0313660
646.239 .0313363
646.994 .0313071
647.750 .0312782
648.505 .0312508
649.259 .0312251
650.014 .0312013
650.768 .0311799
651.521 .0311607
652.275 .0311424
653.028 .0311251
653.781 .0311072
654.534 .0310885
655.286 .0310683
656.039 .0310461
656.791 .0310217
657.542 .0309952
658.294 .0309669
659.045 .0309375
659.796 .0309075
660.546 .0308770
661.297 .0308452
662.047 .0308131
662.796 .0307796
663.546 .0307453
664.295 .0307102
665.044 .0306752
665.793 .0306401
666.542 .0306061
667.290 .0305733
668.038 .0305427
668.786 .0305150
669.533 .0304902
670.281 .0304687
671.028 .0304501
671.774 .0304338
672.521 .0304195
673.267 .0304067
674.013 .0303954
674.759 .0303843
675.505 .0303736
676.250 .0303620
676.995 .0303499
677.740 .0303367
678.484 .0303228
679.229 .0303081
679.973 .0302926
680.717 .0302758
681.460 .0302579
682.204 .0302390
682.947 .0302191
683.690 .0301983
684.433 .0301766
685.175 .0301542
685.917 .0301322
686.659 .0301103
687.401 .0300892
688.142 .0300696
688.884 .0300518
689.625 .0300347
690.365 .0300187
691.106 .0300031
691.846 .0299874
692.586 .0299718
693.326 .0299553
694.066 .0299381
694.805 .0299209
695.545 .0299032
696.284 .0298850
697.022 .0298664
697.761 .0298478
698.499 .0298278
699.237 .0298071
699.975 .0297851
700.713 .0297623
701.450 .0297390
702.187 .0297159
702.924 .0296931
703.661 .0296712
704.397 .0296502
705.133 .0296306
705.869 .0296127
706.605 .0295963
707.341 .0295805
708.076 .0295654
708.811 .0295511
709.546 .0295371
710.281 .0295232
711.015 .0295094
711.749 .0294953
712.483 .0294809
713.217 .0294656
713.950 .0294493
714.684 .0294326
715.417 .0294150
716.150 .0293971
716.882 .0293787
717.615 .0293603
718.347 .0293421
719.079 .0293243
719.811 .0293067
720.542 .0292895
721.273 .0292720
722.005 .0292538
722.735 .0292346
723.466 .0292150
724.196 .0291946
724.927 .0291733
725.656 .0291515
726.386 .0291300
727.116 .0291086
727.845 .0290883
728.574 .0290682
729.303 .0290494
730.031 .0290311
730.760 .0290133
731.488 .0289954
732.216 .0289777
732.944 .0289602
733.671 .0289433
734.398 .0289268
735.125 .0289112
735.852 .0288966
736.579 .0288834
737.305 .0288717
738.031 .0288622
738.757 .0288537
739.483 .0288460
740.208 .0288387
740.933 .0288315
741.658 .0288234
742.383 .0288146
743.108 .0288047
743.832 .0287937
744.556 .0287816
745.280 .0287688
746.004 .0287554
746.727 .0287422
747.450 .0287289
748.173 .0287153
748.896 .0287017
749.618 .0286880
750.340 .0286733
751.062 .0286584
751.784 .0286430
752.506 .0286272
753.227 .0286111
753.948 .0285947
754.669 .0285782
755.389 .0285619
756.110 .0285456
756.830 .0285292
757.550 .0285125
758.269 .0284959
758.989 .0284784
759.708 .0284606
760.427 .0284422
761.146 .0284228
761.864 .0284030
762.582 .0283824
763.300 .0283614
764.018 .0283408
764.736 .0283201
765.453 .0282999
766.170 .0282808
766.887 .0282624
767.603 .0282447
768.320 .0282284
769.036 .0282130
769.751 .0281983
770.467 .0281841
771.182 .0281705
771.897 .0281573
772.612 .0281448
773.327 .0281331
774.041 .0281219
774.755 .0281117
775.469 .0281022
776.183 .0280927
776.896 .0280831
777.609 .0280734
778.322 .0280633
779.035 .0280528
779.747 .0280421
780.459 .0280314
781.171 .0280212
781.882 .0280120
782.594 .0280037
783.305 .0279966
784.016 .0279909
784.726 .0279861
785.436 .0279819
786.147 .0279778
786.856 .0279737
787.566 .0279693
788.275 .0279647
788.984 .0279600
789.693 .0279552
790.401 .0279499
791.110 .0279444
791.818 .0279385
792.525 .0279317
793.233 .0279241
793.940 .0279155
794.647 .0279057
795.353 .0278954
796.060 .0278843
796.766 .0278730
797.472 .0278619
798.177 .0278516
798.883 .0278415
799.588 .0278319
800.292 .0278228
800.997 .0278141
801.701 .0278057
802.405 .0277981
803.109 .0277909
803.812 .0277846
804.515 .0277787
805.218 .0277730
805.921 .0277672
806.623 .0277613
807.325 .0277551
808.027 .0277481
808.728 .0277404
809.429 .0277318
810.130 .0277222
810.831 .0277123
811.531 .0277014
812.231 .0276899
812.931 .0276778
813.630 .0276649
814.330 .0276514
815.029 .0276376
815.727 .0276231
816.426 .0276086
817.124 .0275945
817.821 .0275804
818.519 .0275669
819.216 .0275545
819.913 .0275431
820.609 .0275330
821.306 .0275240
822.002 .0275162
822.697 .0275094
823.393 .0275045
824.088 .0275003
824.783 .0274972
825.477 .0274952
826.171 .0274936
826.865 .0274926
827.559 .0274926
828.252 .0274933
828.945 .0274946
829.638 .0274962
830.330 .0274983
831.023 .0274998
831.714 .0275011
832.406 .0275019
833.097 .0275017
833.788 .0275006
834.479 .0274984
835.169 .0274950
835.859 .0274911
836.548 .0274866
837.238 .0274820
837.927 .0274771
838.615 .0274722
839.304 .0274671
839.992 .0274619
840.680 .0274568
841.367 .0274517
842.054 .0274465
842.741 .0274411
843.428 .0274358
844.114 .0274301
844.800 .0274240
845.485 .0274175
846.170 .0274101
846.855 .0274020
847.540 .0273932
848.224 .0273835
848.908 .0273733
849.592 .0273626
850.275 .0273511
850.958 .0273388
851.641 .0273256
852.323 .0273114
853.005 .0272967
853.687 .0272810
854.368 .0272647
855.049 .0272482
855.730 .0272318
856.410 .0272156
857.090 .0271997
857.769 .0271848
858.449 .0271703
859.128 .0271563
859.806 .0271428
860.485 .0271296
861.163 .0271170
861.840 .0271048
862.518 .0270925
863.195 .0270801
863.871 .0270671
864.548 .0270536
865.224 .0270392
865.899 .0270246
866.574 .0270093
867.249 .0269935
867.924 .0269774
868.598 .0269613
869.272 .0269452
869.946 .0269296
870.619 .0269143
871.292 .0268993
871.964 .0268842
872.636 .0268688
873.308 .0268531
873.979 .0268375
874.651 .0268223
875.321 .0268076
875.992 .0267940
876.662 .0267818
877.331 .0267703
878.001 .0267596
878.670 .0267491
879.338 .0267386
880.007 .0267280
880.675 .0267169
881.342 .0267054
882.009 .0266936
882.676 .0266818
883.343 .0266700
884.009 .0266583
884.675 .0266468
885.340 .0266354
886.005 .0266238
886.670 .0266122
887.334 .0266001
887.998 .0265880
888.662 .0265762
889.325 .0265650
889.988 .0265546
890.650 .0265452
891.312 .0265368
891.974 .0265293
892.636 .0265225
893.297 .0265163
893.957 .0265108
894.618 .0265054
895.278 .0265000
895.937 .0264946
896.596 .0264892
897.255 .0264840
897.914 .0264788
898.572 .0264738
899.230 .0264688
899.887 .0264633
900.544 .0264568
901.201 .0264492
901.857 .0264403
902.513 .0264298
903.168 .0264172
903.823 .0264027
904.478 .0263860
905.132 .0263674
905.786 .0263475
906.440 .0263269
907.093 .0263061
907.746 .0262851
908.399 .0262641
909.051 .0262426
909.703 .0262210
910.354 .0261985
911.005 .0261754
911.656 .0261517
912.306 .0261274
912.956 .0261030
913.605 .0260791
914.254 .0260567
914.903 .0260360
915.551 .0260171
916.199 .0260003
916.847 .0259844
917.494 .0259696
918.141 .0259549
918.788 .0259404
919.434 .0259257
920.079 .0259113
920.725 .0258969
921.370 .0258831
922.014 .0258703
922.658 .0258583
923.302 .0258471
923.946 .0258359
924.589 .0258241
925.231 .0258107
925.873 .0257961
926.515 .0257797
927.157 .0257619
927.798 .0257436
928.439 .0257244
929.079 .0257049
929.719 .0256850
930.359 .0256648
930.998 .0256441
931.637 .0256227
932.275 .0256011
932.913 .0255788
933.551 .0255566
934.188 .0255351
934.825 .0255148
935.462 .0254964
936.098 .0254799
936.733 .0254653
937.369 .0254524
938.004 .0254411
938.638 .0254306
939.273 .0254213
939.907 .0254132
940.540 .0254065
941.173 .0254012
941.806 .0253975
942.438 .0253957
943.070 .0253958
943.702 .0253967
944.333 .0253978
944.964 .0253985
945.594 .0253984
946.224 .0253969
946.854 .0253946
947.483 .0253912
948.112 .0253878
948.741 .0253841
949.369 .0253805
949.996 .0253770
950.624 .0253733
951.251 .0253691
951.878 .0253642
952.504 .0253579
953.130 .0253501
953.755 .0253407
954.380 .0253315
955.005 .0253221
955.629 .0253136
956.253 .0253058
956.877 .0252996
957.500 .0252950
958.123 .0252915
958.746 .0252882
959.368 .0252847
959.990 .0252808
960.611 .0252756
961.232 .0252694
961.853 .0252626
962.473 .0252560
963.093 .0252498
963.712 .0252438
964.331 .0252384
964.950 .0252326
965.569 .0252270
966.187 .0252211
966.804 .0252151
967.422 .0252094
968.039 .0252036
968.655 .0251984
969.272 .0251941
969.887 .0251907
970.503 .0251884
971.118 .0251872
971.733 .0251874
972.347 .0251881
972.961 .0251898
973.575 .0251924
974.188 .0251958
974.801 .0251997
975.414 .0252037
976.026 .0252069
976.638 .0252086
977.250 .0252089
977.861 .0252070
978.472 .0252034
979.083 .0251988
979.693 .0251932
980.303 .0251872
980.912 .0251811
981.521 .0251751
982.130 .0251689
982.738 .0251626
983.346 .0251557
983.954 .0251478
984.562 .0251396
985.169 .0251302
985.775 .0251202
986.382 .0251105
986.988 .0251015
987.594 .0250931
988.199 .0250857
988.804 .0250794
989.409 .0250734
990.013 .0250685
990.617 .0250641
991.221 .0250600
991.824 .0250567
992.427 .0250540
993.030 .0250521
993.632 .0250509
994.234 .0250512
994.836 .0250523
995.438 .0250546
996.039 .0250582
996.640 .0250623
997.240 .0250667
997.840 .0250721
998.440 .0250778
999.040 .0250836
999.639 .0250895
1000.238 .0250949
1000.836 .0250998
1001.435 .0251033
1002.033 .0251054
1002.630 .0251061
1003.228 .0251056
1003.825 .0251048
1004.422 .0251033
1005.018 .0251024
1005.614 .0251021
1006.210 .0251028
1006.806 .0251046
1007.401 .0251076
1007.996 .0251110
1008.591 .0251144
1009.186 .0251182
1009.780 .0251220
1010.374 .0251248
1010.967 .0251277
1011.561 .0251309
1012.154 .0251348
1012.746 .0251389
1013.339 .0251435
1013.931 .0251477
1014.523 .0251517
1015.115 .0251541
1015.706 .0251550
1016.298 .0251545
1016.888 .0251533
1017.479 .0251515
1018.069 .0251497
1018.660 .0251490
1019.250 .0251497
1019.839 .0251518
1020.429 .0251555
1021.018 .0251602
1021.607 .0251658
1022.195 .0251707
1022.784 .0251759
1023.372 .0251815
1023.960 .0251877
1024.547 .0251950
1025.135 .0252036
1025.722 .0252143
1026.309 .0252263
1026.896 .0252396
1027.483 .0252537
1028.069 .0252682
1028.655 .0252824
1029.241 .0252950
1029.827 .0253064
1030.412 .0253169
1030.997 .0253262
1031.582 .0253355
1032.167 .0253451
1032.752 .0253554
1033.336 .0253656
1033.921 .0253758
1034.505 .0253858
1035.089 .0253956
1035.672 .0254045
1036.256 .0254125
1036.839 .0254187
1037.422 .0254235
1038.005 .0254270
1038.588 .0254294
1039.171 .0254314
1039.753 .0254332
1040.335 .0254342
1040.918 .0254350
1041.500 .0254345
1042.081 .0254330
1042.663 .0254300
1043.244 .0254258
1043.826 .0254206
1044.407 .0254141
1044.988 .0254073
1045.569 .0254002
1046.150 .0253935
1046.730 .0253874
1047.311 .0253817
1047.891 .0253761
1048.471 .0253701
1049.052 .0253633
1049.632 .0253557
1050.211 .0253484
1050.791 .0253419
1051.371 .0253371
1051.950 .0253346
1052.530 .0253346
1053.109 .0253367
1053.688 .0253393
1054.268 .0253424
1054.847 .0253443
1055.426 .0253456
1056.005 .0253458
1056.583 .0253454
1057.162 .0253453
1057.741 .0253457
1058.319 .0253476
1058.898 .0253508
1059.476 .0253544
1060.055 .0253577
1060.633 .0253589
1061.211 .0253575
1061.790 .0253532
1062.368 .0253467
1062.946 .0253378
1063.524 .0253283
1064.102 .0253189
1064.680 .0253096
1065.258 .0252996
1065.836 .0252895
1066.414 .0252798
1066.992 .0252699
1067.570 .0252605
1068.148 .0252519
1068.726 .0252452
1069.304 .0252425
1069.882 .0252430
1070.460 .0252463
1071.038 .0252521
1071.616 .0252591
1072.194 .0252649
1072.772 .0252696
1073.350 .0252734
1073.928 .0252754
1074.506 .0252773
1075.084 .0252801
1075.662 .0252837
1076.240 .0252877
1076.819 .0252925
1077.397 .0252969
1077.976 .0252995
1078.554 .0252990
1079.133 .0252949
1079.711 .0252880
1080.290 .0252799
1080.869 .0252713
1081.448 .0252640
1082.027 .0252600
1082.606 .0252611
1083.185 .0252663
1083.764 .0252748
1084.343 .0252851
1084.923 .0252959
1085.502 .0253053
1086.082 .0253113
1086.662 .0253152
1087.242 .0253176
1087.822 .0253196
1088.402 .0253231
1088.983 .0253274
1089.563 .0253336
1090.144 .0253422
1090.725 .0253520
1091.306 .0253616
1091.887 .0253704
1092.469 .0253791
1093.050 .0253861
1093.632 .0253944
1094.214 .0254048
1094.796 .0254179
1095.379 .0254337
1095.961 .0254535
1096.544 .0254758
1097.127 .0254998
1097.710 .0255258
1098.294 .0255530
1098.877 .0255816
1099.461 .0256112
1100.046 .0256411
1100.630 .0256713
1101.215 .0257015
1101.800 .0257311
1102.385 .0257568
1102.970 .0257805
1103.556 .0258006
1104.142 .0258152
1104.728 .0258243
1105.315 .0258299
1105.902 .0258323
1106.489 .0258316
1107.077 .0258322
1107.664 .0258334
1108.253 .0258373
1108.841 .0258441
1109.430 .0258529
1110.019 .0258631
1110.609 .0258747
1111.198 .0258864
1111.789 .0258968
1112.379 .0259058
1112.970 .0259138
1113.561 .0259197
1114.153 .0259299
1114.745 .0259442
1115.338 .0259635
1115.931 .0259891
1116.524 .0260232
1117.117 .0260612
1117.712 .0261037
1118.306 .0261473
1118.901 .0261930
1119.496 .0262380
1120.092 .0262801
1120.689 .0263168
1121.285 .0263511
1121.882 .0263830
1122.480 .0264147
1123.078 .0264469
1123.677 .0264833
1124.276 .0265222
1124.875 .0265678
1125.476 .0266178
1126.076 .0266715
1126.677 .0267273
1127.279 .0267826
1127.881 .0268353
1128.484 .0268836
1129.087 .0269221
1129.691 .0269519
1130.295 .0269785
1130.900 .0270062
1131.505 .0270320
1132.111 .0270626
1132.718 .0270998
1133.325 .0271460
1133.933 .0271992
1134.541 .0272605
1135.150 .0273309
1135.760 .0274105
1136.370 .0275006
1136.981 .0275974
1137.592 .0276985
1138.204 .0278101
1138.817 .0279382
1139.431 .0280795
1140.045 .0282462
1140.660 .0284337
1141.275 .0286415
1141.891 .0288626
1142.508 .0290265
1143.126 .0295584
1143.744 .0296874
1144.363 .0298579
1144.983 .0298921
