Measurement Sequence started on: 15-12-46-377
Integration time: 28
Scans to Average: 2 
>>>>>Begin Spectral Data<<<<<
432.689 .0000100
433.621 .0000100
434.552 .0000100
435.482 .0000100
436.410 .0000100
437.337 .0000100
438.262 .0277714
439.187 .0588049
440.110 .0973522
441.031 .1408431
441.952 .1830097
442.871 .2161065
443.789 .2341495
444.705 .2350726
445.621 .2214360
446.535 .1988052
447.447 .1732444
448.359 .1342275
449.269 .1149259
450.178 .1027573
451.086 .0941522
451.993 .0876076
452.898 .0824633
453.803 .0782337
454.706 .0747341
455.608 .0717554
456.508 .0691816
457.408 .0669393
458.306 .0649492
459.204 .0631640
460.100 .0615414
460.995 .0600707
461.888 .0587396
462.781 .0575300
463.673 .0564407
464.563 .0554532
465.452 .0545493
466.340 .0537056
467.228 .0529195
468.114 .0521799
468.999 .0514986
469.882 .0508680
470.765 .0502908
471.647 .0497711
472.528 .0493055
473.407 .0489059
474.286 .0485629
475.163 .0482670
476.040 .0480094
476.915 .0477774
477.790 .0475614
478.663 .0473561
479.535 .0471587
480.407 .0469769
481.277 .0468122
482.147 .0466656
483.015 .0465368
483.883 .0464390
484.749 .0463615
485.615 .0463008
486.479 .0462545
487.343 .0462266
488.206 .0462090
489.067 .0462028
489.928 .0462112
490.788 .0462419
491.647 .0462972
492.505 .0463821
493.362 .0464874
494.218 .0466276
495.073 .0467853
495.928 .0469658
496.781 .0471573
497.634 .0473721
498.486 .0476018
499.337 .0478546
500.187 .0481329
501.036 .0484436
501.884 .0487793
502.731 .0491351
503.578 .0495036
504.424 .0498936
505.268 .0502771
506.113 .0506669
506.956 .0510637
507.798 .0515021
508.640 .0519751
509.480 .0525229
510.320 .0531552
511.160 .0538950
511.998 .0547469
512.836 .0556955
513.672 .0567407
514.508 .0579055
515.344 .0591656
516.178 .0605351
517.012 .0620447
517.845 .0637662
518.677 .0657175
519.508 .0679745
520.339 .0705946
521.169 .0736076
521.998 .0770460
522.826 .0809629
523.654 .0853001
524.481 .0900963
525.307 .0953446
526.133 .1010054
526.958 .1070404
527.782 .1134186
528.605 .1199414
529.428 .1265440
530.250 .1328583
531.072 .1386369
531.892 .1434579
532.712 .1471542
533.532 .1494742
534.350 .1502287
535.168 .1493979
535.986 .1470357
536.802 .1432694
537.618 .1383822
538.434 .1325270
539.249 .1261429
540.063 .1194416
540.876 .1127656
541.689 .1062641
542.501 .1001511
543.313 .0945718
544.124 .0895505
544.934 .0850660
545.744 .0810684
546.553 .0774650
547.361 .0742128
548.169 .0712474
548.976 .0685374
549.783 .0660539
550.589 .0637948
551.395 .0617354
552.200 .0598805
553.004 .0581996
553.808 .0566825
554.611 .0553136
555.414 .0540819
556.216 .0529629
557.018 .0519493
557.819 .0510306
558.619 .0501914
559.419 .0494209
560.218 .0487095
561.017 .0480565
561.815 .0474542
562.613 .0468746
563.410 .0462993
564.207 .0457294
565.003 .0451589
565.799 .0445918
566.594 .0440305
567.388 .0434874
568.182 .0429627
568.976 .0424549
569.769 .0419580
570.562 .0414681
571.354 .0409834
572.145 .0405017
572.936 .0400139
573.727 .0395273
574.517 .0390439
575.307 .0385715
576.096 .0381202
576.885 .0376972
577.673 .0373012
578.461 .0369300
579.248 .0365818
580.035 .0362545
580.821 .0359428
581.607 .0356475
582.392 .0353674
583.177 .0351076
583.962 .0348716
584.746 .0346570
585.529 .0344640
586.313 .0342928
587.095 .0341407
587.878 .0340014
588.660 .0338705
589.441 .0337469
590.222 .0336272
591.003 .0335129
591.783 .0334020
592.563 .0332935
593.342 .0331907
594.121 .0330912
594.899 .0329959
595.678 .0329059
596.455 .0328212
597.233 .0327419
598.009 .0326682
598.786 .0326009
599.562 .0325391
600.338 .0324820
601.113 .0324316
601.888 .0323860
602.663 .0323449
603.437 .0323077
604.211 .0322717
604.984 .0322372
605.757 .0322040
606.530 .0321711
607.302 .0321389
608.074 .0321076
608.845 .0320773
609.616 .0320477
610.387 .0320188
611.158 .0319903
611.928 .0319614
612.697 .0319323
613.467 .0319031
614.236 .0318721
615.004 .0318399
615.773 .0318081
616.541 .0317777
617.308 .0317499
618.076 .0317261
618.843 .0317066
619.609 .0316916
620.375 .0316810
621.141 .0316735
621.907 .0316671
622.672 .0316616
623.437 .0316551
624.202 .0316466
624.966 .0316370
625.730 .0316263
626.493 .0316145
627.257 .0316027
628.020 .0315905
628.782 .0315772
629.545 .0315623
630.307 .0315455
631.068 .0315264
631.830 .0315052
632.591 .0314810
633.352 .0314537
634.112 .0314244
634.872 .0313934
635.632 .0313604
636.392 .0313270
637.151 .0312939
637.910 .0312607
638.668 .0312280
639.427 .0311962
640.185 .0311657
640.943 .0311374
641.700 .0311102
642.457 .0310841
643.214 .0310594
643.971 .0310346
644.727 .0310097
645.483 .0309849
646.239 .0309616
646.994 .0309394
647.750 .0309184
648.505 .0308986
649.259 .0308799
650.014 .0308620
650.768 .0308437
651.521 .0308244
652.275 .0308042
653.028 .0307818
653.781 .0307572
654.534 .0307310
655.286 .0307039
656.039 .0306759
656.791 .0306479
657.542 .0306189
658.294 .0305891
659.045 .0305577
659.796 .0305249
660.546 .0304909
661.297 .0304556
662.047 .0304198
662.796 .0303834
663.546 .0303476
664.295 .0303133
665.044 .0302800
665.793 .0302486
666.542 .0302190
667.290 .0301910
668.038 .0301638
668.786 .0301373
669.533 .0301116
670.281 .0300863
671.028 .0300623
671.774 .0300394
672.521 .0300176
673.267 .0299974
674.013 .0299786
674.759 .0299597
675.505 .0299410
676.250 .0299216
676.995 .0299009
677.740 .0298790
678.484 .0298557
679.229 .0298312
679.973 .0298063
680.717 .0297812
681.460 .0297563
682.204 .0297321
682.947 .0297097
683.690 .0296884
684.433 .0296687
685.175 .0296502
685.917 .0296325
686.659 .0296154
687.401 .0295987
688.142 .0295826
688.884 .0295674
689.625 .0295531
690.365 .0295399
691.106 .0295280
691.846 .0295175
692.586 .0295077
693.326 .0294984
694.066 .0294887
694.805 .0294778
695.545 .0294647
696.284 .0294487
697.022 .0294303
697.761 .0294098
698.499 .0293881
699.237 .0293656
699.975 .0293439
700.713 .0293230
701.450 .0293032
702.187 .0292848
702.924 .0292672
703.661 .0292501
704.397 .0292335
705.133 .0292172
705.869 .0292013
706.605 .0291867
707.341 .0291738
708.076 .0291631
708.811 .0291552
709.546 .0291492
710.281 .0291443
711.015 .0291405
711.749 .0291365
712.483 .0291316
713.217 .0291256
713.950 .0291188
714.684 .0291104
715.417 .0291009
716.150 .0290903
716.882 .0290788
717.615 .0290663
718.347 .0290529
719.079 .0290381
719.811 .0290226
720.542 .0290060
721.273 .0289884
722.005 .0289702
722.735 .0289522
723.466 .0289342
724.196 .0289166
724.927 .0288989
725.656 .0288816
726.386 .0288640
727.116 .0288465
727.845 .0288290
728.574 .0288124
729.303 .0287968
730.031 .0287827
730.760 .0287706
731.488 .0287604
732.216 .0287515
732.944 .0287442
733.671 .0287378
734.398 .0287319
735.125 .0287261
735.852 .0287202
736.579 .0287146
737.305 .0287098
738.031 .0287057
738.757 .0287020
739.483 .0286987
740.208 .0286958
740.933 .0286916
741.658 .0286861
742.383 .0286793
743.108 .0286705
743.832 .0286603
744.556 .0286488
745.280 .0286361
746.004 .0286222
746.727 .0286080
747.450 .0285930
748.173 .0285772
748.896 .0285608
749.618 .0285437
750.340 .0285257
751.062 .0285078
751.784 .0284899
752.506 .0284721
753.227 .0284546
753.948 .0284376
754.669 .0284199
755.389 .0284018
756.110 .0283823
756.830 .0283619
757.550 .0283402
758.269 .0283176
758.989 .0282938
759.708 .0282693
760.427 .0282446
761.146 .0282195
761.864 .0281943
762.582 .0281690
763.300 .0281434
764.018 .0281182
764.736 .0280929
765.453 .0280682
766.170 .0280442
766.887 .0280213
767.603 .0279993
768.320 .0279787
769.036 .0279593
769.751 .0279408
770.467 .0279236
771.182 .0279076
771.897 .0278926
772.612 .0278782
773.327 .0278645
774.041 .0278507
774.755 .0278370
775.469 .0278232
776.183 .0278089
776.896 .0277946
777.609 .0277804
778.322 .0277662
779.035 .0277522
779.747 .0277388
780.459 .0277260
781.171 .0277129
781.882 .0277002
782.594 .0276874
783.305 .0276739
784.016 .0276600
784.726 .0276460
785.436 .0276319
786.147 .0276184
786.856 .0276055
787.566 .0275929
788.275 .0275811
788.984 .0275699
789.693 .0275586
790.401 .0275470
791.110 .0275354
791.818 .0275233
792.525 .0275109
793.233 .0274990
793.940 .0274873
794.647 .0274763
795.353 .0274669
796.060 .0274587
796.766 .0274517
797.472 .0274457
798.177 .0274403
798.883 .0274352
799.588 .0274303
800.292 .0274252
800.997 .0274195
801.701 .0274131
802.405 .0274063
803.109 .0273987
803.812 .0273906
804.515 .0273817
805.218 .0273724
805.921 .0273628
806.623 .0273527
807.325 .0273425
808.027 .0273320
808.728 .0273212
809.429 .0273107
810.130 .0272996
810.831 .0272881
811.531 .0272758
812.231 .0272629
812.931 .0272493
813.630 .0272350
814.330 .0272204
815.029 .0272057
815.727 .0271917
816.426 .0271787
817.124 .0271667
817.821 .0271555
818.519 .0271454
819.216 .0271358
819.913 .0271268
820.609 .0271182
821.306 .0271094
822.002 .0271012
822.697 .0270936
823.393 .0270873
824.088 .0270827
824.783 .0270800
825.477 .0270793
826.171 .0270810
826.865 .0270846
827.559 .0270895
828.252 .0270959
828.945 .0271033
829.638 .0271111
830.330 .0271188
831.023 .0271262
831.714 .0271335
832.406 .0271408
833.097 .0271480
833.788 .0271550
834.479 .0271620
835.169 .0271688
835.859 .0271752
836.548 .0271816
837.238 .0271877
837.927 .0271930
838.615 .0271979
839.304 .0272022
839.992 .0272063
840.680 .0272097
841.367 .0272128
842.054 .0272155
842.741 .0272180
843.428 .0272198
844.114 .0272214
844.800 .0272229
845.485 .0272242
846.170 .0272253
846.855 .0272259
847.540 .0272258
848.224 .0272251
848.908 .0272234
849.592 .0272203
850.275 .0272161
850.958 .0272108
851.641 .0272043
852.323 .0271970
853.005 .0271897
853.687 .0271821
854.368 .0271744
855.049 .0271665
855.730 .0271584
856.410 .0271497
857.090 .0271412
857.769 .0271318
858.449 .0271220
859.128 .0271119
859.806 .0271011
860.485 .0270901
861.163 .0270792
861.840 .0270682
862.518 .0270571
863.195 .0270454
863.871 .0270334
864.548 .0270202
865.224 .0270063
865.899 .0269917
866.574 .0269765
867.249 .0269609
867.924 .0269447
868.598 .0269280
869.272 .0269115
869.946 .0268952
870.619 .0268789
871.292 .0268628
871.964 .0268473
872.636 .0268321
873.308 .0268172
873.979 .0268030
874.651 .0267897
875.321 .0267769
875.992 .0267653
876.662 .0267541
877.331 .0267433
878.001 .0267324
878.670 .0267210
879.338 .0267093
880.007 .0266971
880.675 .0266847
881.342 .0266722
882.009 .0266602
882.676 .0266490
883.343 .0266381
884.009 .0266276
884.675 .0266172
885.340 .0266060
886.005 .0265936
886.670 .0265801
887.334 .0265656
887.998 .0265504
888.662 .0265355
889.325 .0265213
889.988 .0265087
890.650 .0264974
891.312 .0264874
891.974 .0264784
892.636 .0264702
893.297 .0264624
893.957 .0264543
894.618 .0264459
895.278 .0264372
895.937 .0264282
896.596 .0264191
897.255 .0264097
897.914 .0264005
898.572 .0263907
899.230 .0263802
899.887 .0263686
900.544 .0263559
901.201 .0263417
901.857 .0263265
902.513 .0263099
903.168 .0262919
903.823 .0262725
904.478 .0262517
905.132 .0262299
905.786 .0262072
906.440 .0261835
907.093 .0261584
907.746 .0261326
908.399 .0261064
909.051 .0260794
909.703 .0260518
910.354 .0260241
911.005 .0259963
911.656 .0259684
912.306 .0259403
912.956 .0259125
913.605 .0258850
914.254 .0258582
914.903 .0258317
915.551 .0258056
916.199 .0257799
916.847 .0257548
917.494 .0257300
918.141 .0257064
918.788 .0256836
919.434 .0256619
920.079 .0256413
920.725 .0256222
921.370 .0256041
922.014 .0255870
922.658 .0255704
923.302 .0255539
923.946 .0255366
924.589 .0255184
925.231 .0254985
925.873 .0254775
926.515 .0254551
927.157 .0254320
927.798 .0254082
928.439 .0253837
929.079 .0253586
929.719 .0253329
930.359 .0253064
930.998 .0252788
931.637 .0252499
932.275 .0252207
932.913 .0251909
933.551 .0251614
934.188 .0251325
934.825 .0251049
935.462 .0250788
936.098 .0250545
936.733 .0250318
937.369 .0250110
938.004 .0249919
938.638 .0249745
939.273 .0249587
939.907 .0249449
940.540 .0249327
941.173 .0249226
941.806 .0249144
942.438 .0249081
943.070 .0249028
943.702 .0248985
944.333 .0248948
944.964 .0248913
945.594 .0248883
946.224 .0248851
946.854 .0248821
947.483 .0248791
948.112 .0248762
948.741 .0248733
949.369 .0248705
949.996 .0248678
950.624 .0248653
951.251 .0248629
951.878 .0248608
952.504 .0248587
953.130 .0248570
953.755 .0248556
954.380 .0248542
955.005 .0248525
955.629 .0248505
956.253 .0248478
956.877 .0248449
957.500 .0248417
958.123 .0248384
958.746 .0248351
959.368 .0248319
959.990 .0248286
960.611 .0248252
961.232 .0248219
961.853 .0248181
962.473 .0248139
963.093 .0248095
963.712 .0248046
964.331 .0247993
964.950 .0247939
965.569 .0247891
966.187 .0247851
966.804 .0247823
967.422 .0247812
968.039 .0247815
968.655 .0247833
969.272 .0247865
969.887 .0247903
970.503 .0247947
971.118 .0247993
971.733 .0248036
972.347 .0248072
972.961 .0248103
973.575 .0248128
974.188 .0248141
974.801 .0248148
975.414 .0248149
976.026 .0248140
976.638 .0248126
977.250 .0248106
977.861 .0248082
978.472 .0248058
979.083 .0248031
979.693 .0247995
980.303 .0247951
980.912 .0247896
981.521 .0247832
982.130 .0247759
982.738 .0247688
983.346 .0247619
983.954 .0247557
984.562 .0247510
985.169 .0247473
985.775 .0247446
986.382 .0247428
986.988 .0247419
987.594 .0247420
988.199 .0247428
988.804 .0247445
989.409 .0247475
990.013 .0247524
990.617 .0247589
991.221 .0247666
991.824 .0247754
992.427 .0247856
993.030 .0247966
993.632 .0248079
994.234 .0248200
994.836 .0248326
995.438 .0248463
996.039 .0248604
996.640 .0248748
997.240 .0248895
997.840 .0249040
998.440 .0249179
999.040 .0249309
999.639 .0249434
1000.238 .0249551
1000.836 .0249662
1001.435 .0249771
1002.033 .0249870
1002.630 .0249960
1003.228 .0250048
1003.825 .0250131
1004.422 .0250210
1005.018 .0250290
1005.614 .0250370
1006.210 .0250453
1006.806 .0250548
1007.401 .0250645
1007.996 .0250746
1008.591 .0250852
1009.186 .0250958
1009.780 .0251053
1010.374 .0251143
1010.967 .0251229
1011.561 .0251309
1012.154 .0251394
1012.746 .0251488
1013.339 .0251584
1013.931 .0251695
1014.523 .0251812
1015.115 .0251930
1015.706 .0252051
1016.298 .0252172
1016.888 .0252281
1017.479 .0252382
1018.069 .0252475
1018.660 .0252559
1019.250 .0252641
1019.839 .0252730
1020.429 .0252826
1021.018 .0252934
1021.607 .0253061
1022.195 .0253201
1022.784 .0253351
1023.372 .0253515
1023.960 .0253679
1024.547 .0253850
1025.135 .0254029
1025.722 .0254204
1026.309 .0254376
1026.896 .0254548
1027.483 .0254719
1028.069 .0254885
1028.655 .0255047
1029.241 .0255203
1029.827 .0255356
1030.412 .0255506
1030.997 .0255654
1031.582 .0255801
1032.167 .0255950
1032.752 .0256096
1033.336 .0256233
1033.921 .0256362
1034.505 .0256482
1035.089 .0256579
1035.672 .0256666
1036.256 .0256741
1036.839 .0256810
1037.422 .0256864
1038.005 .0256924
1038.588 .0256992
1039.171 .0257062
1039.753 .0257129
1040.335 .0257190
1040.918 .0257234
1041.500 .0257271
1042.081 .0257283
1042.663 .0257274
1043.244 .0257257
1043.826 .0257237
1044.407 .0257213
1044.988 .0257202
1045.569 .0257203
1046.150 .0257211
1046.730 .0257227
1047.311 .0257252
1047.891 .0257265
1048.471 .0257268
1049.052 .0257260
1049.632 .0257241
1050.211 .0257214
1050.791 .0257176
1051.371 .0257134
1051.950 .0257099
1052.530 .0257073
1053.109 .0257047
1053.688 .0257017
1054.268 .0256984
1054.847 .0256937
1055.426 .0256870
1056.005 .0256789
1056.583 .0256691
1057.162 .0256582
1057.741 .0256463
1058.319 .0256340
1058.898 .0256209
1059.476 .0256079
1060.055 .0255946
1060.633 .0255817
1061.211 .0255679
1061.790 .0255547
1062.368 .0255415
1062.946 .0255293
1063.524 .0255187
1064.102 .0255089
1064.680 .0255002
1065.258 .0254918
1065.836 .0254841
1066.414 .0254769
1066.992 .0254699
1067.570 .0254632
1068.148 .0254561
1068.726 .0254503
1069.304 .0254454
1069.882 .0254414
1070.460 .0254397
1071.038 .0254396
1071.616 .0254416
1072.194 .0254443
1072.772 .0254482
1073.350 .0254516
1073.928 .0254547
1074.506 .0254563
1075.084 .0254559
1075.662 .0254527
1076.240 .0254473
1076.819 .0254394
1077.397 .0254303
1077.976 .0254201
1078.554 .0254087
1079.133 .0253965
1079.711 .0253849
1080.290 .0253717
1080.869 .0253565
1081.448 .0253379
1082.027 .0253172
1082.606 .0252930
1083.185 .0252674
1083.764 .0252410
1084.343 .0252161
1084.923 .0251950
1085.502 .0251794
1086.082 .0251682
1086.662 .0251634
1087.242 .0251646
1087.822 .0251713
1088.402 .0251826
1088.983 .0251981
1089.563 .0252165
1090.144 .0252381
1090.725 .0252616
1091.306 .0252847
1091.887 .0253048
1092.469 .0253223
1093.050 .0253366
1093.632 .0253468
1094.214 .0253537
1094.796 .0253572
1095.379 .0253589
1095.961 .0253616
1096.544 .0253635
1097.127 .0253633
1097.710 .0253616
1098.294 .0253570
1098.877 .0253474
1099.461 .0253313
1100.046 .0253113
1100.630 .0252901
1101.215 .0252715
1101.800 .0252581
1102.385 .0252506
1102.970 .0252526
1103.556 .0252646
1104.142 .0252839
1104.728 .0253087
1105.315 .0253361
1105.902 .0253612
1106.489 .0253830
1107.077 .0254014
1107.664 .0254150
1108.253 .0254258
1108.841 .0254376
1109.430 .0254497
1110.019 .0254627
1110.609 .0254773
1111.198 .0254936
1111.789 .0255098
1112.379 .0255273
1112.970 .0255408
1113.561 .0255496
1114.153 .0255583
1114.745 .0255678
1115.338 .0255779
1115.931 .0255912
1116.524 .0256107
1117.117 .0256358
1117.712 .0256688
1118.306 .0257101
1118.901 .0257563
1119.496 .0258115
1120.092 .0258711
1120.689 .0259321
1121.285 .0259922
1121.882 .0260505
1122.480 .0261055
1123.078 .0261548
1123.677 .0262025
1124.276 .0262458
1124.875 .0262882
1125.476 .0263346
1126.076 .0263867
1126.677 .0264436
1127.279 .0265023
1127.881 .0265638
1128.484 .0266243
1129.087 .0266788
1129.691 .0267266
1130.295 .0267683
1130.900 .0268065
1131.505 .0268415
1132.111 .0268787
1132.718 .0269175
1133.325 .0269646
1133.933 .0270170
1134.541 .0270734
1135.150 .0271333
1135.760 .0271973
1136.370 .0272662
1136.981 .0273418
1137.592 .0274280
1138.204 .0275228
1138.817 .0276277
1139.431 .0277449
1140.045 .0278778
1140.660 .0280264
1141.275 .0282014
1141.891 .0284073
1142.508 .0284286
1143.126 .0287632
1143.744 .0290040
1144.363 .0295720
1144.983 .0299952
