Measurement Sequence started on: 15-12-46-377
Integration time: 28
Scans to Average: 2 
>>>>>Begin Spectral Data<<<<<
432.689 .0000100
433.621 .0000100
434.552 .0000100
435.482 .0000100
436.410 .0000100
437.337 .0000100
438.262 .0272981
439.187 .0578284
440.110 .0957716
441.031 .1386172
441.952 .1802328
442.871 .2130236
443.789 .2310577
444.705 .2323287
445.621 .2193022
446.535 .1973787
447.447 .1724914
448.359 .1342572
449.269 .1152821
450.178 .1032244
451.086 .0945825
451.993 .0879172
452.898 .0826035
453.803 .0782395
454.706 .0746058
455.608 .0715447
456.508 .0689466
457.408 .0667076
458.306 .0647363
459.204 .0629629
460.100 .0613534
460.995 .0599026
461.888 .0585736
462.781 .0573647
463.673 .0562652
464.563 .0552774
465.452 .0543832
466.340 .0535819
467.228 .0528548
468.114 .0521913
468.999 .0515880
469.882 .0510155
470.765 .0504769
471.647 .0499826
472.528 .0495276
473.407 .0491285
474.286 .0487860
475.163 .0484984
476.040 .0482498
476.915 .0480470
477.790 .0478679
478.663 .0477006
479.535 .0475461
480.407 .0474077
481.277 .0472790
482.147 .0471652
483.015 .0470687
483.883 .0469874
484.749 .0469320
485.615 .0468983
486.479 .0468703
487.343 .0468596
488.206 .0468598
489.067 .0468676
489.928 .0468770
490.788 .0469043
491.647 .0469471
492.505 .0470148
493.362 .0471117
494.218 .0472306
495.073 .0473653
495.928 .0475270
496.781 .0477002
497.634 .0478943
498.486 .0481108
499.337 .0483494
500.187 .0486074
501.036 .0488962
501.884 .0492029
502.731 .0495344
503.578 .0498861
504.424 .0502649
505.268 .0506511
506.113 .0510589
506.956 .0514767
507.798 .0519288
508.640 .0524252
509.480 .0529891
510.320 .0536236
511.160 .0543556
511.998 .0551834
512.836 .0561110
513.672 .0571511
514.508 .0582995
515.344 .0595474
516.178 .0609268
517.012 .0624442
517.845 .0641528
518.677 .0660887
519.508 .0682939
520.339 .0708142
521.169 .0737293
521.998 .0770507
522.826 .0808120
523.654 .0850294
524.481 .0897297
525.307 .0949483
526.133 .1006719
526.958 .1068960
527.782 .1135403
528.605 .1205489
529.428 .1278023
530.250 .1348149
531.072 .1413510
531.892 .1470076
532.712 .1514548
533.532 .1544229
534.350 .1556625
535.168 .1550680
535.986 .1527043
536.802 .1487782
537.618 .1434982
538.434 .1371352
539.249 .1301996
540.063 .1229050
540.876 .1155592
541.689 .1084117
542.501 .1016507
543.313 .0954457
544.124 .0898808
544.934 .0848928
545.744 .0804393
546.553 .0764970
547.361 .0730360
548.169 .0699965
548.976 .0673227
549.783 .0649569
550.589 .0628393
551.395 .0609141
552.200 .0591473
553.004 .0575131
553.808 .0559952
554.611 .0545892
555.414 .0532856
556.216 .0520809
557.018 .0509833
557.819 .0499978
558.619 .0491171
559.419 .0483198
560.218 .0475928
561.017 .0469240
561.815 .0462937
562.613 .0456864
563.410 .0450927
564.207 .0445160
565.003 .0439597
565.799 .0434189
566.594 .0428860
567.388 .0423824
568.182 .0419094
568.976 .0414580
569.769 .0410274
570.562 .0406145
571.354 .0402084
572.145 .0398050
572.936 .0393992
573.727 .0389908
574.517 .0385835
575.307 .0381827
576.096 .0377914
576.885 .0374177
577.673 .0370680
578.461 .0367416
579.248 .0364372
580.035 .0361584
580.821 .0358925
581.607 .0356388
582.392 .0353971
583.177 .0351643
583.962 .0349449
584.746 .0347409
585.529 .0345539
586.313 .0343856
587.095 .0342357
587.878 .0341032
588.660 .0339831
589.441 .0338762
590.222 .0337773
591.003 .0336862
591.783 .0336010
592.563 .0335208
593.342 .0334456
594.121 .0333747
594.899 .0333088
595.678 .0332459
596.455 .0331860
597.233 .0331284
598.009 .0330711
598.786 .0330144
599.562 .0329578
600.338 .0329025
601.113 .0328486
601.888 .0327966
602.663 .0327468
603.437 .0327000
604.211 .0326556
604.984 .0326134
605.757 .0325735
606.530 .0325346
607.302 .0324967
608.074 .0324602
608.845 .0324253
609.616 .0323921
610.387 .0323609
611.158 .0323320
611.928 .0323045
612.697 .0322798
613.467 .0322569
614.236 .0322353
615.004 .0322152
615.773 .0321956
616.541 .0321764
617.308 .0321577
618.076 .0321393
618.843 .0321211
619.609 .0321038
620.375 .0320868
621.141 .0320697
621.907 .0320522
622.672 .0320344
623.437 .0320156
624.202 .0319959
624.966 .0319749
625.730 .0319522
626.493 .0319278
627.257 .0319020
628.020 .0318746
628.782 .0318467
629.545 .0318174
630.307 .0317875
631.068 .0317574
631.830 .0317279
632.591 .0316994
633.352 .0316722
634.112 .0316459
634.872 .0316204
635.632 .0315955
636.392 .0315708
637.151 .0315458
637.910 .0315210
638.668 .0314962
639.427 .0314713
640.185 .0314468
640.943 .0314225
641.700 .0313991
642.457 .0313764
643.214 .0313537
643.971 .0313304
644.727 .0313057
645.483 .0312793
646.239 .0312516
646.994 .0312232
647.750 .0311945
648.505 .0311657
649.259 .0311378
650.014 .0311107
650.768 .0310844
651.521 .0310588
652.275 .0310334
653.028 .0310085
653.781 .0309837
654.534 .0309580
655.286 .0309314
656.039 .0309046
656.791 .0308776
657.542 .0308501
658.294 .0308233
659.045 .0307973
659.796 .0307721
660.546 .0307484
661.297 .0307262
662.047 .0307047
662.796 .0306846
663.546 .0306656
664.295 .0306468
665.044 .0306286
665.793 .0306110
666.542 .0305942
667.290 .0305785
668.038 .0305643
668.786 .0305514
669.533 .0305400
670.281 .0305308
671.028 .0305223
671.774 .0305145
672.521 .0305075
673.267 .0305010
674.013 .0304943
674.759 .0304869
675.505 .0304790
676.250 .0304700
676.995 .0304603
677.740 .0304506
678.484 .0304398
679.229 .0304289
679.973 .0304181
680.717 .0304069
681.460 .0303951
682.204 .0303832
682.947 .0303707
683.690 .0303577
684.433 .0303445
685.175 .0303301
685.917 .0303149
686.659 .0302997
687.401 .0302848
688.142 .0302695
688.884 .0302542
689.625 .0302387
690.365 .0302223
691.106 .0302059
691.846 .0301887
692.586 .0301700
693.326 .0301510
694.066 .0301315
694.805 .0301112
695.545 .0300899
696.284 .0300687
697.022 .0300473
697.761 .0300258
698.499 .0300042
699.237 .0299822
699.975 .0299596
700.713 .0299373
701.450 .0299147
702.187 .0298914
702.924 .0298680
703.661 .0298444
704.397 .0298200
705.133 .0297956
705.869 .0297708
706.605 .0297461
707.341 .0297212
708.076 .0296966
708.811 .0296708
709.546 .0296438
710.281 .0296165
711.015 .0295879
711.749 .0295579
712.483 .0295277
713.217 .0294970
713.950 .0294665
714.684 .0294366
715.417 .0294078
716.150 .0293796
716.882 .0293531
717.615 .0293274
718.347 .0293025
719.079 .0292792
719.811 .0292569
720.542 .0292359
721.273 .0292168
722.005 .0291992
722.735 .0291824
723.466 .0291666
724.196 .0291515
724.927 .0291360
725.656 .0291201
726.386 .0291037
727.116 .0290874
727.845 .0290713
728.574 .0290553
729.303 .0290399
730.031 .0290253
730.760 .0290112
731.488 .0289969
732.216 .0289828
732.944 .0289686
733.671 .0289545
734.398 .0289403
735.125 .0289265
735.852 .0289143
736.579 .0289035
737.305 .0288941
738.031 .0288865
738.757 .0288807
739.483 .0288753
740.208 .0288699
740.933 .0288647
741.658 .0288592
742.383 .0288536
743.108 .0288478
743.832 .0288421
744.556 .0288372
745.280 .0288325
746.004 .0288279
746.727 .0288236
747.450 .0288197
748.173 .0288148
748.896 .0288096
749.618 .0288043
750.340 .0287989
751.062 .0287939
751.784 .0287899
752.506 .0287872
753.227 .0287859
753.948 .0287857
754.669 .0287863
755.389 .0287876
756.110 .0287892
756.830 .0287901
757.550 .0287904
758.269 .0287901
758.989 .0287890
759.708 .0287864
760.427 .0287831
761.146 .0287789
761.864 .0287741
762.582 .0287687
763.300 .0287627
764.018 .0287567
764.736 .0287503
765.453 .0287433
766.170 .0287355
766.887 .0287267
767.603 .0287171
768.320 .0287060
769.036 .0286939
769.751 .0286811
770.467 .0286679
771.182 .0286551
771.897 .0286428
772.612 .0286312
773.327 .0286200
774.041 .0286089
774.755 .0285974
775.469 .0285850
776.183 .0285710
776.896 .0285554
777.609 .0285384
778.322 .0285199
779.035 .0285008
779.747 .0284815
780.459 .0284628
781.171 .0284446
781.882 .0284272
782.594 .0284103
783.305 .0283939
784.016 .0283777
784.726 .0283617
785.436 .0283451
786.147 .0283285
786.856 .0283112
787.566 .0282939
788.275 .0282762
788.984 .0282582
789.693 .0282398
790.401 .0282208
791.110 .0282008
791.818 .0281795
792.525 .0281564
793.233 .0281319
793.940 .0281056
794.647 .0280779
795.353 .0280489
796.060 .0280192
796.766 .0279890
797.472 .0279591
798.177 .0279295
798.883 .0279009
799.588 .0278730
800.292 .0278466
800.997 .0278214
801.701 .0277975
802.405 .0277752
803.109 .0277546
803.812 .0277357
804.515 .0277181
805.218 .0277011
805.921 .0276850
806.623 .0276692
807.325 .0276534
808.027 .0276376
808.728 .0276214
809.429 .0276045
810.130 .0275869
810.831 .0275692
811.531 .0275508
812.231 .0275319
812.931 .0275124
813.630 .0274925
814.330 .0274722
815.029 .0274520
815.727 .0274319
816.426 .0274126
817.124 .0273947
817.821 .0273778
818.519 .0273624
819.216 .0273491
819.913 .0273371
820.609 .0273269
821.306 .0273182
822.002 .0273113
822.697 .0273053
823.393 .0273012
824.088 .0272986
824.783 .0272975
825.477 .0272975
826.171 .0272980
826.865 .0272990
827.559 .0273005
828.252 .0273017
828.945 .0273027
829.638 .0273028
830.330 .0273028
831.023 .0273015
831.714 .0272995
832.406 .0272962
833.097 .0272923
833.788 .0272874
834.479 .0272817
835.169 .0272753
835.859 .0272691
836.548 .0272632
837.238 .0272582
837.927 .0272546
838.615 .0272521
839.304 .0272508
839.992 .0272511
840.680 .0272524
841.367 .0272554
842.054 .0272591
842.741 .0272641
843.428 .0272705
844.114 .0272782
844.800 .0272873
845.485 .0272973
846.170 .0273088
846.855 .0273206
847.540 .0273320
848.224 .0273427
848.908 .0273524
849.592 .0273609
850.275 .0273682
850.958 .0273737
851.641 .0273780
852.323 .0273815
853.005 .0273841
853.687 .0273860
854.368 .0273873
855.049 .0273879
855.730 .0273879
856.410 .0273867
857.090 .0273851
857.769 .0273828
858.449 .0273804
859.128 .0273776
859.806 .0273745
860.485 .0273712
861.163 .0273678
861.840 .0273643
862.518 .0273607
863.195 .0273566
863.871 .0273520
864.548 .0273473
865.224 .0273424
865.899 .0273374
866.574 .0273327
867.249 .0273282
867.924 .0273237
868.598 .0273187
869.272 .0273131
869.946 .0273069
870.619 .0273000
871.292 .0272925
871.964 .0272841
872.636 .0272747
873.308 .0272642
873.979 .0272524
874.651 .0272395
875.321 .0272251
875.992 .0272094
876.662 .0271923
877.331 .0271742
878.001 .0271550
878.670 .0271351
879.338 .0271147
880.007 .0270938
880.675 .0270725
881.342 .0270507
882.009 .0270287
882.676 .0270065
883.343 .0269840
884.009 .0269616
884.675 .0269390
885.340 .0269160
886.005 .0268927
886.670 .0268691
887.334 .0268451
887.998 .0268207
888.662 .0267961
889.325 .0267710
889.988 .0267460
890.650 .0267209
891.312 .0266956
891.974 .0266701
892.636 .0266439
893.297 .0266168
893.957 .0265889
894.618 .0265605
895.278 .0265317
895.937 .0265033
896.596 .0264759
897.255 .0264494
897.914 .0264237
898.572 .0263988
899.230 .0263744
899.887 .0263502
900.544 .0263260
901.201 .0263013
901.857 .0262765
902.513 .0262514
903.168 .0262263
903.823 .0262012
904.478 .0261760
905.132 .0261502
905.786 .0261236
906.440 .0260961
907.093 .0260676
907.746 .0260385
908.399 .0260093
909.051 .0259803
909.703 .0259515
910.354 .0259231
911.005 .0258954
911.656 .0258681
912.306 .0258412
912.956 .0258146
913.605 .0257883
914.254 .0257622
914.903 .0257370
915.551 .0257133
916.199 .0256914
916.847 .0256715
917.494 .0256534
918.141 .0256368
918.788 .0256212
919.434 .0256062
920.079 .0255914
920.725 .0255767
921.370 .0255622
922.014 .0255472
922.658 .0255321
923.302 .0255172
923.946 .0255024
924.589 .0254872
925.231 .0254719
925.873 .0254563
926.515 .0254400
927.157 .0254234
927.798 .0254064
928.439 .0253896
929.079 .0253733
929.719 .0253573
930.359 .0253419
930.998 .0253273
931.637 .0253137
932.275 .0253006
932.913 .0252880
933.551 .0252762
934.188 .0252646
934.825 .0252537
935.462 .0252438
936.098 .0252348
936.733 .0252272
937.369 .0252210
938.004 .0252156
938.638 .0252110
939.273 .0252069
939.907 .0252031
940.540 .0251997
941.173 .0251969
941.806 .0251946
942.438 .0251932
943.070 .0251926
943.702 .0251931
944.333 .0251941
944.964 .0251954
945.594 .0251967
946.224 .0251976
946.854 .0251988
947.483 .0251999
948.112 .0252014
948.741 .0252031
949.369 .0252055
949.996 .0252086
950.624 .0252120
951.251 .0252161
951.878 .0252209
952.504 .0252260
953.130 .0252313
953.755 .0252375
954.380 .0252443
955.005 .0252520
955.629 .0252612
956.253 .0252707
956.877 .0252809
957.500 .0252911
958.123 .0253010
958.746 .0253105
959.368 .0253199
959.990 .0253290
960.611 .0253378
961.232 .0253473
961.853 .0253574
962.473 .0253679
963.093 .0253793
963.712 .0253912
964.331 .0254031
964.950 .0254145
965.569 .0254254
966.187 .0254357
966.804 .0254463
967.422 .0254575
968.039 .0254698
968.655 .0254833
969.272 .0254980
969.887 .0255136
970.503 .0255296
971.118 .0255453
971.733 .0255601
972.347 .0255737
972.961 .0255864
973.575 .0255976
974.188 .0256080
974.801 .0256177
975.414 .0256271
976.026 .0256360
976.638 .0256441
977.250 .0256512
977.861 .0256573
978.472 .0256621
979.083 .0256652
979.693 .0256670
980.303 .0256676
980.912 .0256672
981.521 .0256660
982.130 .0256648
982.738 .0256629
983.346 .0256604
983.954 .0256572
984.562 .0256533
985.169 .0256484
985.775 .0256428
986.382 .0256364
986.988 .0256302
987.594 .0256242
988.199 .0256189
988.804 .0256150
989.409 .0256130
990.013 .0256123
990.617 .0256133
991.221 .0256148
991.824 .0256166
992.427 .0256182
993.030 .0256192
993.632 .0256196
994.234 .0256196
994.836 .0256189
995.438 .0256174
996.039 .0256157
996.640 .0256137
997.240 .0256116
997.840 .0256100
998.440 .0256084
999.040 .0256061
999.639 .0256032
1000.238 .0255995
1000.836 .0255945
1001.435 .0255889
1002.033 .0255829
1002.630 .0255755
1003.228 .0255676
1003.825 .0255589
1004.422 .0255495
1005.018 .0255400
1005.614 .0255309
1006.210 .0255213
1006.806 .0255113
1007.401 .0255013
1007.996 .0254903
1008.591 .0254781
1009.186 .0254650
1009.780 .0254501
1010.374 .0254333
1010.967 .0254139
1011.561 .0253927
1012.154 .0253694
1012.746 .0253454
1013.339 .0253215
1013.931 .0252977
1014.523 .0252753
1015.115 .0252537
1015.706 .0252329
1016.298 .0252133
1016.888 .0251946
1017.479 .0251762
1018.069 .0251574
1018.660 .0251387
1019.250 .0251200
1019.839 .0251011
1020.429 .0250830
1021.018 .0250661
1021.607 .0250505
1022.195 .0250365
1022.784 .0250232
1023.372 .0250102
1023.960 .0249976
1024.547 .0249843
1025.135 .0249703
1025.722 .0249554
1026.309 .0249389
1026.896 .0249216
1027.483 .0249036
1028.069 .0248858
1028.655 .0248678
1029.241 .0248503
1029.827 .0248329
1030.412 .0248158
1030.997 .0247986
1031.582 .0247808
1032.167 .0247630
1032.752 .0247464
1033.336 .0247299
1033.921 .0247145
1034.505 .0247001
1035.089 .0246867
1035.672 .0246738
1036.256 .0246614
1036.839 .0246481
1037.422 .0246340
1038.005 .0246192
1038.588 .0246041
1039.171 .0245885
1039.753 .0245742
1040.335 .0245604
1040.918 .0245477
1041.500 .0245361
1042.081 .0245245
1042.663 .0245124
1043.244 .0245003
1043.826 .0244873
1044.407 .0244736
1044.988 .0244592
1045.569 .0244459
1046.150 .0244325
1046.730 .0244208
1047.311 .0244096
1047.891 .0243991
1048.471 .0243889
1049.052 .0243790
1049.632 .0243686
1050.211 .0243593
1050.791 .0243503
1051.371 .0243422
1051.950 .0243352
1052.530 .0243295
1053.109 .0243244
1053.688 .0243199
1054.268 .0243149
1054.847 .0243100
1055.426 .0243033
1056.005 .0242963
1056.583 .0242888
1057.162 .0242815
1057.741 .0242742
1058.319 .0242678
1058.898 .0242627
1059.476 .0242584
1060.055 .0242543
1060.633 .0242516
1061.211 .0242491
1061.790 .0242469
1062.368 .0242434
1062.946 .0242397
1063.524 .0242363
1064.102 .0242347
1064.680 .0242337
1065.258 .0242352
1065.836 .0242395
1066.414 .0242460
1066.992 .0242542
1067.570 .0242642
1068.148 .0242737
1068.726 .0242814
1069.304 .0242859
1069.882 .0242870
1070.460 .0242833
1071.038 .0242767
1071.616 .0242681
1072.194 .0242603
1072.772 .0242528
1073.350 .0242464
1073.928 .0242407
1074.506 .0242375
1075.084 .0242354
1075.662 .0242346
1076.240 .0242343
1076.819 .0242351
1077.397 .0242353
1077.976 .0242361
1078.554 .0242376
1079.133 .0242415
1079.711 .0242470
1080.290 .0242555
1080.869 .0242668
1081.448 .0242799
1082.027 .0242944
1082.606 .0243117
1083.185 .0243303
1083.764 .0243511
1084.343 .0243714
1084.923 .0243914
1085.502 .0244093
1086.082 .0244261
1086.662 .0244412
1087.242 .0244557
1087.822 .0244709
1088.402 .0244880
1088.983 .0245069
1089.563 .0245285
1090.144 .0245515
1090.725 .0245769
1091.306 .0246038
1091.887 .0246325
1092.469 .0246613
1093.050 .0246909
1093.632 .0247193
1094.214 .0247484
1094.796 .0247772
1095.379 .0248067
1095.961 .0248370
1096.544 .0248686
1097.127 .0248994
1097.710 .0249304
1098.294 .0249605
1098.877 .0249915
1099.461 .0250217
1100.046 .0250516
1100.630 .0250772
1101.215 .0250998
1101.800 .0251199
1102.385 .0251374
1102.970 .0251538
1103.556 .0251730
1104.142 .0251938
1104.728 .0252198
1105.315 .0252474
1105.902 .0252786
1106.489 .0253121
1107.077 .0253491
1107.664 .0253869
1108.253 .0254259
1108.841 .0254656
1109.430 .0255088
1110.019 .0255561
1110.609 .0256094
1111.198 .0256667
1111.789 .0257279
1112.379 .0257891
1112.970 .0258476
1113.561 .0259024
1114.153 .0259532
1114.745 .0259984
1115.338 .0260418
1115.931 .0260814
1116.524 .0261216
1117.117 .0261646
1117.712 .0262105
1118.306 .0262598
1118.901 .0263127
1119.496 .0263671
1120.092 .0264211
1120.689 .0264769
1121.285 .0265345
1121.882 .0265939
1122.480 .0266568
1123.078 .0267264
1123.677 .0267991
1124.276 .0268782
1124.875 .0269626
1125.476 .0270516
1126.076 .0271438
1126.677 .0272343
1127.279 .0273203
1127.881 .0274024
1128.484 .0274809
1129.087 .0275555
1129.691 .0276225
1130.295 .0276904
1130.900 .0277574
1131.505 .0278275
1132.111 .0278994
1132.718 .0279764
1133.325 .0280554
1133.933 .0281399
1134.541 .0282272
1135.150 .0283161
1135.760 .0284118
1136.370 .0285191
1136.981 .0286390
1137.592 .0287699
1138.204 .0289136
1138.817 .0290779
1139.431 .0292579
1140.045 .0294551
1140.660 .0296774
1141.275 .0299223
1141.891 .0301843
1142.508 .0303719
1143.126 .0305891
1143.744 .0312347
1144.363 .0315180
1144.983 .0316246
