Measurement Sequence started on: 15-12-46-377
Integration time: 28
Scans to Average: 2 
>>>>>Begin Spectral Data<<<<<
432.689 .0000100
433.621 .0000100
434.552 .0000100
435.482 .0000100
436.410 .0000100
437.337 .0000100
438.262 .0269872
439.187 .0572870
440.110 .0948843
441.031 .1372834
441.952 .1784592
442.871 .2108413
443.789 .2285497
444.705 .2295849
445.621 .2164621
446.535 .1945699
447.447 .1698212
448.359 .1319895
449.269 .1132349
450.178 .1015111
451.086 .0932503
451.993 .0869162
452.898 .0819161
453.803 .0778039
454.706 .0743635
455.608 .0713990
456.508 .0688388
457.408 .0666049
458.306 .0646226
459.204 .0628563
460.100 .0612579
460.995 .0598290
461.888 .0585520
462.781 .0573914
463.673 .0563438
464.563 .0553833
465.452 .0544893
466.340 .0536430
467.228 .0528506
468.114 .0521050
468.999 .0514145
469.882 .0507768
470.765 .0501996
471.647 .0496750
472.528 .0491992
473.407 .0487748
474.286 .0483922
475.163 .0480394
476.040 .0477245
476.915 .0474325
477.790 .0471687
478.663 .0469250
479.535 .0467041
480.407 .0465030
481.277 .0463213
482.147 .0461550
483.015 .0459999
483.883 .0458560
484.749 .0457260
485.615 .0456102
486.479 .0455157
487.343 .0454483
488.206 .0454071
489.067 .0453895
489.928 .0453944
490.788 .0454140
491.647 .0454505
492.505 .0455029
493.362 .0455798
494.218 .0456777
495.073 .0457991
495.928 .0459522
496.781 .0461385
497.634 .0463583
498.486 .0466107
499.337 .0468911
500.187 .0471966
501.036 .0475229
501.884 .0478652
502.731 .0482195
503.578 .0485971
504.424 .0489987
505.268 .0494152
506.113 .0498521
506.956 .0503117
507.798 .0508024
508.640 .0513341
509.480 .0519117
510.320 .0525508
511.160 .0532671
511.998 .0540697
512.836 .0549585
513.672 .0559456
514.508 .0570373
515.344 .0582525
516.178 .0596141
517.012 .0611492
517.845 .0628972
518.677 .0648957
519.508 .0671592
520.339 .0697207
521.169 .0726443
521.998 .0759331
522.826 .0796482
523.654 .0838396
524.481 .0885169
525.307 .0937053
526.133 .0994010
526.958 .1056309
527.782 .1123049
528.605 .1193409
529.428 .1265974
530.250 .1335249
531.072 .1398935
531.892 .1452692
532.712 .1494027
533.532 .1520818
534.350 .1531421
535.168 .1524751
535.986 .1501365
536.802 .1463481
537.618 .1412851
538.434 .1352017
539.249 .1285537
540.063 .1215272
540.876 .1144206
541.689 .1074396
542.501 .1008347
543.313 .0947585
544.124 .0893121
544.934 .0844157
545.744 .0799913
546.553 .0760202
547.361 .0724638
548.169 .0693212
548.976 .0665334
549.783 .0640992
550.589 .0619606
551.395 .0600514
552.200 .0583494
553.004 .0568071
553.808 .0553931
554.611 .0541133
555.414 .0529570
556.216 .0519128
557.018 .0509776
557.819 .0501306
558.619 .0493639
559.419 .0486674
560.218 .0480177
561.017 .0473962
561.815 .0467892
562.613 .0461929
563.410 .0455859
564.207 .0449727
565.003 .0443707
565.799 .0437754
566.594 .0431948
567.388 .0426413
568.182 .0421091
568.976 .0415974
569.769 .0410996
570.562 .0406118
571.354 .0401360
572.145 .0396720
572.936 .0392218
573.727 .0387845
574.517 .0383714
575.307 .0379799
576.096 .0376061
576.885 .0372545
577.673 .0369209
578.461 .0365992
579.248 .0362886
580.035 .0359865
580.821 .0356936
581.607 .0354122
582.392 .0351448
583.177 .0348928
583.962 .0346571
584.746 .0344415
585.529 .0342444
586.313 .0340649
587.095 .0339035
587.878 .0337547
588.660 .0336190
589.441 .0334924
590.222 .0333744
591.003 .0332648
591.783 .0331632
592.563 .0330702
593.342 .0329835
594.121 .0329034
594.899 .0328295
595.678 .0327598
596.455 .0326944
597.233 .0326323
598.009 .0325727
598.786 .0325149
599.562 .0324595
600.338 .0324058
601.113 .0323540
601.888 .0323040
602.663 .0322559
603.437 .0322096
604.211 .0321634
604.984 .0321181
605.757 .0320725
606.530 .0320273
607.302 .0319822
608.074 .0319377
608.845 .0318943
609.616 .0318524
610.387 .0318131
611.158 .0317761
611.928 .0317412
612.697 .0317086
613.467 .0316775
614.236 .0316486
615.004 .0316209
615.773 .0315955
616.541 .0315717
617.308 .0315509
618.076 .0315330
618.843 .0315174
619.609 .0315049
620.375 .0314946
621.141 .0314852
621.907 .0314763
622.672 .0314665
623.437 .0314554
624.202 .0314415
624.966 .0314255
625.730 .0314061
626.493 .0313844
627.257 .0313606
628.020 .0313350
628.782 .0313068
629.545 .0312771
630.307 .0312443
631.068 .0312088
631.830 .0311713
632.591 .0311313
633.352 .0310894
634.112 .0310474
634.872 .0310051
635.632 .0309646
636.392 .0309254
637.151 .0308899
637.910 .0308568
638.668 .0308265
639.427 .0307974
640.185 .0307692
640.943 .0307426
641.700 .0307181
642.457 .0306951
643.214 .0306751
643.971 .0306569
644.727 .0306416
645.483 .0306287
646.239 .0306177
646.994 .0306077
647.750 .0305985
648.505 .0305888
649.259 .0305785
650.014 .0305665
650.768 .0305527
651.521 .0305376
652.275 .0305213
653.028 .0305036
653.781 .0304837
654.534 .0304627
655.286 .0304409
656.039 .0304185
656.791 .0303964
657.542 .0303735
658.294 .0303506
659.045 .0303286
659.796 .0303068
660.546 .0302856
661.297 .0302651
662.047 .0302453
662.796 .0302258
663.546 .0302074
664.295 .0301895
665.044 .0301722
665.793 .0301564
666.542 .0301416
667.290 .0301270
668.038 .0301125
668.786 .0300974
669.533 .0300813
670.281 .0300644
671.028 .0300459
671.774 .0300257
672.521 .0300043
673.267 .0299821
674.013 .0299593
674.759 .0299365
675.505 .0299142
676.250 .0298924
676.995 .0298711
677.740 .0298508
678.484 .0298303
679.229 .0298108
679.973 .0297919
680.717 .0297739
681.460 .0297565
682.204 .0297397
682.947 .0297232
683.690 .0297074
684.433 .0296915
685.175 .0296755
685.917 .0296591
686.659 .0296427
687.401 .0296256
688.142 .0296081
688.884 .0295904
689.625 .0295729
690.365 .0295555
691.106 .0295381
691.846 .0295200
692.586 .0295016
693.326 .0294824
694.066 .0294624
694.805 .0294423
695.545 .0294222
696.284 .0294023
697.022 .0293827
697.761 .0293635
698.499 .0293450
699.237 .0293274
699.975 .0293107
700.713 .0292952
701.450 .0292802
702.187 .0292658
702.924 .0292520
703.661 .0292390
704.397 .0292265
705.133 .0292145
705.869 .0292024
706.605 .0291905
707.341 .0291784
708.076 .0291659
708.811 .0291531
709.546 .0291406
710.281 .0291278
711.015 .0291147
711.749 .0291010
712.483 .0290867
713.217 .0290708
713.950 .0290535
714.684 .0290343
715.417 .0290130
716.150 .0289903
716.882 .0289667
717.615 .0289428
718.347 .0289193
719.079 .0288967
719.811 .0288747
720.542 .0288535
721.273 .0288328
722.005 .0288115
722.735 .0287899
723.466 .0287678
724.196 .0287450
724.927 .0287219
725.656 .0286993
726.386 .0286776
727.116 .0286572
727.845 .0286383
728.574 .0286205
729.303 .0286033
730.031 .0285862
730.760 .0285688
731.488 .0285508
732.216 .0285330
732.944 .0285152
733.671 .0284980
734.398 .0284821
735.125 .0284681
735.852 .0284555
736.579 .0284442
737.305 .0284342
738.031 .0284247
738.757 .0284152
739.483 .0284057
740.208 .0283958
740.933 .0283859
741.658 .0283766
742.383 .0283677
743.108 .0283591
743.832 .0283512
744.556 .0283432
745.280 .0283343
746.004 .0283245
746.727 .0283140
747.450 .0283019
748.173 .0282886
748.896 .0282742
749.618 .0282589
750.340 .0282437
751.062 .0282289
751.784 .0282144
752.506 .0282005
753.227 .0281869
753.948 .0281732
754.669 .0281592
755.389 .0281449
756.110 .0281303
756.830 .0281156
757.550 .0281010
758.269 .0280865
758.989 .0280720
759.708 .0280579
760.427 .0280438
761.146 .0280297
761.864 .0280153
762.582 .0280000
763.300 .0279843
764.018 .0279684
764.736 .0279524
765.453 .0279367
766.170 .0279215
766.887 .0279070
767.603 .0278930
768.320 .0278792
769.036 .0278653
769.751 .0278514
770.467 .0278376
771.182 .0278234
771.897 .0278089
772.612 .0277949
773.327 .0277814
774.041 .0277687
774.755 .0277568
775.469 .0277454
776.183 .0277344
776.896 .0277234
777.609 .0277126
778.322 .0277018
779.035 .0276914
779.747 .0276815
780.459 .0276722
781.171 .0276642
781.882 .0276574
782.594 .0276519
783.305 .0276477
784.016 .0276446
784.726 .0276423
785.436 .0276404
786.147 .0276391
786.856 .0276383
787.566 .0276378
788.275 .0276378
788.984 .0276376
789.693 .0276367
790.401 .0276349
791.110 .0276318
791.818 .0276273
792.525 .0276215
793.233 .0276144
793.940 .0276065
794.647 .0275978
795.353 .0275893
796.060 .0275809
796.766 .0275730
797.472 .0275654
798.177 .0275575
798.883 .0275491
799.588 .0275399
800.292 .0275296
800.997 .0275191
801.701 .0275082
802.405 .0274978
803.109 .0274878
803.812 .0274788
804.515 .0274711
805.218 .0274642
805.921 .0274581
806.623 .0274519
807.325 .0274450
808.027 .0274377
808.728 .0274287
809.429 .0274187
810.130 .0274078
810.831 .0273963
811.531 .0273840
812.231 .0273707
812.931 .0273564
813.630 .0273407
814.330 .0273239
815.029 .0273062
815.727 .0272873
816.426 .0272681
817.124 .0272488
817.821 .0272297
818.519 .0272112
819.216 .0271940
819.913 .0271775
820.609 .0271619
821.306 .0271472
822.002 .0271331
822.697 .0271197
823.393 .0271081
824.088 .0270988
824.783 .0270915
825.477 .0270865
826.171 .0270834
826.865 .0270817
827.559 .0270809
828.252 .0270799
828.945 .0270782
829.638 .0270754
830.330 .0270716
831.023 .0270664
831.714 .0270601
832.406 .0270538
833.097 .0270468
833.788 .0270395
834.479 .0270319
835.169 .0270235
835.859 .0270144
836.548 .0270046
837.238 .0269946
837.927 .0269841
838.615 .0269738
839.304 .0269639
839.992 .0269545
840.680 .0269458
841.367 .0269375
842.054 .0269294
842.741 .0269217
843.428 .0269142
844.114 .0269066
844.800 .0268990
845.485 .0268914
846.170 .0268836
846.855 .0268752
847.540 .0268661
848.224 .0268562
848.908 .0268452
849.592 .0268331
850.275 .0268199
850.958 .0268054
851.641 .0267897
852.323 .0267728
853.005 .0267549
853.687 .0267357
854.368 .0267154
855.049 .0266941
855.730 .0266720
856.410 .0266493
857.090 .0266262
857.769 .0266027
858.449 .0265789
859.128 .0265550
859.806 .0265310
860.485 .0265073
861.163 .0264844
861.840 .0264623
862.518 .0264413
863.195 .0264216
863.871 .0264030
864.548 .0263856
865.224 .0263693
865.899 .0263538
866.574 .0263384
867.249 .0263235
867.924 .0263089
868.598 .0262943
869.272 .0262799
869.946 .0262659
870.619 .0262522
871.292 .0262388
871.964 .0262251
872.636 .0262113
873.308 .0261976
873.979 .0261837
874.651 .0261695
875.321 .0261550
875.992 .0261409
876.662 .0261272
877.331 .0261142
878.001 .0261025
878.670 .0260917
879.338 .0260820
880.007 .0260734
880.675 .0260660
881.342 .0260595
882.009 .0260540
882.676 .0260490
883.343 .0260450
884.009 .0260411
884.675 .0260371
885.340 .0260330
886.005 .0260292
886.670 .0260256
887.334 .0260221
887.998 .0260188
888.662 .0260162
889.325 .0260143
889.988 .0260130
890.650 .0260124
891.312 .0260124
891.974 .0260129
892.636 .0260139
893.297 .0260154
893.957 .0260178
894.618 .0260203
895.278 .0260235
895.937 .0260269
896.596 .0260311
897.255 .0260357
897.914 .0260404
898.572 .0260455
899.230 .0260511
899.887 .0260564
900.544 .0260607
901.201 .0260640
901.857 .0260660
902.513 .0260659
903.168 .0260639
903.823 .0260594
904.478 .0260528
905.132 .0260439
905.786 .0260333
906.440 .0260211
907.093 .0260081
907.746 .0259937
908.399 .0259786
909.051 .0259634
909.703 .0259482
910.354 .0259323
911.005 .0259166
911.656 .0259012
912.306 .0258858
912.956 .0258705
913.605 .0258554
914.254 .0258408
914.903 .0258275
915.551 .0258151
916.199 .0258045
916.847 .0257957
917.494 .0257887
918.141 .0257831
918.788 .0257788
919.434 .0257752
920.079 .0257715
920.725 .0257675
921.370 .0257628
922.014 .0257575
922.658 .0257515
923.302 .0257450
923.946 .0257381
924.589 .0257305
925.231 .0257221
925.873 .0257121
926.515 .0257008
927.157 .0256875
927.798 .0256726
928.439 .0256565
929.079 .0256393
929.719 .0256216
930.359 .0256037
930.998 .0255862
931.637 .0255689
932.275 .0255521
932.913 .0255355
933.551 .0255194
934.188 .0255039
934.825 .0254895
935.462 .0254769
936.098 .0254665
936.733 .0254587
937.369 .0254536
938.004 .0254513
938.638 .0254513
939.273 .0254521
939.907 .0254543
940.540 .0254567
941.173 .0254594
941.806 .0254621
942.438 .0254647
943.070 .0254674
943.702 .0254703
944.333 .0254725
944.964 .0254738
945.594 .0254741
946.224 .0254730
946.854 .0254702
947.483 .0254658
948.112 .0254603
948.741 .0254540
949.369 .0254473
949.996 .0254412
950.624 .0254349
951.251 .0254284
951.878 .0254214
952.504 .0254137
953.130 .0254051
953.755 .0253953
954.380 .0253843
955.005 .0253731
955.629 .0253621
956.253 .0253517
956.877 .0253421
957.500 .0253344
958.123 .0253282
958.746 .0253229
959.368 .0253178
959.990 .0253130
960.611 .0253079
961.232 .0253023
961.853 .0252963
962.473 .0252904
963.093 .0252847
963.712 .0252791
964.331 .0252738
964.950 .0252690
965.569 .0252649
966.187 .0252606
966.804 .0252561
967.422 .0252517
968.039 .0252466
968.655 .0252406
969.272 .0252339
969.887 .0252268
970.503 .0252184
971.118 .0252090
971.733 .0251989
972.347 .0251881
972.961 .0251768
973.575 .0251649
974.188 .0251528
974.801 .0251407
975.414 .0251285
976.026 .0251157
976.638 .0251024
977.250 .0250886
977.861 .0250732
978.472 .0250564
979.083 .0250382
979.693 .0250182
980.303 .0249968
980.912 .0249743
981.521 .0249518
982.130 .0249295
982.738 .0249086
983.346 .0248890
983.954 .0248707
984.562 .0248538
985.169 .0248376
985.775 .0248216
986.382 .0248056
986.988 .0247893
987.594 .0247726
988.199 .0247555
988.804 .0247389
989.409 .0247229
990.013 .0247088
990.617 .0246964
991.221 .0246852
991.824 .0246751
992.427 .0246664
993.030 .0246581
993.632 .0246500
994.234 .0246421
994.836 .0246341
995.438 .0246259
996.039 .0246173
996.640 .0246082
997.240 .0245993
997.840 .0245912
998.440 .0245842
999.040 .0245784
999.639 .0245741
1000.238 .0245706
1000.836 .0245675
1001.435 .0245645
1002.033 .0245606
1002.630 .0245551
1003.228 .0245481
1003.825 .0245395
1004.422 .0245297
1005.018 .0245194
1005.614 .0245094
1006.210 .0245006
1006.806 .0244932
1007.401 .0244870
1007.996 .0244811
1008.591 .0244759
1009.186 .0244701
1009.780 .0244629
1010.374 .0244547
1010.967 .0244450
1011.561 .0244344
1012.154 .0244234
1012.746 .0244126
1013.339 .0244023
1013.931 .0243931
1014.523 .0243849
1015.115 .0243774
1015.706 .0243705
1016.298 .0243637
1016.888 .0243563
1017.479 .0243492
1018.069 .0243423
1018.660 .0243353
1019.250 .0243294
1019.839 .0243253
1020.429 .0243230
1021.018 .0243228
1021.607 .0243246
1022.195 .0243275
1022.784 .0243317
1023.372 .0243364
1023.960 .0243408
1024.547 .0243442
1025.135 .0243473
1025.722 .0243494
1026.309 .0243509
1026.896 .0243532
1027.483 .0243561
1028.069 .0243605
1028.655 .0243671
1029.241 .0243750
1029.827 .0243843
1030.412 .0243940
1030.997 .0244042
1031.582 .0244133
1032.167 .0244217
1032.752 .0244282
1033.336 .0244323
1033.921 .0244348
1034.505 .0244372
1035.089 .0244386
1035.672 .0244400
1036.256 .0244421
1036.839 .0244447
1037.422 .0244477
1038.005 .0244505
1038.588 .0244524
1039.171 .0244534
1039.753 .0244533
1040.335 .0244519
1040.918 .0244489
1041.500 .0244459
1042.081 .0244430
1042.663 .0244408
1043.244 .0244406
1043.826 .0244416
1044.407 .0244435
1044.988 .0244461
1045.569 .0244490
1046.150 .0244511
1046.730 .0244525
1047.311 .0244529
1047.891 .0244525
1048.471 .0244511
1049.052 .0244490
1049.632 .0244458
1050.211 .0244435
1050.791 .0244413
1051.371 .0244390
1051.950 .0244370
1052.530 .0244350
1053.109 .0244321
1053.688 .0244289
1054.268 .0244248
1054.847 .0244199
1055.426 .0244151
1056.005 .0244115
1056.583 .0244084
1057.162 .0244065
1057.741 .0244062
1058.319 .0244076
1058.898 .0244098
1059.476 .0244117
1060.055 .0244124
1060.633 .0244133
1061.211 .0244139
1061.790 .0244144
1062.368 .0244155
1062.946 .0244189
1063.524 .0244259
1064.102 .0244359
1064.680 .0244494
1065.258 .0244653
1065.836 .0244821
1066.414 .0244997
1066.992 .0245169
1067.570 .0245333
1068.148 .0245476
1068.726 .0245613
1069.304 .0245752
1069.882 .0245895
1070.460 .0246032
1071.038 .0246173
1071.616 .0246318
1072.194 .0246461
1072.772 .0246588
1073.350 .0246688
1073.928 .0246781
1074.506 .0246852
1075.084 .0246896
1075.662 .0246926
1076.240 .0246942
1076.819 .0246948
1077.397 .0246941
1077.976 .0246936
1078.554 .0246943
1079.133 .0246948
1079.711 .0246959
1080.290 .0246974
1080.869 .0247004
1081.448 .0247026
1082.027 .0247040
1082.606 .0247044
1083.185 .0247064
1083.764 .0247086
1084.343 .0247130
1084.923 .0247209
1085.502 .0247325
1086.082 .0247477
1086.662 .0247656
1087.242 .0247854
1087.822 .0248055
1088.402 .0248232
1088.983 .0248408
1089.563 .0248566
1090.144 .0248716
1090.725 .0248859
1091.306 .0249012
1091.887 .0249185
1092.469 .0249394
1093.050 .0249610
1093.632 .0249831
1094.214 .0250067
1094.796 .0250307
1095.379 .0250541
1095.961 .0250771
1096.544 .0251009
1097.127 .0251259
1097.710 .0251523
1098.294 .0251825
1098.877 .0252134
1099.461 .0252472
1100.046 .0252839
1100.630 .0253202
1101.215 .0253560
1101.800 .0253913
1102.385 .0254236
1102.970 .0254537
1103.556 .0254805
1104.142 .0255045
1104.728 .0255250
1105.315 .0255449
1105.902 .0255631
1106.489 .0255810
1107.077 .0256009
1107.664 .0256238
1108.253 .0256484
1108.841 .0256762
1109.430 .0257036
1110.019 .0257304
1110.609 .0257574
1111.198 .0257851
1111.789 .0258114
1112.379 .0258405
1112.970 .0258726
1113.561 .0259096
1114.153 .0259502
1114.745 .0259955
1115.338 .0260442
1115.931 .0260981
1116.524 .0261528
1117.117 .0262084
1117.712 .0262661
1118.306 .0263244
1118.901 .0263839
1119.496 .0264448
1120.092 .0265059
1120.689 .0265647
1121.285 .0266194
1121.882 .0266721
1122.480 .0267195
1123.078 .0267666
1123.677 .0268113
1124.276 .0268567
1124.875 .0269054
1125.476 .0269533
1126.076 .0270005
1126.677 .0270446
1127.279 .0270851
1127.881 .0271191
1128.484 .0271469
1129.087 .0271727
1129.691 .0272012
1130.295 .0272363
1130.900 .0272822
1131.505 .0273437
1132.111 .0274198
1132.718 .0275067
1133.325 .0275997
1133.933 .0276959
1134.541 .0277916
1135.150 .0278854
1135.760 .0279813
1136.370 .0280757
1136.981 .0281779
1137.592 .0282828
1138.204 .0283922
1138.817 .0285020
1139.431 .0286170
1140.045 .0287246
1140.660 .0288305
1141.275 .0289333
1141.891 .0290061
1142.508 .0292006
1143.126 .0290786
1143.744 .0293573
1144.363 .0294873
1144.983 .0288187
