Measurement Sequence started on: 15-12-46-377
Integration time: 28
Scans to Average: 2 
>>>>>Begin Spectral Data<<<<<
432.689 .0000100
433.621 .0000100
434.552 .0000100
435.482 .0000100
436.410 .0000100
437.337 .0000100
438.262 .0279630
439.187 .0592707
440.110 .0982591
441.031 .1422062
441.952 .1848824
442.871 .2184567
443.789 .2368344
444.705 .2379216
445.621 .2242783
446.535 .2014899
447.447 .1756888
448.359 .1363040
449.269 .1167255
450.178 .1043098
451.086 .0955879
451.993 .0889229
452.898 .0836497
453.803 .0793265
454.706 .0757303
455.608 .0726786
456.508 .0700819
457.408 .0678554
458.306 .0659292
459.204 .0642577
460.100 .0627880
460.995 .0614847
461.888 .0603143
462.781 .0592519
463.673 .0582615
464.563 .0573381
465.452 .0564656
466.340 .0556328
467.228 .0548563
468.114 .0541301
468.999 .0534672
469.882 .0528479
470.765 .0522831
471.647 .0517683
472.528 .0512967
473.407 .0508716
474.286 .0504892
475.163 .0501442
476.040 .0498396
476.915 .0495715
477.790 .0493371
478.663 .0491393
479.535 .0489825
480.407 .0488547
481.277 .0487544
482.147 .0486771
483.015 .0486195
483.883 .0485805
484.749 .0485651
485.615 .0485656
486.479 .0485818
487.343 .0486238
488.206 .0486737
489.067 .0487280
489.928 .0487840
490.788 .0488413
491.647 .0488942
492.505 .0489458
493.362 .0490026
494.218 .0490765
495.073 .0491799
495.928 .0493207
496.781 .0494880
497.634 .0496939
498.486 .0499229
499.337 .0501641
500.187 .0504147
501.036 .0506744
501.884 .0509412
502.731 .0512411
503.578 .0515760
504.424 .0519688
505.268 .0524038
506.113 .0529003
506.956 .0534403
507.798 .0540185
508.640 .0546173
509.480 .0552424
510.320 .0559114
511.160 .0566313
511.998 .0574107
512.836 .0582829
513.672 .0592735
514.508 .0603893
515.344 .0616359
516.178 .0630478
517.012 .0646506
517.845 .0664968
518.677 .0685814
519.508 .0709700
520.339 .0736996
521.169 .0768548
521.998 .0804412
522.826 .0845132
523.654 .0891070
524.481 .0941867
525.307 .0999059
526.133 .1062351
526.958 .1131016
527.782 .1204690
528.605 .1281680
529.428 .1360476
530.250 .1434950
531.072 .1502313
531.892 .1558288
532.712 .1600263
533.532 .1626763
534.350 .1634734
535.168 .1624992
535.986 .1599241
536.802 .1558966
537.618 .1506056
538.434 .1443053
539.249 .1374199
540.063 .1300930
540.876 .1226345
541.689 .1152512
542.501 .1081745
543.313 .1016400
544.124 .0957097
544.934 .0903600
545.744 .0855526
546.553 .0812513
547.361 .0773888
548.169 .0739715
548.976 .0709116
549.783 .0681599
550.589 .0656963
551.395 .0634753
552.200 .0614842
553.004 .0596944
553.808 .0580761
554.611 .0566293
555.414 .0553431
556.216 .0541832
557.018 .0531365
557.819 .0522057
558.619 .0513459
559.419 .0505603
560.218 .0498260
561.017 .0491262
561.815 .0484429
562.613 .0477764
563.410 .0471165
564.207 .0464717
565.003 .0458556
565.799 .0452609
566.594 .0446876
567.388 .0441536
568.182 .0436386
568.976 .0431386
569.769 .0426497
570.562 .0421683
571.354 .0416827
572.145 .0412015
572.936 .0407240
573.727 .0402519
574.517 .0398023
575.307 .0393745
576.096 .0389674
576.885 .0385836
577.673 .0382230
578.461 .0378805
579.248 .0375464
580.035 .0372226
580.821 .0369051
581.607 .0365962
582.392 .0363048
583.177 .0360332
583.962 .0357876
584.746 .0355702
585.529 .0353803
586.313 .0352133
587.095 .0350708
587.878 .0349440
588.660 .0348309
589.441 .0347276
590.222 .0346312
591.003 .0345389
591.783 .0344500
592.563 .0343657
593.342 .0342863
594.121 .0342104
594.899 .0341399
595.678 .0340713
596.455 .0340079
597.233 .0339462
598.009 .0338859
598.786 .0338264
599.562 .0337671
600.338 .0337058
601.113 .0336446
601.888 .0335832
602.663 .0335231
603.437 .0334662
604.211 .0334124
604.984 .0333626
605.757 .0333171
606.530 .0332751
607.302 .0332356
608.074 .0331975
608.845 .0331619
609.616 .0331269
610.387 .0330939
611.158 .0330631
611.928 .0330341
612.697 .0330082
613.467 .0329850
614.236 .0329631
615.004 .0329430
615.773 .0329234
616.541 .0329034
617.308 .0328830
618.076 .0328622
618.843 .0328412
619.609 .0328210
620.375 .0328011
621.141 .0327822
621.907 .0327629
622.672 .0327435
623.437 .0327230
624.202 .0327018
624.966 .0326802
625.730 .0326569
626.493 .0326329
627.257 .0326088
628.020 .0325839
628.782 .0325592
629.545 .0325335
630.307 .0325073
631.068 .0324805
631.830 .0324526
632.591 .0324231
633.352 .0323931
634.112 .0323634
634.872 .0323332
635.632 .0323029
636.392 .0322726
637.151 .0322418
637.910 .0322101
638.668 .0321781
639.427 .0321455
640.185 .0321124
640.943 .0320796
641.700 .0320468
642.457 .0320142
643.214 .0319820
643.971 .0319500
644.727 .0319186
645.483 .0318880
646.239 .0318582
646.994 .0318286
647.750 .0317998
648.505 .0317723
649.259 .0317450
650.014 .0317175
650.768 .0316896
651.521 .0316617
652.275 .0316327
653.028 .0316033
653.781 .0315732
654.534 .0315430
655.286 .0315129
656.039 .0314830
656.791 .0314527
657.542 .0314221
658.294 .0313913
659.045 .0313601
659.796 .0313277
660.546 .0312956
661.297 .0312631
662.047 .0312311
662.796 .0311999
663.546 .0311703
664.295 .0311418
665.044 .0311150
665.793 .0310897
666.542 .0310657
667.290 .0310431
668.038 .0310221
668.786 .0310021
669.533 .0309835
670.281 .0309662
671.028 .0309496
671.774 .0309340
672.521 .0309201
673.267 .0309068
674.013 .0308943
674.759 .0308826
675.505 .0308714
676.250 .0308607
676.995 .0308502
677.740 .0308403
678.484 .0308306
679.229 .0308214
679.973 .0308119
680.717 .0308022
681.460 .0307927
682.204 .0307836
682.947 .0307746
683.690 .0307658
684.433 .0307570
685.175 .0307480
685.917 .0307380
686.659 .0307278
687.401 .0307170
688.142 .0307057
688.884 .0306939
689.625 .0306815
690.365 .0306680
691.106 .0306534
691.846 .0306380
692.586 .0306213
693.326 .0306036
694.066 .0305849
694.805 .0305647
695.545 .0305433
696.284 .0305213
697.022 .0304986
697.761 .0304756
698.499 .0304528
699.237 .0304301
699.975 .0304070
700.713 .0303843
701.450 .0303619
702.187 .0303398
702.924 .0303184
703.661 .0302980
704.397 .0302777
705.133 .0302581
705.869 .0302388
706.605 .0302201
707.341 .0302018
708.076 .0301839
708.811 .0301656
709.546 .0301469
710.281 .0301274
711.015 .0301071
711.749 .0300852
712.483 .0300625
713.217 .0300384
713.950 .0300133
714.684 .0299873
715.417 .0299609
716.150 .0299338
716.882 .0299068
717.615 .0298797
718.347 .0298529
719.079 .0298256
719.811 .0297982
720.542 .0297704
721.273 .0297423
722.005 .0297135
722.735 .0296842
723.466 .0296545
724.196 .0296250
724.927 .0295949
725.656 .0295648
726.386 .0295349
727.116 .0295054
727.845 .0294761
728.574 .0294474
729.303 .0294194
730.031 .0293926
730.760 .0293668
731.488 .0293426
732.216 .0293200
732.944 .0292994
733.671 .0292810
734.398 .0292647
735.125 .0292501
735.852 .0292373
736.579 .0292257
737.305 .0292159
738.031 .0292073
738.757 .0291995
739.483 .0291924
740.208 .0291854
740.933 .0291783
741.658 .0291705
742.383 .0291617
743.108 .0291519
743.832 .0291407
744.556 .0291285
745.280 .0291150
746.004 .0291014
746.727 .0290879
747.450 .0290755
748.173 .0290641
748.896 .0290542
749.618 .0290453
750.340 .0290374
751.062 .0290305
751.784 .0290243
752.506 .0290188
753.227 .0290143
753.948 .0290106
754.669 .0290085
755.389 .0290074
756.110 .0290079
756.830 .0290093
757.550 .0290116
758.269 .0290135
758.989 .0290145
759.708 .0290140
760.427 .0290123
761.146 .0290091
761.864 .0290054
762.582 .0290013
763.300 .0289974
764.018 .0289938
764.736 .0289908
765.453 .0289882
766.170 .0289861
766.887 .0289835
767.603 .0289806
768.320 .0289773
769.036 .0289738
769.751 .0289698
770.467 .0289657
771.182 .0289621
771.897 .0289586
772.612 .0289549
773.327 .0289510
774.041 .0289461
774.755 .0289407
775.469 .0289343
776.183 .0289270
776.896 .0289192
777.609 .0289111
778.322 .0289028
779.035 .0288947
779.747 .0288871
780.459 .0288794
781.171 .0288718
781.882 .0288643
782.594 .0288563
783.305 .0288482
784.016 .0288403
784.726 .0288323
785.436 .0288245
786.147 .0288169
786.856 .0288086
787.566 .0287999
788.275 .0287905
788.984 .0287799
789.693 .0287678
790.401 .0287543
791.110 .0287388
791.818 .0287214
792.525 .0287028
793.233 .0286820
793.940 .0286595
794.647 .0286358
795.353 .0286104
796.060 .0285840
796.766 .0285570
797.472 .0285292
798.177 .0285014
798.883 .0284736
799.588 .0284453
800.292 .0284168
800.997 .0283885
801.701 .0283600
802.405 .0283316
803.109 .0283036
803.812 .0282760
804.515 .0282491
805.218 .0282233
805.921 .0281982
806.623 .0281737
807.325 .0281500
808.027 .0281260
808.728 .0281011
809.429 .0280756
810.130 .0280491
810.831 .0280220
811.531 .0279947
812.231 .0279672
812.931 .0279398
813.630 .0279128
814.330 .0278859
815.029 .0278593
815.727 .0278331
816.426 .0278073
817.124 .0277814
817.821 .0277562
818.519 .0277317
819.216 .0277086
819.913 .0276869
820.609 .0276670
821.306 .0276486
822.002 .0276322
822.697 .0276172
823.393 .0276039
824.088 .0275920
824.783 .0275816
825.477 .0275723
826.171 .0275640
826.865 .0275567
827.559 .0275505
828.252 .0275453
828.945 .0275414
829.638 .0275379
830.330 .0275355
831.023 .0275336
831.714 .0275327
832.406 .0275326
833.097 .0275330
833.788 .0275335
834.479 .0275343
835.169 .0275352
835.859 .0275364
836.548 .0275378
837.238 .0275398
837.927 .0275426
838.615 .0275460
839.304 .0275497
839.992 .0275537
840.680 .0275580
841.367 .0275624
842.054 .0275665
842.741 .0275704
843.428 .0275743
844.114 .0275785
844.800 .0275833
845.485 .0275886
846.170 .0275942
846.855 .0276002
847.540 .0276061
848.224 .0276116
848.908 .0276167
849.592 .0276217
850.275 .0276263
850.958 .0276308
851.641 .0276355
852.323 .0276404
853.005 .0276459
853.687 .0276517
854.368 .0276573
855.049 .0276627
855.730 .0276677
856.410 .0276723
857.090 .0276761
857.769 .0276793
858.449 .0276822
859.128 .0276847
859.806 .0276871
860.485 .0276900
861.163 .0276933
861.840 .0276971
862.518 .0277015
863.195 .0277061
863.871 .0277103
864.548 .0277144
865.224 .0277181
865.899 .0277213
866.574 .0277240
867.249 .0277261
867.924 .0277274
868.598 .0277289
869.272 .0277301
869.946 .0277309
870.619 .0277312
871.292 .0277305
871.964 .0277284
872.636 .0277243
873.308 .0277184
873.979 .0277104
874.651 .0277011
875.321 .0276906
875.992 .0276794
876.662 .0276681
877.331 .0276571
878.001 .0276465
878.670 .0276362
879.338 .0276259
880.007 .0276153
880.675 .0276039
881.342 .0275921
882.009 .0275798
882.676 .0275672
883.343 .0275547
884.009 .0275428
884.675 .0275309
885.340 .0275189
886.005 .0275067
886.670 .0274942
887.334 .0274813
887.998 .0274673
888.662 .0274525
889.325 .0274368
889.988 .0274207
890.650 .0274042
891.312 .0273872
891.974 .0273707
892.636 .0273542
893.297 .0273378
893.957 .0273214
894.618 .0273048
895.278 .0272881
895.937 .0272711
896.596 .0272541
897.255 .0272365
897.914 .0272184
898.572 .0271995
899.230 .0271799
899.887 .0271595
900.544 .0271382
901.201 .0271159
901.857 .0270929
902.513 .0270691
903.168 .0270441
903.823 .0270180
904.478 .0269909
905.132 .0269624
905.786 .0269323
906.440 .0269005
907.093 .0268670
907.746 .0268322
908.399 .0267962
909.051 .0267593
909.703 .0267222
910.354 .0266849
911.005 .0266479
911.656 .0266116
912.306 .0265756
912.956 .0265406
913.605 .0265064
914.254 .0264735
914.903 .0264411
915.551 .0264096
916.199 .0263794
916.847 .0263501
917.494 .0263219
918.141 .0262948
918.788 .0262686
919.434 .0262435
920.079 .0262187
920.725 .0261938
921.370 .0261691
922.014 .0261443
922.658 .0261185
923.302 .0260915
923.946 .0260633
924.589 .0260337
925.231 .0260023
925.873 .0259702
926.515 .0259371
927.157 .0259034
927.798 .0258696
928.439 .0258361
929.079 .0258032
929.719 .0257712
930.359 .0257397
930.998 .0257094
931.637 .0256799
932.275 .0256512
932.913 .0256233
933.551 .0255968
934.188 .0255718
934.825 .0255486
935.462 .0255272
936.098 .0255083
936.733 .0254915
937.369 .0254774
938.004 .0254655
938.638 .0254561
939.273 .0254482
939.907 .0254417
940.540 .0254363
941.173 .0254325
941.806 .0254298
942.438 .0254286
943.070 .0254289
943.702 .0254306
944.333 .0254329
944.964 .0254363
945.594 .0254403
946.224 .0254448
946.854 .0254497
947.483 .0254550
948.112 .0254601
948.741 .0254655
949.369 .0254708
949.996 .0254763
950.624 .0254817
951.251 .0254868
951.878 .0254911
952.504 .0254943
953.130 .0254966
953.755 .0254978
954.380 .0254980
955.005 .0254979
955.629 .0254974
956.253 .0254970
956.877 .0254967
957.500 .0254974
958.123 .0254990
958.746 .0255010
959.368 .0255035
959.990 .0255058
960.611 .0255078
961.232 .0255098
961.853 .0255119
962.473 .0255148
963.093 .0255192
963.712 .0255253
964.331 .0255332
964.950 .0255428
965.569 .0255541
966.187 .0255667
966.804 .0255800
967.422 .0255939
968.039 .0256073
968.655 .0256208
969.272 .0256342
969.887 .0256476
970.503 .0256618
971.118 .0256765
971.733 .0256917
972.347 .0257070
972.961 .0257222
973.575 .0257370
974.188 .0257505
974.801 .0257633
975.414 .0257750
976.026 .0257858
976.638 .0257958
977.250 .0258055
977.861 .0258152
978.472 .0258249
979.083 .0258340
979.693 .0258420
980.303 .0258486
980.912 .0258537
981.521 .0258576
982.130 .0258607
982.738 .0258641
983.346 .0258679
983.954 .0258728
984.562 .0258793
985.169 .0258862
985.775 .0258932
986.382 .0258998
986.988 .0259054
987.594 .0259097
988.199 .0259123
988.804 .0259150
989.409 .0259178
990.013 .0259220
990.617 .0259279
991.221 .0259350
991.824 .0259437
992.427 .0259537
993.030 .0259640
993.632 .0259743
994.234 .0259846
994.836 .0259942
995.438 .0260032
996.039 .0260128
996.640 .0260220
997.240 .0260312
997.840 .0260413
998.440 .0260522
999.040 .0260621
999.639 .0260722
1000.238 .0260814
1000.836 .0260890
1001.435 .0260956
1002.033 .0260997
1002.630 .0261011
1003.228 .0261006
1003.825 .0260978
1004.422 .0260931
1005.018 .0260873
1005.614 .0260816
1006.210 .0260754
1006.806 .0260699
1007.401 .0260654
1007.996 .0260612
1008.591 .0260575
1009.186 .0260545
1009.780 .0260515
1010.374 .0260486
1010.967 .0260455
1011.561 .0260424
1012.154 .0260393
1012.746 .0260365
1013.339 .0260332
1013.931 .0260300
1014.523 .0260261
1015.115 .0260216
1015.706 .0260161
1016.298 .0260096
1016.888 .0260019
1017.479 .0259933
1018.069 .0259831
1018.660 .0259718
1019.250 .0259594
1019.839 .0259458
1020.429 .0259310
1021.018 .0259164
1021.607 .0259016
1022.195 .0258872
1022.784 .0258737
1023.372 .0258619
1023.960 .0258513
1024.547 .0258425
1025.135 .0258349
1025.722 .0258286
1026.309 .0258233
1026.896 .0258188
1027.483 .0258146
1028.069 .0258108
1028.655 .0258067
1029.241 .0258019
1029.827 .0257952
1030.412 .0257872
1030.997 .0257770
1031.582 .0257653
1032.167 .0257518
1032.752 .0257374
1033.336 .0257216
1033.921 .0257055
1034.505 .0256893
1035.089 .0256733
1035.672 .0256563
1036.256 .0256384
1036.839 .0256193
1037.422 .0255990
1038.005 .0255781
1038.588 .0255585
1039.171 .0255396
1039.753 .0255236
1040.335 .0255091
1040.918 .0254963
1041.500 .0254838
1042.081 .0254718
1042.663 .0254591
1043.244 .0254449
1043.826 .0254295
1044.407 .0254129
1044.988 .0253952
1045.569 .0253780
1046.150 .0253606
1046.730 .0253439
1047.311 .0253271
1047.891 .0253101
1048.471 .0252915
1049.052 .0252719
1049.632 .0252509
1050.211 .0252293
1050.791 .0252072
1051.371 .0251860
1051.950 .0251656
1052.530 .0251457
1053.109 .0251262
1053.688 .0251067
1054.268 .0250859
1054.847 .0250647
1055.426 .0250427
1056.005 .0250213
1056.583 .0250002
1057.162 .0249806
1057.741 .0249617
1058.319 .0249440
1058.898 .0249279
1059.476 .0249115
1060.055 .0248960
1060.633 .0248815
1061.211 .0248670
1061.790 .0248537
1062.368 .0248427
1062.946 .0248341
1063.524 .0248278
1064.102 .0248236
1064.680 .0248198
1065.258 .0248150
1065.836 .0248094
1066.414 .0248023
1066.992 .0247943
1067.570 .0247860
1068.148 .0247769
1068.726 .0247674
1069.304 .0247586
1069.882 .0247499
1070.460 .0247403
1071.038 .0247304
1071.616 .0247207
1072.194 .0247113
1072.772 .0247015
1073.350 .0246920
1073.928 .0246843
1074.506 .0246783
1075.084 .0246734
1075.662 .0246689
1076.240 .0246653
1076.819 .0246625
1077.397 .0246598
1077.976 .0246582
1078.554 .0246567
1079.133 .0246572
1079.711 .0246583
1080.290 .0246604
1080.869 .0246628
1081.448 .0246653
1082.027 .0246664
1082.606 .0246673
1083.185 .0246699
1083.764 .0246749
1084.343 .0246823
1084.923 .0246942
1085.502 .0247090
1086.082 .0247261
1086.662 .0247434
1087.242 .0247601
1087.822 .0247750
1088.402 .0247894
1088.983 .0248022
1089.563 .0248157
1090.144 .0248310
1090.725 .0248512
1091.306 .0248753
1091.887 .0249035
1092.469 .0249334
1093.050 .0249626
1093.632 .0249884
1094.214 .0250109
1094.796 .0250294
1095.379 .0250459
1095.961 .0250623
1096.544 .0250823
1097.127 .0251051
1097.710 .0251326
1098.294 .0251638
1098.877 .0251974
1099.461 .0252295
1100.046 .0252606
1100.630 .0252859
1101.215 .0253059
1101.800 .0253214
1102.385 .0253326
1102.970 .0253411
1103.556 .0253489
1104.142 .0253569
1104.728 .0253668
1105.315 .0253792
1105.902 .0253958
1106.489 .0254135
1107.077 .0254368
1107.664 .0254643
1108.253 .0254953
1108.841 .0255298
1109.430 .0255686
1110.019 .0256091
1110.609 .0256527
1111.198 .0256974
1111.789 .0257448
1112.379 .0257962
1112.970 .0258529
1113.561 .0259152
1114.153 .0259835
1114.745 .0260578
1115.338 .0261336
1115.931 .0262057
1116.524 .0262745
1117.117 .0263360
1117.712 .0263917
1118.306 .0264402
1118.901 .0264867
1119.496 .0265340
1120.092 .0265845
1120.689 .0266421
1121.285 .0267076
1121.882 .0267785
1122.480 .0268547
1123.078 .0269310
1123.677 .0270048
1124.276 .0270747
1124.875 .0271403
1125.476 .0272022
1126.076 .0272629
1126.677 .0273221
1127.279 .0273804
1127.881 .0274388
1128.484 .0275013
1129.087 .0275655
1129.691 .0276326
1130.295 .0277041
1130.900 .0277780
1131.505 .0278537
1132.111 .0279329
1132.718 .0280137
1133.325 .0280994
1133.933 .0281862
1134.541 .0282757
1135.150 .0283676
1135.760 .0284638
1136.370 .0285630
1136.981 .0286716
1137.592 .0287863
1138.204 .0289063
1138.817 .0290255
1139.431 .0291464
1140.045 .0292636
1140.660 .0293761
1141.275 .0294851
1141.891 .0295937
1142.508 .0296903
1143.126 .0297829
1143.744 .0298306
1144.363 .0300460
1144.983 .0302308
