Measurement Sequence started on: 15-12-46-377
Integration time: 28
Scans to Average: 2 
>>>>>Begin Spectral Data<<<<<
432.689 .0000100
433.621 .0000100
434.552 .0000100
435.482 .0000100
436.410 .0000100
437.337 .0000100
438.262 .0263384
439.187 .0557165
440.110 .0923177
441.031 .1336082
441.952 .1737226
442.871 .2053695
443.789 .2228235
444.705 .2241119
445.621 .2116461
446.535 .1906207
447.447 .1667525
448.359 .1300275
449.269 .1119418
450.178 .1004514
451.086 .0923202
451.993 .0860666
452.898 .0810702
453.803 .0769513
454.706 .0735137
455.608 .0705359
456.508 .0679463
457.408 .0656622
458.306 .0636148
459.204 .0617713
460.100 .0601067
460.995 .0586019
461.888 .0572435
462.781 .0559910
463.673 .0548360
464.563 .0537706
465.452 .0528011
466.340 .0519048
467.228 .0510929
468.114 .0503584
468.999 .0496952
469.882 .0490839
470.765 .0485323
471.647 .0480217
472.528 .0475496
473.407 .0471128
474.286 .0467101
475.163 .0463444
476.040 .0460271
476.915 .0457486
477.790 .0455143
478.663 .0453272
479.535 .0451805
480.407 .0450560
481.277 .0449531
482.147 .0448664
483.015 .0447918
483.883 .0447291
484.749 .0446834
485.615 .0446501
486.479 .0446378
487.343 .0446479
488.206 .0446699
489.067 .0447017
489.928 .0447403
490.788 .0447788
491.647 .0448202
492.505 .0448712
493.362 .0449387
494.218 .0450278
495.073 .0451489
495.928 .0453099
496.781 .0455128
497.634 .0457596
498.486 .0460502
499.337 .0463787
500.187 .0467431
501.036 .0471349
501.884 .0475551
502.731 .0480042
503.578 .0484869
504.424 .0490046
505.268 .0495369
506.113 .0500851
506.956 .0506499
507.798 .0512300
508.640 .0518373
509.480 .0524862
510.320 .0531935
511.160 .0539649
511.998 .0548231
512.836 .0557665
513.672 .0568062
514.508 .0579525
515.344 .0592115
516.178 .0606029
517.012 .0621656
517.845 .0639393
518.677 .0659581
519.508 .0682754
520.339 .0709533
521.169 .0740228
521.998 .0774727
522.826 .0813301
523.654 .0855979
524.481 .0902850
525.307 .0953883
526.133 .1009131
526.958 .1068886
527.782 .1132528
528.605 .1198905
529.428 .1267454
530.250 .1332722
531.072 .1392677
531.892 .1443025
532.712 .1481163
533.532 .1505319
534.350 .1513809
535.168 .1506020
535.986 .1483124
536.802 .1446886
537.618 .1399427
538.434 .1341706
539.249 .1278726
540.063 .1210874
540.876 .1141201
541.689 .1071533
542.501 .1004391
543.313 .0941774
544.124 .0885195
544.934 .0834356
545.744 .0789376
546.553 .0749638
547.361 .0715141
548.169 .0685045
548.976 .0658897
549.783 .0635836
550.589 .0615507
551.395 .0597153
552.200 .0581031
553.004 .0566411
553.808 .0553333
554.611 .0541701
555.414 .0531477
556.216 .0522267
557.018 .0514050
557.819 .0506604
558.619 .0499710
559.419 .0493199
560.218 .0486977
561.017 .0480865
561.815 .0474800
562.613 .0468641
563.410 .0462299
564.207 .0455796
565.003 .0449281
565.799 .0442616
566.594 .0435987
567.388 .0429537
568.182 .0423200
568.976 .0416984
569.769 .0410949
570.562 .0405087
571.354 .0399362
572.145 .0393847
572.936 .0388505
573.727 .0383353
574.517 .0378468
575.307 .0373851
576.096 .0369559
576.885 .0365701
577.673 .0362182
578.461 .0358981
579.248 .0356069
580.035 .0353426
580.821 .0350927
581.607 .0348563
582.392 .0346324
583.177 .0344178
583.962 .0342112
584.746 .0340179
585.529 .0338372
586.313 .0336763
587.095 .0335319
587.878 .0334036
588.660 .0332889
589.441 .0331864
590.222 .0330916
591.003 .0330046
591.783 .0329220
592.563 .0328423
593.342 .0327644
594.121 .0326883
594.899 .0326156
595.678 .0325481
596.455 .0324858
597.233 .0324302
598.009 .0323812
598.786 .0323367
599.562 .0322956
600.338 .0322581
601.113 .0322214
601.888 .0321854
602.663 .0321498
603.437 .0321132
604.211 .0320762
604.984 .0320395
605.757 .0320033
606.530 .0319673
607.302 .0319327
608.074 .0318992
608.845 .0318663
609.616 .0318348
610.387 .0318042
611.158 .0317751
611.928 .0317477
612.697 .0317214
613.467 .0316956
614.236 .0316700
615.004 .0316441
615.773 .0316172
616.541 .0315903
617.308 .0315633
618.076 .0315367
618.843 .0315114
619.609 .0314881
620.375 .0314666
621.141 .0314471
621.907 .0314290
622.672 .0314113
623.437 .0313933
624.202 .0313737
624.966 .0313522
625.730 .0313291
626.493 .0313048
627.257 .0312800
628.020 .0312553
628.782 .0312312
629.545 .0312073
630.307 .0311832
631.068 .0311594
631.830 .0311350
632.591 .0311100
633.352 .0310842
634.112 .0310567
634.872 .0310282
635.632 .0309983
636.392 .0309678
637.151 .0309365
637.910 .0309046
638.668 .0308724
639.427 .0308396
640.185 .0308070
640.943 .0307748
641.700 .0307436
642.457 .0307148
643.214 .0306880
643.971 .0306629
644.727 .0306391
645.483 .0306162
646.239 .0305934
646.994 .0305706
647.750 .0305467
648.505 .0305230
649.259 .0304991
650.014 .0304752
650.768 .0304517
651.521 .0304290
652.275 .0304071
653.028 .0303857
653.781 .0303648
654.534 .0303434
655.286 .0303210
656.039 .0302982
656.791 .0302739
657.542 .0302489
658.294 .0302232
659.045 .0301973
659.796 .0301717
660.546 .0301470
661.297 .0301234
662.047 .0301002
662.796 .0300783
663.546 .0300571
664.295 .0300357
665.044 .0300138
665.793 .0299917
666.542 .0299691
667.290 .0299462
668.038 .0299235
668.786 .0299014
669.533 .0298802
670.281 .0298606
671.028 .0298423
671.774 .0298252
672.521 .0298093
673.267 .0297951
674.013 .0297815
674.759 .0297688
675.505 .0297563
676.250 .0297434
676.995 .0297306
677.740 .0297180
678.484 .0297050
679.229 .0296924
679.973 .0296803
680.717 .0296692
681.460 .0296587
682.204 .0296495
682.947 .0296405
683.690 .0296320
684.433 .0296233
685.175 .0296137
685.917 .0296026
686.659 .0295903
687.401 .0295765
688.142 .0295618
688.884 .0295470
689.625 .0295319
690.365 .0295168
691.106 .0295022
691.846 .0294875
692.586 .0294729
693.326 .0294573
694.066 .0294407
694.805 .0294227
695.545 .0294034
696.284 .0293834
697.022 .0293625
697.761 .0293417
698.499 .0293211
699.237 .0293008
699.975 .0292809
700.713 .0292615
701.450 .0292426
702.187 .0292240
702.924 .0292055
703.661 .0291870
704.397 .0291683
705.133 .0291497
705.869 .0291312
706.605 .0291129
707.341 .0290946
708.076 .0290761
708.811 .0290569
709.546 .0290376
710.281 .0290174
711.015 .0289963
711.749 .0289740
712.483 .0289507
713.217 .0289264
713.950 .0289014
714.684 .0288761
715.417 .0288508
716.150 .0288261
716.882 .0288025
717.615 .0287795
718.347 .0287571
719.079 .0287351
719.811 .0287134
720.542 .0286917
721.273 .0286698
722.005 .0286473
722.735 .0286249
723.466 .0286026
724.196 .0285804
724.927 .0285584
725.656 .0285367
726.386 .0285155
727.116 .0284945
727.845 .0284737
728.574 .0284527
729.303 .0284315
730.031 .0284102
730.760 .0283891
731.488 .0283685
732.216 .0283486
732.944 .0283297
733.671 .0283123
734.398 .0282964
735.125 .0282820
735.852 .0282687
736.579 .0282564
737.305 .0282452
738.031 .0282345
738.757 .0282235
739.483 .0282124
740.208 .0282011
740.933 .0281895
741.658 .0281782
742.383 .0281668
743.108 .0281555
743.832 .0281445
744.556 .0281336
745.280 .0281226
746.004 .0281115
746.727 .0281010
747.450 .0280906
748.173 .0280805
748.896 .0280708
749.618 .0280613
750.340 .0280525
751.062 .0280440
751.784 .0280360
752.506 .0280277
753.227 .0280192
753.948 .0280102
754.669 .0280005
755.389 .0279907
756.110 .0279807
756.830 .0279707
757.550 .0279612
758.269 .0279519
758.989 .0279423
759.708 .0279326
760.427 .0279228
761.146 .0279129
761.864 .0279027
762.582 .0278922
763.300 .0278817
764.018 .0278715
764.736 .0278617
765.453 .0278522
766.170 .0278428
766.887 .0278337
767.603 .0278241
768.320 .0278141
769.036 .0278036
769.751 .0277930
770.467 .0277828
771.182 .0277735
771.897 .0277649
772.612 .0277573
773.327 .0277509
774.041 .0277451
774.755 .0277397
775.469 .0277348
776.183 .0277300
776.896 .0277256
777.609 .0277216
778.322 .0277180
779.035 .0277151
779.747 .0277134
780.459 .0277124
781.171 .0277118
781.882 .0277117
782.594 .0277113
783.305 .0277100
784.016 .0277084
784.726 .0277062
785.436 .0277033
786.147 .0277003
786.856 .0276976
787.566 .0276950
788.275 .0276927
788.984 .0276903
789.693 .0276874
790.401 .0276838
791.110 .0276793
791.818 .0276729
792.525 .0276655
793.233 .0276574
793.940 .0276485
794.647 .0276393
795.353 .0276305
796.060 .0276218
796.766 .0276133
797.472 .0276043
798.177 .0275945
798.883 .0275836
799.588 .0275718
800.292 .0275592
800.997 .0275460
801.701 .0275326
802.405 .0275191
803.109 .0275060
803.812 .0274934
804.515 .0274810
805.218 .0274681
805.921 .0274545
806.623 .0274403
807.325 .0274248
808.027 .0274084
808.728 .0273911
809.429 .0273733
810.130 .0273552
810.831 .0273368
811.531 .0273182
812.231 .0272988
812.931 .0272790
813.630 .0272590
814.330 .0272379
815.029 .0272160
815.727 .0271936
816.426 .0271709
817.124 .0271479
817.821 .0271247
818.519 .0271011
819.216 .0270780
819.913 .0270553
820.609 .0270331
821.306 .0270115
822.002 .0269914
822.697 .0269727
823.393 .0269547
824.088 .0269378
824.783 .0269215
825.477 .0269055
826.171 .0268898
826.865 .0268745
827.559 .0268596
828.252 .0268452
828.945 .0268315
829.638 .0268184
830.330 .0268061
831.023 .0267943
831.714 .0267825
832.406 .0267709
833.097 .0267588
833.788 .0267458
834.479 .0267316
835.169 .0267170
835.859 .0267017
836.548 .0266861
837.238 .0266702
837.927 .0266543
838.615 .0266388
839.304 .0266238
839.992 .0266090
840.680 .0265950
841.367 .0265813
842.054 .0265679
842.741 .0265539
843.428 .0265403
844.114 .0265262
844.800 .0265121
845.485 .0264979
846.170 .0264834
846.855 .0264686
847.540 .0264539
848.224 .0264391
848.908 .0264245
849.592 .0264102
850.275 .0263960
850.958 .0263813
851.641 .0263666
852.323 .0263508
853.005 .0263341
853.687 .0263165
854.368 .0262981
855.049 .0262787
855.730 .0262589
856.410 .0262387
857.090 .0262184
857.769 .0261987
858.449 .0261794
859.128 .0261609
859.806 .0261430
860.485 .0261259
861.163 .0261092
861.840 .0260932
862.518 .0260774
863.195 .0260620
863.871 .0260469
864.548 .0260323
865.224 .0260180
865.899 .0260041
866.574 .0259908
867.249 .0259783
867.924 .0259669
868.598 .0259564
869.272 .0259473
869.946 .0259400
870.619 .0259337
871.292 .0259282
871.964 .0259231
872.636 .0259178
873.308 .0259118
873.979 .0259052
874.651 .0258980
875.321 .0258907
875.992 .0258841
876.662 .0258784
877.331 .0258746
878.001 .0258725
878.670 .0258717
879.338 .0258718
880.007 .0258728
880.675 .0258742
881.342 .0258754
882.009 .0258773
882.676 .0258798
883.343 .0258835
884.009 .0258884
884.675 .0258944
885.340 .0259013
886.005 .0259091
886.670 .0259173
887.334 .0259255
887.998 .0259342
888.662 .0259430
889.325 .0259520
889.988 .0259617
890.650 .0259720
891.312 .0259827
891.974 .0259934
892.636 .0260039
893.297 .0260137
893.957 .0260229
894.618 .0260311
895.278 .0260391
895.937 .0260470
896.596 .0260553
897.255 .0260638
897.914 .0260726
898.572 .0260817
899.230 .0260906
899.887 .0260984
900.544 .0261049
901.201 .0261096
901.857 .0261125
902.513 .0261132
903.168 .0261121
903.823 .0261092
904.478 .0261048
905.132 .0260988
905.786 .0260916
906.440 .0260832
907.093 .0260740
907.746 .0260638
908.399 .0260528
909.051 .0260414
909.703 .0260296
910.354 .0260176
911.005 .0260061
911.656 .0259950
912.306 .0259842
912.956 .0259738
913.605 .0259639
914.254 .0259547
914.903 .0259463
915.551 .0259385
916.199 .0259313
916.847 .0259247
917.494 .0259187
918.141 .0259131
918.788 .0259077
919.434 .0259032
920.079 .0258983
920.725 .0258932
921.370 .0258871
922.014 .0258804
922.658 .0258730
923.302 .0258651
923.946 .0258562
924.589 .0258464
925.231 .0258355
925.873 .0258236
926.515 .0258109
927.157 .0257977
927.798 .0257836
928.439 .0257684
929.079 .0257523
929.719 .0257353
930.359 .0257171
930.998 .0256984
931.637 .0256789
932.275 .0256592
932.913 .0256392
933.551 .0256187
934.188 .0255987
934.825 .0255798
935.462 .0255622
936.098 .0255458
936.733 .0255307
937.369 .0255169
938.004 .0255038
938.638 .0254915
939.273 .0254795
939.907 .0254685
940.540 .0254585
941.173 .0254494
941.806 .0254417
942.438 .0254355
943.070 .0254302
943.702 .0254254
944.333 .0254207
944.964 .0254153
945.594 .0254086
946.224 .0254004
946.854 .0253911
947.483 .0253810
948.112 .0253706
948.741 .0253600
949.369 .0253495
949.996 .0253389
950.624 .0253274
951.251 .0253146
951.878 .0253000
952.504 .0252832
953.130 .0252642
953.755 .0252435
954.380 .0252217
955.005 .0251991
955.629 .0251767
956.253 .0251546
956.877 .0251335
957.500 .0251130
958.123 .0250924
958.746 .0250717
959.368 .0250505
959.990 .0250286
960.611 .0250063
961.232 .0249838
961.853 .0249621
962.473 .0249412
963.093 .0249213
963.712 .0249023
964.331 .0248839
964.950 .0248661
965.569 .0248488
966.187 .0248319
966.804 .0248152
967.422 .0247993
968.039 .0247844
968.655 .0247702
969.272 .0247568
969.887 .0247438
970.503 .0247307
971.118 .0247170
971.733 .0247024
972.347 .0246862
972.961 .0246692
973.575 .0246512
974.188 .0246323
974.801 .0246131
975.414 .0245937
976.026 .0245736
976.638 .0245528
977.250 .0245312
977.861 .0245085
978.472 .0244846
979.083 .0244602
979.693 .0244349
980.303 .0244097
980.912 .0243849
981.521 .0243605
982.130 .0243375
982.738 .0243158
983.346 .0242955
983.954 .0242760
984.562 .0242574
985.169 .0242386
985.775 .0242194
986.382 .0242000
986.988 .0241802
987.594 .0241602
988.199 .0241399
988.804 .0241196
989.409 .0240994
990.013 .0240799
990.617 .0240606
991.221 .0240415
991.824 .0240232
992.427 .0240054
993.030 .0239882
993.632 .0239717
994.234 .0239566
994.836 .0239426
995.438 .0239300
996.039 .0239187
996.640 .0239073
997.240 .0238965
997.840 .0238864
998.440 .0238763
999.040 .0238667
999.639 .0238580
1000.238 .0238498
1000.836 .0238422
1001.435 .0238358
1002.033 .0238294
1002.630 .0238228
1003.228 .0238167
1003.825 .0238100
1004.422 .0238025
1005.018 .0237955
1005.614 .0237886
1006.210 .0237828
1006.806 .0237789
1007.401 .0237764
1007.996 .0237750
1008.591 .0237754
1009.186 .0237770
1009.780 .0237786
1010.374 .0237801
1010.967 .0237810
1011.561 .0237812
1012.154 .0237812
1012.746 .0237812
1013.339 .0237814
1013.931 .0237831
1014.523 .0237861
1015.115 .0237897
1015.706 .0237942
1016.298 .0237988
1016.888 .0238035
1017.479 .0238081
1018.069 .0238117
1018.660 .0238147
1019.250 .0238172
1019.839 .0238196
1020.429 .0238221
1021.018 .0238255
1021.607 .0238292
1022.195 .0238332
1022.784 .0238381
1023.372 .0238431
1023.960 .0238485
1024.547 .0238549
1025.135 .0238625
1025.722 .0238709
1026.309 .0238805
1026.896 .0238909
1027.483 .0239014
1028.069 .0239129
1028.655 .0239247
1029.241 .0239358
1029.827 .0239475
1030.412 .0239593
1030.997 .0239714
1031.582 .0239843
1032.167 .0239981
1032.752 .0240115
1033.336 .0240252
1033.921 .0240384
1034.505 .0240499
1035.089 .0240597
1035.672 .0240686
1036.256 .0240760
1036.839 .0240827
1037.422 .0240892
1038.005 .0240958
1038.588 .0241035
1039.171 .0241126
1039.753 .0241222
1040.335 .0241329
1040.918 .0241440
1041.500 .0241550
1042.081 .0241657
1042.663 .0241759
1043.244 .0241856
1043.826 .0241948
1044.407 .0242044
1044.988 .0242140
1045.569 .0242243
1046.150 .0242350
1046.730 .0242462
1047.311 .0242583
1047.891 .0242702
1048.471 .0242810
1049.052 .0242912
1049.632 .0243013
1050.211 .0243113
1050.791 .0243220
1051.371 .0243338
1051.950 .0243477
1052.530 .0243632
1053.109 .0243796
1053.688 .0243962
1054.268 .0244129
1054.847 .0244292
1055.426 .0244434
1056.005 .0244560
1056.583 .0244675
1057.162 .0244780
1057.741 .0244884
1058.319 .0244996
1058.898 .0245114
1059.476 .0245227
1060.055 .0245340
1060.633 .0245447
1061.211 .0245552
1061.790 .0245652
1062.368 .0245763
1062.946 .0245876
1063.524 .0246007
1064.102 .0246147
1064.680 .0246300
1065.258 .0246469
1065.836 .0246665
1066.414 .0246873
1066.992 .0247094
1067.570 .0247333
1068.148 .0247579
1068.726 .0247813
1069.304 .0248046
1069.882 .0248255
1070.460 .0248426
1071.038 .0248549
1071.616 .0248632
1072.194 .0248669
1072.772 .0248694
1073.350 .0248712
1073.928 .0248739
1074.506 .0248794
1075.084 .0248870
1075.662 .0248950
1076.240 .0249037
1076.819 .0249121
1077.397 .0249173
1077.976 .0249205
1078.554 .0249226
1079.133 .0249246
1079.711 .0249281
1080.290 .0249346
1080.869 .0249444
1081.448 .0249570
1082.027 .0249725
1082.606 .0249869
1083.185 .0250002
1083.764 .0250116
1084.343 .0250196
1084.923 .0250265
1085.502 .0250336
1086.082 .0250415
1086.662 .0250519
1087.242 .0250655
1087.822 .0250815
1088.402 .0251003
1088.983 .0251213
1089.563 .0251433
1090.144 .0251653
1090.725 .0251884
1091.306 .0252106
1091.887 .0252323
1092.469 .0252554
1093.050 .0252779
1093.632 .0253014
1094.214 .0253255
1094.796 .0253502
1095.379 .0253750
1095.961 .0254011
1096.544 .0254285
1097.127 .0254577
1097.710 .0254888
1098.294 .0255207
1098.877 .0255527
1099.461 .0255836
1100.046 .0256147
1100.630 .0256445
1101.215 .0256740
1101.800 .0257047
1102.385 .0257347
1102.970 .0257649
1103.556 .0257944
1104.142 .0258250
1104.728 .0258526
1105.315 .0258774
1105.902 .0258989
1106.489 .0259138
1107.077 .0259260
1107.664 .0259380
1108.253 .0259525
1108.841 .0259709
1109.430 .0259936
1110.019 .0260207
1110.609 .0260508
1111.198 .0260834
1111.789 .0261149
1112.379 .0261455
1112.970 .0261769
1113.561 .0262082
1114.153 .0262373
1114.745 .0262711
1115.338 .0263096
1115.931 .0263524
1116.524 .0263986
1117.117 .0264426
1117.712 .0264831
1118.306 .0265154
1118.901 .0265417
1119.496 .0265622
1120.092 .0265806
1120.689 .0266018
1121.285 .0266245
1121.882 .0266538
1122.480 .0266906
1123.078 .0267304
1123.677 .0267764
1124.276 .0268236
1124.875 .0268707
1125.476 .0269156
1126.076 .0269622
1126.677 .0270121
1127.279 .0270685
1127.881 .0271311
1128.484 .0272023
1129.087 .0272750
1129.691 .0273513
1130.295 .0274272
1130.900 .0275024
1131.505 .0275788
1132.111 .0276584
1132.718 .0277431
1133.325 .0278394
1133.933 .0279408
1134.541 .0280530
1135.150 .0281703
1135.760 .0282931
1136.370 .0284151
1136.981 .0285378
1137.592 .0286589
1138.204 .0287786
1138.817 .0289081
1139.431 .0290485
1140.045 .0291987
1140.660 .0293548
1141.275 .0295318
1141.891 .0297420
1142.508 .0299833
1143.126 .0301235
1143.744 .0300110
1144.363 .0306940
1144.983 .0314668
