Measurement Sequence started on: 15-12-46-377
Integration time: 28
Scans to Average: 2 
>>>>>Begin Spectral Data<<<<<
432.689 .0000100
433.621 .0000100
434.552 .0000100
435.482 .0000100
436.410 .0000100
437.337 .0000100
438.262 .0272407
439.187 .0578665
440.110 .0959686
441.031 .1390086
441.952 .1808417
442.871 .2138911
443.789 .2321457
444.705 .2335257
445.621 .2204837
446.535 .1984977
447.447 .1735254
448.359 .1352859
449.269 .1162730
450.178 .1043235
451.086 .0959670
451.993 .0896826
452.898 .0847433
453.803 .0807525
454.706 .0774620
455.608 .0746649
456.508 .0722224
457.408 .0700929
458.306 .0681992
459.204 .0665031
460.100 .0649770
460.995 .0635829
461.888 .0623087
462.781 .0611396
463.673 .0600404
464.563 .0590101
465.452 .0580351
466.340 .0570965
467.228 .0562048
468.114 .0553645
468.999 .0545766
469.882 .0538341
470.765 .0531402
471.647 .0524985
472.528 .0519044
473.407 .0513675
474.286 .0508807
475.163 .0504510
476.040 .0500849
476.915 .0497685
477.790 .0495036
478.663 .0492891
479.535 .0491137
480.407 .0489681
481.277 .0488492
482.147 .0487517
483.015 .0486737
483.883 .0486175
484.749 .0485802
485.615 .0485645
486.479 .0485709
487.343 .0485959
488.206 .0486348
489.067 .0486873
489.928 .0487509
490.788 .0488205
491.647 .0489102
492.505 .0490202
493.362 .0491476
494.218 .0493023
495.073 .0494823
495.928 .0496853
496.781 .0499061
497.634 .0501500
498.486 .0504119
499.337 .0506931
500.187 .0509903
501.036 .0512996
501.884 .0516301
502.731 .0519899
503.578 .0523756
504.424 .0527873
505.268 .0532259
506.113 .0536832
506.956 .0541472
507.798 .0546443
508.640 .0551688
509.480 .0557516
510.320 .0564068
511.160 .0571585
511.998 .0580188
512.836 .0590144
513.672 .0601591
514.508 .0614705
515.344 .0629545
516.178 .0646266
517.012 .0664833
517.845 .0685806
518.677 .0709203
519.508 .0735264
520.339 .0764735
521.169 .0798103
521.998 .0835470
522.826 .0877434
523.654 .0924171
524.481 .0975835
525.307 .1032725
526.133 .1094286
526.958 .1159903
527.782 .1229608
528.605 .1301978
529.428 .1375735
530.250 .1446805
531.072 .1512426
531.892 .1568454
532.712 .1612593
533.532 .1641961
534.350 .1652664
535.168 .1644888
535.986 .1618781
536.802 .1575751
537.618 .1518828
538.434 .1451013
539.249 .1376878
540.063 .1299695
540.876 .1222822
541.689 .1147617
542.501 .1076605
543.313 .1012133
544.124 .0953150
544.934 .0899939
545.744 .0851816
546.553 .0808553
547.361 .0769914
548.169 .0736178
548.976 .0706226
549.783 .0679715
550.589 .0656574
551.395 .0635995
552.200 .0617547
553.004 .0601080
553.808 .0586104
554.611 .0572702
555.414 .0560787
556.216 .0550098
557.018 .0540467
557.819 .0531815
558.619 .0523839
559.419 .0516404
560.218 .0509412
561.017 .0502677
561.815 .0496094
562.613 .0489785
563.410 .0483672
564.207 .0477763
565.003 .0472074
565.799 .0466534
566.594 .0461149
567.388 .0455900
568.182 .0450658
568.976 .0445400
569.769 .0440093
570.562 .0434752
571.354 .0429364
572.145 .0424046
572.936 .0418732
573.727 .0413475
574.517 .0408362
575.307 .0403432
576.096 .0398689
576.885 .0394165
577.673 .0389888
578.461 .0385847
579.248 .0382016
580.035 .0378348
580.821 .0374816
581.607 .0371437
582.392 .0368208
583.177 .0365131
583.962 .0362211
584.746 .0359555
585.529 .0357128
586.313 .0354969
587.095 .0353081
587.878 .0351451
588.660 .0350047
589.441 .0348828
590.222 .0347764
591.003 .0346823
591.783 .0345977
592.563 .0345218
593.342 .0344514
594.121 .0343860
594.899 .0343243
595.678 .0342633
596.455 .0342037
597.233 .0341456
598.009 .0340873
598.786 .0340292
599.562 .0339728
600.338 .0339185
601.113 .0338658
601.888 .0338144
602.663 .0337638
603.437 .0337134
604.211 .0336619
604.984 .0336095
605.757 .0335559
606.530 .0335022
607.302 .0334502
608.074 .0334013
608.845 .0333575
609.616 .0333200
610.387 .0332896
611.158 .0332651
611.928 .0332459
612.697 .0332298
613.467 .0332148
614.236 .0331997
615.004 .0331842
615.773 .0331687
616.541 .0331534
617.308 .0331396
618.076 .0331284
618.843 .0331200
619.609 .0331157
620.375 .0331134
621.141 .0331119
621.907 .0331105
622.672 .0331072
623.437 .0331005
624.202 .0330892
624.966 .0330737
625.730 .0330540
626.493 .0330302
627.257 .0330037
628.020 .0329750
628.782 .0329443
629.545 .0329121
630.307 .0328777
631.068 .0328407
631.830 .0328013
632.591 .0327586
633.352 .0327144
634.112 .0326693
634.872 .0326238
635.632 .0325793
636.392 .0325355
637.151 .0324943
637.910 .0324543
638.668 .0324155
639.427 .0323768
640.185 .0323375
640.943 .0322981
641.700 .0322581
642.457 .0322181
643.214 .0321796
643.971 .0321422
644.727 .0321065
645.483 .0320715
646.239 .0320364
646.994 .0320003
647.750 .0319637
648.505 .0319254
649.259 .0318862
650.014 .0318462
650.768 .0318062
651.521 .0317666
652.275 .0317285
653.028 .0316926
653.781 .0316580
654.534 .0316252
655.286 .0315936
656.039 .0315629
656.791 .0315333
657.542 .0315040
658.294 .0314758
659.045 .0314486
659.796 .0314214
660.546 .0313941
661.297 .0313662
662.047 .0313381
662.796 .0313091
663.546 .0312800
664.295 .0312510
665.044 .0312230
665.793 .0311960
666.542 .0311708
667.290 .0311474
668.038 .0311256
668.786 .0311042
669.533 .0310828
670.281 .0310613
671.028 .0310388
671.774 .0310156
672.521 .0309927
673.267 .0309707
674.013 .0309503
674.759 .0309317
675.505 .0309154
676.250 .0309013
676.995 .0308886
677.740 .0308767
678.484 .0308650
679.229 .0308529
679.973 .0308400
680.717 .0308265
681.460 .0308123
682.204 .0307980
682.947 .0307840
683.690 .0307711
684.433 .0307592
685.175 .0307491
685.917 .0307398
686.659 .0307314
687.401 .0307238
688.142 .0307163
688.884 .0307082
689.625 .0306997
690.365 .0306906
691.106 .0306804
691.846 .0306694
692.586 .0306583
693.326 .0306466
694.066 .0306352
694.805 .0306233
695.545 .0306106
696.284 .0305965
697.022 .0305809
697.761 .0305632
698.499 .0305430
699.237 .0305205
699.975 .0304957
700.713 .0304689
701.450 .0304415
702.187 .0304136
702.924 .0303858
703.661 .0303588
704.397 .0303325
705.133 .0303065
705.869 .0302812
706.605 .0302559
707.341 .0302307
708.076 .0302060
708.811 .0301819
709.546 .0301583
710.281 .0301355
711.015 .0301137
711.749 .0300926
712.483 .0300720
713.217 .0300517
713.950 .0300308
714.684 .0300095
715.417 .0299875
716.150 .0299641
716.882 .0299399
717.615 .0299145
718.347 .0298881
719.079 .0298608
719.811 .0298326
720.542 .0298037
721.273 .0297738
722.005 .0297428
722.735 .0297114
723.466 .0296790
724.196 .0296465
724.927 .0296137
725.656 .0295811
726.386 .0295488
727.116 .0295166
727.845 .0294846
728.574 .0294531
729.303 .0294220
730.031 .0293922
730.760 .0293632
731.488 .0293360
732.216 .0293108
732.944 .0292877
733.671 .0292671
734.398 .0292487
735.125 .0292316
735.852 .0292158
736.579 .0292002
737.305 .0291846
738.031 .0291686
738.757 .0291526
739.483 .0291365
740.208 .0291208
740.933 .0291059
741.658 .0290921
742.383 .0290791
743.108 .0290670
743.832 .0290555
744.556 .0290445
745.280 .0290336
746.004 .0290225
746.727 .0290117
747.450 .0290014
748.173 .0289920
748.896 .0289840
749.618 .0289771
750.340 .0289714
751.062 .0289668
751.784 .0289624
752.506 .0289578
753.227 .0289525
753.948 .0289458
754.669 .0289374
755.389 .0289279
756.110 .0289174
756.830 .0289058
757.550 .0288942
758.269 .0288831
758.989 .0288723
759.708 .0288621
760.427 .0288523
761.146 .0288426
761.864 .0288329
762.582 .0288229
763.300 .0288121
764.018 .0288010
764.736 .0287904
765.453 .0287803
766.170 .0287708
766.887 .0287624
767.603 .0287550
768.320 .0287484
769.036 .0287427
769.751 .0287375
770.467 .0287326
771.182 .0287281
771.897 .0287236
772.612 .0287190
773.327 .0287142
774.041 .0287097
774.755 .0287055
775.469 .0287020
776.183 .0286997
776.896 .0286985
777.609 .0286988
778.322 .0287003
779.035 .0287031
779.747 .0287066
780.459 .0287104
781.171 .0287140
781.882 .0287171
782.594 .0287194
783.305 .0287209
784.016 .0287219
784.726 .0287230
785.436 .0287244
786.147 .0287262
786.856 .0287287
787.566 .0287315
788.275 .0287344
788.984 .0287372
789.693 .0287387
790.401 .0287392
791.110 .0287378
791.818 .0287345
792.525 .0287298
793.233 .0287240
793.940 .0287170
794.647 .0287091
795.353 .0287005
796.060 .0286910
796.766 .0286800
797.472 .0286678
798.177 .0286535
798.883 .0286373
799.588 .0286195
800.292 .0286004
800.997 .0285801
801.701 .0285599
802.405 .0285397
803.109 .0285200
803.812 .0285009
804.515 .0284820
805.218 .0284631
805.921 .0284439
806.623 .0284241
807.325 .0284031
808.027 .0283814
808.728 .0283595
809.429 .0283369
810.130 .0283140
810.831 .0282909
811.531 .0282672
812.231 .0282425
812.931 .0282164
813.630 .0281888
814.330 .0281596
815.029 .0281293
815.727 .0280981
816.426 .0280665
817.124 .0280351
817.821 .0280042
818.519 .0279740
819.216 .0279450
819.913 .0279171
820.609 .0278900
821.306 .0278636
822.002 .0278386
822.697 .0278145
823.393 .0277917
824.088 .0277702
824.783 .0277500
825.477 .0277304
826.171 .0277113
826.865 .0276928
827.559 .0276745
828.252 .0276568
828.945 .0276394
829.638 .0276222
830.330 .0276054
831.023 .0275890
831.714 .0275729
832.406 .0275572
833.097 .0275419
833.788 .0275264
834.479 .0275108
835.169 .0274953
835.859 .0274802
836.548 .0274655
837.238 .0274516
837.927 .0274385
838.615 .0274260
839.304 .0274142
839.992 .0274026
840.680 .0273916
841.367 .0273810
842.054 .0273712
842.741 .0273618
843.428 .0273529
844.114 .0273451
844.800 .0273381
845.485 .0273317
846.170 .0273255
846.855 .0273195
847.540 .0273131
848.224 .0273064
848.908 .0272995
849.592 .0272923
850.275 .0272853
850.958 .0272782
851.641 .0272708
852.323 .0272627
853.005 .0272539
853.687 .0272435
854.368 .0272319
855.049 .0272190
855.730 .0272050
856.410 .0271903
857.090 .0271755
857.769 .0271610
858.449 .0271467
859.128 .0271330
859.806 .0271194
860.485 .0271059
861.163 .0270924
861.840 .0270792
862.518 .0270666
863.195 .0270549
863.871 .0270444
864.548 .0270351
865.224 .0270275
865.899 .0270213
866.574 .0270160
867.249 .0270117
867.924 .0270079
868.598 .0270049
869.272 .0270024
869.946 .0270015
870.619 .0270016
871.292 .0270035
871.964 .0270064
872.636 .0270100
873.308 .0270141
873.979 .0270179
874.651 .0270209
875.321 .0270231
875.992 .0270248
876.662 .0270261
877.331 .0270270
878.001 .0270286
878.670 .0270305
879.338 .0270332
880.007 .0270367
880.675 .0270410
881.342 .0270457
882.009 .0270510
882.676 .0270562
883.343 .0270619
884.009 .0270681
884.675 .0270745
885.340 .0270816
886.005 .0270898
886.670 .0270991
887.334 .0271094
887.998 .0271208
888.662 .0271333
889.325 .0271464
889.988 .0271602
890.650 .0271742
891.312 .0271883
891.974 .0272029
892.636 .0272176
893.297 .0272321
893.957 .0272470
894.618 .0272614
895.278 .0272759
895.937 .0272902
896.596 .0273042
897.255 .0273179
897.914 .0273307
898.572 .0273427
899.230 .0273534
899.887 .0273623
900.544 .0273693
901.201 .0273737
901.857 .0273759
902.513 .0273751
903.168 .0273715
903.823 .0273653
904.478 .0273566
905.132 .0273457
905.786 .0273330
906.440 .0273186
907.093 .0273028
907.746 .0272862
908.399 .0272684
909.051 .0272501
909.703 .0272310
910.354 .0272111
911.005 .0271907
911.656 .0271699
912.306 .0271489
912.956 .0271277
913.605 .0271068
914.254 .0270865
914.903 .0270663
915.551 .0270473
916.199 .0270288
916.847 .0270108
917.494 .0269936
918.141 .0269767
918.788 .0269594
919.434 .0269417
920.079 .0269230
920.725 .0269034
921.370 .0268828
922.014 .0268612
922.658 .0268382
923.302 .0268143
923.946 .0267898
924.589 .0267641
925.231 .0267370
925.873 .0267091
926.515 .0266798
927.157 .0266495
927.798 .0266178
928.439 .0265847
929.079 .0265504
929.719 .0265156
930.359 .0264801
930.998 .0264443
931.637 .0264086
932.275 .0263740
932.913 .0263400
933.551 .0263068
934.188 .0262749
934.825 .0262438
935.462 .0262139
936.098 .0261848
936.733 .0261566
937.369 .0261292
938.004 .0261030
938.638 .0260779
939.273 .0260541
939.907 .0260317
940.540 .0260104
941.173 .0259902
941.806 .0259711
942.438 .0259525
943.070 .0259346
943.702 .0259172
944.333 .0259003
944.964 .0258837
945.594 .0258675
946.224 .0258515
946.854 .0258361
947.483 .0258207
948.112 .0258056
948.741 .0257904
949.369 .0257750
949.996 .0257595
950.624 .0257438
951.251 .0257278
951.878 .0257114
952.504 .0256945
953.130 .0256770
953.755 .0256584
954.380 .0256390
955.005 .0256187
955.629 .0255972
956.253 .0255746
956.877 .0255508
957.500 .0255267
958.123 .0255024
958.746 .0254779
959.368 .0254531
959.990 .0254285
960.611 .0254036
961.232 .0253783
961.853 .0253528
962.473 .0253276
963.093 .0253022
963.712 .0252775
964.331 .0252535
964.950 .0252309
965.569 .0252102
966.187 .0251912
966.804 .0251736
967.422 .0251571
968.039 .0251408
968.655 .0251241
969.272 .0251069
969.887 .0250893
970.503 .0250714
971.118 .0250533
971.733 .0250354
972.347 .0250177
972.961 .0250007
973.575 .0249843
974.188 .0249682
974.801 .0249518
975.414 .0249345
976.026 .0249156
976.638 .0248955
977.250 .0248745
977.861 .0248534
978.472 .0248328
979.083 .0248131
979.693 .0247947
980.303 .0247777
980.912 .0247620
981.521 .0247478
982.130 .0247344
982.738 .0247221
983.346 .0247104
983.954 .0246994
984.562 .0246892
985.169 .0246803
985.775 .0246728
986.382 .0246666
986.988 .0246613
987.594 .0246568
988.199 .0246531
988.804 .0246497
989.409 .0246462
990.013 .0246432
990.617 .0246401
991.221 .0246367
991.824 .0246328
992.427 .0246290
993.030 .0246254
993.632 .0246224
994.234 .0246201
994.836 .0246186
995.438 .0246181
996.039 .0246185
996.640 .0246198
997.240 .0246226
997.840 .0246270
998.440 .0246331
999.040 .0246408
999.639 .0246504
1000.238 .0246612
1000.836 .0246730
1001.435 .0246856
1002.033 .0246992
1002.630 .0247127
1003.228 .0247262
1003.825 .0247398
1004.422 .0247539
1005.018 .0247686
1005.614 .0247843
1006.210 .0248010
1006.806 .0248185
1007.401 .0248366
1007.996 .0248543
1008.591 .0248716
1009.186 .0248882
1009.780 .0249037
1010.374 .0249183
1010.967 .0249317
1011.561 .0249444
1012.154 .0249566
1012.746 .0249688
1013.339 .0249810
1013.931 .0249936
1014.523 .0250064
1015.115 .0250192
1015.706 .0250320
1016.298 .0250450
1016.888 .0250583
1017.479 .0250719
1018.069 .0250859
1018.660 .0251007
1019.250 .0251169
1019.839 .0251348
1020.429 .0251541
1021.018 .0251757
1021.607 .0251995
1022.195 .0252252
1022.784 .0252520
1023.372 .0252800
1023.960 .0253084
1024.547 .0253370
1025.135 .0253652
1025.722 .0253929
1026.309 .0254200
1026.896 .0254466
1027.483 .0254727
1028.069 .0254988
1028.655 .0255247
1029.241 .0255499
1029.827 .0255747
1030.412 .0255999
1030.997 .0256253
1031.582 .0256501
1032.167 .0256742
1032.752 .0256988
1033.336 .0257228
1033.921 .0257467
1034.505 .0257700
1035.089 .0257928
1035.672 .0258155
1036.256 .0258375
1036.839 .0258585
1037.422 .0258786
1038.005 .0258984
1038.588 .0259172
1039.171 .0259351
1039.753 .0259524
1040.335 .0259682
1040.918 .0259826
1041.500 .0259963
1042.081 .0260089
1042.663 .0260193
1043.244 .0260288
1043.826 .0260364
1044.407 .0260428
1044.988 .0260487
1045.569 .0260535
1046.150 .0260583
1046.730 .0260640
1047.311 .0260708
1047.891 .0260774
1048.471 .0260847
1049.052 .0260926
1049.632 .0260996
1050.211 .0261066
1050.791 .0261130
1051.371 .0261186
1051.950 .0261242
1052.530 .0261302
1053.109 .0261357
1053.688 .0261413
1054.268 .0261467
1054.847 .0261515
1055.426 .0261557
1056.005 .0261588
1056.583 .0261609
1057.162 .0261615
1057.741 .0261614
1058.319 .0261611
1058.898 .0261612
1059.476 .0261621
1060.055 .0261635
1060.633 .0261665
1061.211 .0261702
1061.790 .0261756
1062.368 .0261821
1062.946 .0261895
1063.524 .0261987
1064.102 .0262092
1064.680 .0262202
1065.258 .0262314
1065.836 .0262423
1066.414 .0262518
1066.992 .0262595
1067.570 .0262653
1068.148 .0262684
1068.726 .0262685
1069.304 .0262667
1069.882 .0262641
1070.460 .0262592
1071.038 .0262537
1071.616 .0262473
1072.194 .0262414
1072.772 .0262359
1073.350 .0262308
1073.928 .0262275
1074.506 .0262253
1075.084 .0262243
1075.662 .0262235
1076.240 .0262223
1076.819 .0262215
1077.397 .0262212
1077.976 .0262200
1078.554 .0262179
1079.133 .0262153
1079.711 .0262106
1080.290 .0262043
1080.869 .0261962
1081.448 .0261846
1082.027 .0261696
1082.606 .0261517
1083.185 .0261312
1083.764 .0261084
1084.343 .0260867
1084.923 .0260665
1085.502 .0260481
1086.082 .0260314
1086.662 .0260181
1087.242 .0260073
1087.822 .0259998
1088.402 .0259948
1088.983 .0259918
1089.563 .0259909
1090.144 .0259912
1090.725 .0259923
1091.306 .0259953
1091.887 .0259986
1092.469 .0260026
1093.050 .0260043
1093.632 .0260044
1094.214 .0260013
1094.796 .0259961
1095.379 .0259904
1095.961 .0259868
1096.544 .0259841
1097.127 .0259838
1097.710 .0259861
1098.294 .0259925
1098.877 .0260016
1099.461 .0260125
1100.046 .0260262
1100.630 .0260421
1101.215 .0260589
1101.800 .0260771
1102.385 .0260969
1102.970 .0261197
1103.556 .0261434
1104.142 .0261676
1104.728 .0261916
1105.315 .0262150
1105.902 .0262369
1106.489 .0262560
1107.077 .0262735
1107.664 .0262904
1108.253 .0263047
1108.841 .0263168
1109.430 .0263290
1110.019 .0263420
1110.609 .0263542
1111.198 .0263660
1111.789 .0263782
1112.379 .0263903
1112.970 .0264018
1113.561 .0264120
1114.153 .0264220
1114.745 .0264333
1115.338 .0264478
1115.931 .0264657
1116.524 .0264875
1117.117 .0265149
1117.712 .0265456
1118.306 .0265805
1118.901 .0266203
1119.496 .0266622
1120.092 .0267032
1120.689 .0267458
1121.285 .0267913
1121.882 .0268362
1122.480 .0268823
1123.078 .0269337
1123.677 .0269884
1124.276 .0270465
1124.875 .0271073
1125.476 .0271672
1126.076 .0272283
1126.677 .0272900
1127.279 .0273442
1127.881 .0273974
1128.484 .0274491
1129.087 .0274974
1129.691 .0275462
1130.295 .0275999
1130.900 .0276572
1131.505 .0277172
1132.111 .0277856
1132.718 .0278593
1133.325 .0279362
1133.933 .0280217
1134.541 .0281129
1135.150 .0282125
1135.760 .0283202
1136.370 .0284283
1136.981 .0285453
1137.592 .0286707
1138.204 .0288002
1138.817 .0289297
1139.431 .0290637
1140.045 .0292083
1140.660 .0293635
1141.275 .0295134
1141.891 .0296679
1142.508 .0297604
1143.126 .0300929
1143.744 .0304050
1144.363 .0301472
1144.983 .0303344
