Measurement Sequence started on: 15-12-46-377
Integration time: 28
Scans to Average: 2 
>>>>>Begin Spectral Data<<<<<
432.689 .0000100
433.621 .0000100
434.552 .0000100
435.482 .0000100
436.410 .0000100
437.337 .0000100
438.262 .0266807
439.187 .0564167
440.110 .0933261
441.031 .1348729
441.952 .1751303
442.871 .2066629
443.789 .2237055
444.705 .2243536
445.621 .2111093
446.535 .1893389
447.447 .1648576
448.359 .1275151
449.269 .1091996
450.178 .0977297
451.086 .0896801
451.993 .0835087
452.898 .0786234
453.803 .0746210
454.706 .0712728
455.608 .0684220
456.508 .0659746
457.408 .0638664
458.306 .0620443
459.204 .0604398
460.100 .0589981
460.995 .0577062
461.888 .0565377
462.781 .0554501
463.673 .0544333
464.563 .0534955
465.452 .0526026
466.340 .0517613
467.228 .0509845
468.114 .0502518
468.999 .0495833
469.882 .0489742
470.765 .0484222
471.647 .0479306
472.528 .0475072
473.407 .0471334
474.286 .0468027
475.163 .0465218
476.040 .0462728
476.915 .0460488
477.790 .0458524
478.663 .0456830
479.535 .0455356
480.407 .0454252
481.277 .0453407
482.147 .0452827
483.015 .0452611
483.883 .0452593
484.749 .0452747
485.615 .0453005
486.479 .0453307
487.343 .0453615
488.206 .0453909
489.067 .0454227
489.928 .0454544
490.788 .0454981
491.647 .0455522
492.505 .0456177
493.362 .0457043
494.218 .0458056
495.073 .0459268
495.928 .0460736
496.781 .0462376
497.634 .0464182
498.486 .0466194
499.337 .0468383
500.187 .0470817
501.036 .0473567
501.884 .0476660
502.731 .0480130
503.578 .0484049
504.424 .0488375
505.268 .0493028
506.113 .0498011
506.956 .0503259
507.798 .0508731
508.640 .0514560
509.480 .0520749
510.320 .0527461
511.160 .0534976
511.998 .0543327
512.836 .0552629
513.672 .0563008
514.508 .0574510
515.344 .0587138
516.178 .0601111
517.012 .0616664
517.845 .0634285
518.677 .0654331
519.508 .0677064
520.339 .0703049
521.169 .0733248
521.998 .0767562
522.826 .0806500
523.654 .0850430
524.481 .0899417
525.307 .0953729
526.133 .1013273
526.958 .1077383
527.782 .1145551
528.605 .1216067
529.428 .1286951
530.250 .1353480
531.072 .1413530
531.892 .1462923
532.712 .1499207
533.532 .1520972
534.350 .1526400
535.168 .1514997
535.986 .1488654
536.802 .1448503
537.618 .1397143
538.434 .1336846
539.249 .1271703
540.063 .1203413
540.876 .1135442
541.689 .1069272
542.501 .1006780
543.313 .0949511
544.124 .0897997
544.934 .0851138
545.744 .0808948
546.553 .0770834
547.361 .0736638
548.169 .0706007
548.976 .0678683
549.783 .0654106
550.589 .0632348
551.395 .0612634
552.200 .0594754
553.004 .0578246
553.808 .0562867
554.611 .0548447
555.414 .0535017
556.216 .0522441
557.018 .0510944
557.819 .0500493
558.619 .0491040
559.419 .0482472
560.218 .0474775
561.017 .0467760
561.815 .0461296
562.613 .0455213
563.410 .0449413
564.207 .0443688
565.003 .0438187
565.799 .0432860
566.594 .0427726
567.388 .0422810
568.182 .0418057
568.976 .0413385
569.769 .0408779
570.562 .0404192
571.354 .0399554
572.145 .0394907
572.936 .0390250
573.727 .0385547
574.517 .0380891
575.307 .0376354
576.096 .0371986
576.885 .0367770
577.673 .0363800
578.461 .0360063
579.248 .0356555
580.035 .0353308
580.821 .0350272
581.607 .0347491
582.392 .0344940
583.177 .0342635
583.962 .0340582
584.746 .0338775
585.529 .0337206
586.313 .0335814
587.095 .0334583
587.878 .0333447
588.660 .0332388
589.441 .0331395
590.222 .0330444
591.003 .0329545
591.783 .0328674
592.563 .0327838
593.342 .0327042
594.121 .0326294
594.899 .0325591
595.678 .0324930
596.455 .0324310
597.233 .0323715
598.009 .0323140
598.786 .0322580
599.562 .0322038
600.338 .0321499
601.113 .0320970
601.888 .0320450
602.663 .0319933
603.437 .0319441
604.211 .0318966
604.984 .0318520
605.757 .0318102
606.530 .0317710
607.302 .0317330
608.074 .0316961
608.845 .0316605
609.616 .0316250
610.387 .0315902
611.158 .0315567
611.928 .0315240
612.697 .0314930
613.467 .0314642
614.236 .0314377
615.004 .0314126
615.773 .0313893
616.541 .0313665
617.308 .0313444
618.076 .0313229
618.843 .0313017
619.609 .0312808
620.375 .0312616
621.141 .0312439
621.907 .0312273
622.672 .0312119
623.437 .0311975
624.202 .0311832
624.966 .0311690
625.730 .0311538
626.493 .0311379
627.257 .0311214
628.020 .0311054
628.782 .0310893
629.545 .0310727
630.307 .0310557
631.068 .0310375
631.830 .0310177
632.591 .0309953
633.352 .0309699
634.112 .0309417
634.872 .0309113
635.632 .0308796
636.392 .0308471
637.151 .0308153
637.910 .0307849
638.668 .0307563
639.427 .0307294
640.185 .0307033
640.943 .0306775
641.700 .0306518
642.457 .0306263
643.214 .0306010
643.971 .0305763
644.727 .0305527
645.483 .0305311
646.239 .0305115
646.994 .0304931
647.750 .0304754
648.505 .0304580
649.259 .0304399
650.014 .0304201
650.768 .0303986
651.521 .0303755
652.275 .0303506
653.028 .0303248
653.781 .0302985
654.534 .0302713
655.286 .0302440
656.039 .0302163
656.791 .0301881
657.542 .0301595
658.294 .0301305
659.045 .0301014
659.796 .0300726
660.546 .0300449
661.297 .0300179
662.047 .0299915
662.796 .0299669
663.546 .0299430
664.295 .0299199
665.044 .0298978
665.793 .0298766
666.542 .0298557
667.290 .0298360
668.038 .0298170
668.786 .0297981
669.533 .0297798
670.281 .0297616
671.028 .0297435
671.774 .0297253
672.521 .0297070
673.267 .0296885
674.013 .0296701
674.759 .0296523
675.505 .0296342
676.250 .0296163
676.995 .0295990
677.740 .0295816
678.484 .0295640
679.229 .0295463
679.973 .0295284
680.717 .0295101
681.460 .0294913
682.204 .0294714
682.947 .0294509
683.690 .0294304
684.433 .0294093
685.175 .0293886
685.917 .0293683
686.659 .0293487
687.401 .0293303
688.142 .0293127
688.884 .0292962
689.625 .0292799
690.365 .0292641
691.106 .0292478
691.846 .0292311
692.586 .0292134
693.326 .0291949
694.066 .0291763
694.805 .0291578
695.545 .0291389
696.284 .0291195
697.022 .0290999
697.761 .0290800
698.499 .0290590
699.237 .0290374
699.975 .0290147
700.713 .0289915
701.450 .0289676
702.187 .0289433
702.924 .0289192
703.661 .0288959
704.397 .0288738
705.133 .0288530
705.869 .0288334
706.605 .0288152
707.341 .0287983
708.076 .0287830
708.811 .0287685
709.546 .0287546
710.281 .0287405
711.015 .0287261
711.749 .0287107
712.483 .0286944
713.217 .0286770
713.950 .0286592
714.684 .0286416
715.417 .0286237
716.150 .0286062
716.882 .0285889
717.615 .0285719
718.347 .0285552
719.079 .0285383
719.811 .0285208
720.542 .0285029
721.273 .0284847
722.005 .0284667
722.735 .0284489
723.466 .0284321
724.196 .0284162
724.927 .0284006
725.656 .0283846
726.386 .0283677
727.116 .0283491
727.845 .0283290
728.574 .0283067
729.303 .0282826
730.031 .0282573
730.760 .0282319
731.488 .0282068
732.216 .0281827
732.944 .0281598
733.671 .0281385
734.398 .0281185
735.125 .0280995
735.852 .0280811
736.579 .0280632
737.305 .0280461
738.031 .0280301
738.757 .0280153
739.483 .0280019
740.208 .0279902
740.933 .0279808
741.658 .0279730
742.383 .0279667
743.108 .0279614
743.832 .0279568
744.556 .0279526
745.280 .0279477
746.004 .0279415
746.727 .0279343
747.450 .0279262
748.173 .0279171
748.896 .0279074
749.618 .0278977
750.340 .0278885
751.062 .0278799
751.784 .0278721
752.506 .0278646
753.227 .0278566
753.948 .0278482
754.669 .0278385
755.389 .0278270
756.110 .0278141
756.830 .0277999
757.550 .0277853
758.269 .0277709
758.989 .0277567
759.708 .0277426
760.427 .0277293
761.146 .0277164
761.864 .0277035
762.582 .0276903
763.300 .0276770
764.018 .0276630
764.736 .0276486
765.453 .0276335
766.170 .0276181
766.887 .0276027
767.603 .0275873
768.320 .0275719
769.036 .0275569
769.751 .0275421
770.467 .0275277
771.182 .0275138
771.897 .0275003
772.612 .0274867
773.327 .0274735
774.041 .0274604
774.755 .0274474
775.469 .0274345
776.183 .0274224
776.896 .0274110
777.609 .0274009
778.322 .0273917
779.035 .0273837
779.747 .0273766
780.459 .0273705
781.171 .0273646
781.882 .0273588
782.594 .0273530
783.305 .0273473
784.016 .0273418
784.726 .0273368
785.436 .0273324
786.147 .0273285
786.856 .0273251
787.566 .0273217
788.275 .0273182
788.984 .0273143
789.693 .0273100
790.401 .0273052
791.110 .0272997
791.818 .0272936
792.525 .0272872
793.233 .0272806
793.940 .0272736
794.647 .0272659
795.353 .0272574
796.060 .0272478
796.766 .0272370
797.472 .0272248
798.177 .0272115
798.883 .0271970
799.588 .0271818
800.292 .0271663
800.997 .0271506
801.701 .0271352
802.405 .0271204
803.109 .0271068
803.812 .0270941
804.515 .0270822
805.218 .0270707
805.921 .0270596
806.623 .0270489
807.325 .0270384
808.027 .0270279
808.728 .0270172
809.429 .0270062
810.130 .0269945
810.831 .0269819
811.531 .0269686
812.231 .0269543
812.931 .0269392
813.630 .0269228
814.330 .0269051
815.029 .0268860
815.727 .0268658
816.426 .0268450
817.124 .0268237
817.821 .0268025
818.519 .0267816
819.216 .0267617
819.913 .0267436
820.609 .0267272
821.306 .0267127
822.002 .0267004
822.697 .0266901
823.393 .0266814
824.088 .0266734
824.783 .0266662
825.477 .0266593
826.171 .0266524
826.865 .0266455
827.559 .0266384
828.252 .0266310
828.945 .0266234
829.638 .0266155
830.330 .0266075
831.023 .0265991
831.714 .0265901
832.406 .0265804
833.097 .0265697
833.788 .0265578
834.479 .0265445
835.169 .0265299
835.859 .0265153
836.548 .0265006
837.238 .0264863
837.927 .0264727
838.615 .0264608
839.304 .0264506
839.992 .0264416
840.680 .0264341
841.367 .0264272
842.054 .0264206
842.741 .0264138
843.428 .0264063
844.114 .0263983
844.800 .0263898
845.485 .0263811
846.170 .0263717
846.855 .0263620
847.540 .0263515
848.224 .0263401
848.908 .0263283
849.592 .0263157
850.275 .0263017
850.958 .0262866
851.641 .0262704
852.323 .0262531
853.005 .0262350
853.687 .0262160
854.368 .0261962
855.049 .0261762
855.730 .0261561
856.410 .0261355
857.090 .0261154
857.769 .0260962
858.449 .0260779
859.128 .0260606
859.806 .0260443
860.485 .0260284
861.163 .0260133
861.840 .0259988
862.518 .0259842
863.195 .0259697
863.871 .0259556
864.548 .0259419
865.224 .0259289
865.899 .0259168
866.574 .0259054
867.249 .0258947
867.924 .0258849
868.598 .0258746
869.272 .0258639
869.946 .0258528
870.619 .0258414
871.292 .0258299
871.964 .0258187
872.636 .0258076
873.308 .0257971
873.979 .0257872
874.651 .0257774
875.321 .0257672
875.992 .0257569
876.662 .0257459
877.331 .0257349
878.001 .0257239
878.670 .0257134
879.338 .0257036
880.007 .0256958
880.675 .0256892
881.342 .0256840
882.009 .0256797
882.676 .0256758
883.343 .0256715
884.009 .0256670
884.675 .0256619
885.340 .0256566
886.005 .0256514
886.670 .0256467
887.334 .0256425
887.998 .0256395
888.662 .0256368
889.325 .0256351
889.988 .0256339
890.650 .0256333
891.312 .0256328
891.974 .0256328
892.636 .0256331
893.297 .0256338
893.957 .0256351
894.618 .0256366
895.278 .0256384
895.937 .0256402
896.596 .0256416
897.255 .0256427
897.914 .0256438
898.572 .0256443
899.230 .0256445
899.887 .0256443
900.544 .0256432
901.201 .0256415
901.857 .0256390
902.513 .0256352
903.168 .0256304
903.823 .0256242
904.478 .0256168
905.132 .0256074
905.786 .0255974
906.440 .0255864
907.093 .0255749
907.746 .0255631
908.399 .0255509
909.051 .0255385
909.703 .0255257
910.354 .0255122
911.005 .0254982
911.656 .0254832
912.306 .0254677
912.956 .0254513
913.605 .0254350
914.254 .0254190
914.903 .0254036
915.551 .0253890
916.199 .0253763
916.847 .0253648
917.494 .0253548
918.141 .0253459
918.788 .0253383
919.434 .0253320
920.079 .0253263
920.725 .0253216
921.370 .0253178
922.014 .0253145
922.658 .0253118
923.302 .0253087
923.946 .0253053
924.589 .0253010
925.231 .0252949
925.873 .0252876
926.515 .0252788
927.157 .0252683
927.798 .0252565
928.439 .0252432
929.079 .0252291
929.719 .0252137
930.359 .0251978
930.998 .0251807
931.637 .0251629
932.275 .0251447
932.913 .0251261
933.551 .0251074
934.188 .0250894
934.825 .0250717
935.462 .0250550
936.098 .0250399
936.733 .0250260
937.369 .0250139
938.004 .0250038
938.638 .0249948
939.273 .0249870
939.907 .0249798
940.540 .0249732
941.173 .0249668
941.806 .0249612
942.438 .0249558
943.070 .0249506
943.702 .0249463
944.333 .0249421
944.964 .0249385
945.594 .0249351
946.224 .0249321
946.854 .0249290
947.483 .0249258
948.112 .0249225
948.741 .0249187
949.369 .0249154
949.996 .0249119
950.624 .0249084
951.251 .0249047
951.878 .0249008
952.504 .0248963
953.130 .0248908
953.755 .0248845
954.380 .0248769
955.005 .0248685
955.629 .0248597
956.253 .0248506
956.877 .0248417
957.500 .0248335
958.123 .0248263
958.746 .0248188
959.368 .0248116
959.990 .0248036
960.611 .0247951
961.232 .0247863
961.853 .0247768
962.473 .0247675
963.093 .0247589
963.712 .0247516
964.331 .0247450
964.950 .0247392
965.569 .0247341
966.187 .0247289
966.804 .0247240
967.422 .0247184
968.039 .0247120
968.655 .0247049
969.272 .0246976
969.887 .0246898
970.503 .0246821
971.118 .0246747
971.733 .0246677
972.347 .0246613
972.961 .0246547
973.575 .0246478
974.188 .0246407
974.801 .0246332
975.414 .0246252
976.026 .0246160
976.638 .0246062
977.250 .0245953
977.861 .0245838
978.472 .0245715
979.083 .0245584
979.693 .0245447
980.303 .0245302
980.912 .0245149
981.521 .0244990
982.130 .0244828
982.738 .0244671
983.346 .0244521
983.954 .0244377
984.562 .0244242
985.169 .0244115
985.775 .0243994
986.382 .0243883
986.988 .0243781
987.594 .0243687
988.199 .0243602
988.804 .0243529
989.409 .0243467
990.013 .0243415
990.617 .0243373
991.221 .0243334
991.824 .0243294
992.427 .0243248
993.030 .0243184
993.632 .0243113
994.234 .0243035
994.836 .0242952
995.438 .0242871
996.039 .0242794
996.640 .0242724
997.240 .0242662
997.840 .0242606
998.440 .0242550
999.040 .0242494
999.639 .0242433
1000.238 .0242358
1000.836 .0242274
1001.435 .0242186
1002.033 .0242089
1002.630 .0241990
1003.228 .0241896
1003.825 .0241808
1004.422 .0241725
1005.018 .0241652
1005.614 .0241583
1006.210 .0241517
1006.806 .0241454
1007.401 .0241386
1007.996 .0241310
1008.591 .0241230
1009.186 .0241142
1009.780 .0241053
1010.374 .0240967
1010.967 .0240890
1011.561 .0240824
1012.154 .0240779
1012.746 .0240748
1013.339 .0240726
1013.931 .0240705
1014.523 .0240686
1015.115 .0240655
1015.706 .0240616
1016.298 .0240567
1016.888 .0240506
1017.479 .0240441
1018.069 .0240381
1018.660 .0240326
1019.250 .0240290
1019.839 .0240265
1020.429 .0240257
1021.018 .0240259
1021.607 .0240271
1022.195 .0240282
1022.784 .0240297
1023.372 .0240315
1023.960 .0240330
1024.547 .0240342
1025.135 .0240361
1025.722 .0240380
1026.309 .0240413
1026.896 .0240461
1027.483 .0240526
1028.069 .0240599
1028.655 .0240683
1029.241 .0240760
1029.827 .0240834
1030.412 .0240897
1030.997 .0240946
1031.582 .0240980
1032.167 .0241013
1032.752 .0241042
1033.336 .0241068
1033.921 .0241098
1034.505 .0241140
1035.089 .0241178
1035.672 .0241213
1036.256 .0241236
1036.839 .0241245
1037.422 .0241230
1038.005 .0241207
1038.588 .0241173
1039.171 .0241140
1039.753 .0241115
1040.335 .0241100
1040.918 .0241089
1041.500 .0241083
1042.081 .0241069
1042.663 .0241040
1043.244 .0240997
1043.826 .0240950
1044.407 .0240881
1044.988 .0240816
1045.569 .0240755
1046.150 .0240707
1046.730 .0240665
1047.311 .0240638
1047.891 .0240613
1048.471 .0240586
1049.052 .0240556
1049.632 .0240524
1050.211 .0240489
1050.791 .0240477
1051.371 .0240479
1051.950 .0240503
1052.530 .0240544
1053.109 .0240604
1053.688 .0240661
1054.268 .0240722
1054.847 .0240769
1055.426 .0240803
1056.005 .0240820
1056.583 .0240823
1057.162 .0240812
1057.741 .0240796
1058.319 .0240781
1058.898 .0240762
1059.476 .0240724
1060.055 .0240680
1060.633 .0240608
1061.211 .0240523
1061.790 .0240427
1062.368 .0240335
1062.946 .0240255
1063.524 .0240199
1064.102 .0240165
1064.680 .0240160
1065.258 .0240178
1065.836 .0240206
1066.414 .0240241
1066.992 .0240277
1067.570 .0240316
1068.148 .0240348
1068.726 .0240376
1069.304 .0240411
1069.882 .0240446
1070.460 .0240485
1071.038 .0240513
1071.616 .0240528
1072.194 .0240535
1072.772 .0240525
1073.350 .0240507
1073.928 .0240489
1074.506 .0240467
1075.084 .0240443
1075.662 .0240419
1076.240 .0240397
1076.819 .0240366
1077.397 .0240321
1077.976 .0240272
1078.554 .0240217
1079.133 .0240162
1079.711 .0240115
1080.290 .0240080
1080.869 .0240077
1081.448 .0240102
1082.027 .0240137
1082.606 .0240189
1083.185 .0240262
1083.764 .0240347
1084.343 .0240435
1084.923 .0240529
1085.502 .0240642
1086.082 .0240770
1086.662 .0240922
1087.242 .0241077
1087.822 .0241224
1088.402 .0241369
1088.983 .0241498
1089.563 .0241596
1090.144 .0241665
1090.725 .0241719
1091.306 .0241743
1091.887 .0241749
1092.469 .0241750
1093.050 .0241739
1093.632 .0241732
1094.214 .0241746
1094.796 .0241785
1095.379 .0241865
1095.961 .0241994
1096.544 .0242168
1097.127 .0242400
1097.710 .0242689
1098.294 .0243011
1098.877 .0243348
1099.461 .0243697
1100.046 .0244039
1100.630 .0244356
1101.215 .0244655
1101.800 .0244954
1102.385 .0245234
1102.970 .0245501
1103.556 .0245739
1104.142 .0245958
1104.728 .0246153
1105.315 .0246323
1105.902 .0246459
1106.489 .0246577
1107.077 .0246676
1107.664 .0246771
1108.253 .0246848
1108.841 .0246960
1109.430 .0247101
1110.019 .0247260
1110.609 .0247435
1111.198 .0247633
1111.789 .0247846
1112.379 .0248092
1112.970 .0248366
1113.561 .0248678
1114.153 .0248999
1114.745 .0249339
1115.338 .0249652
1115.931 .0249942
1116.524 .0250199
1117.117 .0250442
1117.712 .0250683
1118.306 .0250946
1118.901 .0251248
1119.496 .0251570
1120.092 .0251940
1120.689 .0252354
1121.285 .0252791
1121.882 .0253215
1122.480 .0253635
1123.078 .0254072
1123.677 .0254510
1124.276 .0254994
1124.875 .0255541
1125.476 .0256141
1126.076 .0256809
1126.677 .0257526
1127.279 .0258253
1127.881 .0258976
1128.484 .0259708
1129.087 .0260377
1129.691 .0261055
1130.295 .0261749
1130.900 .0262484
1131.505 .0263271
1132.111 .0264168
1132.718 .0265136
1133.325 .0266136
1133.933 .0267176
1134.541 .0268199
1135.150 .0269217
1135.760 .0270241
1136.370 .0271230
1136.981 .0272249
1137.592 .0273292
1138.204 .0274439
1138.817 .0275648
1139.431 .0276926
1140.045 .0278241
1140.660 .0279615
1141.275 .0281130
1141.891 .0282624
1142.508 .0283836
1143.126 .0284749
1143.744 .0287033
1144.363 .0291409
1144.983 .0290129
