Measurement Sequence started on: 15-12-46-377
Integration time: 28
Scans to Average: 2 
>>>>>Begin Spectral Data<<<<<
432.689 .0000100
433.621 .0000100
434.552 .0000100
435.482 .0000100
436.410 .0000100
437.337 .0000100
438.262 .0275422
439.187 .0584131
440.110 .0967249
441.031 .1399446
441.952 .1819215
442.871 .2149279
443.789 .2329554
444.705 .2339673
445.621 .2204713
446.535 .1979569
447.447 .1724571
448.359 .1335613
449.269 .1141392
450.178 .1018678
451.086 .0931617
451.993 .0865068
452.898 .0812988
453.803 .0770877
454.706 .0736243
455.608 .0707169
456.508 .0682336
457.408 .0660781
458.306 .0641715
459.204 .0624854
460.100 .0609635
460.995 .0596050
461.888 .0583811
462.781 .0572691
463.673 .0562554
464.563 .0553296
465.452 .0544741
466.340 .0536786
467.228 .0529341
468.114 .0522269
468.999 .0515641
469.882 .0509412
470.765 .0503619
471.647 .0498351
472.528 .0493561
473.407 .0489230
474.286 .0485311
475.163 .0481760
476.040 .0478577
476.915 .0475666
477.790 .0473000
478.663 .0470590
479.535 .0468452
480.407 .0466502
481.277 .0464783
482.147 .0463333
483.015 .0462125
483.883 .0461135
484.749 .0460411
485.615 .0459859
486.479 .0459528
487.343 .0459488
488.206 .0459718
489.067 .0460149
489.928 .0460817
490.788 .0461667
491.647 .0462724
492.505 .0463985
493.362 .0465422
494.218 .0467044
495.073 .0468921
495.928 .0471015
496.781 .0473294
497.634 .0475800
498.486 .0478455
499.337 .0481234
500.187 .0484099
501.036 .0486997
501.884 .0489908
502.731 .0492840
503.578 .0495979
504.424 .0499332
505.268 .0502979
506.113 .0507014
506.956 .0511511
507.798 .0516630
508.640 .0522434
509.480 .0528920
510.320 .0536237
511.160 .0544449
511.998 .0553643
512.836 .0563950
513.672 .0575427
514.508 .0588227
515.344 .0602494
516.178 .0618510
517.012 .0636473
517.845 .0656525
518.677 .0679195
519.508 .0704459
520.339 .0732922
521.169 .0765083
521.998 .0801158
522.826 .0841679
523.654 .0887234
524.481 .0937587
525.307 .0993178
526.133 .1053870
526.958 .1118998
527.782 .1188006
528.605 .1259395
529.428 .1331712
530.250 .1399988
531.072 .1462132
531.892 .1514148
532.712 .1553067
533.532 .1577264
534.350 .1584390
535.168 .1574057
535.986 .1547263
536.802 .1505212
537.618 .1450832
538.434 .1386556
539.249 .1316904
540.063 .1243650
540.876 .1170579
541.689 .1099642
542.501 .1033094
543.313 .0972514
544.124 .0918249
544.934 .0870003
545.744 .0827122
546.553 .0788760
547.361 .0754633
548.169 .0724362
548.976 .0697276
549.783 .0672840
550.589 .0651020
551.395 .0631049
552.200 .0613014
553.004 .0596743
553.808 .0581860
554.611 .0568462
555.414 .0556442
556.216 .0545391
557.018 .0535522
557.819 .0526492
558.619 .0517945
559.419 .0509729
560.218 .0501922
561.017 .0494186
561.815 .0486575
562.613 .0479139
563.410 .0471801
564.207 .0464652
565.003 .0457778
565.799 .0451059
566.594 .0444520
567.388 .0438392
568.182 .0432486
568.976 .0426773
569.769 .0421418
570.562 .0416280
571.354 .0411309
572.145 .0406582
572.936 .0402025
573.727 .0397586
574.517 .0393243
575.307 .0388952
576.096 .0384680
576.885 .0380530
577.673 .0376518
578.461 .0372649
579.248 .0368997
580.035 .0365629
580.821 .0362494
581.607 .0359629
582.392 .0357013
583.177 .0354611
583.962 .0352367
584.746 .0350292
585.529 .0348349
586.313 .0346503
587.095 .0344765
587.878 .0343182
588.660 .0341748
589.441 .0340451
590.222 .0339292
591.003 .0338267
591.783 .0337351
592.563 .0336517
593.342 .0335736
594.121 .0334962
594.899 .0334218
595.678 .0333486
596.455 .0332764
597.233 .0332069
598.009 .0331399
598.786 .0330762
599.562 .0330164
600.338 .0329603
601.113 .0329066
601.888 .0328550
602.663 .0328053
603.437 .0327569
604.211 .0327091
604.984 .0326624
605.757 .0326162
606.530 .0325706
607.302 .0325263
608.074 .0324825
608.845 .0324396
609.616 .0323990
610.387 .0323608
611.158 .0323255
611.928 .0322915
612.697 .0322604
613.467 .0322310
614.236 .0322032
615.004 .0321760
615.773 .0321497
616.541 .0321242
617.308 .0320996
618.076 .0320751
618.843 .0320519
619.609 .0320303
620.375 .0320108
621.141 .0319923
621.907 .0319746
622.672 .0319571
623.437 .0319394
624.202 .0319206
624.966 .0319011
625.730 .0318802
626.493 .0318578
627.257 .0318339
628.020 .0318096
628.782 .0317850
629.545 .0317598
630.307 .0317344
631.068 .0317092
631.830 .0316836
632.591 .0316570
633.352 .0316293
634.112 .0316007
634.872 .0315712
635.632 .0315405
636.392 .0315086
637.151 .0314769
637.910 .0314457
638.668 .0314155
639.427 .0313864
640.185 .0313582
640.943 .0313311
641.700 .0313038
642.457 .0312761
643.214 .0312473
643.971 .0312175
644.727 .0311868
645.483 .0311551
646.239 .0311238
646.994 .0310929
647.750 .0310634
648.505 .0310356
649.259 .0310096
650.014 .0309852
650.768 .0309620
651.521 .0309396
652.275 .0309177
653.028 .0308969
653.781 .0308766
654.534 .0308569
655.286 .0308378
656.039 .0308194
656.791 .0308020
657.542 .0307849
658.294 .0307683
659.045 .0307516
659.796 .0307348
660.546 .0307170
661.297 .0306985
662.047 .0306792
662.796 .0306583
663.546 .0306366
664.295 .0306142
665.044 .0305912
665.793 .0305680
666.542 .0305450
667.290 .0305222
668.038 .0304995
668.786 .0304765
669.533 .0304525
670.281 .0304277
671.028 .0304025
671.774 .0303764
672.521 .0303502
673.267 .0303249
674.013 .0303008
674.759 .0302777
675.505 .0302560
676.250 .0302350
676.995 .0302151
677.740 .0301954
678.484 .0301748
679.229 .0301536
679.973 .0301321
680.717 .0301102
681.460 .0300885
682.204 .0300678
682.947 .0300481
683.690 .0300293
684.433 .0300114
685.175 .0299935
685.917 .0299757
686.659 .0299576
687.401 .0299389
688.142 .0299198
688.884 .0299010
689.625 .0298816
690.365 .0298626
691.106 .0298444
691.846 .0298264
692.586 .0298078
693.326 .0297888
694.066 .0297689
694.805 .0297477
695.545 .0297251
696.284 .0297016
697.022 .0296772
697.761 .0296526
698.499 .0296272
699.237 .0296012
699.975 .0295751
700.713 .0295488
701.450 .0295220
702.187 .0294949
702.924 .0294678
703.661 .0294405
704.397 .0294135
705.133 .0293873
705.869 .0293625
706.605 .0293392
707.341 .0293178
708.076 .0292975
708.811 .0292781
709.546 .0292592
710.281 .0292402
711.015 .0292207
711.749 .0292008
712.483 .0291805
713.217 .0291596
713.950 .0291389
714.684 .0291186
715.417 .0290980
716.150 .0290779
716.882 .0290584
717.615 .0290393
718.347 .0290202
719.079 .0290015
719.811 .0289828
720.542 .0289649
721.273 .0289476
722.005 .0289304
722.735 .0289139
723.466 .0288981
724.196 .0288826
724.927 .0288668
725.656 .0288510
726.386 .0288348
727.116 .0288180
727.845 .0288014
728.574 .0287847
729.303 .0287683
730.031 .0287525
730.760 .0287378
731.488 .0287243
732.216 .0287115
732.944 .0286997
733.671 .0286888
734.398 .0286791
735.125 .0286702
735.852 .0286619
736.579 .0286549
737.305 .0286496
738.031 .0286457
738.757 .0286429
739.483 .0286409
740.208 .0286391
740.933 .0286372
741.658 .0286343
742.383 .0286304
743.108 .0286251
743.832 .0286187
744.556 .0286118
745.280 .0286046
746.004 .0285970
746.727 .0285896
747.450 .0285823
748.173 .0285752
748.896 .0285671
749.618 .0285580
750.340 .0285476
751.062 .0285363
751.784 .0285247
752.506 .0285129
753.227 .0285016
753.948 .0284914
754.669 .0284818
755.389 .0284728
756.110 .0284641
756.830 .0284550
757.550 .0284455
758.269 .0284347
758.989 .0284229
759.708 .0284101
760.427 .0283968
761.146 .0283836
761.864 .0283710
762.582 .0283587
763.300 .0283472
764.018 .0283359
764.736 .0283247
765.453 .0283127
766.170 .0283000
766.887 .0282861
767.603 .0282711
768.320 .0282550
769.036 .0282385
769.751 .0282216
770.467 .0282055
771.182 .0281902
771.897 .0281757
772.612 .0281622
773.327 .0281494
774.041 .0281366
774.755 .0281237
775.469 .0281107
776.183 .0280976
776.896 .0280846
777.609 .0280720
778.322 .0280596
779.035 .0280481
779.747 .0280375
780.459 .0280274
781.171 .0280181
781.882 .0280096
782.594 .0280015
783.305 .0279933
784.016 .0279856
784.726 .0279776
785.436 .0279698
786.147 .0279621
786.856 .0279541
787.566 .0279459
788.275 .0279373
788.984 .0279281
789.693 .0279185
790.401 .0279087
791.110 .0278981
791.818 .0278864
792.525 .0278743
793.233 .0278611
793.940 .0278471
794.647 .0278324
795.353 .0278171
796.060 .0278012
796.766 .0277849
797.472 .0277678
798.177 .0277504
798.883 .0277331
799.588 .0277154
800.292 .0276979
800.997 .0276802
801.701 .0276626
802.405 .0276451
803.109 .0276280
803.812 .0276115
804.515 .0275950
805.218 .0275783
805.921 .0275612
806.623 .0275432
807.325 .0275244
808.027 .0275046
808.728 .0274844
809.429 .0274638
810.130 .0274431
810.831 .0274227
811.531 .0274029
812.231 .0273834
812.931 .0273643
813.630 .0273450
814.330 .0273254
815.029 .0273056
815.727 .0272857
816.426 .0272662
817.124 .0272472
817.821 .0272290
818.519 .0272118
819.216 .0271954
819.913 .0271801
820.609 .0271655
821.306 .0271517
822.002 .0271388
822.697 .0271266
823.393 .0271152
824.088 .0271047
824.783 .0270951
825.477 .0270862
826.171 .0270780
826.865 .0270706
827.559 .0270640
828.252 .0270581
828.945 .0270528
829.638 .0270482
830.330 .0270444
831.023 .0270410
831.714 .0270380
832.406 .0270352
833.097 .0270322
833.788 .0270287
834.479 .0270246
835.169 .0270203
835.859 .0270162
836.548 .0270127
837.238 .0270099
837.927 .0270079
838.615 .0270069
839.304 .0270067
839.992 .0270071
840.680 .0270080
841.367 .0270089
842.054 .0270095
842.741 .0270100
843.428 .0270102
844.114 .0270106
844.800 .0270111
845.485 .0270121
846.170 .0270130
846.855 .0270139
847.540 .0270145
848.224 .0270148
848.908 .0270150
849.592 .0270148
850.275 .0270136
850.958 .0270115
851.641 .0270083
852.323 .0270041
853.005 .0269987
853.687 .0269929
854.368 .0269863
855.049 .0269796
855.730 .0269725
856.410 .0269653
857.090 .0269580
857.769 .0269508
858.449 .0269435
859.128 .0269358
859.806 .0269280
860.485 .0269199
861.163 .0269117
861.840 .0269041
862.518 .0268963
863.195 .0268890
863.871 .0268821
864.548 .0268760
865.224 .0268703
865.899 .0268658
866.574 .0268615
867.249 .0268579
867.924 .0268547
868.598 .0268518
869.272 .0268490
869.946 .0268463
870.619 .0268429
871.292 .0268391
871.964 .0268348
872.636 .0268300
873.308 .0268246
873.979 .0268195
874.651 .0268140
875.321 .0268082
875.992 .0268019
876.662 .0267954
877.331 .0267886
878.001 .0267819
878.670 .0267750
879.338 .0267679
880.007 .0267610
880.675 .0267548
881.342 .0267485
882.009 .0267430
882.676 .0267379
883.343 .0267330
884.009 .0267279
884.675 .0267225
885.340 .0267168
886.005 .0267111
886.670 .0267056
887.334 .0267005
887.998 .0266956
888.662 .0266912
889.325 .0266870
889.988 .0266830
890.650 .0266794
891.312 .0266758
891.974 .0266720
892.636 .0266682
893.297 .0266643
893.957 .0266605
894.618 .0266567
895.278 .0266530
895.937 .0266497
896.596 .0266461
897.255 .0266426
897.914 .0266389
898.572 .0266352
899.230 .0266313
899.887 .0266268
900.544 .0266220
901.201 .0266165
901.857 .0266100
902.513 .0266024
903.168 .0265930
903.823 .0265821
904.478 .0265695
905.132 .0265550
905.786 .0265392
906.440 .0265220
907.093 .0265039
907.746 .0264846
908.399 .0264640
909.051 .0264423
909.703 .0264190
910.354 .0263944
911.005 .0263687
911.656 .0263418
912.306 .0263141
912.956 .0262858
913.605 .0262575
914.254 .0262294
914.903 .0262014
915.551 .0261739
916.199 .0261469
916.847 .0261201
917.494 .0260936
918.141 .0260675
918.788 .0260419
919.434 .0260170
920.079 .0259923
920.725 .0259681
921.370 .0259439
922.014 .0259196
922.658 .0258950
923.302 .0258701
923.946 .0258450
924.589 .0258192
925.231 .0257926
925.873 .0257655
926.515 .0257378
927.157 .0257094
927.798 .0256803
928.439 .0256504
929.079 .0256195
929.719 .0255877
930.359 .0255552
930.998 .0255219
931.637 .0254885
932.275 .0254551
932.913 .0254220
933.551 .0253894
934.188 .0253578
934.825 .0253268
935.462 .0252971
936.098 .0252686
936.733 .0252414
937.369 .0252155
938.004 .0251910
938.638 .0251679
939.273 .0251467
939.907 .0251270
940.540 .0251092
941.173 .0250935
941.806 .0250802
942.438 .0250690
943.070 .0250594
943.702 .0250515
944.333 .0250445
944.964 .0250382
945.594 .0250325
946.224 .0250265
946.854 .0250209
947.483 .0250157
948.112 .0250104
948.741 .0250054
949.369 .0250005
949.996 .0249951
950.624 .0249892
951.251 .0249829
951.878 .0249757
952.504 .0249674
953.130 .0249580
953.755 .0249480
954.380 .0249371
955.005 .0249259
955.629 .0249141
956.253 .0249020
956.877 .0248903
957.500 .0248787
958.123 .0248667
958.746 .0248548
959.368 .0248431
959.990 .0248318
960.611 .0248204
961.232 .0248094
961.853 .0247990
962.473 .0247897
963.093 .0247819
963.712 .0247748
964.331 .0247687
964.950 .0247640
965.569 .0247598
966.187 .0247564
966.804 .0247538
967.422 .0247519
968.039 .0247509
968.655 .0247510
969.272 .0247519
969.887 .0247530
970.503 .0247542
971.118 .0247552
971.733 .0247557
972.347 .0247555
972.961 .0247542
973.575 .0247521
974.188 .0247497
974.801 .0247469
975.414 .0247437
976.026 .0247405
976.638 .0247372
977.250 .0247336
977.861 .0247294
978.472 .0247253
979.083 .0247211
979.693 .0247170
980.303 .0247132
980.912 .0247102
981.521 .0247080
982.130 .0247069
982.738 .0247068
983.346 .0247079
983.954 .0247092
984.562 .0247108
985.169 .0247123
985.775 .0247135
986.382 .0247138
986.988 .0247134
987.594 .0247122
988.199 .0247101
988.804 .0247074
989.409 .0247048
990.013 .0247020
990.617 .0247000
991.221 .0246982
991.824 .0246973
992.427 .0246975
993.030 .0246987
993.632 .0247009
994.234 .0247046
994.836 .0247103
995.438 .0247171
996.039 .0247257
996.640 .0247365
997.240 .0247493
997.840 .0247642
998.440 .0247817
999.040 .0248006
999.639 .0248204
1000.238 .0248405
1000.836 .0248598
1001.435 .0248784
1002.033 .0248957
1002.630 .0249112
1003.228 .0249251
1003.825 .0249380
1004.422 .0249496
1005.018 .0249599
1005.614 .0249702
1006.210 .0249795
1006.806 .0249878
1007.401 .0249954
1007.996 .0250019
1008.591 .0250080
1009.186 .0250143
1009.780 .0250209
1010.374 .0250281
1010.967 .0250366
1011.561 .0250463
1012.154 .0250566
1012.746 .0250675
1013.339 .0250788
1013.931 .0250895
1014.523 .0251001
1015.115 .0251097
1015.706 .0251184
1016.298 .0251270
1016.888 .0251353
1017.479 .0251439
1018.069 .0251527
1018.660 .0251614
1019.250 .0251701
1019.839 .0251783
1020.429 .0251863
1021.018 .0251941
1021.607 .0252017
1022.195 .0252103
1022.784 .0252200
1023.372 .0252311
1023.960 .0252441
1024.547 .0252586
1025.135 .0252754
1025.722 .0252934
1026.309 .0253120
1026.896 .0253316
1027.483 .0253509
1028.069 .0253699
1028.655 .0253878
1029.241 .0254046
1029.827 .0254206
1030.412 .0254356
1030.997 .0254500
1031.582 .0254639
1032.167 .0254772
1032.752 .0254902
1033.336 .0255024
1033.921 .0255136
1034.505 .0255235
1035.089 .0255310
1035.672 .0255364
1036.256 .0255404
1036.839 .0255430
1037.422 .0255452
1038.005 .0255479
1038.588 .0255510
1039.171 .0255544
1039.753 .0255578
1040.335 .0255606
1040.918 .0255614
1041.500 .0255602
1042.081 .0255575
1042.663 .0255529
1043.244 .0255474
1043.826 .0255417
1044.407 .0255366
1044.988 .0255329
1045.569 .0255298
1046.150 .0255262
1046.730 .0255218
1047.311 .0255157
1047.891 .0255060
1048.471 .0254945
1049.052 .0254816
1049.632 .0254686
1050.211 .0254571
1050.791 .0254485
1051.371 .0254435
1051.950 .0254421
1052.530 .0254430
1053.109 .0254449
1053.688 .0254463
1054.268 .0254464
1054.847 .0254435
1055.426 .0254391
1056.005 .0254341
1056.583 .0254282
1057.162 .0254224
1057.741 .0254180
1058.319 .0254139
1058.898 .0254097
1059.476 .0254047
1060.055 .0253982
1060.633 .0253890
1061.211 .0253767
1061.790 .0253616
1062.368 .0253447
1062.946 .0253277
1063.524 .0253118
1064.102 .0252980
1064.680 .0252883
1065.258 .0252823
1065.836 .0252782
1066.414 .0252763
1066.992 .0252756
1067.570 .0252758
1068.148 .0252764
1068.726 .0252778
1069.304 .0252800
1069.882 .0252832
1070.460 .0252882
1071.038 .0252940
1071.616 .0252997
1072.194 .0253046
1072.772 .0253061
1073.350 .0253047
1073.928 .0253001
1074.506 .0252926
1075.084 .0252839
1075.662 .0252754
1076.240 .0252678
1076.819 .0252602
1077.397 .0252531
1077.976 .0252457
1078.554 .0252372
1079.133 .0252281
1079.711 .0252175
1080.290 .0252061
1080.869 .0251955
1081.448 .0251862
1082.027 .0251787
1082.606 .0251727
1083.185 .0251691
1083.764 .0251655
1084.343 .0251615
1084.923 .0251542
1085.502 .0251444
1086.082 .0251321
1086.662 .0251200
1087.242 .0251074
1087.822 .0250961
1088.402 .0250873
1088.983 .0250800
1089.563 .0250729
1090.144 .0250653
1090.725 .0250566
1091.306 .0250474
1091.887 .0250362
1092.469 .0250256
1093.050 .0250151
1093.632 .0250075
1094.214 .0250035
1094.796 .0250043
1095.379 .0250089
1095.961 .0250168
1096.544 .0250270
1097.127 .0250398
1097.710 .0250531
1098.294 .0250680
1098.877 .0250842
1099.461 .0251022
1100.046 .0251221
1100.630 .0251419
1101.215 .0251602
1101.800 .0251782
1102.385 .0251937
1102.970 .0252066
1103.556 .0252160
1104.142 .0252234
1104.728 .0252292
1105.315 .0252358
1105.902 .0252428
1106.489 .0252512
1107.077 .0252605
1107.664 .0252708
1108.253 .0252805
1108.841 .0252890
1109.430 .0252966
1110.019 .0253036
1110.609 .0253114
1111.198 .0253210
1111.789 .0253339
1112.379 .0253532
1112.970 .0253774
1113.561 .0254086
1114.153 .0254445
1114.745 .0254850
1115.338 .0255264
1115.931 .0255681
1116.524 .0256094
1117.117 .0256492
1117.712 .0256867
1118.306 .0257220
1118.901 .0257584
1119.496 .0257953
1120.092 .0258332
1120.689 .0258726
1121.285 .0259127
1121.882 .0259517
1122.480 .0259892
1123.078 .0260243
1123.677 .0260566
1124.276 .0260876
1124.875 .0261149
1125.476 .0261415
1126.076 .0261690
1126.677 .0261956
1127.279 .0262234
1127.881 .0262529
1128.484 .0262841
1129.087 .0263118
1129.691 .0263419
1130.295 .0263721
1130.900 .0264019
1131.505 .0264347
1132.111 .0264717
1132.718 .0265155
1133.325 .0265713
1133.933 .0266354
1134.541 .0267085
1135.150 .0267936
1135.760 .0268875
1136.370 .0269885
1136.981 .0270999
1137.592 .0272168
1138.204 .0273422
1138.817 .0274743
1139.431 .0276251
1140.045 .0277923
1140.660 .0279690
1141.275 .0281643
1141.891 .0283719
1142.508 .0286806
1143.126 .0289838
1143.744 .0288787
1144.363 .0292758
1144.983 .0295215
