Measurement Sequence started on: 15-12-46-377
Integration time: 28
Scans to Average: 2 
>>>>>Begin Spectral Data<<<<<
432.689 .0000100
433.621 .0000100
434.552 .0000100
435.482 .0000100
436.410 .0000100
437.337 .0000100
438.262 .0256840
439.187 .0544515
440.110 .0902418
441.031 .1305786
441.952 .1698167
442.871 .2007114
443.789 .2176471
444.705 .2186824
445.621 .2062034
446.535 .1853373
447.447 .1617024
448.359 .1255769
449.269 .1076416
450.178 .0963073
451.086 .0883683
451.993 .0822630
452.898 .0774824
453.803 .0735866
454.706 .0703521
455.608 .0675694
456.508 .0651715
457.408 .0630899
458.306 .0612612
459.204 .0596375
460.100 .0581811
460.995 .0568385
461.888 .0556126
462.781 .0544676
463.673 .0534109
464.563 .0524308
465.452 .0515184
466.340 .0506608
467.228 .0498760
468.114 .0491414
468.999 .0484574
469.882 .0478207
470.765 .0472385
471.647 .0466924
472.528 .0461882
473.407 .0457328
474.286 .0453291
475.163 .0449663
476.040 .0446589
476.915 .0443963
477.790 .0441793
478.663 .0439936
479.535 .0438328
480.407 .0436913
481.277 .0435759
482.147 .0434761
483.015 .0433939
483.883 .0433338
484.749 .0432976
485.615 .0432786
486.479 .0432821
487.343 .0433016
488.206 .0433343
489.067 .0433706
489.928 .0434154
490.788 .0434592
491.647 .0435056
492.505 .0435508
493.362 .0436065
494.218 .0436762
495.073 .0437643
495.928 .0438659
496.781 .0439895
497.634 .0441464
498.486 .0443343
499.337 .0445480
500.187 .0447905
501.036 .0450661
501.884 .0453784
502.731 .0457206
503.578 .0461029
504.424 .0465254
505.268 .0469909
506.113 .0474974
506.956 .0480448
507.798 .0486370
508.640 .0492781
509.480 .0499761
510.320 .0507297
511.160 .0515565
511.998 .0524444
512.836 .0534085
513.672 .0544580
514.508 .0555955
515.344 .0568234
516.178 .0581619
517.012 .0596376
517.845 .0612713
518.677 .0631149
519.508 .0652163
520.339 .0676267
521.169 .0704062
521.998 .0735468
522.826 .0771198
523.654 .0811114
524.481 .0855607
525.307 .0904419
526.133 .0957644
526.958 .1015178
527.782 .1076637
528.605 .1140674
529.428 .1206431
530.250 .1269713
531.072 .1328216
531.892 .1377885
532.712 .1416482
533.532 .1441558
534.350 .1451370
535.168 .1445155
535.986 .1423975
536.802 .1388784
537.618 .1343028
538.434 .1288161
539.249 .1228452
540.063 .1165751
540.876 .1102618
541.689 .1040795
542.501 .0982148
543.313 .0928074
544.124 .0878985
544.934 .0834345
545.744 .0794388
546.553 .0758030
547.361 .0725569
548.169 .0696604
548.976 .0670539
549.783 .0647210
550.589 .0626194
551.395 .0606775
552.200 .0589045
553.004 .0572811
553.808 .0557925
554.611 .0544277
555.414 .0531875
556.216 .0520611
557.018 .0510353
557.819 .0501038
558.619 .0492494
559.419 .0484559
560.218 .0477259
561.017 .0470167
561.815 .0463116
562.613 .0456171
563.410 .0449278
564.207 .0442502
565.003 .0436009
565.799 .0429763
566.594 .0423720
567.388 .0417964
568.182 .0412434
568.976 .0407062
569.769 .0401789
570.562 .0396567
571.354 .0391308
572.145 .0386108
572.936 .0380997
573.727 .0376018
574.517 .0371333
575.307 .0366970
576.096 .0362914
576.885 .0359155
577.673 .0355696
578.461 .0352505
579.248 .0349525
580.035 .0346750
580.821 .0344110
581.607 .0341577
582.392 .0339141
583.177 .0336798
583.962 .0334596
584.746 .0332569
585.529 .0330738
586.313 .0329087
587.095 .0327647
587.878 .0326368
588.660 .0325244
589.441 .0324222
590.222 .0323297
591.003 .0322449
591.783 .0321645
592.563 .0320898
593.342 .0320199
594.121 .0319542
594.899 .0318943
595.678 .0318376
596.455 .0317847
597.233 .0317340
598.009 .0316842
598.786 .0316338
599.562 .0315841
600.338 .0315344
601.113 .0314851
601.888 .0314354
602.663 .0313854
603.437 .0313348
604.211 .0312824
604.984 .0312289
605.757 .0311735
606.530 .0311167
607.302 .0310596
608.074 .0310023
608.845 .0309474
609.616 .0308957
610.387 .0308478
611.158 .0308045
611.928 .0307655
612.697 .0307301
613.467 .0306974
614.236 .0306669
615.004 .0306385
615.773 .0306119
616.541 .0305867
617.308 .0305642
618.076 .0305439
618.843 .0305262
619.609 .0305108
620.375 .0304970
621.141 .0304846
621.907 .0304731
622.672 .0304614
623.437 .0304493
624.202 .0304364
624.966 .0304227
625.730 .0304074
626.493 .0303916
627.257 .0303748
628.020 .0303580
628.782 .0303415
629.545 .0303262
630.307 .0303112
631.068 .0302974
631.830 .0302850
632.591 .0302736
633.352 .0302628
634.112 .0302523
634.872 .0302407
635.632 .0302286
636.392 .0302151
637.151 .0302011
637.910 .0301866
638.668 .0301731
639.427 .0301596
640.185 .0301477
640.943 .0301364
641.700 .0301265
642.457 .0301171
643.214 .0301083
643.971 .0300994
644.727 .0300899
645.483 .0300800
646.239 .0300701
646.994 .0300598
647.750 .0300503
648.505 .0300406
649.259 .0300314
650.014 .0300214
650.768 .0300106
651.521 .0299984
652.275 .0299840
653.028 .0299664
653.781 .0299454
654.534 .0299208
655.286 .0298936
656.039 .0298638
656.791 .0298321
657.542 .0297997
658.294 .0297671
659.045 .0297347
659.796 .0297025
660.546 .0296703
661.297 .0296381
662.047 .0296055
662.796 .0295721
663.546 .0295378
664.295 .0295031
665.044 .0294689
665.793 .0294353
666.542 .0294027
667.290 .0293710
668.038 .0293400
668.786 .0293094
669.533 .0292790
670.281 .0292477
671.028 .0292157
671.774 .0291831
672.521 .0291509
673.267 .0291196
674.013 .0290899
674.759 .0290621
675.505 .0290365
676.250 .0290121
676.995 .0289885
677.740 .0289648
678.484 .0289412
679.229 .0289172
679.973 .0288935
680.717 .0288703
681.460 .0288484
682.204 .0288286
682.947 .0288107
683.690 .0287947
684.433 .0287801
685.175 .0287655
685.917 .0287506
686.659 .0287351
687.401 .0287193
688.142 .0287031
688.884 .0286875
689.625 .0286730
690.365 .0286603
691.106 .0286495
691.846 .0286409
692.586 .0286338
693.326 .0286280
694.066 .0286227
694.805 .0286177
695.545 .0286123
696.284 .0286068
697.022 .0286008
697.761 .0285950
698.499 .0285890
699.237 .0285827
699.975 .0285758
700.713 .0285690
701.450 .0285621
702.187 .0285546
702.924 .0285463
703.661 .0285382
704.397 .0285293
705.133 .0285205
705.869 .0285113
706.605 .0285026
707.341 .0284942
708.076 .0284867
708.811 .0284795
709.546 .0284729
710.281 .0284668
711.015 .0284605
711.749 .0284535
712.483 .0284463
713.217 .0284376
713.950 .0284279
714.684 .0284174
715.417 .0284066
716.150 .0283954
716.882 .0283844
717.615 .0283732
718.347 .0283617
719.079 .0283493
719.811 .0283358
720.542 .0283205
721.273 .0283036
722.005 .0282850
722.735 .0282649
723.466 .0282440
724.196 .0282232
724.927 .0282022
725.656 .0281816
726.386 .0281610
727.116 .0281403
727.845 .0281187
728.574 .0280959
729.303 .0280722
730.031 .0280473
730.760 .0280216
731.488 .0279955
732.216 .0279691
732.944 .0279438
733.671 .0279195
734.398 .0278962
735.125 .0278735
735.852 .0278517
736.579 .0278299
737.305 .0278079
738.031 .0277861
738.757 .0277638
739.483 .0277410
740.208 .0277182
740.933 .0276947
741.658 .0276705
742.383 .0276459
743.108 .0276203
743.832 .0275940
744.556 .0275671
745.280 .0275390
746.004 .0275101
746.727 .0274810
747.450 .0274523
748.173 .0274236
748.896 .0273956
749.618 .0273682
750.340 .0273412
751.062 .0273153
751.784 .0272904
752.506 .0272661
753.227 .0272432
753.948 .0272218
754.669 .0272017
755.389 .0271831
756.110 .0271662
756.830 .0271505
757.550 .0271368
758.269 .0271243
758.989 .0271123
759.708 .0271007
760.427 .0270896
761.146 .0270782
761.864 .0270660
762.582 .0270532
763.300 .0270393
764.018 .0270250
764.736 .0270105
765.453 .0269963
766.170 .0269827
766.887 .0269705
767.603 .0269600
768.320 .0269507
769.036 .0269426
769.751 .0269354
770.467 .0269288
771.182 .0269227
771.897 .0269166
772.612 .0269107
773.327 .0269056
774.041 .0269021
774.755 .0269003
775.469 .0269006
776.183 .0269030
776.896 .0269076
777.609 .0269135
778.322 .0269202
779.035 .0269272
779.747 .0269338
780.459 .0269397
781.171 .0269448
781.882 .0269491
782.594 .0269531
783.305 .0269571
784.016 .0269622
784.726 .0269684
785.436 .0269759
786.147 .0269843
786.856 .0269937
787.566 .0270039
788.275 .0270139
788.984 .0270233
789.693 .0270317
790.401 .0270390
791.110 .0270449
791.818 .0270495
792.525 .0270531
793.233 .0270559
793.940 .0270577
794.647 .0270585
795.353 .0270584
796.060 .0270574
796.766 .0270548
797.472 .0270505
798.177 .0270449
798.883 .0270373
799.588 .0270274
800.292 .0270158
800.997 .0270027
801.701 .0269881
802.405 .0269724
803.109 .0269562
803.812 .0269402
804.515 .0269244
805.218 .0269089
805.921 .0268932
806.623 .0268775
807.325 .0268614
808.027 .0268447
808.728 .0268269
809.429 .0268085
810.130 .0267892
810.831 .0267696
811.531 .0267494
812.231 .0267293
812.931 .0267086
813.630 .0266878
814.330 .0266667
815.029 .0266449
815.727 .0266223
816.426 .0265992
817.124 .0265753
817.821 .0265507
818.519 .0265255
819.216 .0265001
819.913 .0264738
820.609 .0264473
821.306 .0264201
822.002 .0263928
822.697 .0263654
823.393 .0263388
824.088 .0263127
824.783 .0262877
825.477 .0262635
826.171 .0262398
826.865 .0262164
827.559 .0261935
828.252 .0261706
828.945 .0261480
829.638 .0261260
830.330 .0261050
831.023 .0260844
831.714 .0260656
832.406 .0260477
833.097 .0260309
833.788 .0260143
834.479 .0259984
835.169 .0259820
835.859 .0259657
836.548 .0259495
837.238 .0259333
837.927 .0259171
838.615 .0259011
839.304 .0258849
839.992 .0258681
840.680 .0258508
841.367 .0258327
842.054 .0258136
842.741 .0257939
843.428 .0257731
844.114 .0257521
844.800 .0257314
845.485 .0257109
846.170 .0256904
846.855 .0256704
847.540 .0256507
848.224 .0256311
848.908 .0256121
849.592 .0255937
850.275 .0255763
850.958 .0255600
851.641 .0255448
852.323 .0255309
853.005 .0255182
853.687 .0255066
854.368 .0254953
855.049 .0254847
855.730 .0254745
856.410 .0254643
857.090 .0254547
857.769 .0254462
858.449 .0254385
859.128 .0254316
859.806 .0254252
860.485 .0254191
861.163 .0254133
861.840 .0254075
862.518 .0254019
863.195 .0253967
863.871 .0253923
864.548 .0253889
865.224 .0253867
865.899 .0253862
866.574 .0253869
867.249 .0253886
867.924 .0253910
868.598 .0253932
869.272 .0253954
869.946 .0253976
870.619 .0253997
871.292 .0254026
871.964 .0254063
872.636 .0254107
873.308 .0254157
873.979 .0254214
874.651 .0254275
875.321 .0254336
875.992 .0254399
876.662 .0254465
877.331 .0254539
878.001 .0254625
878.670 .0254722
879.338 .0254832
880.007 .0254959
880.675 .0255094
881.342 .0255232
882.009 .0255373
882.676 .0255513
883.343 .0255651
884.009 .0255784
884.675 .0255918
885.340 .0256052
886.005 .0256184
886.670 .0256315
887.334 .0256441
887.998 .0256559
888.662 .0256664
889.325 .0256759
889.988 .0256841
890.650 .0256915
891.312 .0256982
891.974 .0257049
892.636 .0257119
893.297 .0257197
893.957 .0257282
894.618 .0257370
895.278 .0257464
895.937 .0257555
896.596 .0257643
897.255 .0257725
897.914 .0257801
898.572 .0257867
899.230 .0257925
899.887 .0257976
900.544 .0258015
901.201 .0258042
901.857 .0258057
902.513 .0258056
903.168 .0258034
903.823 .0257990
904.478 .0257921
905.132 .0257827
905.786 .0257709
906.440 .0257570
907.093 .0257415
907.746 .0257244
908.399 .0257062
909.051 .0256874
909.703 .0256683
910.354 .0256491
911.005 .0256294
911.656 .0256098
912.306 .0255897
912.956 .0255688
913.605 .0255469
914.254 .0255246
914.903 .0255020
915.551 .0254787
916.199 .0254553
916.847 .0254319
917.494 .0254086
918.141 .0253858
918.788 .0253628
919.434 .0253399
920.079 .0253164
920.725 .0252923
921.370 .0252669
922.014 .0252403
922.658 .0252126
923.302 .0251841
923.946 .0251549
924.589 .0251252
925.231 .0250946
925.873 .0250632
926.515 .0250312
927.157 .0249986
927.798 .0249647
928.439 .0249301
929.079 .0248949
929.719 .0248594
930.359 .0248239
930.998 .0247892
931.637 .0247553
932.275 .0247228
932.913 .0246914
933.551 .0246602
934.188 .0246294
934.825 .0245991
935.462 .0245687
936.098 .0245384
936.733 .0245082
937.369 .0244780
938.004 .0244478
938.638 .0244177
939.273 .0243872
939.907 .0243567
940.540 .0243262
941.173 .0242952
941.806 .0242644
942.438 .0242338
943.070 .0242035
943.702 .0241735
944.333 .0241445
944.964 .0241160
945.594 .0240879
946.224 .0240602
946.854 .0240331
947.483 .0240067
948.112 .0239815
948.741 .0239572
949.369 .0239344
949.996 .0239131
950.624 .0238927
951.251 .0238733
951.878 .0238547
952.504 .0238363
953.130 .0238174
953.755 .0237982
954.380 .0237788
955.005 .0237595
955.629 .0237403
956.253 .0237220
956.877 .0237048
957.500 .0236892
958.123 .0236746
958.746 .0236610
959.368 .0236483
959.990 .0236364
960.611 .0236243
961.232 .0236126
961.853 .0236006
962.473 .0235891
963.093 .0235775
963.712 .0235657
964.331 .0235537
964.950 .0235416
965.569 .0235296
966.187 .0235180
966.804 .0235067
967.422 .0234964
968.039 .0234869
968.655 .0234785
969.272 .0234710
969.887 .0234643
970.503 .0234581
971.118 .0234527
971.733 .0234478
972.347 .0234433
972.961 .0234393
973.575 .0234362
974.188 .0234338
974.801 .0234320
975.414 .0234307
976.026 .0234293
976.638 .0234280
977.250 .0234269
977.861 .0234254
978.472 .0234240
979.083 .0234233
979.693 .0234228
980.303 .0234231
980.912 .0234240
981.521 .0234256
982.130 .0234279
982.738 .0234310
983.346 .0234345
983.954 .0234383
984.562 .0234428
985.169 .0234482
985.775 .0234545
986.382 .0234621
986.988 .0234704
987.594 .0234799
988.199 .0234898
988.804 .0234999
989.409 .0235090
990.013 .0235178
990.617 .0235256
991.221 .0235328
991.824 .0235397
992.427 .0235473
993.030 .0235557
993.632 .0235661
994.234 .0235781
994.836 .0235919
995.438 .0236068
996.039 .0236226
996.640 .0236378
997.240 .0236530
997.840 .0236673
998.440 .0236817
999.040 .0236957
999.639 .0237109
1000.238 .0237261
1000.836 .0237423
1001.435 .0237593
1002.033 .0237763
1002.630 .0237930
1003.228 .0238096
1003.825 .0238255
1004.422 .0238412
1005.018 .0238568
1005.614 .0238733
1006.210 .0238906
1006.806 .0239095
1007.401 .0239295
1007.996 .0239505
1008.591 .0239724
1009.186 .0239953
1009.780 .0240185
1010.374 .0240421
1010.967 .0240659
1011.561 .0240896
1012.154 .0241132
1012.746 .0241362
1013.339 .0241585
1013.931 .0241802
1014.523 .0242013
1015.115 .0242217
1015.706 .0242408
1016.298 .0242595
1016.888 .0242779
1017.479 .0242962
1018.069 .0243135
1018.660 .0243303
1019.250 .0243470
1019.839 .0243624
1020.429 .0243774
1021.018 .0243920
1021.607 .0244065
1022.195 .0244214
1022.784 .0244368
1023.372 .0244518
1023.960 .0244669
1024.547 .0244823
1025.135 .0244972
1025.722 .0245112
1026.309 .0245247
1026.896 .0245371
1027.483 .0245490
1028.069 .0245605
1028.655 .0245720
1029.241 .0245834
1029.827 .0245960
1030.412 .0246083
1030.997 .0246209
1031.582 .0246329
1032.167 .0246438
1032.752 .0246527
1033.336 .0246602
1033.921 .0246657
1034.505 .0246698
1035.089 .0246725
1035.672 .0246743
1036.256 .0246754
1036.839 .0246762
1037.422 .0246762
1038.005 .0246757
1038.588 .0246746
1039.171 .0246727
1039.753 .0246702
1040.335 .0246683
1040.918 .0246656
1041.500 .0246637
1042.081 .0246627
1042.663 .0246623
1043.244 .0246624
1043.826 .0246623
1044.407 .0246613
1044.988 .0246598
1045.569 .0246575
1046.150 .0246534
1046.730 .0246483
1047.311 .0246430
1047.891 .0246369
1048.471 .0246302
1049.052 .0246228
1049.632 .0246134
1050.211 .0246028
1050.791 .0245904
1051.371 .0245751
1051.950 .0245571
1052.530 .0245379
1053.109 .0245173
1053.688 .0244956
1054.268 .0244737
1054.847 .0244524
1055.426 .0244325
1056.005 .0244140
1056.583 .0243964
1057.162 .0243797
1057.741 .0243642
1058.319 .0243495
1058.898 .0243344
1059.476 .0243194
1060.055 .0243039
1060.633 .0242893
1061.211 .0242751
1061.790 .0242626
1062.368 .0242521
1062.946 .0242432
1063.524 .0242369
1064.102 .0242315
1064.680 .0242253
1065.258 .0242180
1065.836 .0242085
1066.414 .0241965
1066.992 .0241815
1067.570 .0241650
1068.148 .0241460
1068.726 .0241268
1069.304 .0241083
1069.882 .0240906
1070.460 .0240733
1071.038 .0240580
1071.616 .0240427
1072.194 .0240274
1072.772 .0240117
1073.350 .0239949
1073.928 .0239787
1074.506 .0239636
1075.084 .0239484
1075.662 .0239354
1076.240 .0239249
1076.819 .0239164
1077.397 .0239099
1077.976 .0239050
1078.554 .0239006
1079.133 .0238968
1079.711 .0238930
1080.290 .0238890
1080.869 .0238843
1081.448 .0238803
1082.027 .0238759
1082.606 .0238709
1083.185 .0238664
1083.764 .0238608
1084.343 .0238553
1084.923 .0238507
1085.502 .0238458
1086.082 .0238408
1086.662 .0238367
1087.242 .0238335
1087.822 .0238302
1088.402 .0238263
1088.983 .0238208
1089.563 .0238122
1090.144 .0238001
1090.725 .0237849
1091.306 .0237660
1091.887 .0237461
1092.469 .0237285
1093.050 .0237134
1093.632 .0237022
1094.214 .0236947
1094.796 .0236899
1095.379 .0236879
1095.961 .0236863
1096.544 .0236832
1097.127 .0236767
1097.710 .0236698
1098.294 .0236632
1098.877 .0236586
1099.461 .0236580
1100.046 .0236642
1100.630 .0236768
1101.215 .0236968
1101.800 .0237186
1102.385 .0237383
1102.970 .0237548
1103.556 .0237656
1104.142 .0237688
1104.728 .0237670
1105.315 .0237612
1105.902 .0237558
1106.489 .0237528
1107.077 .0237560
1107.664 .0237632
1108.253 .0237762
1108.841 .0237909
1109.430 .0238045
1110.019 .0238140
1110.609 .0238196
1111.198 .0238192
1111.789 .0238178
1112.379 .0238179
1112.970 .0238188
1113.561 .0238238
1114.153 .0238358
1114.745 .0238530
1115.338 .0238748
1115.931 .0238994
1116.524 .0239264
1117.117 .0239523
1117.712 .0239789
1118.306 .0240036
1118.901 .0240291
1119.496 .0240587
1120.092 .0240926
1120.689 .0241284
1121.285 .0241692
1121.882 .0242111
1122.480 .0242503
1123.078 .0242902
1123.677 .0243259
1124.276 .0243568
1124.875 .0243853
1125.476 .0244148
1126.076 .0244464
1126.677 .0244849
1127.279 .0245344
1127.881 .0245923
1128.484 .0246613
1129.087 .0247382
1129.691 .0248192
1130.295 .0249054
1130.900 .0249969
1131.505 .0250902
1132.111 .0251885
1132.718 .0252937
1133.325 .0254039
1133.933 .0255258
1134.541 .0256559
1135.150 .0257931
1135.760 .0259341
1136.370 .0260726
1136.981 .0262034
1137.592 .0263202
1138.204 .0264239
1138.817 .0265110
1139.431 .0265836
1140.045 .0266479
1140.660 .0267060
1141.275 .0267640
1141.891 .0268237
1142.508 .0268299
1143.126 .0269669
1143.744 .0270775
1144.363 .0271142
1144.983 .0271490
