Measurement Sequence started on: 15-12-46-377
Integration time: 28
Scans to Average: 2 
>>>>>Begin Spectral Data<<<<<
432.689 .0000100
433.621 .0000100
434.552 .0000100
435.482 .0000100
436.410 .0000100
437.337 .0000100
438.262 .0274819
439.187 .0582513
440.110 .0966363
441.031 .1399537
441.952 .1820351
442.871 .2152278
443.789 .2335074
444.705 .2347615
445.621 .2214743
446.535 .1991185
447.447 .1737011
448.359 .1348333
449.269 .1153988
450.178 .1029559
451.086 .0941804
451.993 .0874948
452.898 .0822163
453.803 .0779042
454.706 .0743308
455.608 .0712676
456.508 .0686082
457.408 .0662797
458.306 .0642036
459.204 .0623351
460.100 .0606719
460.995 .0591884
461.888 .0578790
462.781 .0566925
463.673 .0556262
464.563 .0546614
465.452 .0537737
466.340 .0529373
467.228 .0521737
468.114 .0514746
468.999 .0508350
469.882 .0502481
470.765 .0497228
471.647 .0492508
472.528 .0488256
473.407 .0484483
474.286 .0481131
475.163 .0478192
476.040 .0475708
476.915 .0473550
477.790 .0471837
478.663 .0470465
479.535 .0469365
480.407 .0468545
481.277 .0467917
482.147 .0467394
483.015 .0466892
483.883 .0466477
484.749 .0466169
485.615 .0465941
486.479 .0465873
487.343 .0466050
488.206 .0466432
489.067 .0467009
489.928 .0467656
490.788 .0468386
491.647 .0469137
492.505 .0469965
493.362 .0470855
494.218 .0471884
495.073 .0473045
495.928 .0474447
496.781 .0476036
497.634 .0477913
498.486 .0480019
499.337 .0482375
500.187 .0484949
501.036 .0487785
501.884 .0490718
502.731 .0493816
503.578 .0497059
504.424 .0500497
505.268 .0504042
506.113 .0507796
506.956 .0511743
507.798 .0516090
508.640 .0520906
509.480 .0526427
510.320 .0532806
511.160 .0540245
511.998 .0548798
512.836 .0558531
513.672 .0569452
514.508 .0581642
515.344 .0595087
516.178 .0610419
517.012 .0627844
517.845 .0647988
518.677 .0671242
519.508 .0697965
520.339 .0728677
521.169 .0763606
521.998 .0802748
522.826 .0846335
523.654 .0894547
524.481 .0947250
525.307 .1004866
526.133 .1067375
526.958 .1134395
527.782 .1205468
528.605 .1278880
529.428 .1353379
530.250 .1422970
531.072 .1485552
531.892 .1536064
532.712 .1572432
533.532 .1592712
534.350 .1595624
535.168 .1581363
535.986 .1551751
536.802 .1508767
537.618 .1455473
538.434 .1393236
539.249 .1326962
540.063 .1257122
540.876 .1187133
541.689 .1117759
542.501 .1051404
543.313 .0989206
544.124 .0932700
544.934 .0881645
545.744 .0836019
546.553 .0795249
547.361 .0759520
548.169 .0728089
548.976 .0700256
549.783 .0675404
550.589 .0653003
551.395 .0632329
552.200 .0613348
553.004 .0595514
553.808 .0578837
554.611 .0563526
555.414 .0549781
556.216 .0537509
557.018 .0526707
557.819 .0517029
558.619 .0508237
559.419 .0500155
560.218 .0492622
561.017 .0485387
561.815 .0478340
562.613 .0471441
563.410 .0464545
564.207 .0457739
565.003 .0451045
565.799 .0444532
566.594 .0438268
567.388 .0432375
568.182 .0426747
568.976 .0421385
569.769 .0416242
570.562 .0411403
571.354 .0406779
572.145 .0402389
572.936 .0398158
573.727 .0393986
574.517 .0389871
575.307 .0385840
576.096 .0381853
576.885 .0377964
577.673 .0374148
578.461 .0370475
579.248 .0366934
580.035 .0363600
580.821 .0360476
581.607 .0357558
582.392 .0354873
583.177 .0352398
583.962 .0350082
584.746 .0347941
585.529 .0345950
586.313 .0344119
587.095 .0342465
587.878 .0340954
588.660 .0339584
589.441 .0338368
590.222 .0337283
591.003 .0336345
591.783 .0335514
592.563 .0334790
593.342 .0334157
594.121 .0333565
594.899 .0332998
595.678 .0332417
596.455 .0331837
597.233 .0331241
598.009 .0330626
598.786 .0330003
599.562 .0329378
600.338 .0328775
601.113 .0328206
601.888 .0327672
602.663 .0327172
603.437 .0326709
604.211 .0326263
604.984 .0325823
605.757 .0325386
606.530 .0324941
607.302 .0324498
608.074 .0324063
608.845 .0323649
609.616 .0323259
610.387 .0322899
611.158 .0322582
611.928 .0322293
612.697 .0322034
613.467 .0321789
614.236 .0321543
615.004 .0321295
615.773 .0321039
616.541 .0320773
617.308 .0320504
618.076 .0320241
618.843 .0319980
619.609 .0319723
620.375 .0319482
621.141 .0319249
621.907 .0319019
622.672 .0318792
623.437 .0318564
624.202 .0318327
624.966 .0318087
625.730 .0317836
626.493 .0317574
627.257 .0317316
628.020 .0317057
628.782 .0316801
629.545 .0316551
630.307 .0316304
631.068 .0316057
631.830 .0315810
632.591 .0315561
633.352 .0315300
634.112 .0315031
634.872 .0314759
635.632 .0314483
636.392 .0314207
637.151 .0313937
637.910 .0313680
638.668 .0313442
639.427 .0313215
640.185 .0312987
640.943 .0312755
641.700 .0312509
642.457 .0312242
643.214 .0311958
643.971 .0311665
644.727 .0311373
645.483 .0311095
646.239 .0310836
646.994 .0310607
647.750 .0310409
648.505 .0310233
649.259 .0310073
650.014 .0309916
650.768 .0309743
651.521 .0309548
652.275 .0309332
653.028 .0309106
653.781 .0308876
654.534 .0308645
655.286 .0308422
656.039 .0308210
656.791 .0308009
657.542 .0307807
658.294 .0307602
659.045 .0307394
659.796 .0307166
660.546 .0306916
661.297 .0306646
662.047 .0306361
662.796 .0306065
663.546 .0305760
664.295 .0305451
665.044 .0305138
665.793 .0304825
666.542 .0304510
667.290 .0304206
668.038 .0303911
668.786 .0303628
669.533 .0303354
670.281 .0303091
671.028 .0302836
671.774 .0302583
672.521 .0302339
673.267 .0302105
674.013 .0301881
674.759 .0301667
675.505 .0301464
676.250 .0301286
676.995 .0301128
677.740 .0300989
678.484 .0300861
679.229 .0300744
679.973 .0300625
680.717 .0300503
681.460 .0300368
682.204 .0300222
682.947 .0300067
683.690 .0299898
684.433 .0299718
685.175 .0299528
685.917 .0299332
686.659 .0299130
687.401 .0298923
688.142 .0298716
688.884 .0298499
689.625 .0298284
690.365 .0298073
691.106 .0297864
691.846 .0297664
692.586 .0297469
693.326 .0297282
694.066 .0297102
694.805 .0296929
695.545 .0296755
696.284 .0296583
697.022 .0296413
697.761 .0296243
698.499 .0296066
699.237 .0295889
699.975 .0295709
700.713 .0295526
701.450 .0295347
702.187 .0295162
702.924 .0294977
703.661 .0294793
704.397 .0294604
705.133 .0294414
705.869 .0294218
706.605 .0294020
707.341 .0293814
708.076 .0293607
708.811 .0293397
709.546 .0293181
710.281 .0292963
711.015 .0292744
711.749 .0292521
712.483 .0292292
713.217 .0292059
713.950 .0291819
714.684 .0291575
715.417 .0291324
716.150 .0291071
716.882 .0290821
717.615 .0290579
718.347 .0290346
719.079 .0290123
719.811 .0289912
720.542 .0289713
721.273 .0289521
722.005 .0289335
722.735 .0289154
723.466 .0288976
724.196 .0288803
724.927 .0288636
725.656 .0288477
726.386 .0288330
727.116 .0288194
727.845 .0288069
728.574 .0287945
729.303 .0287822
730.031 .0287697
730.760 .0287569
731.488 .0287439
732.216 .0287309
732.944 .0287184
733.671 .0287069
734.398 .0286961
735.125 .0286862
735.852 .0286771
736.579 .0286685
737.305 .0286602
738.031 .0286518
738.757 .0286431
739.483 .0286341
740.208 .0286249
740.933 .0286161
741.658 .0286072
742.383 .0285987
743.108 .0285901
743.832 .0285814
744.556 .0285724
745.280 .0285629
746.004 .0285530
746.727 .0285430
747.450 .0285336
748.173 .0285242
748.896 .0285154
749.618 .0285079
750.340 .0285006
751.062 .0284931
751.784 .0284853
752.506 .0284766
753.227 .0284667
753.948 .0284559
754.669 .0284444
755.389 .0284324
756.110 .0284207
756.830 .0284094
757.550 .0283982
758.269 .0283877
758.989 .0283770
759.708 .0283654
760.427 .0283533
761.146 .0283402
761.864 .0283262
762.582 .0283119
763.300 .0282975
764.018 .0282836
764.736 .0282702
765.453 .0282573
766.170 .0282449
766.887 .0282327
767.603 .0282204
768.320 .0282070
769.036 .0281929
769.751 .0281780
770.467 .0281624
771.182 .0281470
771.897 .0281317
772.612 .0281169
773.327 .0281032
774.041 .0280902
774.755 .0280780
775.469 .0280666
776.183 .0280561
776.896 .0280461
777.609 .0280367
778.322 .0280281
779.035 .0280201
779.747 .0280131
780.459 .0280072
781.171 .0280023
781.882 .0279983
782.594 .0279950
783.305 .0279919
784.016 .0279887
784.726 .0279852
785.436 .0279804
786.147 .0279745
786.856 .0279677
787.566 .0279600
788.275 .0279513
788.984 .0279421
789.693 .0279325
790.401 .0279222
791.110 .0279111
791.818 .0278988
792.525 .0278852
793.233 .0278703
793.940 .0278541
794.647 .0278369
795.353 .0278190
796.060 .0278011
796.766 .0277832
797.472 .0277656
798.177 .0277484
798.883 .0277312
799.588 .0277139
800.292 .0276968
800.997 .0276792
801.701 .0276615
802.405 .0276437
803.109 .0276264
803.812 .0276094
804.515 .0275928
805.218 .0275764
805.921 .0275599
806.623 .0275432
807.325 .0275258
808.027 .0275078
808.728 .0274894
809.429 .0274706
810.130 .0274515
810.831 .0274323
811.531 .0274129
812.231 .0273929
812.931 .0273725
813.630 .0273513
814.330 .0273292
815.029 .0273065
815.727 .0272832
816.426 .0272600
817.124 .0272375
817.821 .0272162
818.519 .0271962
819.216 .0271784
819.913 .0271624
820.609 .0271480
821.306 .0271354
822.002 .0271243
822.697 .0271142
823.393 .0271054
824.088 .0270974
824.783 .0270900
825.477 .0270836
826.171 .0270779
826.865 .0270729
827.559 .0270693
828.252 .0270667
828.945 .0270643
829.638 .0270624
830.330 .0270603
831.023 .0270574
831.714 .0270539
832.406 .0270496
833.097 .0270438
833.788 .0270369
834.479 .0270295
835.169 .0270218
835.859 .0270147
836.548 .0270087
837.238 .0270034
837.927 .0269990
838.615 .0269955
839.304 .0269921
839.992 .0269887
840.680 .0269853
841.367 .0269819
842.054 .0269783
842.741 .0269752
843.428 .0269726
844.114 .0269706
844.800 .0269698
845.485 .0269694
846.170 .0269686
846.855 .0269674
847.540 .0269653
848.224 .0269622
848.908 .0269577
849.592 .0269525
850.275 .0269465
850.958 .0269400
851.641 .0269339
852.323 .0269280
853.005 .0269227
853.687 .0269177
854.368 .0269127
855.049 .0269075
855.730 .0269017
856.410 .0268952
857.090 .0268874
857.769 .0268792
858.449 .0268703
859.128 .0268608
859.806 .0268512
860.485 .0268420
861.163 .0268336
861.840 .0268254
862.518 .0268176
863.195 .0268098
863.871 .0268015
864.548 .0267924
865.224 .0267828
865.899 .0267729
866.574 .0267629
867.249 .0267535
867.924 .0267453
868.598 .0267388
869.272 .0267342
869.946 .0267314
870.619 .0267299
871.292 .0267292
871.964 .0267287
872.636 .0267275
873.308 .0267257
873.979 .0267233
874.651 .0267201
875.321 .0267167
875.992 .0267133
876.662 .0267101
877.331 .0267074
878.001 .0267052
878.670 .0267031
879.338 .0267004
880.007 .0266974
880.675 .0266936
881.342 .0266890
882.009 .0266842
882.676 .0266786
883.343 .0266732
884.009 .0266681
884.675 .0266631
885.340 .0266589
886.005 .0266552
886.670 .0266525
887.334 .0266502
887.998 .0266483
888.662 .0266463
889.325 .0266438
889.988 .0266408
890.650 .0266377
891.312 .0266341
891.974 .0266307
892.636 .0266277
893.297 .0266256
893.957 .0266245
894.618 .0266240
895.278 .0266239
895.937 .0266235
896.596 .0266220
897.255 .0266194
897.914 .0266147
898.572 .0266086
899.230 .0266014
899.887 .0265931
900.544 .0265844
901.201 .0265754
901.857 .0265662
902.513 .0265563
903.168 .0265455
903.823 .0265330
904.478 .0265183
905.132 .0265012
905.786 .0264818
906.440 .0264606
907.093 .0264381
907.746 .0264147
908.399 .0263910
909.051 .0263674
909.703 .0263435
910.354 .0263191
911.005 .0262943
911.656 .0262687
912.306 .0262420
912.956 .0262146
913.605 .0261868
914.254 .0261589
914.903 .0261312
915.551 .0261044
916.199 .0260785
916.847 .0260537
917.494 .0260298
918.141 .0260073
918.788 .0259857
919.434 .0259651
920.079 .0259448
920.725 .0259246
921.370 .0259047
922.014 .0258843
922.658 .0258634
923.302 .0258418
923.946 .0258194
924.589 .0257958
925.231 .0257708
925.873 .0257449
926.515 .0257182
927.157 .0256908
927.798 .0256628
928.439 .0256343
929.079 .0256055
929.719 .0255755
930.359 .0255445
930.998 .0255126
931.637 .0254799
932.275 .0254465
932.913 .0254132
933.551 .0253806
934.188 .0253494
934.825 .0253203
935.462 .0252935
936.098 .0252692
936.733 .0252473
937.369 .0252272
938.004 .0252084
938.638 .0251907
939.273 .0251741
939.907 .0251580
940.540 .0251428
941.173 .0251290
941.806 .0251165
942.438 .0251056
943.070 .0250964
943.702 .0250885
944.333 .0250813
944.964 .0250743
945.594 .0250667
946.224 .0250583
946.854 .0250494
947.483 .0250397
948.112 .0250293
948.741 .0250188
949.369 .0250085
949.996 .0249981
950.624 .0249879
951.251 .0249781
951.878 .0249680
952.504 .0249579
953.130 .0249478
953.755 .0249374
954.380 .0249266
955.005 .0249156
955.629 .0249037
956.253 .0248911
956.877 .0248780
957.500 .0248642
958.123 .0248498
958.746 .0248356
959.368 .0248215
959.990 .0248073
960.611 .0247939
961.232 .0247813
961.853 .0247696
962.473 .0247591
963.093 .0247499
963.712 .0247413
964.331 .0247337
964.950 .0247270
965.569 .0247213
966.187 .0247169
966.804 .0247142
967.422 .0247131
968.039 .0247135
968.655 .0247156
969.272 .0247186
969.887 .0247223
970.503 .0247270
971.118 .0247318
971.733 .0247365
972.347 .0247413
972.961 .0247457
973.575 .0247499
974.188 .0247541
974.801 .0247575
975.414 .0247601
976.026 .0247611
976.638 .0247608
977.250 .0247595
977.861 .0247574
978.472 .0247550
979.083 .0247524
979.693 .0247500
980.303 .0247474
980.912 .0247445
981.521 .0247411
982.130 .0247371
982.738 .0247325
983.346 .0247266
983.954 .0247197
984.562 .0247128
985.169 .0247061
985.775 .0247000
986.382 .0246957
986.988 .0246931
987.594 .0246915
988.199 .0246915
988.804 .0246928
989.409 .0246946
990.013 .0246970
990.617 .0246997
991.221 .0247027
991.824 .0247061
992.427 .0247104
993.030 .0247156
993.632 .0247227
994.234 .0247318
994.836 .0247419
995.438 .0247534
996.039 .0247665
996.640 .0247797
997.240 .0247930
997.840 .0248066
998.440 .0248203
999.040 .0248334
999.639 .0248463
1000.238 .0248582
1000.836 .0248696
1001.435 .0248805
1002.033 .0248905
1002.630 .0248994
1003.228 .0249074
1003.825 .0249144
1004.422 .0249205
1005.018 .0249259
1005.614 .0249312
1006.210 .0249364
1006.806 .0249426
1007.401 .0249492
1007.996 .0249563
1008.591 .0249638
1009.186 .0249722
1009.780 .0249808
1010.374 .0249898
1010.967 .0249987
1011.561 .0250077
1012.154 .0250169
1012.746 .0250265
1013.339 .0250357
1013.931 .0250453
1014.523 .0250544
1015.115 .0250633
1015.706 .0250711
1016.298 .0250785
1016.888 .0250853
1017.479 .0250923
1018.069 .0250997
1018.660 .0251070
1019.250 .0251143
1019.839 .0251218
1020.429 .0251299
1021.018 .0251383
1021.607 .0251473
1022.195 .0251573
1022.784 .0251680
1023.372 .0251803
1023.960 .0251939
1024.547 .0252092
1025.135 .0252259
1025.722 .0252434
1026.309 .0252613
1026.896 .0252790
1027.483 .0252963
1028.069 .0253123
1028.655 .0253282
1029.241 .0253437
1029.827 .0253587
1030.412 .0253726
1030.997 .0253864
1031.582 .0253994
1032.167 .0254119
1032.752 .0254238
1033.336 .0254350
1033.921 .0254453
1034.505 .0254548
1035.089 .0254633
1035.672 .0254718
1036.256 .0254796
1036.839 .0254871
1037.422 .0254940
1038.005 .0255012
1038.588 .0255077
1039.171 .0255147
1039.753 .0255221
1040.335 .0255305
1040.918 .0255388
1041.500 .0255468
1042.081 .0255543
1042.663 .0255618
1043.244 .0255690
1043.826 .0255751
1044.407 .0255802
1044.988 .0255851
1045.569 .0255887
1046.150 .0255912
1046.730 .0255924
1047.311 .0255926
1047.891 .0255911
1048.471 .0255880
1049.052 .0255831
1049.632 .0255773
1050.211 .0255715
1050.791 .0255657
1051.371 .0255603
1051.950 .0255548
1052.530 .0255496
1053.109 .0255436
1053.688 .0255372
1054.268 .0255300
1054.847 .0255218
1055.426 .0255124
1056.005 .0255017
1056.583 .0254903
1057.162 .0254780
1057.741 .0254651
1058.319 .0254526
1058.898 .0254390
1059.476 .0254246
1060.055 .0254090
1060.633 .0253924
1061.211 .0253749
1061.790 .0253565
1062.368 .0253377
1062.946 .0253186
1063.524 .0253012
1064.102 .0252857
1064.680 .0252719
1065.258 .0252619
1065.836 .0252542
1066.414 .0252485
1066.992 .0252444
1067.570 .0252418
1068.148 .0252394
1068.726 .0252374
1069.304 .0252357
1069.882 .0252341
1070.460 .0252322
1071.038 .0252309
1071.616 .0252289
1072.194 .0252271
1072.772 .0252241
1073.350 .0252203
1073.928 .0252145
1074.506 .0252086
1075.084 .0252009
1075.662 .0251933
1076.240 .0251860
1076.819 .0251792
1077.397 .0251720
1077.976 .0251644
1078.554 .0251564
1079.133 .0251491
1079.711 .0251414
1080.290 .0251349
1080.869 .0251284
1081.448 .0251247
1082.027 .0251216
1082.606 .0251204
1083.185 .0251199
1083.764 .0251201
1084.343 .0251198
1084.923 .0251180
1085.502 .0251144
1086.082 .0251101
1086.662 .0251040
1087.242 .0250970
1087.822 .0250884
1088.402 .0250794
1088.983 .0250680
1089.563 .0250554
1090.144 .0250428
1090.725 .0250308
1091.306 .0250198
1091.887 .0250098
1092.469 .0250031
1093.050 .0249989
1093.632 .0249980
1094.214 .0249999
1094.796 .0250040
1095.379 .0250117
1095.961 .0250209
1096.544 .0250319
1097.127 .0250450
1097.710 .0250597
1098.294 .0250750
1098.877 .0250897
1099.461 .0251057
1100.046 .0251189
1100.630 .0251299
1101.215 .0251392
1101.800 .0251463
1102.385 .0251500
1102.970 .0251512
1103.556 .0251508
1104.142 .0251474
1104.728 .0251424
1105.315 .0251334
1105.902 .0251202
1106.489 .0251059
1107.077 .0250905
1107.664 .0250756
1108.253 .0250646
1108.841 .0250612
1109.430 .0250618
1110.019 .0250695
1110.609 .0250849
1111.198 .0251047
1111.789 .0251291
1112.379 .0251572
1112.970 .0251890
1113.561 .0252245
1114.153 .0252663
1114.745 .0253124
1115.338 .0253627
1115.931 .0254185
1116.524 .0254755
1117.117 .0255319
1117.712 .0255873
1118.306 .0256395
1118.901 .0256873
1119.496 .0257327
1120.092 .0257752
1120.689 .0258145
1121.285 .0258533
1121.882 .0258928
1122.480 .0259342
1123.078 .0259760
1123.677 .0260191
1124.276 .0260589
1124.875 .0260985
1125.476 .0261380
1126.076 .0261764
1126.677 .0262172
1127.279 .0262637
1127.881 .0263167
1128.484 .0263771
1129.087 .0264466
1129.691 .0265252
1130.295 .0266111
1130.900 .0267016
1131.505 .0267917
1132.111 .0268791
1132.718 .0269648
1133.325 .0270493
1133.933 .0271301
1134.541 .0272158
1135.150 .0273094
1135.760 .0274099
1136.370 .0275211
1136.981 .0276446
1137.592 .0277764
1138.204 .0279154
1138.817 .0280555
1139.431 .0282023
1140.045 .0283557
1140.660 .0285179
1141.275 .0286975
1141.891 .0288946
1142.508 .0290701
1143.126 .0293211
1143.744 .0294942
1144.363 .0299646
1144.983 .0301737
