Measurement Sequence started on: 15-12-46-377
Integration time: 28
Scans to Average: 2 
>>>>>Begin Spectral Data<<<<<
432.689 .0000100
433.621 .0000100
434.552 .0000100
435.482 .0000100
436.410 .0000100
437.337 .0000100
438.262 .0264615
439.187 .0562719
440.110 .0933309
441.031 .1351151
441.952 .1757090
442.871 .2076466
443.789 .2251427
444.705 .2261760
445.621 .2131718
446.535 .1914598
447.447 .1668758
448.359 .1294539
449.269 .1107337
450.178 .0989743
451.086 .0907616
451.993 .0845262
452.898 .0796438
453.803 .0756578
454.706 .0723423
455.608 .0695064
456.508 .0670502
457.408 .0648923
458.306 .0629720
459.204 .0612335
460.100 .0596622
460.995 .0582456
461.888 .0569602
462.781 .0557849
463.673 .0547052
464.563 .0537248
465.452 .0528131
466.340 .0519456
467.228 .0511421
468.114 .0503807
468.999 .0496775
469.882 .0490160
470.765 .0484011
471.647 .0478362
472.528 .0473278
473.407 .0468741
474.286 .0464846
475.163 .0461564
476.040 .0458868
476.915 .0456662
477.790 .0454933
478.663 .0453528
479.535 .0452328
480.407 .0451213
481.277 .0450230
482.147 .0449229
483.015 .0448312
483.883 .0447487
484.749 .0446858
485.615 .0446535
486.479 .0446525
487.343 .0446849
488.206 .0447465
489.067 .0448270
489.928 .0449183
490.788 .0450075
491.647 .0450970
492.505 .0451847
493.362 .0452774
494.218 .0453849
495.073 .0455229
495.928 .0456981
496.781 .0459116
497.634 .0461715
498.486 .0464707
499.337 .0467986
500.187 .0471409
501.036 .0474923
501.884 .0478413
502.731 .0481915
503.578 .0485541
504.424 .0489264
505.268 .0493178
506.113 .0497346
506.956 .0501715
507.798 .0506427
508.640 .0511532
509.480 .0517090
510.320 .0523129
511.160 .0529963
511.998 .0537508
512.836 .0545840
513.672 .0555228
514.508 .0565761
515.344 .0577449
516.178 .0590592
517.012 .0605379
517.845 .0621999
518.677 .0640988
519.508 .0662711
520.339 .0687841
521.169 .0717018
521.998 .0750458
522.826 .0788673
523.654 .0831431
524.481 .0879227
525.307 .0931691
526.133 .0988590
526.958 .1049912
527.782 .1114664
528.605 .1181730
529.428 .1249928
530.250 .1315217
531.072 .1375223
531.892 .1426056
532.712 .1465073
533.532 .1489919
534.350 .1498482
535.168 .1489747
535.986 .1464873
536.802 .1425431
537.618 .1374238
538.434 .1313403
539.249 .1247867
540.063 .1179858
540.876 .1112440
541.689 .1047714
542.501 .0987073
543.313 .0932285
544.124 .0883480
544.934 .0839519
545.744 .0800087
546.553 .0764331
547.361 .0732218
548.169 .0703162
548.976 .0676983
549.783 .0653345
550.589 .0632079
551.395 .0612763
552.200 .0595278
553.004 .0579346
553.808 .0564718
554.611 .0551362
555.414 .0539071
556.216 .0527723
557.018 .0517207
557.819 .0507407
558.619 .0498354
559.419 .0489872
560.218 .0481964
561.017 .0474373
561.815 .0467062
562.613 .0459957
563.410 .0452955
564.207 .0446071
565.003 .0439358
565.799 .0432772
566.594 .0426363
567.388 .0420321
568.182 .0414552
568.976 .0409090
569.769 .0404023
570.562 .0399249
571.354 .0394686
572.145 .0390300
572.936 .0386050
573.727 .0381897
574.517 .0377942
575.307 .0374196
576.096 .0370595
576.885 .0367202
577.673 .0363994
578.461 .0360926
579.248 .0358002
580.035 .0355161
580.821 .0352355
581.607 .0349618
582.392 .0346971
583.177 .0344459
583.962 .0342127
584.746 .0340050
585.529 .0338234
586.313 .0336668
587.095 .0335332
587.878 .0334190
588.660 .0333162
589.441 .0332233
590.222 .0331334
591.003 .0330473
591.783 .0329635
592.563 .0328836
593.342 .0328105
594.121 .0327442
594.899 .0326852
595.678 .0326307
596.455 .0325800
597.233 .0325317
598.009 .0324822
598.786 .0324312
599.562 .0323792
600.338 .0323265
601.113 .0322740
601.888 .0322235
602.663 .0321748
603.437 .0321300
604.211 .0320885
604.984 .0320498
605.757 .0320133
606.530 .0319782
607.302 .0319437
608.074 .0319096
608.845 .0318761
609.616 .0318425
610.387 .0318092
611.158 .0317768
611.928 .0317447
612.697 .0317127
613.467 .0316806
614.236 .0316486
615.004 .0316176
615.773 .0315880
616.541 .0315589
617.308 .0315312
618.076 .0315055
618.843 .0314815
619.609 .0314591
620.375 .0314383
621.141 .0314194
621.907 .0314020
622.672 .0313861
623.437 .0313712
624.202 .0313574
624.966 .0313449
625.730 .0313329
626.493 .0313220
627.257 .0313115
628.020 .0313005
628.782 .0312884
629.545 .0312754
630.307 .0312605
631.068 .0312435
631.830 .0312238
632.591 .0312014
633.352 .0311772
634.112 .0311504
634.872 .0311219
635.632 .0310931
636.392 .0310638
637.151 .0310347
637.910 .0310049
638.668 .0309749
639.427 .0309442
640.185 .0309131
640.943 .0308818
641.700 .0308500
642.457 .0308186
643.214 .0307874
643.971 .0307563
644.727 .0307275
645.483 .0307005
646.239 .0306759
646.994 .0306535
647.750 .0306337
648.505 .0306154
649.259 .0305986
650.014 .0305826
650.768 .0305666
651.521 .0305504
652.275 .0305337
653.028 .0305159
653.781 .0304974
654.534 .0304787
655.286 .0304596
656.039 .0304404
656.791 .0304208
657.542 .0303996
658.294 .0303771
659.045 .0303529
659.796 .0303269
660.546 .0302991
661.297 .0302699
662.047 .0302396
662.796 .0302088
663.546 .0301785
664.295 .0301491
665.044 .0301211
665.793 .0300941
666.542 .0300685
667.290 .0300445
668.038 .0300215
668.786 .0299994
669.533 .0299786
670.281 .0299588
671.028 .0299393
671.774 .0299197
672.521 .0299006
673.267 .0298812
674.013 .0298616
674.759 .0298422
675.505 .0298226
676.250 .0298039
676.995 .0297861
677.740 .0297687
678.484 .0297525
679.229 .0297371
679.973 .0297217
680.717 .0297066
681.460 .0296918
682.204 .0296768
682.947 .0296615
683.690 .0296468
684.433 .0296321
685.175 .0296176
685.917 .0296041
686.659 .0295915
687.401 .0295798
688.142 .0295694
688.884 .0295595
689.625 .0295503
690.365 .0295417
691.106 .0295329
691.846 .0295235
692.586 .0295130
693.326 .0295017
694.066 .0294893
694.805 .0294762
695.545 .0294626
696.284 .0294489
697.022 .0294351
697.761 .0294211
698.499 .0294064
699.237 .0293910
699.975 .0293745
700.713 .0293576
701.450 .0293395
702.187 .0293208
702.924 .0293015
703.661 .0292821
704.397 .0292626
705.133 .0292438
705.869 .0292251
706.605 .0292070
707.341 .0291895
708.076 .0291730
708.811 .0291566
709.546 .0291408
710.281 .0291256
711.015 .0291108
711.749 .0290960
712.483 .0290804
713.217 .0290636
713.950 .0290462
714.684 .0290274
715.417 .0290076
716.150 .0289870
716.882 .0289663
717.615 .0289451
718.347 .0289233
719.079 .0289015
719.811 .0288788
720.542 .0288555
721.273 .0288317
722.005 .0288070
722.735 .0287817
723.466 .0287560
724.196 .0287307
724.927 .0287058
725.656 .0286817
726.386 .0286583
727.116 .0286353
727.845 .0286133
728.574 .0285922
729.303 .0285717
730.031 .0285523
730.760 .0285346
731.488 .0285182
732.216 .0285032
732.944 .0284895
733.671 .0284773
734.398 .0284662
735.125 .0284558
735.852 .0284458
736.579 .0284359
737.305 .0284262
738.031 .0284166
738.757 .0284065
739.483 .0283963
740.208 .0283859
740.933 .0283755
741.658 .0283651
742.383 .0283545
743.108 .0283438
743.832 .0283329
744.556 .0283222
745.280 .0283122
746.004 .0283021
746.727 .0282925
747.450 .0282830
748.173 .0282739
748.896 .0282647
749.618 .0282552
750.340 .0282457
751.062 .0282359
751.784 .0282258
752.506 .0282149
753.227 .0282033
753.948 .0281912
754.669 .0281788
755.389 .0281662
756.110 .0281535
756.830 .0281404
757.550 .0281268
758.269 .0281132
758.989 .0280993
759.708 .0280849
760.427 .0280700
761.146 .0280544
761.864 .0280384
762.582 .0280221
763.300 .0280058
764.018 .0279901
764.736 .0279759
765.453 .0279629
766.170 .0279502
766.887 .0279385
767.603 .0279272
768.320 .0279159
769.036 .0279046
769.751 .0278933
770.467 .0278815
771.182 .0278699
771.897 .0278583
772.612 .0278471
773.327 .0278370
774.041 .0278280
774.755 .0278196
775.469 .0278120
776.183 .0278051
776.896 .0277982
777.609 .0277912
778.322 .0277843
779.035 .0277770
779.747 .0277697
780.459 .0277626
781.171 .0277555
781.882 .0277486
782.594 .0277420
783.305 .0277356
784.016 .0277292
784.726 .0277228
785.436 .0277161
786.147 .0277089
786.856 .0277017
787.566 .0276939
788.275 .0276856
788.984 .0276768
789.693 .0276675
790.401 .0276573
791.110 .0276463
791.818 .0276341
792.525 .0276210
793.233 .0276077
793.940 .0275941
794.647 .0275807
795.353 .0275677
796.060 .0275554
796.766 .0275437
797.472 .0275324
798.177 .0275209
798.883 .0275089
799.588 .0274967
800.292 .0274837
800.997 .0274702
801.701 .0274567
802.405 .0274434
803.109 .0274307
803.812 .0274187
804.515 .0274070
805.218 .0273949
805.921 .0273820
806.623 .0273681
807.325 .0273529
808.027 .0273366
808.728 .0273192
809.429 .0273010
810.130 .0272826
810.831 .0272647
811.531 .0272467
812.231 .0272286
812.931 .0272106
813.630 .0271921
814.330 .0271733
815.029 .0271538
815.727 .0271336
816.426 .0271132
817.124 .0270927
817.821 .0270723
818.519 .0270522
819.216 .0270326
819.913 .0270138
820.609 .0269961
821.306 .0269794
822.002 .0269639
822.697 .0269498
823.393 .0269373
824.088 .0269262
824.783 .0269162
825.477 .0269068
826.171 .0268978
826.865 .0268898
827.559 .0268823
828.252 .0268752
828.945 .0268692
829.638 .0268643
830.330 .0268603
831.023 .0268573
831.714 .0268546
832.406 .0268521
833.097 .0268497
833.788 .0268469
834.479 .0268435
835.169 .0268402
835.859 .0268373
836.548 .0268347
837.238 .0268330
837.927 .0268323
838.615 .0268318
839.304 .0268319
839.992 .0268324
840.680 .0268323
841.367 .0268321
842.054 .0268320
842.741 .0268317
843.428 .0268320
844.114 .0268330
844.800 .0268346
845.485 .0268365
846.170 .0268384
846.855 .0268394
847.540 .0268392
848.224 .0268376
848.908 .0268345
849.592 .0268300
850.275 .0268249
850.958 .0268190
851.641 .0268127
852.323 .0268059
853.005 .0267982
853.687 .0267893
854.368 .0267790
855.049 .0267668
855.730 .0267533
856.410 .0267386
857.090 .0267234
857.769 .0267082
858.449 .0266933
859.128 .0266791
859.806 .0266659
860.485 .0266537
861.163 .0266419
861.840 .0266306
862.518 .0266198
863.195 .0266093
863.871 .0265991
864.548 .0265892
865.224 .0265798
865.899 .0265710
866.574 .0265628
867.249 .0265548
867.924 .0265473
868.598 .0265401
869.272 .0265327
869.946 .0265254
870.619 .0265178
871.292 .0265102
871.964 .0265020
872.636 .0264933
873.308 .0264843
873.979 .0264749
874.651 .0264652
875.321 .0264556
875.992 .0264464
876.662 .0264380
877.331 .0264305
878.001 .0264238
878.670 .0264177
879.338 .0264119
880.007 .0264064
880.675 .0264006
881.342 .0263946
882.009 .0263882
882.676 .0263811
883.343 .0263744
884.009 .0263680
884.675 .0263617
885.340 .0263558
886.005 .0263501
886.670 .0263441
887.334 .0263379
887.998 .0263309
888.662 .0263231
889.325 .0263145
889.988 .0263056
890.650 .0262957
891.312 .0262852
891.974 .0262753
892.636 .0262662
893.297 .0262583
893.957 .0262516
894.618 .0262455
895.278 .0262406
895.937 .0262361
896.596 .0262319
897.255 .0262275
897.914 .0262227
898.572 .0262174
899.230 .0262109
899.887 .0262035
900.544 .0261952
901.201 .0261857
901.857 .0261758
902.513 .0261647
903.168 .0261523
903.823 .0261379
904.478 .0261214
905.132 .0261031
905.786 .0260830
906.440 .0260610
907.093 .0260371
907.746 .0260121
908.399 .0259865
909.051 .0259601
909.703 .0259336
910.354 .0259075
911.005 .0258819
911.656 .0258565
912.306 .0258315
912.956 .0258066
913.605 .0257826
914.254 .0257593
914.903 .0257369
915.551 .0257153
916.199 .0256948
916.847 .0256751
917.494 .0256564
918.141 .0256388
918.788 .0256221
919.434 .0256059
920.079 .0255904
920.725 .0255749
921.370 .0255595
922.014 .0255438
922.658 .0255278
923.302 .0255115
923.946 .0254945
924.589 .0254763
925.231 .0254570
925.873 .0254367
926.515 .0254155
927.157 .0253933
927.798 .0253706
928.439 .0253473
929.079 .0253234
929.719 .0252991
930.359 .0252747
930.998 .0252503
931.637 .0252264
932.275 .0252028
932.913 .0251800
933.551 .0251580
934.188 .0251372
934.825 .0251180
935.462 .0251006
936.098 .0250851
936.733 .0250715
937.369 .0250594
938.004 .0250492
938.638 .0250402
939.273 .0250326
939.907 .0250259
940.540 .0250202
941.173 .0250150
941.806 .0250103
942.438 .0250062
943.070 .0250026
943.702 .0249993
944.333 .0249964
944.964 .0249937
945.594 .0249910
946.224 .0249884
946.854 .0249857
947.483 .0249829
948.112 .0249800
948.741 .0249767
949.369 .0249728
949.996 .0249682
950.624 .0249636
951.251 .0249588
951.878 .0249542
952.504 .0249502
953.130 .0249467
953.755 .0249436
954.380 .0249409
955.005 .0249385
955.629 .0249361
956.253 .0249338
956.877 .0249315
957.500 .0249289
958.123 .0249267
958.746 .0249252
959.368 .0249244
959.990 .0249245
960.611 .0249253
961.232 .0249265
961.853 .0249278
962.473 .0249291
963.093 .0249302
963.712 .0249308
964.331 .0249309
964.950 .0249305
965.569 .0249300
966.187 .0249297
966.804 .0249301
967.422 .0249312
968.039 .0249335
968.655 .0249367
969.272 .0249404
969.887 .0249444
970.503 .0249485
971.118 .0249528
971.733 .0249566
972.347 .0249599
972.961 .0249633
973.575 .0249664
974.188 .0249696
974.801 .0249726
975.414 .0249754
976.026 .0249779
976.638 .0249796
977.250 .0249805
977.861 .0249801
978.472 .0249788
979.083 .0249761
979.693 .0249721
980.303 .0249671
980.912 .0249612
981.521 .0249551
982.130 .0249484
982.738 .0249425
983.346 .0249366
983.954 .0249316
984.562 .0249273
985.169 .0249234
985.775 .0249199
986.382 .0249162
986.988 .0249125
987.594 .0249084
988.199 .0249043
988.804 .0249008
989.409 .0248975
990.013 .0248953
990.617 .0248935
991.221 .0248929
991.824 .0248926
992.427 .0248933
993.030 .0248945
993.632 .0248961
994.234 .0248977
994.836 .0248997
995.438 .0249026
996.039 .0249060
996.640 .0249100
997.240 .0249146
997.840 .0249197
998.440 .0249254
999.040 .0249304
999.639 .0249353
1000.238 .0249397
1000.836 .0249436
1001.435 .0249462
1002.033 .0249480
1002.630 .0249487
1003.228 .0249487
1003.825 .0249479
1004.422 .0249473
1005.018 .0249463
1005.614 .0249455
1006.210 .0249447
1006.806 .0249434
1007.401 .0249412
1007.996 .0249377
1008.591 .0249320
1009.186 .0249252
1009.780 .0249168
1010.374 .0249073
1010.967 .0248967
1011.561 .0248865
1012.154 .0248764
1012.746 .0248667
1013.339 .0248570
1013.931 .0248470
1014.523 .0248361
1015.115 .0248243
1015.706 .0248116
1016.298 .0247985
1016.888 .0247860
1017.479 .0247747
1018.069 .0247648
1018.660 .0247575
1019.250 .0247525
1019.839 .0247501
1020.429 .0247497
1021.018 .0247509
1021.607 .0247526
1022.195 .0247538
1022.784 .0247549
1023.372 .0247552
1023.960 .0247561
1024.547 .0247577
1025.135 .0247599
1025.722 .0247630
1026.309 .0247669
1026.896 .0247712
1027.483 .0247759
1028.069 .0247802
1028.655 .0247837
1029.241 .0247858
1029.827 .0247870
1030.412 .0247867
1030.997 .0247863
1031.582 .0247855
1032.167 .0247842
1032.752 .0247822
1033.336 .0247799
1033.921 .0247760
1034.505 .0247707
1035.089 .0247644
1035.672 .0247568
1036.256 .0247484
1036.839 .0247396
1037.422 .0247303
1038.005 .0247223
1038.588 .0247151
1039.171 .0247081
1039.753 .0247011
1040.335 .0246944
1040.918 .0246875
1041.500 .0246801
1042.081 .0246729
1042.663 .0246661
1043.244 .0246609
1043.826 .0246567
1044.407 .0246528
1044.988 .0246500
1045.569 .0246483
1046.150 .0246458
1046.730 .0246430
1047.311 .0246391
1047.891 .0246337
1048.471 .0246262
1049.052 .0246176
1049.632 .0246067
1050.211 .0245955
1050.791 .0245835
1051.371 .0245722
1051.950 .0245618
1052.530 .0245529
1053.109 .0245449
1053.688 .0245379
1054.268 .0245317
1054.847 .0245253
1055.426 .0245172
1056.005 .0245089
1056.583 .0244987
1057.162 .0244883
1057.741 .0244766
1058.319 .0244665
1058.898 .0244577
1059.476 .0244499
1060.055 .0244417
1060.633 .0244341
1061.211 .0244254
1061.790 .0244158
1062.368 .0244054
1062.946 .0243947
1063.524 .0243829
1064.102 .0243722
1064.680 .0243625
1065.258 .0243548
1065.836 .0243496
1066.414 .0243470
1066.992 .0243446
1067.570 .0243435
1068.148 .0243424
1068.726 .0243414
1069.304 .0243418
1069.882 .0243444
1070.460 .0243466
1071.038 .0243500
1071.616 .0243545
1072.194 .0243584
1072.772 .0243610
1073.350 .0243629
1073.928 .0243628
1074.506 .0243605
1075.084 .0243562
1075.662 .0243508
1076.240 .0243464
1076.819 .0243448
1077.397 .0243448
1077.976 .0243466
1078.554 .0243511
1079.133 .0243566
1079.711 .0243622
1080.290 .0243677
1080.869 .0243727
1081.448 .0243759
1082.027 .0243782
1082.606 .0243794
1083.185 .0243818
1083.764 .0243858
1084.343 .0243919
1084.923 .0243990
1085.502 .0244072
1086.082 .0244148
1086.662 .0244212
1087.242 .0244274
1087.822 .0244329
1088.402 .0244363
1088.983 .0244392
1089.563 .0244409
1090.144 .0244440
1090.725 .0244493
1091.306 .0244578
1091.887 .0244694
1092.469 .0244853
1093.050 .0245039
1093.632 .0245229
1094.214 .0245444
1094.796 .0245689
1095.379 .0245953
1095.961 .0246251
1096.544 .0246574
1097.127 .0246919
1097.710 .0247289
1098.294 .0247684
1098.877 .0248094
1099.461 .0248510
1100.046 .0248914
1100.630 .0249272
1101.215 .0249605
1101.800 .0249910
1102.385 .0250170
1102.970 .0250411
1103.556 .0250641
1104.142 .0250841
1104.728 .0251009
1105.315 .0251149
1105.902 .0251261
1106.489 .0251376
1107.077 .0251493
1107.664 .0251603
1108.253 .0251725
1108.841 .0251875
1109.430 .0252054
1110.019 .0252264
1110.609 .0252537
1111.198 .0252848
1111.789 .0253195
1112.379 .0253606
1112.970 .0254055
1113.561 .0254560
1114.153 .0255121
1114.745 .0255737
1115.338 .0256376
1115.931 .0257014
1116.524 .0257629
1117.117 .0258171
1117.712 .0258678
1118.306 .0259112
1118.901 .0259484
1119.496 .0259824
1120.092 .0260151
1120.689 .0260484
1121.285 .0260831
1121.882 .0261228
1122.480 .0261665
1123.078 .0262159
1123.677 .0262715
1124.276 .0263288
1124.875 .0263949
1125.476 .0264648
1126.076 .0265427
1126.677 .0266257
1127.279 .0267182
1127.881 .0268167
1128.484 .0269223
1129.087 .0270351
1129.691 .0271494
1130.295 .0272676
1130.900 .0273862
1131.505 .0275000
1132.111 .0276120
1132.718 .0277177
1133.325 .0278224
1133.933 .0279244
1134.541 .0280293
1135.150 .0281300
1135.760 .0282342
1136.370 .0283379
1136.981 .0284406
1137.592 .0285393
1138.204 .0286386
1138.817 .0287381
1139.431 .0288429
1140.045 .0289588
1140.660 .0290725
1141.275 .0291879
1141.891 .0293108
1142.508 .0295082
1143.126 .0297908
1143.744 .0295619
1144.363 .0296215
1144.983 .0298749
