Measurement Sequence started on: 15-12-46-377
Integration time: 28
Scans to Average: 2 
>>>>>Begin Spectral Data<<<<<
432.689 .0000100
433.621 .0000100
434.552 .0000100
435.482 .0000100
436.410 .0000100
437.337 .0000100
438.262 .0291948
439.187 .0617806
440.110 .1023080
441.031 .1479679
441.952 .1922415
442.871 .2270022
443.789 .2459225
444.705 .2469011
445.621 .2326094
446.535 .2088931
447.447 .1821073
448.359 .1411731
449.269 .1209704
450.178 .1081911
451.086 .0991675
451.993 .0922448
452.898 .0867565
453.803 .0822532
454.706 .0784939
455.608 .0753189
456.508 .0726038
457.408 .0702719
458.306 .0682236
459.204 .0664051
460.100 .0647554
460.995 .0632702
461.888 .0619229
462.781 .0606785
463.673 .0595345
464.563 .0584806
465.452 .0575056
466.340 .0565916
467.228 .0557383
468.114 .0549401
468.999 .0542061
469.882 .0535296
470.765 .0528974
471.647 .0523030
472.528 .0517567
473.407 .0512543
474.286 .0507986
475.163 .0503913
476.040 .0500366
476.915 .0497260
477.790 .0494582
478.663 .0492239
479.535 .0490205
480.407 .0488448
481.277 .0486920
482.147 .0485529
483.015 .0484361
483.883 .0483303
484.749 .0482434
485.615 .0481816
486.479 .0481505
487.343 .0481419
488.206 .0481568
489.067 .0481805
489.928 .0482048
490.788 .0482254
491.647 .0482398
492.505 .0482528
493.362 .0482787
494.218 .0483173
495.073 .0483778
495.928 .0484719
496.781 .0485964
497.634 .0487469
498.486 .0489271
499.337 .0491180
500.187 .0493208
501.036 .0495355
501.884 .0497685
502.731 .0500244
503.578 .0503284
504.424 .0506871
505.268 .0510912
506.113 .0515605
506.956 .0520788
507.798 .0526513
508.640 .0532820
509.480 .0539581
510.320 .0546968
511.160 .0555229
511.998 .0564370
512.836 .0574459
513.672 .0585847
514.508 .0598620
515.344 .0612749
516.178 .0628594
517.012 .0646258
517.845 .0665949
518.677 .0687972
519.508 .0712456
520.339 .0739799
521.169 .0770797
521.998 .0805480
522.826 .0844685
523.654 .0888907
524.481 .0938189
525.307 .0992671
526.133 .1052799
526.958 .1117870
527.782 .1187175
528.605 .1258497
529.428 .1330836
530.250 .1398484
531.072 .1459613
531.892 .1510215
532.712 .1547513
533.532 .1570592
534.350 .1577102
535.168 .1566685
535.986 .1540835
536.802 .1500641
537.618 .1449189
538.434 .1388245
539.249 .1322719
540.063 .1253705
540.876 .1184581
541.689 .1117834
542.501 .1054875
543.313 .0997647
544.124 .0946052
544.934 .0899621
545.744 .0857984
546.553 .0820339
547.361 .0786314
548.169 .0755800
548.976 .0728300
549.783 .0703279
550.589 .0680528
551.395 .0659427
552.200 .0640044
553.004 .0622104
553.808 .0605434
554.611 .0590017
555.414 .0575786
556.216 .0562646
557.018 .0550660
557.819 .0539706
558.619 .0529529
559.419 .0520006
560.218 .0511235
561.017 .0502955
561.815 .0495114
562.613 .0487643
563.410 .0480432
564.207 .0473467
565.003 .0466847
565.799 .0460441
566.594 .0454183
567.388 .0448243
568.182 .0442496
568.976 .0436855
569.769 .0431504
570.562 .0426345
571.354 .0421370
572.145 .0416655
572.936 .0412093
573.727 .0407611
574.517 .0403266
575.307 .0399022
576.096 .0394822
576.885 .0390732
577.673 .0386799
578.461 .0382996
579.248 .0379412
580.035 .0376062
580.821 .0372889
581.607 .0369947
582.392 .0367225
583.177 .0364681
583.962 .0362287
584.746 .0360054
585.529 .0357962
586.313 .0356028
587.095 .0354258
587.878 .0352648
588.660 .0351204
589.441 .0349908
590.222 .0348731
591.003 .0347663
591.783 .0346675
592.563 .0345761
593.342 .0344908
594.121 .0344090
594.899 .0343310
595.678 .0342571
596.455 .0341860
597.233 .0341192
598.009 .0340572
598.786 .0339999
599.562 .0339455
600.338 .0338922
601.113 .0338398
601.888 .0337875
602.663 .0337353
603.437 .0336831
604.211 .0336305
604.984 .0335796
605.757 .0335297
606.530 .0334809
607.302 .0334344
608.074 .0333900
608.845 .0333464
609.616 .0333036
610.387 .0332621
611.158 .0332210
611.928 .0331797
612.697 .0331393
613.467 .0330998
614.236 .0330606
615.004 .0330222
615.773 .0329845
616.541 .0329480
617.308 .0329134
618.076 .0328796
618.843 .0328466
619.609 .0328154
620.375 .0327845
621.141 .0327534
621.907 .0327223
622.672 .0326904
623.437 .0326567
624.202 .0326225
624.966 .0325888
625.730 .0325551
626.493 .0325227
627.257 .0324925
628.020 .0324639
628.782 .0324368
629.545 .0324106
630.307 .0323840
631.068 .0323570
631.830 .0323288
632.591 .0322982
633.352 .0322668
634.112 .0322355
634.872 .0322037
635.632 .0321736
636.392 .0321458
637.151 .0321200
637.910 .0320951
638.668 .0320719
639.427 .0320489
640.185 .0320258
640.943 .0320024
641.700 .0319780
642.457 .0319537
643.214 .0319301
643.971 .0319064
644.727 .0318839
645.483 .0318638
646.239 .0318451
646.994 .0318273
647.750 .0318111
648.505 .0317946
649.259 .0317781
650.014 .0317608
650.768 .0317432
651.521 .0317255
652.275 .0317080
653.028 .0316907
653.781 .0316739
654.534 .0316585
655.286 .0316432
656.039 .0316277
656.791 .0316126
657.542 .0315965
658.294 .0315793
659.045 .0315607
659.796 .0315405
660.546 .0315188
661.297 .0314961
662.047 .0314712
662.796 .0314442
663.546 .0314150
664.295 .0313838
665.044 .0313508
665.793 .0313171
666.542 .0312828
667.290 .0312488
668.038 .0312155
668.786 .0311834
669.533 .0311522
670.281 .0311223
671.028 .0310935
671.774 .0310655
672.521 .0310381
673.267 .0310110
674.013 .0309841
674.759 .0309577
675.505 .0309317
676.250 .0309062
676.995 .0308811
677.740 .0308564
678.484 .0308313
679.229 .0308066
679.973 .0307814
680.717 .0307558
681.460 .0307298
682.204 .0307032
682.947 .0306766
683.690 .0306500
684.433 .0306236
685.175 .0305976
685.917 .0305724
686.659 .0305482
687.401 .0305253
688.142 .0305037
688.884 .0304836
689.625 .0304648
690.365 .0304468
691.106 .0304286
691.846 .0304093
692.586 .0303886
693.326 .0303662
694.066 .0303420
694.805 .0303165
695.545 .0302896
696.284 .0302623
697.022 .0302348
697.761 .0302079
698.499 .0301815
699.237 .0301557
699.975 .0301306
700.713 .0301068
701.450 .0300836
702.187 .0300617
702.924 .0300413
703.661 .0300232
704.397 .0300075
705.133 .0299941
705.869 .0299826
706.605 .0299734
707.341 .0299658
708.076 .0299599
708.811 .0299546
709.546 .0299504
710.281 .0299470
711.015 .0299441
711.749 .0299412
712.483 .0299385
713.217 .0299352
713.950 .0299314
714.684 .0299261
715.417 .0299193
716.150 .0299107
716.882 .0299009
717.615 .0298898
718.347 .0298779
719.079 .0298654
719.811 .0298521
720.542 .0298380
721.273 .0298236
722.005 .0298082
722.735 .0297918
723.466 .0297747
724.196 .0297574
724.927 .0297392
725.656 .0297206
726.386 .0297017
727.116 .0296831
727.845 .0296645
728.574 .0296459
729.303 .0296269
730.031 .0296082
730.760 .0295900
731.488 .0295721
732.216 .0295559
732.944 .0295414
733.671 .0295283
734.398 .0295167
735.125 .0295065
735.852 .0294972
736.579 .0294879
737.305 .0294783
738.031 .0294680
738.757 .0294566
739.483 .0294438
740.208 .0294296
740.933 .0294155
741.658 .0294017
742.383 .0293881
743.108 .0293746
743.832 .0293613
744.556 .0293481
745.280 .0293340
746.004 .0293191
746.727 .0293031
747.450 .0292859
748.173 .0292673
748.896 .0292479
749.618 .0292285
750.340 .0292100
751.062 .0291919
751.784 .0291746
752.506 .0291582
753.227 .0291420
753.948 .0291251
754.669 .0291077
755.389 .0290896
756.110 .0290705
756.830 .0290495
757.550 .0290275
758.269 .0290044
758.989 .0289806
759.708 .0289563
760.427 .0289319
761.146 .0289074
761.864 .0288833
762.582 .0288587
763.300 .0288343
764.018 .0288103
764.736 .0287868
765.453 .0287632
766.170 .0287404
766.887 .0287181
767.603 .0286960
768.320 .0286739
769.036 .0286525
769.751 .0286308
770.467 .0286091
771.182 .0285870
771.897 .0285647
772.612 .0285426
773.327 .0285213
774.041 .0285003
774.755 .0284799
775.469 .0284608
776.183 .0284427
776.896 .0284258
777.609 .0284102
778.322 .0283962
779.035 .0283836
779.747 .0283726
780.459 .0283632
781.171 .0283551
781.882 .0283487
782.594 .0283439
783.305 .0283405
784.016 .0283387
784.726 .0283382
785.436 .0283388
786.147 .0283400
786.856 .0283416
787.566 .0283433
788.275 .0283443
788.984 .0283443
789.693 .0283433
790.401 .0283406
791.110 .0283364
791.818 .0283308
792.525 .0283245
793.233 .0283177
793.940 .0283107
794.647 .0283036
795.353 .0282966
796.060 .0282896
796.766 .0282825
797.472 .0282750
798.177 .0282674
798.883 .0282598
799.588 .0282521
800.292 .0282451
800.997 .0282392
801.701 .0282337
802.405 .0282291
803.109 .0282252
803.812 .0282219
804.515 .0282185
805.218 .0282147
805.921 .0282110
806.623 .0282072
807.325 .0282033
808.027 .0281993
808.728 .0281947
809.429 .0281901
810.130 .0281846
810.831 .0281786
811.531 .0281720
812.231 .0281648
812.931 .0281570
813.630 .0281490
814.330 .0281411
815.029 .0281334
815.727 .0281260
816.426 .0281192
817.124 .0281127
817.821 .0281061
818.519 .0280996
819.216 .0280930
819.913 .0280867
820.609 .0280809
821.306 .0280755
822.002 .0280712
822.697 .0280679
823.393 .0280660
824.088 .0280649
824.783 .0280646
825.477 .0280649
826.171 .0280652
826.865 .0280656
827.559 .0280660
828.252 .0280660
828.945 .0280660
829.638 .0280662
830.330 .0280663
831.023 .0280664
831.714 .0280664
832.406 .0280663
833.097 .0280659
833.788 .0280649
834.479 .0280635
835.169 .0280612
835.859 .0280587
836.548 .0280555
837.238 .0280515
837.927 .0280468
838.615 .0280410
839.304 .0280344
839.992 .0280267
840.680 .0280181
841.367 .0280082
842.054 .0279971
842.741 .0279850
843.428 .0279717
844.114 .0279571
844.800 .0279411
845.485 .0279241
846.170 .0279055
846.855 .0278856
847.540 .0278642
848.224 .0278420
848.908 .0278196
849.592 .0277974
850.275 .0277752
850.958 .0277528
851.641 .0277308
852.323 .0277087
853.005 .0276860
853.687 .0276626
854.368 .0276381
855.049 .0276126
855.730 .0275859
856.410 .0275579
857.090 .0275287
857.769 .0274988
858.449 .0274682
859.128 .0274363
859.806 .0274033
860.485 .0273698
861.163 .0273353
861.840 .0273006
862.518 .0272658
863.195 .0272310
863.871 .0271965
864.548 .0271628
865.224 .0271299
865.899 .0270979
866.574 .0270674
867.249 .0270384
867.924 .0270109
868.598 .0269848
869.272 .0269603
869.946 .0269370
870.619 .0269148
871.292 .0268934
871.964 .0268722
872.636 .0268514
873.308 .0268313
873.979 .0268120
874.651 .0267935
875.321 .0267764
875.992 .0267603
876.662 .0267449
877.331 .0267302
878.001 .0267155
878.670 .0267005
879.338 .0266858
880.007 .0266714
880.675 .0266574
881.342 .0266444
882.009 .0266328
882.676 .0266225
883.343 .0266136
884.009 .0266058
884.675 .0265985
885.340 .0265916
886.005 .0265848
886.670 .0265775
887.334 .0265704
887.998 .0265638
888.662 .0265580
889.325 .0265536
889.988 .0265505
890.650 .0265489
891.312 .0265483
891.974 .0265485
892.636 .0265492
893.297 .0265504
893.957 .0265520
894.618 .0265534
895.278 .0265553
895.937 .0265578
896.596 .0265608
897.255 .0265646
897.914 .0265692
898.572 .0265738
899.230 .0265787
899.887 .0265830
900.544 .0265864
901.201 .0265892
901.857 .0265912
902.513 .0265918
903.168 .0265916
903.823 .0265905
904.478 .0265885
905.132 .0265856
905.786 .0265820
906.440 .0265770
907.093 .0265706
907.746 .0265625
908.399 .0265523
909.051 .0265408
909.703 .0265284
910.354 .0265154
911.005 .0265028
911.656 .0264910
912.306 .0264800
912.956 .0264700
913.605 .0264614
914.254 .0264535
914.903 .0264461
915.551 .0264398
916.199 .0264344
916.847 .0264303
917.494 .0264276
918.141 .0264265
918.788 .0264270
919.434 .0264292
920.079 .0264319
920.725 .0264349
921.370 .0264378
922.014 .0264397
922.658 .0264407
923.302 .0264405
923.946 .0264391
924.589 .0264365
925.231 .0264330
925.873 .0264289
926.515 .0264236
927.157 .0264174
927.798 .0264099
928.439 .0264016
929.079 .0263922
929.719 .0263816
930.359 .0263704
930.998 .0263592
931.637 .0263483
932.275 .0263381
932.913 .0263289
933.551 .0263207
934.188 .0263135
934.825 .0263077
935.462 .0263027
936.098 .0262988
936.733 .0262960
937.369 .0262943
938.004 .0262938
938.638 .0262945
939.273 .0262962
939.907 .0262992
940.540 .0263037
941.173 .0263090
941.806 .0263151
942.438 .0263222
943.070 .0263298
943.702 .0263380
944.333 .0263463
944.964 .0263544
945.594 .0263621
946.224 .0263695
946.854 .0263761
947.483 .0263815
948.112 .0263859
948.741 .0263887
949.369 .0263905
949.996 .0263909
950.624 .0263900
951.251 .0263882
951.878 .0263858
952.504 .0263827
953.130 .0263790
953.755 .0263747
954.380 .0263695
955.005 .0263630
955.629 .0263555
956.253 .0263464
956.877 .0263363
957.500 .0263257
958.123 .0263151
958.746 .0263045
959.368 .0262943
959.990 .0262837
960.611 .0262729
961.232 .0262613
961.853 .0262481
962.473 .0262332
963.093 .0262170
963.712 .0261993
964.331 .0261801
964.950 .0261602
965.569 .0261404
966.187 .0261204
966.804 .0261014
967.422 .0260826
968.039 .0260642
968.655 .0260456
969.272 .0260270
969.887 .0260081
970.503 .0259890
971.118 .0259700
971.733 .0259508
972.347 .0259320
972.961 .0259140
973.575 .0258961
974.188 .0258783
974.801 .0258609
975.414 .0258435
976.026 .0258254
976.638 .0258070
977.250 .0257881
977.861 .0257687
978.472 .0257488
979.083 .0257287
979.693 .0257073
980.303 .0256848
980.912 .0256616
981.521 .0256374
982.130 .0256127
982.738 .0255881
983.346 .0255630
983.954 .0255380
984.562 .0255129
985.169 .0254868
985.775 .0254598
986.382 .0254323
986.988 .0254040
987.594 .0253749
988.199 .0253457
988.804 .0253172
989.409 .0252900
990.013 .0252645
990.617 .0252408
991.221 .0252181
991.824 .0251959
992.427 .0251740
993.030 .0251517
993.632 .0251290
994.234 .0251065
994.836 .0250846
995.438 .0250638
996.039 .0250445
996.640 .0250265
997.240 .0250102
997.840 .0249945
998.440 .0249795
999.040 .0249633
999.639 .0249460
1000.238 .0249278
1000.836 .0249085
1001.435 .0248888
1002.033 .0248695
1002.630 .0248505
1003.228 .0248323
1003.825 .0248149
1004.422 .0247988
1005.018 .0247832
1005.614 .0247695
1006.210 .0247571
1006.806 .0247456
1007.401 .0247350
1007.996 .0247251
1008.591 .0247159
1009.186 .0247076
1009.780 .0246994
1010.374 .0246910
1010.967 .0246827
1011.561 .0246746
1012.154 .0246661
1012.746 .0246578
1013.339 .0246496
1013.931 .0246412
1014.523 .0246321
1015.115 .0246224
1015.706 .0246120
1016.298 .0246013
1016.888 .0245909
1017.479 .0245806
1018.069 .0245710
1018.660 .0245621
1019.250 .0245544
1019.839 .0245482
1020.429 .0245434
1021.018 .0245402
1021.607 .0245389
1022.195 .0245394
1022.784 .0245416
1023.372 .0245457
1023.960 .0245519
1024.547 .0245597
1025.135 .0245693
1025.722 .0245789
1026.309 .0245881
1026.896 .0245969
1027.483 .0246050
1028.069 .0246119
1028.655 .0246184
1029.241 .0246243
1029.827 .0246297
1030.412 .0246354
1030.997 .0246420
1031.582 .0246486
1032.167 .0246561
1032.752 .0246646
1033.336 .0246725
1033.921 .0246810
1034.505 .0246896
1035.089 .0246975
1035.672 .0247059
1036.256 .0247146
1036.839 .0247232
1037.422 .0247317
1038.005 .0247415
1038.588 .0247519
1039.171 .0247632
1039.753 .0247755
1040.335 .0247868
1040.918 .0247980
1041.500 .0248084
1042.081 .0248180
1042.663 .0248261
1043.244 .0248346
1043.826 .0248425
1044.407 .0248507
1044.988 .0248601
1045.569 .0248695
1046.150 .0248794
1046.730 .0248893
1047.311 .0248993
1047.891 .0249082
1048.471 .0249167
1049.052 .0249253
1049.632 .0249340
1050.211 .0249447
1050.791 .0249565
1051.371 .0249694
1051.950 .0249834
1052.530 .0249974
1053.109 .0250103
1053.688 .0250206
1054.268 .0250289
1054.847 .0250335
1055.426 .0250367
1056.005 .0250393
1056.583 .0250425
1057.162 .0250473
1057.741 .0250549
1058.319 .0250643
1058.898 .0250750
1059.476 .0250864
1060.055 .0250971
1060.633 .0251068
1061.211 .0251163
1061.790 .0251251
1062.368 .0251363
1062.946 .0251509
1063.524 .0251703
1064.102 .0251939
1064.680 .0252224
1065.258 .0252531
1065.836 .0252840
1066.414 .0253140
1066.992 .0253415
1067.570 .0253654
1068.148 .0253859
1068.726 .0254032
1069.304 .0254184
1069.882 .0254331
1070.460 .0254484
1071.038 .0254642
1071.616 .0254810
1072.194 .0254975
1072.772 .0255130
1073.350 .0255259
1073.928 .0255371
1074.506 .0255462
1075.084 .0255546
1075.662 .0255635
1076.240 .0255737
1076.819 .0255857
1077.397 .0256016
1077.976 .0256203
1078.554 .0256417
1079.133 .0256657
1079.711 .0256907
1080.290 .0257136
1080.869 .0257352
1081.448 .0257541
1082.027 .0257714
1082.606 .0257861
1083.185 .0258014
1083.764 .0258161
1084.343 .0258332
1084.923 .0258524
1085.502 .0258737
1086.082 .0258974
1086.662 .0259248
1087.242 .0259518
1087.822 .0259799
1088.402 .0260067
1088.983 .0260318
1089.563 .0260549
1090.144 .0260776
1090.725 .0261007
1091.306 .0261241
1091.887 .0261497
1092.469 .0261806
1093.050 .0262139
1093.632 .0262517
1094.214 .0262905
1094.796 .0263309
1095.379 .0263711
1095.961 .0264095
1096.544 .0264448
1097.127 .0264791
1097.710 .0265122
1098.294 .0265446
1098.877 .0265753
1099.461 .0266064
1100.046 .0266370
1100.630 .0266671
1101.215 .0266976
1101.800 .0267273
1102.385 .0267558
1102.970 .0267856
1103.556 .0268134
1104.142 .0268422
1104.728 .0268683
1105.315 .0268926
1105.902 .0269131
1106.489 .0269321
1107.077 .0269480
1107.664 .0269645
1108.253 .0269849
1108.841 .0270105
1109.430 .0270401
1110.019 .0270739
1110.609 .0271106
1111.198 .0271481
1111.789 .0271831
1112.379 .0272149
1112.970 .0272383
1113.561 .0272599
1114.153 .0272783
1114.745 .0272966
1115.338 .0273189
1115.931 .0273468
1116.524 .0273802
1117.117 .0274202
1117.712 .0274632
1118.306 .0275076
1118.901 .0275500
1119.496 .0275913
1120.092 .0276314
1120.689 .0276677
1121.285 .0277056
1121.882 .0277420
1122.480 .0277834
1123.078 .0278327
1123.677 .0278873
1124.276 .0279491
1124.875 .0280172
1125.476 .0280897
1126.076 .0281641
1126.677 .0282382
1127.279 .0283120
1127.881 .0283814
1128.484 .0284504
1129.087 .0285170
1129.691 .0285843
1130.295 .0286544
1130.900 .0287347
1131.505 .0288216
1132.111 .0289214
1132.718 .0290267
1133.325 .0291387
1133.933 .0292543
1134.541 .0293675
1135.150 .0294722
1135.760 .0295691
1136.370 .0296594
1136.981 .0297441
1137.592 .0298223
1138.204 .0299056
1138.817 .0299924
1139.431 .0300887
1140.045 .0301843
1140.660 .0302722
1141.275 .0303602
1141.891 .0304379
1142.508 .0306699
1143.126 .0305842
1143.744 .0303918
1144.363 .0307031
1144.983 .0306771
