Measurement Sequence started on: 15-12-46-377
Integration time: 28
Scans to Average: 2 
>>>>>Begin Spectral Data<<<<<
432.689 .0000100
433.621 .0000100
434.552 .0000100
435.482 .0000100
436.410 .0000100
437.337 .0000100
438.262 .0291528
439.187 .0617764
440.110 .1022835
441.031 .1478977
441.952 .1921072
442.871 .2267674
443.789 .2455546
444.705 .2463403
445.621 .2318202
446.535 .2078455
447.447 .1808189
448.359 .1397006
449.269 .1193157
450.178 .1064720
451.086 .0974561
451.993 .0905808
452.898 .0851709
453.803 .0807540
454.706 .0771011
455.608 .0740153
456.508 .0713883
457.408 .0691240
458.306 .0671458
459.204 .0653962
460.100 .0638545
460.995 .0624712
461.888 .0612250
462.781 .0600793
463.673 .0590203
464.563 .0580189
465.452 .0570814
466.340 .0561764
467.228 .0553109
468.114 .0544836
468.999 .0537062
469.882 .0529672
470.765 .0522695
471.647 .0516153
472.528 .0510050
473.407 .0504370
474.286 .0499189
475.163 .0494400
476.040 .0490187
476.915 .0486561
477.790 .0483511
478.663 .0481077
479.535 .0479356
480.407 .0478149
481.277 .0477495
482.147 .0477263
483.015 .0477344
483.883 .0477547
484.749 .0477840
485.615 .0478164
486.479 .0478495
487.343 .0478884
488.206 .0479390
489.067 .0479986
489.928 .0480768
490.788 .0481664
491.647 .0482692
492.505 .0483817
493.362 .0485016
494.218 .0486131
495.073 .0487222
495.928 .0488266
496.781 .0489316
497.634 .0490461
498.486 .0491945
499.337 .0493859
500.187 .0496294
501.036 .0499289
501.884 .0502905
502.731 .0507064
503.578 .0511759
504.424 .0516872
505.268 .0522197
506.113 .0527781
506.956 .0533670
507.798 .0539856
508.640 .0546506
509.480 .0553839
510.320 .0562043
511.160 .0571209
511.998 .0581426
512.836 .0592722
513.672 .0605013
514.508 .0618467
515.344 .0633139
516.178 .0649180
517.012 .0666902
517.845 .0686710
518.677 .0708902
519.508 .0734254
520.339 .0763072
521.169 .0795884
521.998 .0833022
522.826 .0875404
523.654 .0923036
524.481 .0976076
525.307 .1035445
526.133 .1101031
526.958 .1172131
527.782 .1248545
528.605 .1328566
529.428 .1410841
530.250 .1489567
531.072 .1562067
531.892 .1623562
532.712 .1671029
533.532 .1701111
534.350 .1711066
535.168 .1700712
535.986 .1670994
536.802 .1623316
537.618 .1561147
538.434 .1487922
539.249 .1409005
540.063 .1326662
540.876 .1244662
541.689 .1165425
542.501 .1091222
543.313 .1023139
544.124 .0961582
544.934 .0906151
545.744 .0856432
546.553 .0811850
547.361 .0772360
548.169 .0738047
548.976 .0707973
549.783 .0681849
550.589 .0659154
551.395 .0639241
552.200 .0621601
553.004 .0605589
553.808 .0590990
554.611 .0577750
555.414 .0565763
556.216 .0554802
557.018 .0544913
557.819 .0536012
558.619 .0527887
559.419 .0520364
560.218 .0513266
561.017 .0506362
561.815 .0499413
562.613 .0492440
563.410 .0485200
564.207 .0477808
565.003 .0470440
565.799 .0463122
566.594 .0455990
567.388 .0449154
568.182 .0442614
568.976 .0436424
569.769 .0430587
570.562 .0425063
571.354 .0419740
572.145 .0414623
572.936 .0409680
573.727 .0404858
574.517 .0400228
575.307 .0395764
576.096 .0391476
576.885 .0387407
577.673 .0383512
578.461 .0379787
579.248 .0376240
580.035 .0372883
580.821 .0369690
581.607 .0366660
582.392 .0363811
583.177 .0361136
583.962 .0358652
584.746 .0356370
585.529 .0354309
586.313 .0352469
587.095 .0350831
587.878 .0349372
588.660 .0348086
589.441 .0346938
590.222 .0345920
591.003 .0345029
591.783 .0344230
592.563 .0343515
593.342 .0342863
594.121 .0342252
594.899 .0341664
595.678 .0341075
596.455 .0340485
597.233 .0339890
598.009 .0339296
598.786 .0338698
599.562 .0338108
600.338 .0337544
601.113 .0337012
601.888 .0336499
602.663 .0336019
603.437 .0335561
604.211 .0335113
604.984 .0334675
605.757 .0334255
606.530 .0333844
607.302 .0333456
608.074 .0333101
608.845 .0332782
609.616 .0332495
610.387 .0332237
611.158 .0331992
611.928 .0331756
612.697 .0331522
613.467 .0331283
614.236 .0331031
615.004 .0330778
615.773 .0330522
616.541 .0330267
617.308 .0330030
618.076 .0329812
618.843 .0329610
619.609 .0329430
620.375 .0329260
621.141 .0329091
621.907 .0328912
622.672 .0328720
623.437 .0328506
624.202 .0328273
624.966 .0328017
625.730 .0327739
626.493 .0327435
627.257 .0327111
628.020 .0326772
628.782 .0326417
629.545 .0326050
630.307 .0325661
631.068 .0325256
631.830 .0324836
632.591 .0324395
633.352 .0323937
634.112 .0323467
634.872 .0322993
635.632 .0322520
636.392 .0322044
637.151 .0321580
637.910 .0321129
638.668 .0320699
639.427 .0320291
640.185 .0319905
640.943 .0319533
641.700 .0319180
642.457 .0318831
643.214 .0318490
643.971 .0318153
644.727 .0317820
645.483 .0317487
646.239 .0317166
646.994 .0316853
647.750 .0316548
648.505 .0316259
649.259 .0316000
650.014 .0315762
650.768 .0315545
651.521 .0315341
652.275 .0315143
653.028 .0314939
653.781 .0314730
654.534 .0314495
655.286 .0314249
656.039 .0313988
656.791 .0313710
657.542 .0313417
658.294 .0313122
659.045 .0312826
659.796 .0312531
660.546 .0312236
661.297 .0311940
662.047 .0311634
662.796 .0311324
663.546 .0311006
664.295 .0310691
665.044 .0310377
665.793 .0310084
666.542 .0309804
667.290 .0309554
668.038 .0309335
668.786 .0309147
669.533 .0308994
670.281 .0308868
671.028 .0308765
671.774 .0308672
672.521 .0308591
673.267 .0308519
674.013 .0308447
674.759 .0308377
675.505 .0308305
676.250 .0308229
676.995 .0308148
677.740 .0308064
678.484 .0307973
679.229 .0307879
679.973 .0307787
680.717 .0307688
681.460 .0307585
682.204 .0307467
682.947 .0307342
683.690 .0307201
684.433 .0307048
685.175 .0306878
685.917 .0306696
686.659 .0306508
687.401 .0306321
688.142 .0306137
688.884 .0305964
689.625 .0305796
690.365 .0305626
691.106 .0305452
691.846 .0305270
692.586 .0305071
693.326 .0304859
694.066 .0304632
694.805 .0304403
695.545 .0304163
696.284 .0303925
697.022 .0303690
697.761 .0303458
698.499 .0303232
699.237 .0303004
699.975 .0302767
700.713 .0302526
701.450 .0302275
702.187 .0302017
702.924 .0301754
703.661 .0301493
704.397 .0301233
705.133 .0300978
705.869 .0300728
706.605 .0300481
707.341 .0300237
708.076 .0300000
708.811 .0299760
709.546 .0299517
710.281 .0299272
711.015 .0299021
711.749 .0298765
712.483 .0298511
713.217 .0298253
713.950 .0297993
714.684 .0297730
715.417 .0297467
716.150 .0297204
716.882 .0296940
717.615 .0296674
718.347 .0296407
719.079 .0296138
719.811 .0295864
720.542 .0295583
721.273 .0295303
722.005 .0295019
722.735 .0294738
723.466 .0294459
724.196 .0294185
724.927 .0293914
725.656 .0293645
726.386 .0293377
727.116 .0293114
727.845 .0292857
728.574 .0292596
729.303 .0292340
730.031 .0292091
730.760 .0291846
731.488 .0291609
732.216 .0291380
732.944 .0291163
733.671 .0290958
734.398 .0290768
735.125 .0290593
735.852 .0290433
736.579 .0290296
737.305 .0290174
738.031 .0290070
738.757 .0289980
739.483 .0289898
740.208 .0289820
740.933 .0289748
741.658 .0289676
742.383 .0289606
743.108 .0289537
743.832 .0289473
744.556 .0289414
745.280 .0289364
746.004 .0289317
746.727 .0289273
747.450 .0289232
748.173 .0289188
748.896 .0289134
749.618 .0289076
750.340 .0289013
751.062 .0288951
751.784 .0288894
752.506 .0288845
753.227 .0288802
753.948 .0288771
754.669 .0288741
755.389 .0288708
756.110 .0288670
756.830 .0288619
757.550 .0288553
758.269 .0288476
758.989 .0288389
759.708 .0288295
760.427 .0288199
761.146 .0288110
761.864 .0288025
762.582 .0287945
763.300 .0287869
764.018 .0287794
764.736 .0287717
765.453 .0287640
766.170 .0287559
766.887 .0287479
767.603 .0287406
768.320 .0287340
769.036 .0287286
769.751 .0287242
770.467 .0287208
771.182 .0287178
771.897 .0287150
772.612 .0287117
773.327 .0287078
774.041 .0287034
774.755 .0286982
775.469 .0286926
776.183 .0286869
776.896 .0286814
777.609 .0286764
778.322 .0286717
779.035 .0286670
779.747 .0286622
780.459 .0286575
781.171 .0286521
781.882 .0286465
782.594 .0286406
783.305 .0286347
784.016 .0286290
784.726 .0286240
785.436 .0286199
786.147 .0286161
786.856 .0286128
787.566 .0286100
788.275 .0286067
788.984 .0286026
789.693 .0285973
790.401 .0285907
791.110 .0285825
791.818 .0285727
792.525 .0285610
793.233 .0285481
793.940 .0285339
794.647 .0285185
795.353 .0285020
796.060 .0284843
796.766 .0284652
797.472 .0284442
798.177 .0284220
798.883 .0283982
799.588 .0283729
800.292 .0283469
800.997 .0283205
801.701 .0282940
802.405 .0282678
803.109 .0282423
803.812 .0282176
804.515 .0281930
805.218 .0281685
805.921 .0281435
806.623 .0281180
807.325 .0280915
808.027 .0280647
808.728 .0280374
809.429 .0280105
810.130 .0279834
810.831 .0279564
811.531 .0279295
812.231 .0279025
812.931 .0278749
813.630 .0278462
814.330 .0278165
815.029 .0277860
815.727 .0277548
816.426 .0277240
817.124 .0276938
817.821 .0276647
818.519 .0276371
819.216 .0276114
819.913 .0275865
820.609 .0275625
821.306 .0275390
822.002 .0275161
822.697 .0274935
823.393 .0274718
824.088 .0274509
824.783 .0274313
825.477 .0274138
826.171 .0273980
826.865 .0273840
827.559 .0273721
828.252 .0273614
828.945 .0273520
829.638 .0273432
830.330 .0273348
831.023 .0273263
831.714 .0273184
832.406 .0273109
833.097 .0273033
833.788 .0272960
834.479 .0272887
835.169 .0272813
835.859 .0272741
836.548 .0272669
837.238 .0272596
837.927 .0272522
838.615 .0272450
839.304 .0272373
839.992 .0272301
840.680 .0272232
841.367 .0272167
842.054 .0272110
842.741 .0272065
843.428 .0272032
844.114 .0272012
844.800 .0272007
845.485 .0272016
846.170 .0272032
846.855 .0272053
847.540 .0272067
848.224 .0272075
848.908 .0272074
849.592 .0272062
850.275 .0272038
850.958 .0272004
851.641 .0271958
852.323 .0271899
853.005 .0271827
853.687 .0271744
854.368 .0271650
855.049 .0271545
855.730 .0271431
856.410 .0271309
857.090 .0271186
857.769 .0271063
858.449 .0270945
859.128 .0270843
859.806 .0270750
860.485 .0270672
861.163 .0270611
861.840 .0270568
862.518 .0270539
863.195 .0270521
863.871 .0270511
864.548 .0270505
865.224 .0270500
865.899 .0270494
866.574 .0270485
867.249 .0270478
867.924 .0270471
868.598 .0270461
869.272 .0270453
869.946 .0270451
870.619 .0270447
871.292 .0270447
871.964 .0270448
872.636 .0270448
873.308 .0270446
873.979 .0270447
874.651 .0270449
875.321 .0270455
875.992 .0270470
876.662 .0270491
877.331 .0270518
878.001 .0270554
878.670 .0270590
879.338 .0270626
880.007 .0270667
880.675 .0270706
881.342 .0270741
882.009 .0270777
882.676 .0270815
883.343 .0270853
884.009 .0270895
884.675 .0270937
885.340 .0270978
886.005 .0271021
886.670 .0271066
887.334 .0271111
887.998 .0271159
888.662 .0271209
889.325 .0271257
889.988 .0271304
890.650 .0271348
891.312 .0271387
891.974 .0271425
892.636 .0271463
893.297 .0271503
893.957 .0271546
894.618 .0271593
895.278 .0271642
895.937 .0271690
896.596 .0271737
897.255 .0271775
897.914 .0271804
898.572 .0271823
899.230 .0271830
899.887 .0271828
900.544 .0271814
901.201 .0271792
901.857 .0271764
902.513 .0271726
903.168 .0271674
903.823 .0271607
904.478 .0271517
905.132 .0271406
905.786 .0271268
906.440 .0271104
907.093 .0270918
907.746 .0270712
908.399 .0270487
909.051 .0270248
909.703 .0269995
910.354 .0269731
911.005 .0269450
911.656 .0269167
912.306 .0268873
912.956 .0268571
913.605 .0268266
914.254 .0267957
914.903 .0267648
915.551 .0267342
916.199 .0267036
916.847 .0266733
917.494 .0266437
918.141 .0266148
918.788 .0265860
919.434 .0265582
920.079 .0265311
920.725 .0265045
921.370 .0264786
922.014 .0264535
922.658 .0264279
923.302 .0264021
923.946 .0263760
924.589 .0263486
925.231 .0263198
925.873 .0262894
926.515 .0262575
927.157 .0262245
927.798 .0261909
928.439 .0261567
929.079 .0261228
929.719 .0260891
930.359 .0260554
930.998 .0260213
931.637 .0259867
932.275 .0259509
932.913 .0259146
933.551 .0258776
934.188 .0258408
934.825 .0258042
935.462 .0257691
936.098 .0257354
936.733 .0257038
937.369 .0256742
938.004 .0256463
938.638 .0256195
939.273 .0255939
939.907 .0255687
940.540 .0255446
941.173 .0255217
941.806 .0255002
942.438 .0254805
943.070 .0254626
943.702 .0254463
944.333 .0254308
944.964 .0254155
945.594 .0254004
946.224 .0253848
946.854 .0253688
947.483 .0253524
948.112 .0253360
948.741 .0253198
949.369 .0253038
949.996 .0252877
950.624 .0252714
951.251 .0252538
951.878 .0252355
952.504 .0252160
953.130 .0251951
953.755 .0251736
954.380 .0251517
955.005 .0251301
955.629 .0251091
956.253 .0250885
956.877 .0250692
957.500 .0250508
958.123 .0250335
958.746 .0250167
959.368 .0250007
959.990 .0249853
960.611 .0249707
961.232 .0249572
961.853 .0249450
962.473 .0249338
963.093 .0249235
963.712 .0249140
964.331 .0249050
964.950 .0248961
965.569 .0248872
966.187 .0248784
966.804 .0248701
967.422 .0248616
968.039 .0248535
968.655 .0248453
969.272 .0248369
969.887 .0248275
970.503 .0248171
971.118 .0248059
971.733 .0247938
972.347 .0247815
972.961 .0247696
973.575 .0247584
974.188 .0247479
974.801 .0247380
975.414 .0247291
976.026 .0247205
976.638 .0247122
977.250 .0247036
977.861 .0246947
978.472 .0246866
979.083 .0246792
979.693 .0246727
980.303 .0246675
980.912 .0246638
981.521 .0246606
982.130 .0246576
982.738 .0246547
983.346 .0246508
983.954 .0246460
984.562 .0246412
985.169 .0246361
985.775 .0246313
986.382 .0246279
986.988 .0246265
987.594 .0246265
988.199 .0246277
988.804 .0246293
989.409 .0246303
990.013 .0246315
990.617 .0246327
991.221 .0246335
991.824 .0246347
992.427 .0246377
993.030 .0246421
993.632 .0246487
994.234 .0246580
994.836 .0246692
995.438 .0246817
996.039 .0246951
996.640 .0247078
997.240 .0247199
997.840 .0247318
998.440 .0247439
999.040 .0247556
999.639 .0247681
1000.238 .0247805
1000.836 .0247934
1001.435 .0248075
1002.033 .0248220
1002.630 .0248359
1003.228 .0248491
1003.825 .0248618
1004.422 .0248738
1005.018 .0248848
1005.614 .0248954
1006.210 .0249055
1006.806 .0249160
1007.401 .0249263
1007.996 .0249361
1008.591 .0249463
1009.186 .0249576
1009.780 .0249698
1010.374 .0249823
1010.967 .0249955
1011.561 .0250092
1012.154 .0250235
1012.746 .0250383
1013.339 .0250539
1013.931 .0250704
1014.523 .0250879
1015.115 .0251064
1015.706 .0251262
1016.298 .0251467
1016.888 .0251679
1017.479 .0251901
1018.069 .0252126
1018.660 .0252348
1019.250 .0252567
1019.839 .0252781
1020.429 .0252995
1021.018 .0253207
1021.607 .0253416
1022.195 .0253620
1022.784 .0253829
1023.372 .0254040
1023.960 .0254249
1024.547 .0254458
1025.135 .0254670
1025.722 .0254882
1026.309 .0255098
1026.896 .0255313
1027.483 .0255529
1028.069 .0255746
1028.655 .0255961
1029.241 .0256169
1029.827 .0256373
1030.412 .0256572
1030.997 .0256768
1031.582 .0256957
1032.167 .0257139
1032.752 .0257312
1033.336 .0257475
1033.921 .0257625
1034.505 .0257770
1035.089 .0257909
1035.672 .0258040
1036.256 .0258167
1036.839 .0258305
1037.422 .0258446
1038.005 .0258599
1038.588 .0258763
1039.171 .0258936
1039.753 .0259117
1040.335 .0259295
1040.918 .0259464
1041.500 .0259622
1042.081 .0259774
1042.663 .0259909
1043.244 .0260028
1043.826 .0260138
1044.407 .0260227
1044.988 .0260309
1045.569 .0260379
1046.150 .0260442
1046.730 .0260490
1047.311 .0260531
1047.891 .0260559
1048.471 .0260571
1049.052 .0260575
1049.632 .0260561
1050.211 .0260546
1050.791 .0260534
1051.371 .0260524
1051.950 .0260523
1052.530 .0260532
1053.109 .0260551
1053.688 .0260572
1054.268 .0260597
1054.847 .0260605
1055.426 .0260600
1056.005 .0260581
1056.583 .0260536
1057.162 .0260470
1057.741 .0260395
1058.319 .0260312
1058.898 .0260219
1059.476 .0260128
1060.055 .0260024
1060.633 .0259912
1061.211 .0259793
1061.790 .0259667
1062.368 .0259543
1062.946 .0259432
1063.524 .0259333
1064.102 .0259246
1064.680 .0259177
1065.258 .0259121
1065.836 .0259069
1066.414 .0259035
1066.992 .0259012
1067.570 .0258992
1068.148 .0258975
1068.726 .0258964
1069.304 .0258956
1069.882 .0258961
1070.460 .0258958
1071.038 .0258944
1071.616 .0258907
1072.194 .0258840
1072.772 .0258734
1073.350 .0258591
1073.928 .0258427
1074.506 .0258250
1075.084 .0258066
1075.662 .0257883
1076.240 .0257703
1076.819 .0257527
1077.397 .0257359
1077.976 .0257193
1078.554 .0257033
1079.133 .0256891
1079.711 .0256757
1080.290 .0256639
1080.869 .0256541
1081.448 .0256462
1082.027 .0256400
1082.606 .0256349
1083.185 .0256327
1083.764 .0256306
1084.343 .0256298
1084.923 .0256289
1085.502 .0256284
1086.082 .0256294
1086.662 .0256314
1087.242 .0256323
1087.822 .0256352
1088.402 .0256385
1088.983 .0256402
1089.563 .0256410
1090.144 .0256416
1090.725 .0256410
1091.306 .0256391
1091.887 .0256342
1092.469 .0256281
1093.050 .0256199
1093.632 .0256116
1094.214 .0256014
1094.796 .0255925
1095.379 .0255848
1095.961 .0255760
1096.544 .0255666
1097.127 .0255566
1097.710 .0255446
1098.294 .0255326
1098.877 .0255203
1099.461 .0255086
1100.046 .0254985
1100.630 .0254905
1101.215 .0254864
1101.800 .0254883
1102.385 .0254941
1102.970 .0255021
1103.556 .0255112
1104.142 .0255206
1104.728 .0255286
1105.315 .0255327
1105.902 .0255352
1106.489 .0255383
1107.077 .0255449
1107.664 .0255530
1108.253 .0255634
1108.841 .0255791
1109.430 .0255985
1110.019 .0256180
1110.609 .0256382
1111.198 .0256567
1111.789 .0256756
1112.379 .0256934
1112.970 .0257103
1113.561 .0257292
1114.153 .0257531
1114.745 .0257793
1115.338 .0258114
1115.931 .0258467
1116.524 .0258861
1117.117 .0259262
1117.712 .0259693
1118.306 .0260106
1118.901 .0260483
1119.496 .0260807
1120.092 .0261082
1120.689 .0261301
1121.285 .0261499
1121.882 .0261648
1122.480 .0261817
1123.078 .0262015
1123.677 .0262242
1124.276 .0262490
1124.875 .0262817
1125.476 .0263163
1126.076 .0263549
1126.677 .0263935
1127.279 .0264325
1127.881 .0264713
1128.484 .0265129
1129.087 .0265551
1129.691 .0266029
1130.295 .0266583
1130.900 .0267214
1131.505 .0267878
1132.111 .0268611
1132.718 .0269358
1133.325 .0270120
1133.933 .0270903
1134.541 .0271690
1135.150 .0272495
1135.760 .0273360
1136.370 .0274251
1136.981 .0275238
1137.592 .0276274
1138.204 .0277382
1138.817 .0278559
1139.431 .0279823
1140.045 .0281286
1140.660 .0282942
1141.275 .0284830
1141.891 .0287023
1142.508 .0287900
1143.126 .0292669
1143.744 .0295120
1144.363 .0297258
1144.983 .0301709
