Measurement Sequence started on: 15-12-46-377
Integration time: 28
Scans to Average: 2 
>>>>>Begin Spectral Data<<<<<
432.689 .0000100
433.621 .0000100
434.552 .0000100
435.482 .0000100
436.410 .0000100
437.337 .0000100
438.262 .0258859
439.187 .0549498
440.110 .0911255
441.031 .1320187
441.952 .1717595
442.871 .2031632
443.789 .2205561
444.705 .2219774
445.621 .2097868
446.535 .1891407
447.447 .1656948
448.359 .1296658
449.269 .1119287
450.178 .1008479
451.086 .0931116
451.993 .0873122
452.898 .0827528
453.803 .0790477
454.706 .0759767
455.608 .0733559
456.508 .0710975
457.408 .0691466
458.306 .0674022
459.204 .0658322
460.100 .0644226
460.995 .0631286
461.888 .0619427
462.781 .0608475
463.673 .0598277
464.563 .0588803
465.452 .0579814
466.340 .0571120
467.228 .0562744
468.114 .0554757
468.999 .0547111
469.882 .0539800
470.765 .0532988
471.647 .0526648
472.528 .0520830
473.407 .0515551
474.286 .0510827
475.163 .0506578
476.040 .0502792
476.915 .0499326
477.790 .0496246
478.663 .0493527
479.535 .0491196
480.407 .0489331
481.277 .0487944
482.147 .0486909
483.015 .0486285
483.883 .0485906
484.749 .0485739
485.615 .0485698
486.479 .0485739
487.343 .0485822
488.206 .0485983
489.067 .0486235
489.928 .0486600
490.788 .0487165
491.647 .0487955
492.505 .0488914
493.362 .0490063
494.218 .0491332
495.073 .0492709
495.928 .0494179
496.781 .0495756
497.634 .0497494
498.486 .0499535
499.337 .0501885
500.187 .0504593
501.036 .0507823
501.884 .0511578
502.731 .0515923
503.578 .0520721
504.424 .0525954
505.268 .0531440
506.113 .0537325
506.956 .0543501
507.798 .0550053
508.640 .0557134
509.480 .0564825
510.320 .0573350
511.160 .0582888
511.998 .0593329
512.836 .0604785
513.672 .0617293
514.508 .0631005
515.344 .0645644
516.178 .0661645
517.012 .0679180
517.845 .0698894
518.677 .0721279
519.508 .0746797
520.339 .0775901
521.169 .0809232
521.998 .0846863
522.826 .0889416
523.654 .0937147
524.481 .0989646
525.307 .1047194
526.133 .1109718
526.958 .1176554
527.782 .1247118
528.605 .1319486
529.428 .1392842
530.250 .1461903
531.072 .1524418
531.892 .1575901
532.712 .1613149
533.532 .1634862
534.350 .1638574
535.168 .1623492
535.986 .1590920
536.802 .1542292
537.618 .1481103
538.434 .1409915
539.249 .1334201
540.063 .1256149
540.876 .1179571
541.689 .1106903
542.501 .1039676
543.313 .0978959
544.124 .0925166
544.934 .0877032
545.744 .0834003
546.553 .0794990
547.361 .0759627
548.169 .0727871
548.976 .0699429
549.783 .0674193
550.589 .0651952
551.395 .0632067
552.200 .0614473
553.004 .0598678
553.808 .0584347
554.611 .0571241
555.414 .0559356
556.216 .0548456
557.018 .0538520
557.819 .0529388
558.619 .0520873
559.419 .0512862
560.218 .0505277
561.017 .0497991
561.815 .0490818
562.613 .0483904
563.410 .0477043
564.207 .0470289
565.003 .0463837
565.799 .0457657
566.594 .0451731
567.388 .0446162
568.182 .0440885
568.976 .0435768
569.769 .0430811
570.562 .0425982
571.354 .0421182
572.145 .0416581
572.936 .0412085
573.727 .0407709
574.517 .0403539
575.307 .0399536
576.096 .0395625
576.885 .0391817
577.673 .0388108
578.461 .0384457
579.248 .0380910
580.035 .0377504
580.821 .0374243
581.607 .0371161
582.392 .0368302
583.177 .0365659
583.962 .0363214
584.746 .0360979
585.529 .0358857
586.313 .0356897
587.095 .0355096
587.878 .0353416
588.660 .0351908
589.441 .0350550
590.222 .0349356
591.003 .0348322
591.783 .0347402
592.563 .0346577
593.342 .0345804
594.121 .0345060
594.899 .0344343
595.678 .0343633
596.455 .0342941
597.233 .0342274
598.009 .0341642
598.786 .0341048
599.562 .0340480
600.338 .0339934
601.113 .0339404
601.888 .0338865
602.663 .0338328
603.437 .0337775
604.211 .0337206
604.984 .0336629
605.757 .0336049
606.530 .0335481
607.302 .0334932
608.074 .0334402
608.845 .0333897
609.616 .0333408
610.387 .0332936
611.158 .0332472
611.928 .0332014
612.697 .0331567
613.467 .0331118
614.236 .0330680
615.004 .0330254
615.773 .0329849
616.541 .0329469
617.308 .0329122
618.076 .0328811
618.843 .0328529
619.609 .0328266
620.375 .0328023
621.141 .0327788
621.907 .0327559
622.672 .0327330
623.437 .0327095
624.202 .0326848
624.966 .0326596
625.730 .0326330
626.493 .0326057
627.257 .0325779
628.020 .0325496
628.782 .0325207
629.545 .0324910
630.307 .0324604
631.068 .0324280
631.830 .0323947
632.591 .0323603
633.352 .0323254
634.112 .0322900
634.872 .0322543
635.632 .0322194
636.392 .0321868
637.151 .0321558
637.910 .0321268
638.668 .0320997
639.427 .0320752
640.185 .0320518
640.943 .0320294
641.700 .0320068
642.457 .0319851
643.214 .0319636
643.971 .0319415
644.727 .0319191
645.483 .0318969
646.239 .0318747
646.994 .0318522
647.750 .0318297
648.505 .0318077
649.259 .0317857
650.014 .0317646
650.768 .0317443
651.521 .0317256
652.275 .0317077
653.028 .0316908
653.781 .0316747
654.534 .0316593
655.286 .0316436
656.039 .0316275
656.791 .0316110
657.542 .0315941
658.294 .0315767
659.045 .0315587
659.796 .0315404
660.546 .0315216
661.297 .0315016
662.047 .0314805
662.796 .0314581
663.546 .0314347
664.295 .0314100
665.044 .0313844
665.793 .0313579
666.542 .0313305
667.290 .0313026
668.038 .0312739
668.786 .0312448
669.533 .0312158
670.281 .0311867
671.028 .0311578
671.774 .0311286
672.521 .0310995
673.267 .0310711
674.013 .0310431
674.759 .0310157
675.505 .0309888
676.250 .0309622
676.995 .0309362
677.740 .0309103
678.484 .0308846
679.229 .0308595
679.973 .0308350
680.717 .0308111
681.460 .0307877
682.204 .0307649
682.947 .0307434
683.690 .0307228
684.433 .0307032
685.175 .0306837
685.917 .0306641
686.659 .0306439
687.401 .0306224
688.142 .0305997
688.884 .0305756
689.625 .0305501
690.365 .0305232
691.106 .0304955
691.846 .0304678
692.586 .0304400
693.326 .0304125
694.066 .0303853
694.805 .0303583
695.545 .0303303
696.284 .0303014
697.022 .0302713
697.761 .0302409
698.499 .0302101
699.237 .0301798
699.975 .0301508
700.713 .0301241
701.450 .0300996
702.187 .0300774
702.924 .0300575
703.661 .0300395
704.397 .0300219
705.133 .0300047
705.869 .0299871
706.605 .0299695
707.341 .0299512
708.076 .0299334
708.811 .0299162
709.546 .0299001
710.281 .0298849
711.015 .0298708
711.749 .0298572
712.483 .0298441
713.217 .0298301
713.950 .0298151
714.684 .0297987
715.417 .0297815
716.150 .0297631
716.882 .0297447
717.615 .0297265
718.347 .0297094
719.079 .0296932
719.811 .0296786
720.542 .0296644
721.273 .0296511
722.005 .0296381
722.735 .0296251
723.466 .0296119
724.196 .0295988
724.927 .0295853
725.656 .0295725
726.386 .0295606
727.116 .0295497
727.845 .0295395
728.574 .0295305
729.303 .0295222
730.031 .0295142
730.760 .0295057
731.488 .0294966
732.216 .0294869
732.944 .0294772
733.671 .0294670
734.398 .0294566
735.125 .0294464
735.852 .0294366
736.579 .0294267
737.305 .0294171
738.031 .0294073
738.757 .0293980
739.483 .0293886
740.208 .0293794
740.933 .0293701
741.658 .0293608
742.383 .0293510
743.108 .0293412
743.832 .0293313
744.556 .0293208
745.280 .0293096
746.004 .0292980
746.727 .0292860
747.450 .0292736
748.173 .0292608
748.896 .0292476
749.618 .0292337
750.340 .0292194
751.062 .0292038
751.784 .0291869
752.506 .0291689
753.227 .0291494
753.948 .0291287
754.669 .0291070
755.389 .0290844
756.110 .0290612
756.830 .0290379
757.550 .0290149
758.269 .0289920
758.989 .0289694
759.708 .0289467
760.427 .0289241
761.146 .0289019
761.864 .0288799
762.582 .0288582
763.300 .0288370
764.018 .0288168
764.736 .0287974
765.453 .0287787
766.170 .0287606
766.887 .0287431
767.603 .0287260
768.320 .0287084
769.036 .0286901
769.751 .0286709
770.467 .0286505
771.182 .0286294
771.897 .0286072
772.612 .0285842
773.327 .0285604
774.041 .0285367
774.755 .0285127
775.469 .0284887
776.183 .0284653
776.896 .0284424
777.609 .0284202
778.322 .0283992
779.035 .0283793
779.747 .0283612
780.459 .0283451
781.171 .0283312
781.882 .0283192
782.594 .0283092
783.305 .0283011
784.016 .0282948
784.726 .0282899
785.436 .0282860
786.147 .0282827
786.856 .0282797
787.566 .0282767
788.275 .0282733
788.984 .0282694
789.693 .0282643
790.401 .0282584
791.110 .0282511
791.818 .0282426
792.525 .0282332
793.233 .0282233
793.940 .0282129
794.647 .0282025
795.353 .0281920
796.060 .0281814
796.766 .0281712
797.472 .0281611
798.177 .0281508
798.883 .0281406
799.588 .0281306
800.292 .0281210
800.997 .0281115
801.701 .0281027
802.405 .0280942
803.109 .0280861
803.812 .0280787
804.515 .0280711
805.218 .0280635
805.921 .0280560
806.623 .0280484
807.325 .0280402
808.027 .0280319
808.728 .0280235
809.429 .0280145
810.130 .0280058
810.831 .0279969
811.531 .0279879
812.231 .0279789
812.931 .0279702
813.630 .0279609
814.330 .0279517
815.029 .0279427
815.727 .0279339
816.426 .0279253
817.124 .0279171
817.821 .0279089
818.519 .0279017
819.216 .0278954
819.913 .0278903
820.609 .0278862
821.306 .0278844
822.002 .0278839
822.697 .0278850
823.393 .0278876
824.088 .0278915
824.783 .0278962
825.477 .0279016
826.171 .0279072
826.865 .0279132
827.559 .0279191
828.252 .0279250
828.945 .0279308
829.638 .0279367
830.330 .0279420
831.023 .0279464
831.714 .0279500
832.406 .0279524
833.097 .0279529
833.788 .0279518
834.479 .0279492
835.169 .0279451
835.859 .0279398
836.548 .0279338
837.238 .0279278
837.927 .0279220
838.615 .0279166
839.304 .0279115
839.992 .0279068
840.680 .0279023
841.367 .0278977
842.054 .0278926
842.741 .0278873
843.428 .0278816
844.114 .0278756
844.800 .0278692
845.485 .0278626
846.170 .0278553
846.855 .0278474
847.540 .0278385
848.224 .0278284
848.908 .0278171
849.592 .0278047
850.275 .0277906
850.958 .0277751
851.641 .0277580
852.323 .0277394
853.005 .0277190
853.687 .0276971
854.368 .0276737
855.049 .0276490
855.730 .0276229
856.410 .0275958
857.090 .0275677
857.769 .0275388
858.449 .0275093
859.128 .0274789
859.806 .0274477
860.485 .0274162
861.163 .0273841
861.840 .0273519
862.518 .0273198
863.195 .0272880
863.871 .0272565
864.548 .0272253
865.224 .0271949
865.899 .0271648
866.574 .0271356
867.249 .0271073
867.924 .0270800
868.598 .0270539
869.272 .0270291
869.946 .0270055
870.619 .0269829
871.292 .0269617
871.964 .0269410
872.636 .0269206
873.308 .0269006
873.979 .0268808
874.651 .0268613
875.321 .0268422
875.992 .0268241
876.662 .0268070
877.331 .0267915
878.001 .0267772
878.670 .0267639
879.338 .0267512
880.007 .0267393
880.675 .0267278
881.342 .0267161
882.009 .0267049
882.676 .0266933
883.343 .0266817
884.009 .0266703
884.675 .0266587
885.340 .0266473
886.005 .0266359
886.670 .0266250
887.334 .0266140
887.998 .0266035
888.662 .0265935
889.325 .0265840
889.988 .0265753
890.650 .0265671
891.312 .0265591
891.974 .0265516
892.636 .0265444
893.297 .0265375
893.957 .0265314
894.618 .0265261
895.278 .0265215
895.937 .0265183
896.596 .0265160
897.255 .0265149
897.914 .0265148
898.572 .0265150
899.230 .0265151
899.887 .0265145
900.544 .0265126
901.201 .0265088
901.857 .0265034
902.513 .0264967
903.168 .0264884
903.823 .0264791
904.478 .0264687
905.132 .0264576
905.786 .0264458
906.440 .0264334
907.093 .0264199
907.746 .0264053
908.399 .0263896
909.051 .0263726
909.703 .0263547
910.354 .0263361
911.005 .0263171
911.656 .0262983
912.306 .0262802
912.956 .0262629
913.605 .0262465
914.254 .0262313
914.903 .0262175
915.551 .0262051
916.199 .0261938
916.847 .0261838
917.494 .0261752
918.141 .0261681
918.788 .0261623
919.434 .0261577
920.079 .0261541
920.725 .0261519
921.370 .0261505
922.014 .0261500
922.658 .0261499
923.302 .0261499
923.946 .0261499
924.589 .0261492
925.231 .0261478
925.873 .0261452
926.515 .0261416
927.157 .0261374
927.798 .0261315
928.439 .0261244
929.079 .0261160
929.719 .0261066
930.359 .0260960
930.998 .0260843
931.637 .0260718
932.275 .0260586
932.913 .0260452
933.551 .0260323
934.188 .0260206
934.825 .0260107
935.462 .0260026
936.098 .0259963
936.733 .0259920
937.369 .0259896
938.004 .0259887
938.638 .0259896
939.273 .0259916
939.907 .0259948
940.540 .0259988
941.173 .0260038
941.806 .0260101
942.438 .0260179
943.070 .0260266
943.702 .0260362
944.333 .0260461
944.964 .0260560
945.594 .0260656
946.224 .0260753
946.854 .0260847
947.483 .0260932
948.112 .0261013
948.741 .0261084
949.369 .0261147
949.996 .0261205
950.624 .0261258
951.251 .0261312
951.878 .0261363
952.504 .0261410
953.130 .0261448
953.755 .0261480
954.380 .0261502
955.005 .0261508
955.629 .0261499
956.253 .0261470
956.877 .0261422
957.500 .0261364
958.123 .0261305
958.746 .0261242
959.368 .0261180
959.990 .0261120
960.611 .0261055
961.232 .0260982
961.853 .0260899
962.473 .0260806
963.093 .0260701
963.712 .0260582
964.331 .0260450
964.950 .0260309
965.569 .0260170
966.187 .0260037
966.804 .0259916
967.422 .0259807
968.039 .0259705
968.655 .0259608
969.272 .0259513
969.887 .0259420
970.503 .0259322
971.118 .0259221
971.733 .0259121
972.347 .0259021
972.961 .0258926
973.575 .0258837
974.188 .0258756
974.801 .0258678
975.414 .0258598
976.026 .0258504
976.638 .0258394
977.250 .0258267
977.861 .0258123
978.472 .0257965
979.083 .0257796
979.693 .0257616
980.303 .0257424
980.912 .0257223
981.521 .0257012
982.130 .0256786
982.738 .0256553
983.346 .0256307
983.954 .0256053
984.562 .0255793
985.169 .0255530
985.775 .0255265
986.382 .0255005
986.988 .0254744
987.594 .0254485
988.199 .0254227
988.804 .0253975
989.409 .0253723
990.013 .0253485
990.617 .0253260
991.221 .0253047
991.824 .0252844
992.427 .0252656
993.030 .0252475
993.632 .0252307
994.234 .0252148
994.836 .0252003
995.438 .0251868
996.039 .0251752
996.640 .0251639
997.240 .0251538
997.840 .0251441
998.440 .0251345
999.040 .0251237
999.639 .0251119
1000.238 .0250985
1000.836 .0250830
1001.435 .0250662
1002.033 .0250482
1002.630 .0250290
1003.228 .0250095
1003.825 .0249889
1004.422 .0249682
1005.018 .0249476
1005.614 .0249274
1006.210 .0249069
1006.806 .0248869
1007.401 .0248672
1007.996 .0248467
1008.591 .0248261
1009.186 .0248062
1009.780 .0247866
1010.374 .0247677
1010.967 .0247501
1011.561 .0247346
1012.154 .0247217
1012.746 .0247114
1013.339 .0247031
1013.931 .0246973
1014.523 .0246927
1015.115 .0246879
1015.706 .0246822
1016.298 .0246758
1016.888 .0246686
1017.479 .0246601
1018.069 .0246512
1018.660 .0246425
1019.250 .0246340
1019.839 .0246265
1020.429 .0246197
1021.018 .0246141
1021.607 .0246091
1022.195 .0246047
1022.784 .0246004
1023.372 .0245963
1023.960 .0245928
1024.547 .0245897
1025.135 .0245878
1025.722 .0245869
1026.309 .0245867
1026.896 .0245877
1027.483 .0245900
1028.069 .0245934
1028.655 .0245975
1029.241 .0246025
1029.827 .0246077
1030.412 .0246130
1030.997 .0246186
1031.582 .0246240
1032.167 .0246292
1032.752 .0246342
1033.336 .0246384
1033.921 .0246418
1034.505 .0246445
1035.089 .0246465
1035.672 .0246483
1036.256 .0246503
1036.839 .0246521
1037.422 .0246540
1038.005 .0246568
1038.588 .0246598
1039.171 .0246630
1039.753 .0246662
1040.335 .0246693
1040.918 .0246713
1041.500 .0246722
1042.081 .0246725
1042.663 .0246722
1043.244 .0246714
1043.826 .0246705
1044.407 .0246693
1044.988 .0246685
1045.569 .0246679
1046.150 .0246678
1046.730 .0246683
1047.311 .0246697
1047.891 .0246717
1048.471 .0246741
1049.052 .0246774
1049.632 .0246814
1050.211 .0246862
1050.791 .0246917
1051.371 .0246979
1051.950 .0247039
1052.530 .0247101
1053.109 .0247169
1053.688 .0247236
1054.268 .0247318
1054.847 .0247399
1055.426 .0247493
1056.005 .0247601
1056.583 .0247715
1057.162 .0247838
1057.741 .0247962
1058.319 .0248091
1058.898 .0248220
1059.476 .0248346
1060.055 .0248475
1060.633 .0248606
1061.211 .0248750
1061.790 .0248893
1062.368 .0249037
1062.946 .0249180
1063.524 .0249318
1064.102 .0249448
1064.680 .0249569
1065.258 .0249682
1065.836 .0249780
1066.414 .0249882
1066.992 .0249994
1067.570 .0250126
1068.148 .0250270
1068.726 .0250423
1069.304 .0250584
1069.882 .0250748
1070.460 .0250908
1071.038 .0251049
1071.616 .0251184
1072.194 .0251318
1072.772 .0251448
1073.350 .0251588
1073.928 .0251745
1074.506 .0251932
1075.084 .0252134
1075.662 .0252343
1076.240 .0252551
1076.819 .0252737
1077.397 .0252918
1077.976 .0253082
1078.554 .0253233
1079.133 .0253368
1079.711 .0253492
1080.290 .0253602
1080.869 .0253708
1081.448 .0253805
1082.027 .0253900
1082.606 .0253988
1083.185 .0254086
1083.764 .0254185
1084.343 .0254292
1084.923 .0254419
1085.502 .0254574
1086.082 .0254747
1086.662 .0254953
1087.242 .0255161
1087.822 .0255376
1088.402 .0255604
1088.983 .0255846
1089.563 .0256075
1090.144 .0256309
1090.725 .0256546
1091.306 .0256777
1091.887 .0257008
1092.469 .0257249
1093.050 .0257487
1093.632 .0257721
1094.214 .0257956
1094.796 .0258167
1095.379 .0258366
1095.961 .0258555
1096.544 .0258718
1097.127 .0258874
1097.710 .0259019
1098.294 .0259150
1098.877 .0259272
1099.461 .0259420
1100.046 .0259589
1100.630 .0259775
1101.215 .0260014
1101.800 .0260283
1102.385 .0260599
1102.970 .0260939
1103.556 .0261290
1104.142 .0261650
1104.728 .0262013
1105.315 .0262354
1105.902 .0262689
1106.489 .0263018
1107.077 .0263360
1107.664 .0263727
1108.253 .0264121
1108.841 .0264540
1109.430 .0264976
1110.019 .0265429
1110.609 .0265886
1111.198 .0266313
1111.789 .0266732
1112.379 .0267076
1112.970 .0267400
1113.561 .0267692
1114.153 .0267962
1114.745 .0268254
1115.338 .0268590
1115.931 .0268976
1116.524 .0269453
1117.117 .0270005
1117.712 .0270631
1118.306 .0271329
1118.901 .0272113
1119.496 .0272933
1120.092 .0273781
1120.689 .0274657
1121.285 .0275556
1121.882 .0276460
1122.480 .0277411
1123.078 .0278335
1123.677 .0279258
1124.276 .0280185
1124.875 .0281067
1125.476 .0281892
1126.076 .0282646
1126.677 .0283300
1127.279 .0283824
1127.881 .0284239
1128.484 .0284537
1129.087 .0284712
1129.691 .0284850
1130.295 .0284976
1130.900 .0285127
1131.505 .0285370
1132.111 .0285748
1132.718 .0286273
1133.325 .0286982
1133.933 .0287855
1134.541 .0288834
1135.150 .0289923
1135.760 .0291108
1136.370 .0292393
1136.981 .0293751
1137.592 .0295192
1138.204 .0296764
1138.817 .0298527
1139.431 .0300436
1140.045 .0302438
1140.660 .0304509
1141.275 .0306717
1141.891 .0309069
1142.508 .0311677
1143.126 .0312615
1143.744 .0313871
1144.363 .0318926
1144.983 .0323865
