Measurement Sequence started on: 15-12-46-377
Integration time: 28
Scans to Average: 2 
>>>>>Begin Spectral Data<<<<<
432.689 .0000100
433.621 .0000100
434.552 .0000100
435.482 .0000100
436.410 .0000100
437.337 .0000100
438.262 .0292884
439.187 .0617686
440.110 .1021264
441.031 .1476143
441.952 .1916594
442.871 .2261901
443.789 .2449486
444.705 .2458471
445.621 .2315903
446.535 .2080214
447.447 .1814524
448.359 .1407162
449.269 .1208619
450.178 .1083144
451.086 .0994079
451.993 .0925823
452.898 .0871497
453.803 .0826908
454.706 .0789825
455.608 .0758511
456.508 .0731732
457.408 .0708772
458.306 .0688418
459.204 .0670345
460.100 .0653956
460.995 .0638969
461.888 .0625319
462.781 .0612686
463.673 .0600887
464.563 .0590067
465.452 .0580014
466.340 .0570630
467.228 .0562021
468.114 .0554115
468.999 .0546800
469.882 .0540043
470.765 .0533818
471.647 .0528073
472.528 .0522795
473.407 .0518111
474.286 .0513976
475.163 .0510383
476.040 .0507299
476.915 .0504625
477.790 .0502404
478.663 .0500465
479.535 .0498705
480.407 .0497112
481.277 .0495561
482.147 .0494123
483.015 .0492868
483.883 .0491926
484.749 .0491343
485.615 .0491115
486.479 .0491196
487.343 .0491493
488.206 .0491860
489.067 .0492152
489.928 .0492204
490.788 .0492130
491.647 .0491958
492.505 .0491741
493.362 .0491809
494.218 .0492228
495.073 .0493054
495.928 .0494412
496.781 .0496188
497.634 .0498293
498.486 .0500561
499.337 .0503037
500.187 .0505651
501.036 .0508431
501.884 .0511514
502.731 .0514935
503.578 .0518894
504.424 .0523562
505.268 .0528788
506.113 .0534618
506.956 .0541014
507.798 .0547958
508.640 .0555508
509.480 .0563777
510.320 .0572867
511.160 .0582839
511.998 .0593751
512.836 .0605799
513.672 .0618895
514.508 .0633227
515.344 .0648866
516.178 .0666032
517.012 .0685215
517.845 .0706575
518.677 .0730784
519.508 .0757938
520.339 .0788421
521.169 .0822999
521.998 .0861117
522.826 .0903639
523.654 .0950691
524.481 .1002901
525.307 .1060461
526.133 .1123178
526.958 .1190923
527.782 .1263269
528.605 .1338858
529.428 .1416428
530.250 .1490373
531.072 .1558154
531.892 .1614984
532.712 .1657450
533.532 .1683439
534.350 .1691106
535.168 .1679267
535.986 .1649636
536.802 .1603364
537.618 .1543746
538.434 .1472797
539.249 .1396056
540.063 .1316126
540.876 .1236119
541.689 .1158499
542.501 .1085231
543.313 .1018578
544.124 .0959698
544.934 .0907209
545.744 .0860846
546.553 .0819569
547.361 .0783066
548.169 .0750487
548.976 .0721090
549.783 .0694985
550.589 .0672007
551.395 .0651479
552.200 .0633196
553.004 .0616885
553.808 .0602303
554.611 .0589336
555.414 .0577759
556.216 .0567202
557.018 .0557457
557.819 .0548423
558.619 .0539774
559.419 .0531552
560.218 .0523799
561.017 .0516401
561.815 .0509361
562.613 .0502755
563.410 .0496358
564.207 .0490073
565.003 .0483916
565.799 .0477791
566.594 .0471611
567.388 .0465471
568.182 .0459212
568.976 .0452907
569.769 .0446673
570.562 .0440516
571.354 .0434391
572.145 .0428472
572.936 .0422759
573.727 .0417251
574.517 .0411963
575.307 .0406885
576.096 .0402004
576.885 .0397364
577.673 .0392916
578.461 .0388684
579.248 .0384681
580.035 .0380965
580.821 .0377486
581.607 .0374312
582.392 .0371446
583.177 .0368860
583.962 .0366503
584.746 .0364367
585.529 .0362387
586.313 .0360574
587.095 .0358906
587.878 .0357364
588.660 .0355967
589.441 .0354725
590.222 .0353628
591.003 .0352675
591.783 .0351844
592.563 .0351115
593.342 .0350453
594.121 .0349827
594.899 .0349220
595.678 .0348623
596.455 .0348041
597.233 .0347475
598.009 .0346934
598.786 .0346425
599.562 .0345929
600.338 .0345459
601.113 .0345004
601.888 .0344545
602.663 .0344083
603.437 .0343613
604.211 .0343138
604.984 .0342660
605.757 .0342180
606.530 .0341704
607.302 .0341252
608.074 .0340824
608.845 .0340412
609.616 .0340028
610.387 .0339672
611.158 .0339330
611.928 .0339002
612.697 .0338691
613.467 .0338390
614.236 .0338100
615.004 .0337825
615.773 .0337555
616.541 .0337292
617.308 .0337036
618.076 .0336785
618.843 .0336535
619.609 .0336293
620.375 .0336040
621.141 .0335781
621.907 .0335517
622.672 .0335248
623.437 .0334966
624.202 .0334674
624.966 .0334379
625.730 .0334071
626.493 .0333748
627.257 .0333413
628.020 .0333061
628.782 .0332691
629.545 .0332303
630.307 .0331898
631.068 .0331480
631.830 .0331060
632.591 .0330647
633.352 .0330247
634.112 .0329863
634.872 .0329504
635.632 .0329158
636.392 .0328830
637.151 .0328525
637.910 .0328230
638.668 .0327945
639.427 .0327670
640.185 .0327404
640.943 .0327150
641.700 .0326909
642.457 .0326675
643.214 .0326438
643.971 .0326202
644.727 .0325961
645.483 .0325702
646.239 .0325437
646.994 .0325172
647.750 .0324905
648.505 .0324641
649.259 .0324377
650.014 .0324116
650.768 .0323852
651.521 .0323591
652.275 .0323325
653.028 .0323048
653.781 .0322771
654.534 .0322493
655.286 .0322224
656.039 .0321970
656.791 .0321726
657.542 .0321486
658.294 .0321245
659.045 .0321004
659.796 .0320741
660.546 .0320455
661.297 .0320151
662.047 .0319836
662.796 .0319504
663.546 .0319165
664.295 .0318821
665.044 .0318480
665.793 .0318151
666.542 .0317827
667.290 .0317506
668.038 .0317187
668.786 .0316875
669.533 .0316567
670.281 .0316263
671.028 .0315972
671.774 .0315691
672.521 .0315429
673.267 .0315187
674.013 .0314965
674.759 .0314757
675.505 .0314565
676.250 .0314386
676.995 .0314213
677.740 .0314041
678.484 .0313863
679.229 .0313680
679.973 .0313494
680.717 .0313305
681.460 .0313110
682.204 .0312916
682.947 .0312730
683.690 .0312549
684.433 .0312369
685.175 .0312184
685.917 .0311993
686.659 .0311793
687.401 .0311581
688.142 .0311358
688.884 .0311126
689.625 .0310890
690.365 .0310654
691.106 .0310426
691.846 .0310203
692.586 .0309986
693.326 .0309779
694.066 .0309576
694.805 .0309373
695.545 .0309165
696.284 .0308949
697.022 .0308728
697.761 .0308507
698.499 .0308283
699.237 .0308057
699.975 .0307837
700.713 .0307624
701.450 .0307420
702.187 .0307227
702.924 .0307046
703.661 .0306872
704.397 .0306707
705.133 .0306550
705.869 .0306392
706.605 .0306238
707.341 .0306086
708.076 .0305938
708.811 .0305790
709.546 .0305637
710.281 .0305483
711.015 .0305323
711.749 .0305158
712.483 .0304987
713.217 .0304809
713.950 .0304625
714.684 .0304431
715.417 .0304224
716.150 .0304003
716.882 .0303770
717.615 .0303526
718.347 .0303272
719.079 .0303011
719.811 .0302754
720.542 .0302502
721.273 .0302263
722.005 .0302042
722.735 .0301837
723.466 .0301649
724.196 .0301471
724.927 .0301296
725.656 .0301119
726.386 .0300941
727.116 .0300765
727.845 .0300593
728.574 .0300425
729.303 .0300267
730.031 .0300119
730.760 .0299986
731.488 .0299860
732.216 .0299742
732.944 .0299632
733.671 .0299526
734.398 .0299424
735.125 .0299323
735.852 .0299222
736.579 .0299122
737.305 .0299020
738.031 .0298915
738.757 .0298800
739.483 .0298671
740.208 .0298528
740.933 .0298373
741.658 .0298208
742.383 .0298034
743.108 .0297851
743.832 .0297668
744.556 .0297479
745.280 .0297283
746.004 .0297075
746.727 .0296858
747.450 .0296636
748.173 .0296410
748.896 .0296184
749.618 .0295969
750.340 .0295768
751.062 .0295594
751.784 .0295440
752.506 .0295308
753.227 .0295193
753.948 .0295085
754.669 .0294978
755.389 .0294866
756.110 .0294745
756.830 .0294612
757.550 .0294466
758.269 .0294310
758.989 .0294139
759.708 .0293960
760.427 .0293772
761.146 .0293583
761.864 .0293390
762.582 .0293202
763.300 .0293009
764.018 .0292822
764.736 .0292641
765.453 .0292465
766.170 .0292294
766.887 .0292133
767.603 .0291982
768.320 .0291840
769.036 .0291711
769.751 .0291602
770.467 .0291510
771.182 .0291442
771.897 .0291384
772.612 .0291337
773.327 .0291292
774.041 .0291246
774.755 .0291188
775.469 .0291121
776.183 .0291046
776.896 .0290961
777.609 .0290873
778.322 .0290787
779.035 .0290704
779.747 .0290627
780.459 .0290556
781.171 .0290491
781.882 .0290425
782.594 .0290362
783.305 .0290299
784.016 .0290238
784.726 .0290183
785.436 .0290133
786.147 .0290092
786.856 .0290064
787.566 .0290047
788.275 .0290038
788.984 .0290037
789.693 .0290041
790.401 .0290047
791.110 .0290045
791.818 .0290037
792.525 .0290021
793.233 .0289995
793.940 .0289957
794.647 .0289907
795.353 .0289847
796.060 .0289779
796.766 .0289702
797.472 .0289616
798.177 .0289525
798.883 .0289439
799.588 .0289353
800.292 .0289273
800.997 .0289200
801.701 .0289130
802.405 .0289061
803.109 .0288995
803.812 .0288930
804.515 .0288863
805.218 .0288793
805.921 .0288722
806.623 .0288649
807.325 .0288576
808.027 .0288507
808.728 .0288435
809.429 .0288358
810.130 .0288269
810.831 .0288158
811.531 .0288025
812.231 .0287872
812.931 .0287696
813.630 .0287505
814.330 .0287310
815.029 .0287116
815.727 .0286926
816.426 .0286752
817.124 .0286594
817.821 .0286441
818.519 .0286291
819.216 .0286142
819.913 .0285989
820.609 .0285838
821.306 .0285697
822.002 .0285568
822.697 .0285458
823.393 .0285373
824.088 .0285305
824.783 .0285251
825.477 .0285204
826.171 .0285151
826.865 .0285091
827.559 .0285019
828.252 .0284934
828.945 .0284836
829.638 .0284736
830.330 .0284636
831.023 .0284537
831.714 .0284439
832.406 .0284339
833.097 .0284228
833.788 .0284110
834.479 .0283974
835.169 .0283828
835.859 .0283679
836.548 .0283532
837.238 .0283392
837.927 .0283267
838.615 .0283154
839.304 .0283053
839.992 .0282957
840.680 .0282861
841.367 .0282757
842.054 .0282645
842.741 .0282523
843.428 .0282393
844.114 .0282259
844.800 .0282124
845.485 .0281982
846.170 .0281835
846.855 .0281674
847.540 .0281495
848.224 .0281296
848.908 .0281079
849.592 .0280843
850.275 .0280593
850.958 .0280334
851.641 .0280071
852.323 .0279811
853.005 .0279553
853.687 .0279296
854.368 .0279041
855.049 .0278788
855.730 .0278538
856.410 .0278289
857.090 .0278054
857.769 .0277834
858.449 .0277635
859.128 .0277454
859.806 .0277292
860.485 .0277149
861.163 .0277023
861.840 .0276908
862.518 .0276800
863.195 .0276692
863.871 .0276584
864.548 .0276473
865.224 .0276362
865.899 .0276249
866.574 .0276138
867.249 .0276024
867.924 .0275910
868.598 .0275797
869.272 .0275684
869.946 .0275570
870.619 .0275457
871.292 .0275341
871.964 .0275216
872.636 .0275077
873.308 .0274925
873.979 .0274763
874.651 .0274597
875.321 .0274427
875.992 .0274264
876.662 .0274113
877.331 .0273979
878.001 .0273864
878.670 .0273765
879.338 .0273683
880.007 .0273610
880.675 .0273541
881.342 .0273471
882.009 .0273404
882.676 .0273340
883.343 .0273285
884.009 .0273247
884.675 .0273226
885.340 .0273221
886.005 .0273231
886.670 .0273254
887.334 .0273292
887.998 .0273340
888.662 .0273397
889.325 .0273460
889.988 .0273532
890.650 .0273610
891.312 .0273690
891.974 .0273771
892.636 .0273856
893.297 .0273938
893.957 .0274015
894.618 .0274082
895.278 .0274140
895.937 .0274196
896.596 .0274250
897.255 .0274302
897.914 .0274349
898.572 .0274393
899.230 .0274432
899.887 .0274459
900.544 .0274478
901.201 .0274486
901.857 .0274482
902.513 .0274473
903.168 .0274453
903.823 .0274423
904.478 .0274386
905.132 .0274346
905.786 .0274299
906.440 .0274247
907.093 .0274181
907.746 .0274103
908.399 .0274015
909.051 .0273919
909.703 .0273811
910.354 .0273700
911.005 .0273589
911.656 .0273476
912.306 .0273363
912.956 .0273254
913.605 .0273148
914.254 .0273053
914.903 .0272965
915.551 .0272888
916.199 .0272821
916.847 .0272766
917.494 .0272716
918.141 .0272677
918.788 .0272643
919.434 .0272607
920.079 .0272567
920.725 .0272522
921.370 .0272468
922.014 .0272404
922.658 .0272328
923.302 .0272240
923.946 .0272141
924.589 .0272027
925.231 .0271894
925.873 .0271748
926.515 .0271589
927.157 .0271416
927.798 .0271231
928.439 .0271039
929.079 .0270842
929.719 .0270641
930.359 .0270439
930.998 .0270233
931.637 .0270025
932.275 .0269814
932.913 .0269598
933.551 .0269377
934.188 .0269157
934.825 .0268936
935.462 .0268719
936.098 .0268508
936.733 .0268310
937.369 .0268124
938.004 .0267952
938.638 .0267794
939.273 .0267646
939.907 .0267504
940.540 .0267373
941.173 .0267253
941.806 .0267145
942.438 .0267049
943.070 .0266965
943.702 .0266890
944.333 .0266821
944.964 .0266750
945.594 .0266677
946.224 .0266599
946.854 .0266517
947.483 .0266428
948.112 .0266331
948.741 .0266231
949.369 .0266131
949.996 .0266025
950.624 .0265916
951.251 .0265797
951.878 .0265672
952.504 .0265538
953.130 .0265401
953.755 .0265260
954.380 .0265121
955.005 .0264985
955.629 .0264858
956.253 .0264729
956.877 .0264603
957.500 .0264471
958.123 .0264334
958.746 .0264186
959.368 .0264024
959.990 .0263849
960.611 .0263671
961.232 .0263485
961.853 .0263298
962.473 .0263106
963.093 .0262916
963.712 .0262718
964.331 .0262513
964.950 .0262298
965.569 .0262079
966.187 .0261857
966.804 .0261643
967.422 .0261436
968.039 .0261249
968.655 .0261078
969.272 .0260920
969.887 .0260772
970.503 .0260626
971.118 .0260473
971.733 .0260317
972.347 .0260150
972.961 .0259978
973.575 .0259799
974.188 .0259620
974.801 .0259439
975.414 .0259256
976.026 .0259074
976.638 .0258887
977.250 .0258696
977.861 .0258506
978.472 .0258308
979.083 .0258107
979.693 .0257902
980.303 .0257689
980.912 .0257472
981.521 .0257250
982.130 .0257024
982.738 .0256795
983.346 .0256567
983.954 .0256341
984.562 .0256119
985.169 .0255901
985.775 .0255687
986.382 .0255464
986.988 .0255239
987.594 .0255005
988.199 .0254763
988.804 .0254519
989.409 .0254277
990.013 .0254042
990.617 .0253818
991.221 .0253605
991.824 .0253411
992.427 .0253237
993.030 .0253086
993.632 .0252948
994.234 .0252833
994.836 .0252735
995.438 .0252653
996.039 .0252586
996.640 .0252537
997.240 .0252498
997.840 .0252466
998.440 .0252437
999.040 .0252406
999.639 .0252374
1000.238 .0252338
1000.836 .0252299
1001.435 .0252263
1002.033 .0252230
1002.630 .0252196
1003.228 .0252164
1003.825 .0252140
1004.422 .0252113
1005.018 .0252088
1005.614 .0252061
1006.210 .0252033
1006.806 .0252007
1007.401 .0251982
1007.996 .0251960
1008.591 .0251947
1009.186 .0251944
1009.780 .0251949
1010.374 .0251954
1010.967 .0251967
1011.561 .0251979
1012.154 .0251990
1012.746 .0252002
1013.339 .0252014
1013.931 .0252029
1014.523 .0252050
1015.115 .0252075
1015.706 .0252109
1016.298 .0252151
1016.888 .0252201
1017.479 .0252260
1018.069 .0252323
1018.660 .0252391
1019.250 .0252457
1019.839 .0252522
1020.429 .0252595
1021.018 .0252670
1021.607 .0252751
1022.195 .0252837
1022.784 .0252930
1023.372 .0253031
1023.960 .0253137
1024.547 .0253253
1025.135 .0253377
1025.722 .0253508
1026.309 .0253647
1026.896 .0253787
1027.483 .0253935
1028.069 .0254096
1028.655 .0254268
1029.241 .0254453
1029.827 .0254648
1030.412 .0254846
1030.997 .0255053
1031.582 .0255258
1032.167 .0255463
1032.752 .0255659
1033.336 .0255840
1033.921 .0256011
1034.505 .0256160
1035.089 .0256287
1035.672 .0256395
1036.256 .0256496
1036.839 .0256590
1037.422 .0256678
1038.005 .0256767
1038.588 .0256851
1039.171 .0256938
1039.753 .0257022
1040.335 .0257099
1040.918 .0257168
1041.500 .0257237
1042.081 .0257299
1042.663 .0257363
1043.244 .0257444
1043.826 .0257530
1044.407 .0257628
1044.988 .0257734
1045.569 .0257839
1046.150 .0257937
1046.730 .0258025
1047.311 .0258099
1047.891 .0258161
1048.471 .0258228
1049.052 .0258284
1049.632 .0258347
1050.211 .0258431
1050.791 .0258527
1051.371 .0258641
1051.950 .0258776
1052.530 .0258926
1053.109 .0259090
1053.688 .0259268
1054.268 .0259453
1054.847 .0259644
1055.426 .0259848
1056.005 .0260045
1056.583 .0260252
1057.162 .0260459
1057.741 .0260660
1058.319 .0260853
1058.898 .0261055
1059.476 .0261254
1060.055 .0261450
1060.633 .0261651
1061.211 .0261844
1061.790 .0262033
1062.368 .0262215
1062.946 .0262370
1063.524 .0262509
1064.102 .0262635
1064.680 .0262740
1065.258 .0262832
1065.836 .0262930
1066.414 .0263030
1066.992 .0263138
1067.570 .0263272
1068.148 .0263414
1068.726 .0263562
1069.304 .0263707
1069.882 .0263846
1070.460 .0263960
1071.038 .0264065
1071.616 .0264145
1072.194 .0264208
1072.772 .0264271
1073.350 .0264340
1073.928 .0264418
1074.506 .0264516
1075.084 .0264625
1075.662 .0264745
1076.240 .0264868
1076.819 .0264980
1077.397 .0265065
1077.976 .0265134
1078.554 .0265180
1079.133 .0265223
1079.711 .0265262
1080.290 .0265314
1080.869 .0265378
1081.448 .0265446
1082.027 .0265510
1082.606 .0265561
1083.185 .0265598
1083.764 .0265621
1084.343 .0265627
1084.923 .0265642
1085.502 .0265655
1086.082 .0265675
1086.662 .0265731
1087.242 .0265806
1087.822 .0265899
1088.402 .0265999
1088.983 .0266082
1089.563 .0266148
1090.144 .0266204
1090.725 .0266269
1091.306 .0266355
1091.887 .0266485
1092.469 .0266677
1093.050 .0266917
1093.632 .0267224
1094.214 .0267585
1094.796 .0267960
1095.379 .0268340
1095.961 .0268696
1096.544 .0268994
1097.127 .0269239
1097.710 .0269431
1098.294 .0269596
1098.877 .0269754
1099.461 .0269934
1100.046 .0270137
1100.630 .0270345
1101.215 .0270585
1101.800 .0270840
1102.385 .0271088
1102.970 .0271314
1103.556 .0271483
1104.142 .0271595
1104.728 .0271668
1105.315 .0271717
1105.902 .0271746
1106.489 .0271798
1107.077 .0271892
1107.664 .0272018
1108.253 .0272194
1108.841 .0272408
1109.430 .0272641
1110.019 .0272874
1110.609 .0273103
1111.198 .0273301
1111.789 .0273457
1112.379 .0273606
1112.970 .0273745
1113.561 .0273913
1114.153 .0274116
1114.745 .0274329
1115.338 .0274548
1115.931 .0274786
1116.524 .0275021
1117.117 .0275230
1117.712 .0275414
1118.306 .0275578
1118.901 .0275725
1119.496 .0275853
1120.092 .0275957
1120.689 .0276056
1121.285 .0276147
1121.882 .0276250
1122.480 .0276349
1123.078 .0276477
1123.677 .0276643
1124.276 .0276864
1124.875 .0277157
1125.476 .0277508
1126.076 .0277945
1126.677 .0278450
1127.279 .0278979
1127.881 .0279571
1128.484 .0280169
1129.087 .0280749
1129.691 .0281349
1130.295 .0281979
1130.900 .0282645
1131.505 .0283361
1132.111 .0284150
1132.718 .0285004
1133.325 .0285913
1133.933 .0286880
1134.541 .0287855
1135.150 .0288860
1135.760 .0289912
1136.370 .0290963
1136.981 .0292057
1137.592 .0293219
1138.204 .0294473
1138.817 .0295830
1139.431 .0297294
1140.045 .0298803
1140.660 .0300263
1141.275 .0301716
1141.891 .0303171
1142.508 .0306225
1143.126 .0306270
1143.744 .0305042
1144.363 .0307718
1144.983 .0311033
