Measurement Sequence started on: 15-12-46-377
Integration time: 28
Scans to Average: 2 
>>>>>Begin Spectral Data<<<<<
432.689 .0000100
433.621 .0000100
434.552 .0000100
435.482 .0000100
436.410 .0000100
437.337 .0000100
438.262 .0274286
439.187 .0582316
440.110 .0966788
441.031 .1400877
441.952 .1822795
442.871 .2155517
443.789 .2338990
444.705 .2351459
445.621 .2217718
446.535 .1992643
447.447 .1736687
448.359 .1346572
449.269 .1150065
450.178 .1024123
451.086 .0935320
451.993 .0867954
452.898 .0815072
453.803 .0771901
454.706 .0736526
455.608 .0706615
456.508 .0681041
457.408 .0658985
458.306 .0639718
459.204 .0622718
460.100 .0607547
460.995 .0593971
461.888 .0581837
462.781 .0570845
463.673 .0560813
464.563 .0551712
465.452 .0543246
466.340 .0535165
467.228 .0527572
468.114 .0520408
468.999 .0513671
469.882 .0507338
470.765 .0501474
471.647 .0496031
472.528 .0491099
473.407 .0486672
474.286 .0482658
475.163 .0479081
476.040 .0475955
476.915 .0473152
477.790 .0470690
478.663 .0468582
479.535 .0466781
480.407 .0465292
481.277 .0464081
482.147 .0463050
483.015 .0462218
483.883 .0461604
484.749 .0461122
485.615 .0460797
486.479 .0460584
487.343 .0460514
488.206 .0460536
489.067 .0460688
489.928 .0460902
490.788 .0461195
491.647 .0461576
492.505 .0462061
493.362 .0462586
494.218 .0463182
495.073 .0463849
495.928 .0464599
496.781 .0465420
497.634 .0466378
498.486 .0467499
499.337 .0468861
500.187 .0470469
501.036 .0472488
501.884 .0474830
502.731 .0477635
503.578 .0480872
504.424 .0484526
505.268 .0488495
506.113 .0492836
506.956 .0497442
507.798 .0502437
508.640 .0507892
509.480 .0513942
510.320 .0520809
511.160 .0528545
511.998 .0537162
512.836 .0546725
513.672 .0557299
514.508 .0568865
515.344 .0581279
516.178 .0594934
517.012 .0609979
517.845 .0626717
518.677 .0645685
519.508 .0667233
520.339 .0691901
521.169 .0720580
521.998 .0753222
522.826 .0790433
523.654 .0832271
524.481 .0878601
525.307 .0930283
526.133 .0987172
526.958 .1048907
527.782 .1115070
528.605 .1184561
529.428 .1256546
530.250 .1325340
531.072 .1388727
531.892 .1442623
532.712 .1484383
533.532 .1511644
534.350 .1521323
535.168 .1512999
535.986 .1488105
536.802 .1447655
537.618 .1394207
538.434 .1330453
539.249 .1261402
540.063 .1189071
540.876 .1116638
541.689 .1046347
542.501 .0980531
543.313 .0920662
544.124 .0867260
544.934 .0819466
545.744 .0777022
546.553 .0739355
547.361 .0705972
548.169 .0676942
548.976 .0651440
549.783 .0629096
550.589 .0609412
551.395 .0591734
552.200 .0576058
553.004 .0561807
553.808 .0548701
554.611 .0536863
555.414 .0526075
556.216 .0516152
557.018 .0506969
557.819 .0498496
558.619 .0490458
559.419 .0482924
560.218 .0475733
561.017 .0468773
561.815 .0462032
562.613 .0455513
563.410 .0449039
564.207 .0442834
565.003 .0436948
565.799 .0431368
566.594 .0426108
567.388 .0421266
568.182 .0416699
568.976 .0412300
569.769 .0408001
570.562 .0403713
571.354 .0399425
572.145 .0395242
572.936 .0390984
573.727 .0386749
574.517 .0382615
575.307 .0378599
576.096 .0374754
576.885 .0371101
577.673 .0367655
578.461 .0364374
579.248 .0361244
580.035 .0358252
580.821 .0355369
581.607 .0352633
582.392 .0350049
583.177 .0347618
583.962 .0345347
584.746 .0343210
585.529 .0341231
586.313 .0339413
587.095 .0337752
587.878 .0336243
588.660 .0334873
589.441 .0333631
590.222 .0332514
591.003 .0331504
591.783 .0330585
592.563 .0329749
593.342 .0328980
594.121 .0328230
594.899 .0327517
595.678 .0326816
596.455 .0326143
597.233 .0325516
598.009 .0324940
598.786 .0324425
599.562 .0323976
600.338 .0323564
601.113 .0323174
601.888 .0322801
602.663 .0322431
603.437 .0322059
604.211 .0321680
604.984 .0321311
605.757 .0320964
606.530 .0320644
607.302 .0320366
608.074 .0320121
608.845 .0319919
609.616 .0319743
610.387 .0319575
611.158 .0319415
611.928 .0319247
612.697 .0319076
613.467 .0318908
614.236 .0318742
615.004 .0318586
615.773 .0318435
616.541 .0318284
617.308 .0318125
618.076 .0317951
618.843 .0317756
619.609 .0317539
620.375 .0317300
621.141 .0317038
621.907 .0316762
622.672 .0316471
623.437 .0316174
624.202 .0315869
624.966 .0315564
625.730 .0315249
626.493 .0314923
627.257 .0314594
628.020 .0314261
628.782 .0313930
629.545 .0313603
630.307 .0313287
631.068 .0312988
631.830 .0312698
632.591 .0312419
633.352 .0312150
634.112 .0311885
634.872 .0311616
635.632 .0311342
636.392 .0311066
637.151 .0310793
637.910 .0310522
638.668 .0310252
639.427 .0309982
640.185 .0309708
640.943 .0309432
641.700 .0309143
642.457 .0308845
643.214 .0308541
643.971 .0308226
644.727 .0307907
645.483 .0307590
646.239 .0307279
646.994 .0306979
647.750 .0306690
648.505 .0306406
649.259 .0306127
650.014 .0305852
650.768 .0305577
651.521 .0305301
652.275 .0305036
653.028 .0304785
653.781 .0304543
654.534 .0304317
655.286 .0304112
656.039 .0303930
656.791 .0303769
657.542 .0303616
658.294 .0303472
659.045 .0303327
659.796 .0303181
660.546 .0303031
661.297 .0302881
662.047 .0302731
662.796 .0302577
663.546 .0302421
664.295 .0302268
665.044 .0302113
665.793 .0301955
666.542 .0301792
667.290 .0301625
668.038 .0301453
668.786 .0301275
669.533 .0301096
670.281 .0300924
671.028 .0300759
671.774 .0300606
672.521 .0300468
673.267 .0300350
674.013 .0300251
674.759 .0300170
675.505 .0300106
676.250 .0300055
676.995 .0300011
677.740 .0299970
678.484 .0299930
679.229 .0299886
679.973 .0299837
680.717 .0299775
681.460 .0299705
682.204 .0299622
682.947 .0299529
683.690 .0299426
684.433 .0299312
685.175 .0299189
685.917 .0299060
686.659 .0298922
687.401 .0298778
688.142 .0298624
688.884 .0298469
689.625 .0298311
690.365 .0298152
691.106 .0297991
691.846 .0297830
692.586 .0297672
693.326 .0297516
694.066 .0297355
694.805 .0297191
695.545 .0297019
696.284 .0296838
697.022 .0296643
697.761 .0296432
698.499 .0296202
699.237 .0295955
699.975 .0295696
700.713 .0295428
701.450 .0295149
702.187 .0294874
702.924 .0294602
703.661 .0294340
704.397 .0294090
705.133 .0293854
705.869 .0293627
706.605 .0293411
707.341 .0293201
708.076 .0292994
708.811 .0292786
709.546 .0292584
710.281 .0292377
711.015 .0292173
711.749 .0291966
712.483 .0291751
713.217 .0291525
713.950 .0291291
714.684 .0291038
715.417 .0290769
716.150 .0290483
716.882 .0290188
717.615 .0289880
718.347 .0289573
719.079 .0289271
719.811 .0288979
720.542 .0288700
721.273 .0288433
722.005 .0288175
722.735 .0287928
723.466 .0287687
724.196 .0287449
724.927 .0287214
725.656 .0286981
726.386 .0286749
727.116 .0286519
727.845 .0286294
728.574 .0286080
729.303 .0285876
730.031 .0285690
730.760 .0285518
731.488 .0285360
732.216 .0285212
732.944 .0285072
733.671 .0284942
734.398 .0284817
735.125 .0284701
735.852 .0284596
736.579 .0284502
737.305 .0284426
738.031 .0284368
738.757 .0284326
739.483 .0284295
740.208 .0284271
740.933 .0284244
741.658 .0284207
742.383 .0284157
743.108 .0284090
743.832 .0284011
744.556 .0283922
745.280 .0283828
746.004 .0283733
746.727 .0283643
747.450 .0283564
748.173 .0283495
748.896 .0283442
749.618 .0283399
750.340 .0283369
751.062 .0283353
751.784 .0283349
752.506 .0283354
753.227 .0283367
753.948 .0283391
754.669 .0283424
755.389 .0283463
756.110 .0283509
756.830 .0283555
757.550 .0283606
758.269 .0283654
758.989 .0283695
759.708 .0283720
760.427 .0283732
761.146 .0283719
761.864 .0283684
762.582 .0283625
763.300 .0283541
764.018 .0283441
764.736 .0283331
765.453 .0283214
766.170 .0283095
766.887 .0282977
767.603 .0282864
768.320 .0282752
769.036 .0282646
769.751 .0282541
770.467 .0282435
771.182 .0282329
771.897 .0282222
772.612 .0282111
773.327 .0282004
774.041 .0281896
774.755 .0281791
775.469 .0281688
776.183 .0281583
776.896 .0281471
777.609 .0281350
778.322 .0281214
779.035 .0281058
779.747 .0280880
780.459 .0280687
781.171 .0280476
781.882 .0280257
782.594 .0280037
783.305 .0279816
784.016 .0279598
784.726 .0279380
785.436 .0279161
786.147 .0278936
786.856 .0278707
787.566 .0278470
788.275 .0278231
788.984 .0277993
789.693 .0277760
790.401 .0277532
791.110 .0277309
791.818 .0277086
792.525 .0276856
793.233 .0276616
793.940 .0276363
794.647 .0276094
795.353 .0275815
796.060 .0275532
796.766 .0275248
797.472 .0274968
798.177 .0274696
798.883 .0274432
799.588 .0274176
800.292 .0273927
800.997 .0273681
801.701 .0273440
802.405 .0273202
803.109 .0272968
803.812 .0272743
804.515 .0272527
805.218 .0272318
805.921 .0272112
806.623 .0271914
807.325 .0271720
808.027 .0271529
808.728 .0271338
809.429 .0271146
810.130 .0270958
810.831 .0270768
811.531 .0270574
812.231 .0270379
812.931 .0270180
813.630 .0269977
814.330 .0269772
815.029 .0269567
815.727 .0269366
816.426 .0269176
817.124 .0268998
817.821 .0268831
818.519 .0268677
819.216 .0268535
819.913 .0268403
820.609 .0268280
821.306 .0268163
822.002 .0268054
822.697 .0267958
823.393 .0267875
824.088 .0267801
824.783 .0267739
825.477 .0267688
826.171 .0267641
826.865 .0267599
827.559 .0267558
828.252 .0267518
828.945 .0267482
829.638 .0267448
830.330 .0267417
831.023 .0267391
831.714 .0267367
832.406 .0267348
833.097 .0267335
833.788 .0267324
834.479 .0267319
835.169 .0267324
835.859 .0267345
836.548 .0267382
837.238 .0267434
837.927 .0267505
838.615 .0267589
839.304 .0267685
839.992 .0267784
840.680 .0267885
841.367 .0267989
842.054 .0268095
842.741 .0268204
843.428 .0268322
844.114 .0268450
844.800 .0268586
845.485 .0268727
846.170 .0268861
846.855 .0268985
847.540 .0269088
848.224 .0269174
848.908 .0269241
849.592 .0269291
850.275 .0269333
850.958 .0269368
851.641 .0269400
852.323 .0269430
853.005 .0269453
853.687 .0269466
854.368 .0269466
855.049 .0269449
855.730 .0269418
856.410 .0269377
857.090 .0269333
857.769 .0269291
858.449 .0269256
859.128 .0269235
859.806 .0269226
860.485 .0269229
861.163 .0269242
861.840 .0269260
862.518 .0269283
863.195 .0269304
863.871 .0269322
864.548 .0269334
865.224 .0269339
865.899 .0269335
866.574 .0269319
867.249 .0269290
867.924 .0269245
868.598 .0269183
869.272 .0269102
869.946 .0269003
870.619 .0268888
871.292 .0268754
871.964 .0268608
872.636 .0268446
873.308 .0268272
873.979 .0268082
874.651 .0267881
875.321 .0267670
875.992 .0267450
876.662 .0267230
877.331 .0267014
878.001 .0266802
878.670 .0266600
879.338 .0266404
880.007 .0266218
880.675 .0266037
881.342 .0265859
882.009 .0265681
882.676 .0265496
883.343 .0265303
884.009 .0265105
884.675 .0264899
885.340 .0264690
886.005 .0264476
886.670 .0264259
887.334 .0264040
887.998 .0263817
888.662 .0263589
889.325 .0263353
889.988 .0263107
890.650 .0262853
891.312 .0262586
891.974 .0262318
892.636 .0262047
893.297 .0261776
893.957 .0261507
894.618 .0261242
895.278 .0260980
895.937 .0260718
896.596 .0260459
897.255 .0260200
897.914 .0259937
898.572 .0259669
899.230 .0259396
899.887 .0259122
900.544 .0258849
901.201 .0258576
901.857 .0258303
902.513 .0258028
903.168 .0257748
903.823 .0257457
904.478 .0257156
905.132 .0256843
905.786 .0256519
906.440 .0256180
907.093 .0255834
907.746 .0255480
908.399 .0255131
909.051 .0254789
909.703 .0254460
910.354 .0254141
911.005 .0253832
911.656 .0253531
912.306 .0253237
912.956 .0252950
913.605 .0252672
914.254 .0252399
914.903 .0252137
915.551 .0251882
916.199 .0251643
916.847 .0251421
917.494 .0251216
918.141 .0251029
918.788 .0250856
919.434 .0250689
920.079 .0250531
920.725 .0250375
921.370 .0250224
922.014 .0250075
922.658 .0249930
923.302 .0249788
923.946 .0249650
924.589 .0249514
925.231 .0249378
925.873 .0249244
926.515 .0249109
927.157 .0248968
927.798 .0248822
928.439 .0248672
929.079 .0248517
929.719 .0248359
930.359 .0248203
930.998 .0248046
931.637 .0247894
932.275 .0247746
932.913 .0247603
933.551 .0247468
934.188 .0247338
934.825 .0247214
935.462 .0247100
936.098 .0246998
936.733 .0246905
937.369 .0246829
938.004 .0246772
938.638 .0246726
939.273 .0246695
939.907 .0246675
940.540 .0246667
941.173 .0246669
941.806 .0246679
942.438 .0246693
943.070 .0246705
943.702 .0246717
944.333 .0246727
944.964 .0246734
945.594 .0246741
946.224 .0246746
946.854 .0246758
947.483 .0246774
948.112 .0246793
948.741 .0246816
949.369 .0246846
949.996 .0246880
950.624 .0246915
951.251 .0246952
951.878 .0246995
952.504 .0247047
953.130 .0247111
953.755 .0247188
954.380 .0247277
955.005 .0247375
955.629 .0247479
956.253 .0247585
956.877 .0247695
957.500 .0247803
958.123 .0247911
958.746 .0248019
959.368 .0248131
959.990 .0248244
960.611 .0248358
961.232 .0248481
961.853 .0248609
962.473 .0248737
963.093 .0248866
963.712 .0248995
964.331 .0249128
964.950 .0249263
965.569 .0249403
966.187 .0249547
966.804 .0249700
967.422 .0249865
968.039 .0250035
968.655 .0250213
969.272 .0250399
969.887 .0250584
970.503 .0250768
971.118 .0250949
971.733 .0251120
972.347 .0251282
972.961 .0251435
973.575 .0251580
974.188 .0251716
974.801 .0251840
975.414 .0251955
976.026 .0252058
976.638 .0252150
977.250 .0252228
977.861 .0252286
978.472 .0252330
979.083 .0252356
979.693 .0252362
980.303 .0252351
980.912 .0252325
981.521 .0252287
982.130 .0252237
982.738 .0252180
983.346 .0252117
983.954 .0252054
984.562 .0251991
985.169 .0251929
985.775 .0251867
986.382 .0251807
986.988 .0251747
987.594 .0251686
988.199 .0251628
988.804 .0251572
989.409 .0251520
990.013 .0251476
990.617 .0251440
991.221 .0251416
991.824 .0251405
992.427 .0251408
993.030 .0251421
993.632 .0251447
994.234 .0251475
994.836 .0251502
995.438 .0251522
996.039 .0251538
996.640 .0251544
997.240 .0251542
997.840 .0251540
998.440 .0251538
999.040 .0251537
999.639 .0251535
1000.238 .0251525
1000.836 .0251506
1001.435 .0251468
1002.033 .0251407
1002.630 .0251320
1003.228 .0251213
1003.825 .0251088
1004.422 .0250953
1005.018 .0250817
1005.614 .0250689
1006.210 .0250564
1006.806 .0250446
1007.401 .0250332
1007.996 .0250215
1008.591 .0250088
1009.186 .0249950
1009.780 .0249805
1010.374 .0249650
1010.967 .0249487
1011.561 .0249325
1012.154 .0249160
1012.746 .0248995
1013.339 .0248824
1013.931 .0248644
1014.523 .0248448
1015.115 .0248234
1015.706 .0248002
1016.298 .0247759
1016.888 .0247518
1017.479 .0247283
1018.069 .0247057
1018.660 .0246849
1019.250 .0246659
1019.839 .0246476
1020.429 .0246302
1021.018 .0246136
1021.607 .0245967
1022.195 .0245799
1022.784 .0245634
1023.372 .0245471
1023.960 .0245316
1024.547 .0245177
1025.135 .0245048
1025.722 .0244927
1026.309 .0244810
1026.896 .0244682
1027.483 .0244547
1028.069 .0244406
1028.655 .0244258
1029.241 .0244101
1029.827 .0243953
1030.412 .0243812
1030.997 .0243677
1031.582 .0243558
1032.167 .0243453
1032.752 .0243365
1033.336 .0243294
1033.921 .0243227
1034.505 .0243157
1035.089 .0243082
1035.672 .0243004
1036.256 .0242914
1036.839 .0242812
1037.422 .0242688
1038.005 .0242550
1038.588 .0242392
1039.171 .0242220
1039.753 .0242038
1040.335 .0241851
1040.918 .0241656
1041.500 .0241447
1042.081 .0241222
1042.663 .0240977
1043.244 .0240718
1043.826 .0240448
1044.407 .0240171
1044.988 .0239904
1045.569 .0239637
1046.150 .0239382
1046.730 .0239142
1047.311 .0238931
1047.891 .0238737
1048.471 .0238556
1049.052 .0238388
1049.632 .0238228
1050.211 .0238079
1050.791 .0237935
1051.371 .0237796
1051.950 .0237674
1052.530 .0237568
1053.109 .0237475
1053.688 .0237391
1054.268 .0237321
1054.847 .0237259
1055.426 .0237210
1056.005 .0237157
1056.583 .0237100
1057.162 .0237036
1057.741 .0236965
1058.319 .0236884
1058.898 .0236795
1059.476 .0236706
1060.055 .0236620
1060.633 .0236545
1061.211 .0236491
1061.790 .0236446
1062.368 .0236413
1062.946 .0236387
1063.524 .0236367
1064.102 .0236352
1064.680 .0236339
1065.258 .0236313
1065.836 .0236300
1066.414 .0236304
1066.992 .0236320
1067.570 .0236354
1068.148 .0236419
1068.726 .0236516
1069.304 .0236626
1069.882 .0236750
1070.460 .0236883
1071.038 .0237018
1071.616 .0237164
1072.194 .0237300
1072.772 .0237428
1073.350 .0237561
1073.928 .0237685
1074.506 .0237801
1075.084 .0237918
1075.662 .0238029
1076.240 .0238129
1076.819 .0238217
1077.397 .0238291
1077.976 .0238348
1078.554 .0238381
1079.133 .0238405
1079.711 .0238400
1080.290 .0238379
1080.869 .0238342
1081.448 .0238292
1082.027 .0238242
1082.606 .0238206
1083.185 .0238194
1083.764 .0238212
1084.343 .0238262
1084.923 .0238353
1085.502 .0238473
1086.082 .0238623
1086.662 .0238794
1087.242 .0238990
1087.822 .0239194
1088.402 .0239408
1088.983 .0239623
1089.563 .0239852
1090.144 .0240095
1090.725 .0240350
1091.306 .0240607
1091.887 .0240883
1092.469 .0241173
1093.050 .0241456
1093.632 .0241719
1094.214 .0241984
1094.796 .0242238
1095.379 .0242482
1095.961 .0242718
1096.544 .0242952
1097.127 .0243191
1097.710 .0243440
1098.294 .0243707
1098.877 .0243984
1099.461 .0244293
1100.046 .0244619
1100.630 .0244962
1101.215 .0245333
1101.800 .0245727
1102.385 .0246135
1102.970 .0246574
1103.556 .0247045
1104.142 .0247538
1104.728 .0248030
1105.315 .0248527
1105.902 .0249004
1106.489 .0249473
1107.077 .0249889
1107.664 .0250264
1108.253 .0250595
1108.841 .0250908
1109.430 .0251195
1110.019 .0251479
1110.609 .0251794
1111.198 .0252163
1111.789 .0252577
1112.379 .0253019
1112.970 .0253462
1113.561 .0253932
1114.153 .0254389
1114.745 .0254847
1115.338 .0255306
1115.931 .0255781
1116.524 .0256285
1117.117 .0256849
1117.712 .0257470
1118.306 .0258160
1118.901 .0258912
1119.496 .0259687
1120.092 .0260442
1120.689 .0261151
1121.285 .0261799
1121.882 .0262366
1122.480 .0262891
1123.078 .0263387
1123.677 .0263836
1124.276 .0264272
1124.875 .0264742
1125.476 .0265225
1126.076 .0265768
1126.677 .0266363
1127.279 .0267000
1127.881 .0267713
1128.484 .0268508
1129.087 .0269353
1129.691 .0270276
1130.295 .0271282
1130.900 .0272369
1131.505 .0273457
1132.111 .0274598
1132.718 .0275737
1133.325 .0276900
1133.933 .0278090
1134.541 .0279274
1135.150 .0280446
1135.760 .0281611
1136.370 .0282756
1136.981 .0283862
1137.592 .0284906
1138.204 .0285875
1138.817 .0286724
1139.431 .0287485
1140.045 .0288153
1140.660 .0288694
1141.275 .0289241
1141.891 .0290030
1142.508 .0290172
1143.126 .0291079
1143.744 .0290162
1144.363 .0293141
1144.983 .0300066
