Measurement Sequence started on: 15-12-46-377
Integration time: 28
Scans to Average: 2 
>>>>>Begin Spectral Data<<<<<
432.689 .0000100
433.621 .0000100
434.552 .0000100
435.482 .0000100
436.410 .0000100
437.337 .0000100
438.262 .0265320
439.187 .0562450
440.110 .0932055
441.031 .1349266
441.952 .1754726
442.871 .2074106
443.789 .2249622
444.705 .2261344
445.621 .2133400
446.535 .1918843
447.447 .1675478
448.359 .1302797
449.269 .1117922
450.178 .1001233
451.086 .0919139
451.993 .0856884
452.898 .0808321
453.803 .0769041
454.706 .0736769
455.608 .0709480
456.508 .0685869
457.408 .0665375
458.306 .0647040
459.204 .0630262
460.100 .0614806
460.995 .0600538
461.888 .0587348
462.781 .0575169
463.673 .0563873
464.563 .0553389
465.452 .0543605
466.340 .0534418
467.228 .0525855
468.114 .0517961
468.999 .0510732
469.882 .0504088
470.765 .0498075
471.647 .0492694
472.528 .0487806
473.407 .0483500
474.286 .0479717
475.163 .0476380
476.040 .0473466
476.915 .0470879
477.790 .0468606
478.663 .0466652
479.535 .0465012
480.407 .0463697
481.277 .0462578
482.147 .0461614
483.015 .0460762
483.883 .0459978
484.749 .0459239
485.615 .0458505
486.479 .0457737
487.343 .0457007
488.206 .0456322
489.067 .0455725
489.928 .0455265
490.788 .0455039
491.647 .0455082
492.505 .0455300
493.362 .0455797
494.218 .0456495
495.073 .0457309
495.928 .0458321
496.781 .0459503
497.634 .0460847
498.486 .0462478
499.337 .0464404
500.187 .0466711
501.036 .0469460
501.884 .0472631
502.731 .0476171
503.578 .0480106
504.424 .0484425
505.268 .0488931
506.113 .0493626
506.956 .0498580
507.798 .0503682
508.640 .0509235
509.480 .0515221
510.320 .0521822
511.160 .0529187
511.998 .0537294
512.836 .0546255
513.672 .0556216
514.508 .0567330
515.344 .0579527
516.178 .0593142
517.012 .0608503
517.845 .0625904
518.677 .0645779
519.508 .0668475
520.339 .0694443
521.169 .0724396
521.998 .0758237
522.826 .0796101
523.654 .0838549
524.481 .0885893
525.307 .0938335
526.133 .0996113
526.958 .1058907
527.782 .1126304
528.605 .1196917
529.428 .1270202
530.250 .1340965
531.072 .1406535
531.892 .1462351
532.712 .1505487
533.532 .1533660
534.350 .1544522
535.168 .1537208
535.986 .1513652
536.802 .1475257
537.618 .1425034
538.434 .1364879
539.249 .1299842
540.063 .1231981
540.876 .1164097
541.689 .1097341
542.501 .1033627
543.313 .0974505
544.124 .0920573
544.934 .0870965
545.744 .0826147
546.553 .0785277
547.361 .0748522
548.169 .0715790
548.976 .0686519
549.783 .0660466
550.589 .0637408
551.395 .0616721
552.200 .0598334
553.004 .0581724
553.808 .0566576
554.611 .0552773
555.414 .0540429
556.216 .0529216
557.018 .0519135
557.819 .0510120
558.619 .0502007
559.419 .0494568
560.218 .0487837
561.017 .0481460
561.815 .0475305
562.613 .0469280
563.410 .0463243
564.207 .0457244
565.003 .0451281
565.799 .0445265
566.594 .0439275
567.388 .0433454
568.182 .0427658
568.976 .0421902
569.769 .0416255
570.562 .0410747
571.354 .0405339
572.145 .0400093
572.936 .0394972
573.727 .0390022
574.517 .0385253
575.307 .0380640
576.096 .0376161
576.885 .0371893
577.673 .0367781
578.461 .0363902
579.248 .0360295
580.035 .0356962
580.821 .0353915
581.607 .0351153
582.392 .0348638
583.177 .0346348
583.962 .0344215
584.746 .0342248
585.529 .0340410
586.313 .0338722
587.095 .0337154
587.878 .0335735
588.660 .0334479
589.441 .0333374
590.222 .0332391
591.003 .0331527
591.783 .0330728
592.563 .0329990
593.342 .0329273
594.121 .0328569
594.899 .0327888
595.678 .0327229
596.455 .0326587
597.233 .0325988
598.009 .0325414
598.786 .0324864
599.562 .0324325
600.338 .0323803
601.113 .0323282
601.888 .0322770
602.663 .0322260
603.437 .0321764
604.211 .0321287
604.984 .0320826
605.757 .0320381
606.530 .0319958
607.302 .0319547
608.074 .0319160
608.845 .0318790
609.616 .0318437
610.387 .0318105
611.158 .0317801
611.928 .0317512
612.697 .0317245
613.467 .0316994
614.236 .0316754
615.004 .0316521
615.773 .0316296
616.541 .0316066
617.308 .0315836
618.076 .0315615
618.843 .0315386
619.609 .0315161
620.375 .0314938
621.141 .0314704
621.907 .0314475
622.672 .0314249
623.437 .0314014
624.202 .0313772
624.966 .0313532
625.730 .0313282
626.493 .0313016
627.257 .0312743
628.020 .0312455
628.782 .0312163
629.545 .0311869
630.307 .0311574
631.068 .0311282
631.830 .0311013
632.591 .0310752
633.352 .0310493
634.112 .0310238
634.872 .0309970
635.632 .0309687
636.392 .0309387
637.151 .0309072
637.910 .0308749
638.668 .0308430
639.427 .0308128
640.185 .0307840
640.943 .0307576
641.700 .0307330
642.457 .0307097
643.214 .0306874
643.971 .0306645
644.727 .0306414
645.483 .0306181
646.239 .0305947
646.994 .0305712
647.750 .0305482
648.505 .0305261
649.259 .0305054
650.014 .0304860
650.768 .0304679
651.521 .0304504
652.275 .0304331
653.028 .0304156
653.781 .0303968
654.534 .0303763
655.286 .0303540
656.039 .0303295
656.791 .0303039
657.542 .0302766
658.294 .0302493
659.045 .0302231
659.796 .0301980
660.546 .0301739
661.297 .0301508
662.047 .0301281
662.796 .0301056
663.546 .0300822
664.295 .0300586
665.044 .0300349
665.793 .0300124
666.542 .0299909
667.290 .0299715
668.038 .0299542
668.786 .0299391
669.533 .0299245
670.281 .0299102
671.028 .0298950
671.774 .0298784
672.521 .0298608
673.267 .0298422
674.013 .0298238
674.759 .0298064
675.505 .0297905
676.250 .0297763
676.995 .0297628
677.740 .0297500
678.484 .0297365
679.229 .0297222
679.973 .0297064
680.717 .0296892
681.460 .0296707
682.204 .0296520
682.947 .0296332
683.690 .0296149
684.433 .0295975
685.175 .0295802
685.917 .0295629
686.659 .0295449
687.401 .0295260
688.142 .0295062
688.884 .0294853
689.625 .0294643
690.365 .0294424
691.106 .0294203
691.846 .0293980
692.586 .0293758
693.326 .0293538
694.066 .0293320
694.805 .0293110
695.545 .0292908
696.284 .0292711
697.022 .0292518
697.761 .0292333
698.499 .0292154
699.237 .0291978
699.975 .0291804
700.713 .0291625
701.450 .0291444
702.187 .0291264
702.924 .0291082
703.661 .0290901
704.397 .0290723
705.133 .0290547
705.869 .0290364
706.605 .0290183
707.341 .0289994
708.076 .0289802
708.811 .0289607
709.546 .0289410
710.281 .0289208
711.015 .0289008
711.749 .0288805
712.483 .0288603
713.217 .0288399
713.950 .0288191
714.684 .0287973
715.417 .0287751
716.150 .0287524
716.882 .0287295
717.615 .0287070
718.347 .0286857
719.079 .0286652
719.811 .0286457
720.542 .0286266
721.273 .0286078
722.005 .0285885
722.735 .0285685
723.466 .0285476
724.196 .0285263
724.927 .0285044
725.656 .0284825
726.386 .0284607
727.116 .0284394
727.845 .0284188
728.574 .0283986
729.303 .0283788
730.031 .0283595
730.760 .0283401
731.488 .0283207
732.216 .0283016
732.944 .0282835
733.671 .0282664
734.398 .0282505
735.125 .0282365
735.852 .0282239
736.579 .0282128
737.305 .0282028
738.031 .0281940
738.757 .0281864
739.483 .0281790
740.208 .0281714
740.933 .0281632
741.658 .0281541
742.383 .0281436
743.108 .0281315
743.832 .0281178
744.556 .0281026
745.280 .0280858
746.004 .0280675
746.727 .0280487
747.450 .0280295
748.173 .0280100
748.896 .0279902
749.618 .0279706
750.340 .0279509
751.062 .0279314
751.784 .0279130
752.506 .0278954
753.227 .0278793
753.948 .0278647
754.669 .0278510
755.389 .0278383
756.110 .0278263
756.830 .0278151
757.550 .0278039
758.269 .0277932
758.989 .0277824
759.708 .0277714
760.427 .0277604
761.146 .0277491
761.864 .0277371
762.582 .0277244
763.300 .0277110
764.018 .0276964
764.736 .0276810
765.453 .0276650
766.170 .0276494
766.887 .0276341
767.603 .0276199
768.320 .0276069
769.036 .0275949
769.751 .0275842
770.467 .0275744
771.182 .0275654
771.897 .0275569
772.612 .0275488
773.327 .0275411
774.041 .0275336
774.755 .0275263
775.469 .0275186
776.183 .0275112
776.896 .0275036
777.609 .0274960
778.322 .0274881
779.035 .0274804
779.747 .0274729
780.459 .0274658
781.171 .0274590
781.882 .0274525
782.594 .0274464
783.305 .0274404
784.016 .0274347
784.726 .0274292
785.436 .0274241
786.147 .0274197
786.856 .0274164
787.566 .0274141
788.275 .0274127
788.984 .0274126
789.693 .0274129
790.401 .0274132
791.110 .0274131
791.818 .0274120
792.525 .0274100
793.233 .0274063
793.940 .0274011
794.647 .0273943
795.353 .0273861
796.060 .0273766
796.766 .0273656
797.472 .0273533
798.177 .0273400
798.883 .0273255
799.588 .0273104
800.292 .0272948
800.997 .0272793
801.701 .0272641
802.405 .0272494
803.109 .0272353
803.812 .0272220
804.515 .0272094
805.218 .0271977
805.921 .0271869
806.623 .0271769
807.325 .0271675
808.027 .0271586
808.728 .0271503
809.429 .0271418
810.130 .0271330
810.831 .0271240
811.531 .0271144
812.231 .0271042
812.931 .0270931
813.630 .0270810
814.330 .0270682
815.029 .0270544
815.727 .0270398
816.426 .0270241
817.124 .0270077
817.821 .0269899
818.519 .0269717
819.216 .0269532
819.913 .0269348
820.609 .0269168
821.306 .0268995
822.002 .0268833
822.697 .0268682
823.393 .0268542
824.088 .0268416
824.783 .0268297
825.477 .0268190
826.171 .0268088
826.865 .0267998
827.559 .0267920
828.252 .0267855
828.945 .0267801
829.638 .0267760
830.330 .0267727
831.023 .0267694
831.714 .0267662
832.406 .0267631
833.097 .0267593
833.788 .0267547
834.479 .0267493
835.169 .0267433
835.859 .0267368
836.548 .0267303
837.238 .0267234
837.927 .0267164
838.615 .0267094
839.304 .0267020
839.992 .0266941
840.680 .0266862
841.367 .0266778
842.054 .0266687
842.741 .0266594
843.428 .0266500
844.114 .0266404
844.800 .0266311
845.485 .0266219
846.170 .0266126
846.855 .0266026
847.540 .0265915
848.224 .0265792
848.908 .0265659
849.592 .0265514
850.275 .0265357
850.958 .0265192
851.641 .0265026
852.323 .0264855
853.005 .0264684
853.687 .0264508
854.368 .0264327
855.049 .0264133
855.730 .0263923
856.410 .0263698
857.090 .0263464
857.769 .0263220
858.449 .0262979
859.128 .0262745
859.806 .0262519
860.485 .0262307
861.163 .0262109
861.840 .0261918
862.518 .0261730
863.195 .0261542
863.871 .0261352
864.548 .0261157
865.224 .0260966
865.899 .0260780
866.574 .0260610
867.249 .0260463
867.924 .0260337
868.598 .0260233
869.272 .0260147
869.946 .0260071
870.619 .0259996
871.292 .0259918
871.964 .0259830
872.636 .0259733
873.308 .0259631
873.979 .0259527
874.651 .0259425
875.321 .0259331
875.992 .0259248
876.662 .0259176
877.331 .0259108
878.001 .0259037
878.670 .0258957
879.338 .0258868
880.007 .0258768
880.675 .0258659
881.342 .0258546
882.009 .0258436
882.676 .0258329
883.343 .0258225
884.009 .0258126
884.675 .0258025
885.340 .0257923
886.005 .0257811
886.670 .0257688
887.334 .0257560
887.998 .0257424
888.662 .0257296
889.325 .0257180
889.988 .0257079
890.650 .0256994
891.312 .0256923
891.974 .0256864
892.636 .0256807
893.297 .0256755
893.957 .0256706
894.618 .0256658
895.278 .0256618
895.937 .0256587
896.596 .0256571
897.255 .0256572
897.914 .0256587
898.572 .0256608
899.230 .0256634
899.887 .0256652
900.544 .0256656
901.201 .0256643
901.857 .0256614
902.513 .0256570
903.168 .0256511
903.823 .0256440
904.478 .0256359
905.132 .0256267
905.786 .0256164
906.440 .0256046
907.093 .0255920
907.746 .0255780
908.399 .0255626
909.051 .0255461
909.703 .0255291
910.354 .0255117
911.005 .0254944
911.656 .0254776
912.306 .0254610
912.956 .0254451
913.605 .0254290
914.254 .0254125
914.903 .0253961
915.551 .0253797
916.199 .0253636
916.847 .0253480
917.494 .0253339
918.141 .0253213
918.788 .0253106
919.434 .0253018
920.079 .0252944
920.725 .0252877
921.370 .0252812
922.014 .0252742
922.658 .0252658
923.302 .0252565
923.946 .0252461
924.589 .0252353
925.231 .0252237
925.873 .0252123
926.515 .0252011
927.157 .0251896
927.798 .0251777
928.439 .0251648
929.079 .0251510
929.719 .0251357
930.359 .0251190
930.998 .0251012
931.637 .0250831
932.275 .0250654
932.913 .0250482
933.551 .0250328
934.188 .0250193
934.825 .0250076
935.462 .0249972
936.098 .0249887
936.733 .0249815
937.369 .0249749
938.004 .0249692
938.638 .0249642
939.273 .0249599
939.907 .0249561
940.540 .0249528
941.173 .0249503
941.806 .0249485
942.438 .0249477
943.070 .0249469
943.702 .0249465
944.333 .0249456
944.964 .0249436
945.594 .0249404
946.224 .0249364
946.854 .0249318
947.483 .0249267
948.112 .0249217
948.741 .0249173
949.369 .0249138
949.996 .0249110
950.624 .0249083
951.251 .0249050
951.878 .0249008
952.504 .0248949
953.130 .0248868
953.755 .0248771
954.380 .0248669
955.005 .0248570
955.629 .0248475
956.253 .0248394
956.877 .0248328
957.500 .0248278
958.123 .0248239
958.746 .0248201
959.368 .0248160
959.990 .0248107
960.611 .0248046
961.232 .0247981
961.853 .0247915
962.473 .0247859
963.093 .0247819
963.712 .0247799
964.331 .0247795
964.950 .0247802
965.569 .0247817
966.187 .0247838
966.804 .0247851
967.422 .0247859
968.039 .0247854
968.655 .0247840
969.272 .0247820
969.887 .0247791
970.503 .0247759
971.118 .0247728
971.733 .0247694
972.347 .0247660
972.961 .0247627
973.575 .0247596
974.188 .0247555
974.801 .0247511
975.414 .0247461
976.026 .0247396
976.638 .0247322
977.250 .0247239
977.861 .0247150
978.472 .0247064
979.083 .0246981
979.693 .0246900
980.303 .0246823
980.912 .0246749
981.521 .0246668
982.130 .0246581
982.738 .0246485
983.346 .0246378
983.954 .0246261
984.562 .0246141
985.169 .0246016
985.775 .0245883
986.382 .0245754
986.988 .0245624
987.594 .0245495
988.199 .0245369
988.804 .0245245
989.409 .0245123
990.013 .0245011
990.617 .0244907
991.221 .0244807
991.824 .0244716
992.427 .0244636
993.030 .0244564
993.632 .0244503
994.234 .0244454
994.836 .0244419
995.438 .0244400
996.039 .0244397
996.640 .0244401
997.240 .0244418
997.840 .0244450
998.440 .0244483
999.040 .0244516
999.639 .0244548
1000.238 .0244573
1000.836 .0244597
1001.435 .0244622
1002.033 .0244651
1002.630 .0244682
1003.228 .0244720
1003.825 .0244759
1004.422 .0244797
1005.018 .0244832
1005.614 .0244859
1006.210 .0244876
1006.806 .0244886
1007.401 .0244882
1007.996 .0244858
1008.591 .0244829
1009.186 .0244792
1009.780 .0244748
1010.374 .0244698
1010.967 .0244645
1011.561 .0244589
1012.154 .0244532
1012.746 .0244475
1013.339 .0244418
1013.931 .0244365
1014.523 .0244311
1015.115 .0244250
1015.706 .0244186
1016.298 .0244120
1016.888 .0244056
1017.479 .0244000
1018.069 .0243958
1018.660 .0243925
1019.250 .0243909
1019.839 .0243910
1020.429 .0243921
1021.018 .0243943
1021.607 .0243972
1022.195 .0244000
1022.784 .0244037
1023.372 .0244073
1023.960 .0244109
1024.547 .0244149
1025.135 .0244197
1025.722 .0244246
1026.309 .0244303
1026.896 .0244360
1027.483 .0244413
1028.069 .0244462
1028.655 .0244512
1029.241 .0244552
1029.827 .0244594
1030.412 .0244642
1030.997 .0244695
1031.582 .0244753
1032.167 .0244817
1032.752 .0244879
1033.336 .0244948
1033.921 .0245019
1034.505 .0245080
1035.089 .0245130
1035.672 .0245169
1036.256 .0245191
1036.839 .0245200
1037.422 .0245205
1038.005 .0245205
1038.588 .0245207
1039.171 .0245214
1039.753 .0245220
1040.335 .0245220
1040.918 .0245219
1041.500 .0245206
1042.081 .0245183
1042.663 .0245140
1043.244 .0245078
1043.826 .0244996
1044.407 .0244912
1044.988 .0244832
1045.569 .0244759
1046.150 .0244699
1046.730 .0244656
1047.311 .0244621
1047.891 .0244601
1048.471 .0244574
1049.052 .0244540
1049.632 .0244488
1050.211 .0244410
1050.791 .0244296
1051.371 .0244153
1051.950 .0243990
1052.530 .0243818
1053.109 .0243647
1053.688 .0243488
1054.268 .0243340
1054.847 .0243217
1055.426 .0243113
1056.005 .0243029
1056.583 .0242955
1057.162 .0242883
1057.741 .0242793
1058.319 .0242700
1058.898 .0242609
1059.476 .0242515
1060.055 .0242438
1060.633 .0242391
1061.211 .0242372
1061.790 .0242374
1062.368 .0242397
1062.946 .0242429
1063.524 .0242463
1064.102 .0242496
1064.680 .0242508
1065.258 .0242514
1065.836 .0242514
1066.414 .0242516
1066.992 .0242525
1067.570 .0242550
1068.148 .0242587
1068.726 .0242618
1069.304 .0242662
1069.882 .0242710
1070.460 .0242746
1071.038 .0242775
1071.616 .0242795
1072.194 .0242810
1072.772 .0242809
1073.350 .0242803
1073.928 .0242781
1074.506 .0242747
1075.084 .0242697
1075.662 .0242622
1076.240 .0242520
1076.819 .0242404
1077.397 .0242269
1077.976 .0242120
1078.554 .0241980
1079.133 .0241849
1079.711 .0241728
1080.290 .0241641
1080.869 .0241593
1081.448 .0241576
1082.027 .0241593
1082.606 .0241652
1083.185 .0241745
1083.764 .0241887
1084.343 .0242068
1084.923 .0242269
1085.502 .0242507
1086.082 .0242769
1086.662 .0243040
1087.242 .0243309
1087.822 .0243566
1088.402 .0243794
1088.983 .0243994
1089.563 .0244160
1090.144 .0244276
1090.725 .0244359
1091.306 .0244421
1091.887 .0244444
1092.469 .0244443
1093.050 .0244422
1093.632 .0244385
1094.214 .0244338
1094.796 .0244284
1095.379 .0244215
1095.961 .0244148
1096.544 .0244087
1097.127 .0244043
1097.710 .0244023
1098.294 .0244049
1098.877 .0244115
1099.461 .0244207
1100.046 .0244348
1100.630 .0244515
1101.215 .0244694
1101.800 .0244878
1102.385 .0245059
1102.970 .0245216
1103.556 .0245336
1104.142 .0245430
1104.728 .0245524
1105.315 .0245617
1105.902 .0245729
1106.489 .0245845
1107.077 .0245973
1107.664 .0246102
1108.253 .0246223
1108.841 .0246327
1109.430 .0246440
1110.019 .0246529
1110.609 .0246614
1111.198 .0246706
1111.789 .0246834
1112.379 .0247008
1112.970 .0247233
1113.561 .0247532
1114.153 .0247902
1114.745 .0248302
1115.338 .0248738
1115.931 .0249206
1116.524 .0249734
1117.117 .0250307
1117.712 .0250937
1118.306 .0251628
1118.901 .0252371
1119.496 .0253137
1120.092 .0253925
1120.689 .0254673
1121.285 .0255381
1121.882 .0256036
1122.480 .0256641
1123.078 .0257216
1123.677 .0257796
1124.276 .0258377
1124.875 .0259007
1125.476 .0259662
1126.076 .0260312
1126.677 .0260910
1127.279 .0261470
1127.881 .0261981
1128.484 .0262446
1129.087 .0262894
1129.691 .0263376
1130.295 .0263924
1130.900 .0264593
1131.505 .0265352
1132.111 .0266223
1132.718 .0267156
1133.325 .0268134
1133.933 .0269081
1134.541 .0269980
1135.150 .0270823
1135.760 .0271640
1136.370 .0272466
1136.981 .0273375
1137.592 .0274377
1138.204 .0275492
1138.817 .0276671
1139.431 .0277965
1140.045 .0279264
1140.660 .0280549
1141.275 .0282006
1141.891 .0283677
1142.508 .0284530
1143.126 .0285374
1143.744 .0285845
1144.363 .0293651
1144.983 .0298247
