Measurement Sequence started on: 15-12-46-377
Integration time: 28
Scans to Average: 2 
>>>>>Begin Spectral Data<<<<<
432.689 .0000100
433.621 .0000100
434.552 .0000100
435.482 .0000100
436.410 .0000100
437.337 .0000100
438.262 .0250228
439.187 .0529181
440.110 .0875250
441.031 .1265023
441.952 .1642450
442.871 .1938287
443.789 .2098574
444.705 .2105066
445.621 .1981169
446.535 .1777099
447.447 .1546935
448.359 .1195776
449.269 .1022546
450.178 .0913151
451.086 .0835304
451.993 .0775350
452.898 .0727358
453.803 .0687714
454.706 .0654717
455.608 .0626557
456.508 .0602337
457.408 .0581777
458.306 .0563694
459.204 .0547811
460.100 .0533789
460.995 .0521423
461.888 .0510234
462.781 .0500077
463.673 .0490739
464.563 .0482163
465.452 .0474244
466.340 .0466873
467.228 .0460147
468.114 .0454076
468.999 .0448636
469.882 .0443708
470.765 .0439293
471.647 .0435403
472.528 .0431878
473.407 .0428812
474.286 .0426101
475.163 .0423657
476.040 .0421437
476.915 .0419384
477.790 .0417617
478.663 .0416068
479.535 .0414755
480.407 .0413749
481.277 .0413013
482.147 .0412549
483.015 .0412284
483.883 .0412190
484.749 .0412310
485.615 .0412566
486.479 .0412936
487.343 .0413400
488.206 .0413997
489.067 .0414628
489.928 .0415261
490.788 .0415944
491.647 .0416640
492.505 .0417339
493.362 .0418071
494.218 .0418881
495.073 .0419816
495.928 .0420980
496.781 .0422259
497.634 .0423832
498.486 .0425650
499.337 .0427643
500.187 .0429842
501.036 .0432200
501.884 .0434720
502.731 .0437426
503.578 .0440408
504.424 .0443718
505.268 .0447224
506.113 .0451132
506.956 .0455183
507.798 .0459663
508.640 .0464494
509.480 .0469663
510.320 .0475460
511.160 .0481943
511.998 .0489072
512.836 .0496962
513.672 .0505744
514.508 .0515435
515.344 .0525918
516.178 .0537486
517.012 .0550103
517.845 .0564204
518.677 .0580147
519.508 .0598433
520.339 .0619539
521.169 .0644507
521.998 .0673132
522.826 .0705767
523.654 .0742551
524.481 .0783059
525.307 .0827598
526.133 .0875692
526.958 .0927283
527.782 .0981633
528.605 .1037950
529.428 .1096011
530.250 .1151501
531.072 .1203125
531.892 .1247699
532.712 .1282718
533.532 .1306705
534.350 .1317273
535.168 .1313643
535.986 .1296219
536.802 .1266552
537.618 .1226613
538.434 .1177865
539.249 .1124591
540.063 .1068190
540.876 .1011100
541.689 .0955362
542.501 .0902272
543.313 .0853103
544.124 .0808389
544.934 .0767620
545.744 .0730343
546.553 .0696384
547.361 .0665838
548.169 .0638497
548.976 .0613956
549.783 .0592012
550.589 .0572070
551.395 .0553798
552.200 .0537255
553.004 .0522110
553.808 .0507957
554.611 .0494984
555.414 .0483023
556.216 .0472155
557.018 .0462385
557.819 .0453739
558.619 .0445973
559.419 .0439163
560.218 .0433117
561.017 .0427505
561.815 .0422287
562.613 .0417331
563.410 .0412379
564.207 .0407495
565.003 .0402782
565.799 .0398142
566.594 .0393613
567.388 .0389420
568.182 .0385421
568.976 .0381613
569.769 .0377949
570.562 .0374328
571.354 .0370714
572.145 .0367142
572.936 .0363495
573.727 .0359784
574.517 .0356067
575.307 .0352357
576.096 .0348675
576.885 .0345118
577.673 .0341730
578.461 .0338491
579.248 .0335406
580.035 .0332474
580.821 .0329669
581.607 .0327035
582.392 .0324527
583.177 .0322157
583.962 .0319936
584.746 .0317886
585.529 .0315992
586.313 .0314266
587.095 .0312690
587.878 .0311266
588.660 .0309972
589.441 .0308794
590.222 .0307700
591.003 .0306710
591.783 .0305808
592.563 .0304996
593.342 .0304275
594.121 .0303627
594.899 .0303042
595.678 .0302513
596.455 .0302026
597.233 .0301575
598.009 .0301142
598.786 .0300731
599.562 .0300339
600.338 .0299990
601.113 .0299680
601.888 .0299400
602.663 .0299163
603.437 .0298959
604.211 .0298769
604.984 .0298587
605.757 .0298399
606.530 .0298206
607.302 .0298011
608.074 .0297817
608.845 .0297634
609.616 .0297470
610.387 .0297332
611.158 .0297213
611.928 .0297104
612.697 .0297005
613.467 .0296897
614.236 .0296783
615.004 .0296655
615.773 .0296518
616.541 .0296377
617.308 .0296236
618.076 .0296097
618.843 .0295966
619.609 .0295836
620.375 .0295707
621.141 .0295570
621.907 .0295423
622.672 .0295266
623.437 .0295091
624.202 .0294907
624.966 .0294724
625.730 .0294539
626.493 .0294354
627.257 .0294163
628.020 .0293970
628.782 .0293761
629.545 .0293536
630.307 .0293288
631.068 .0293024
631.830 .0292750
632.591 .0292469
633.352 .0292182
634.112 .0291900
634.872 .0291628
635.632 .0291356
636.392 .0291088
637.151 .0290820
637.910 .0290537
638.668 .0290244
639.427 .0289934
640.185 .0289617
640.943 .0289296
641.700 .0288984
642.457 .0288682
643.214 .0288399
643.971 .0288131
644.727 .0287871
645.483 .0287621
646.239 .0287382
646.994 .0287145
647.750 .0286905
648.505 .0286680
649.259 .0286471
650.014 .0286289
650.768 .0286138
651.521 .0286020
652.275 .0285939
653.028 .0285881
653.781 .0285837
654.534 .0285803
655.286 .0285777
656.039 .0285756
656.791 .0285734
657.542 .0285708
658.294 .0285681
659.045 .0285652
659.796 .0285613
660.546 .0285568
661.297 .0285509
662.047 .0285435
662.796 .0285339
663.546 .0285227
664.295 .0285100
665.044 .0284964
665.793 .0284833
666.542 .0284709
667.290 .0284592
668.038 .0284482
668.786 .0284379
669.533 .0284277
670.281 .0284181
671.028 .0284089
671.774 .0283998
672.521 .0283920
673.267 .0283852
674.013 .0283798
674.759 .0283754
675.505 .0283723
676.250 .0283692
676.995 .0283652
677.740 .0283597
678.484 .0283518
679.229 .0283421
679.973 .0283308
680.717 .0283180
681.460 .0283042
682.204 .0282907
682.947 .0282776
683.690 .0282649
684.433 .0282525
685.175 .0282399
685.917 .0282268
686.659 .0282120
687.401 .0281955
688.142 .0281773
688.884 .0281579
689.625 .0281379
690.365 .0281172
691.106 .0280965
691.846 .0280758
692.586 .0280546
693.326 .0280326
694.066 .0280097
694.805 .0279850
695.545 .0279582
696.284 .0279296
697.022 .0278994
697.761 .0278679
698.499 .0278356
699.237 .0278036
699.975 .0277718
700.713 .0277416
701.450 .0277122
702.187 .0276840
702.924 .0276572
703.661 .0276313
704.397 .0276057
705.133 .0275807
705.869 .0275569
706.605 .0275340
707.341 .0275126
708.076 .0274933
708.811 .0274755
709.546 .0274596
710.281 .0274449
711.015 .0274314
711.749 .0274181
712.483 .0274049
713.217 .0273910
713.950 .0273768
714.684 .0273626
715.417 .0273484
716.150 .0273346
716.882 .0273220
717.615 .0273104
718.347 .0272995
719.079 .0272897
719.811 .0272807
720.542 .0272717
721.273 .0272630
722.005 .0272538
722.735 .0272441
723.466 .0272342
724.196 .0272246
724.927 .0272151
725.656 .0272063
726.386 .0271981
727.116 .0271907
727.845 .0271843
728.574 .0271791
729.303 .0271742
730.031 .0271701
730.760 .0271666
731.488 .0271631
732.216 .0271601
732.944 .0271578
733.671 .0271563
734.398 .0271562
735.125 .0271573
735.852 .0271595
736.579 .0271627
737.305 .0271672
738.031 .0271720
738.757 .0271771
739.483 .0271815
740.208 .0271852
740.933 .0271879
741.658 .0271899
742.383 .0271908
743.108 .0271907
743.832 .0271899
744.556 .0271879
745.280 .0271846
746.004 .0271802
746.727 .0271741
747.450 .0271674
748.173 .0271592
748.896 .0271501
749.618 .0271398
750.340 .0271292
751.062 .0271178
751.784 .0271062
752.506 .0270941
753.227 .0270817
753.948 .0270686
754.669 .0270552
755.389 .0270410
756.110 .0270261
756.830 .0270110
757.550 .0269953
758.269 .0269791
758.989 .0269629
759.708 .0269456
760.427 .0269282
761.146 .0269098
761.864 .0268905
762.582 .0268695
763.300 .0268472
764.018 .0268234
764.736 .0267981
765.453 .0267714
766.170 .0267441
766.887 .0267160
767.603 .0266882
768.320 .0266603
769.036 .0266320
769.751 .0266045
770.467 .0265772
771.182 .0265498
771.897 .0265227
772.612 .0264958
773.327 .0264695
774.041 .0264435
774.755 .0264183
775.469 .0263941
776.183 .0263713
776.896 .0263499
777.609 .0263294
778.322 .0263102
779.035 .0262920
779.747 .0262742
780.459 .0262569
781.171 .0262398
781.882 .0262227
782.594 .0262059
783.305 .0261897
784.016 .0261742
784.726 .0261599
785.436 .0261467
786.147 .0261346
786.856 .0261241
787.566 .0261141
788.275 .0261044
788.984 .0260949
789.693 .0260856
790.401 .0260762
791.110 .0260663
791.818 .0260566
792.525 .0260469
793.233 .0260379
793.940 .0260294
794.647 .0260216
795.353 .0260149
796.060 .0260087
796.766 .0260026
797.472 .0259964
798.177 .0259901
798.883 .0259835
799.588 .0259765
800.292 .0259698
800.997 .0259634
801.701 .0259580
802.405 .0259541
803.109 .0259524
803.812 .0259529
804.515 .0259554
805.218 .0259595
805.921 .0259641
806.623 .0259689
807.325 .0259731
808.027 .0259763
808.728 .0259787
809.429 .0259802
810.130 .0259810
810.831 .0259815
811.531 .0259822
812.231 .0259830
812.931 .0259836
813.630 .0259839
814.330 .0259829
815.029 .0259806
815.727 .0259770
816.426 .0259726
817.124 .0259674
817.821 .0259628
818.519 .0259590
819.216 .0259560
819.913 .0259546
820.609 .0259547
821.306 .0259565
822.002 .0259601
822.697 .0259651
823.393 .0259718
824.088 .0259797
824.783 .0259885
825.477 .0259974
826.171 .0260064
826.865 .0260155
827.559 .0260237
828.252 .0260307
828.945 .0260368
829.638 .0260419
830.330 .0260461
831.023 .0260493
831.714 .0260517
832.406 .0260536
833.097 .0260542
833.788 .0260532
834.479 .0260508
835.169 .0260471
835.859 .0260424
836.548 .0260365
837.238 .0260294
837.927 .0260216
838.615 .0260126
839.304 .0260031
839.992 .0259928
840.680 .0259823
841.367 .0259711
842.054 .0259596
842.741 .0259482
843.428 .0259366
844.114 .0259249
844.800 .0259129
845.485 .0258999
846.170 .0258858
846.855 .0258695
847.540 .0258510
848.224 .0258308
848.908 .0258099
849.592 .0257881
850.275 .0257661
850.958 .0257442
851.641 .0257224
852.323 .0256997
853.005 .0256757
853.687 .0256495
854.368 .0256208
855.049 .0255895
855.730 .0255559
856.410 .0255205
857.090 .0254847
857.769 .0254491
858.449 .0254145
859.128 .0253809
859.806 .0253486
860.485 .0253168
861.163 .0252855
861.840 .0252546
862.518 .0252236
863.195 .0251925
863.871 .0251622
864.548 .0251327
865.224 .0251044
865.899 .0250776
866.574 .0250526
867.249 .0250287
867.924 .0250065
868.598 .0249846
869.272 .0249632
869.946 .0249423
870.619 .0249214
871.292 .0249005
871.964 .0248798
872.636 .0248593
873.308 .0248388
873.979 .0248184
874.651 .0247988
875.321 .0247789
875.992 .0247597
876.662 .0247409
877.331 .0247223
878.001 .0247043
878.670 .0246871
879.338 .0246704
880.007 .0246550
880.675 .0246409
881.342 .0246272
882.009 .0246142
882.676 .0246023
883.343 .0245906
884.009 .0245797
884.675 .0245695
885.340 .0245599
886.005 .0245509
886.670 .0245431
887.334 .0245360
887.998 .0245302
888.662 .0245264
889.325 .0245237
889.988 .0245218
890.650 .0245212
891.312 .0245215
891.974 .0245228
892.636 .0245253
893.297 .0245292
893.957 .0245343
894.618 .0245409
895.278 .0245487
895.937 .0245576
896.596 .0245684
897.255 .0245804
897.914 .0245929
898.572 .0246062
899.230 .0246197
899.887 .0246330
900.544 .0246461
901.201 .0246590
901.857 .0246713
902.513 .0246830
903.168 .0246941
903.823 .0247044
904.478 .0247139
905.132 .0247224
905.786 .0247299
906.440 .0247361
907.093 .0247414
907.746 .0247454
908.399 .0247481
909.051 .0247501
909.703 .0247511
910.354 .0247511
911.005 .0247502
911.656 .0247491
912.306 .0247474
912.956 .0247454
913.605 .0247432
914.254 .0247408
914.903 .0247387
915.551 .0247373
916.199 .0247369
916.847 .0247377
917.494 .0247398
918.141 .0247430
918.788 .0247472
919.434 .0247521
920.079 .0247574
920.725 .0247631
921.370 .0247687
922.014 .0247743
922.658 .0247796
923.302 .0247845
923.946 .0247891
924.589 .0247934
925.231 .0247966
925.873 .0247988
926.515 .0247994
927.157 .0247984
927.798 .0247958
928.439 .0247917
929.079 .0247865
929.719 .0247799
930.359 .0247727
930.998 .0247650
931.637 .0247567
932.275 .0247489
932.913 .0247408
933.551 .0247327
934.188 .0247249
934.825 .0247172
935.462 .0247098
936.098 .0247029
936.733 .0246969
937.369 .0246916
938.004 .0246871
938.638 .0246835
939.273 .0246806
939.907 .0246783
940.540 .0246762
941.173 .0246737
941.806 .0246713
942.438 .0246684
943.070 .0246649
943.702 .0246611
944.333 .0246570
944.964 .0246520
945.594 .0246464
946.224 .0246400
946.854 .0246330
947.483 .0246254
948.112 .0246170
948.741 .0246078
949.369 .0245982
949.996 .0245880
950.624 .0245770
951.251 .0245657
951.878 .0245541
952.504 .0245416
953.130 .0245284
953.755 .0245140
954.380 .0244987
955.005 .0244824
955.629 .0244658
956.253 .0244488
956.877 .0244316
957.500 .0244140
958.123 .0243960
958.746 .0243773
959.368 .0243574
959.990 .0243357
960.611 .0243121
961.232 .0242868
961.853 .0242602
962.473 .0242330
963.093 .0242059
963.712 .0241794
964.331 .0241535
964.950 .0241284
965.569 .0241042
966.187 .0240805
966.804 .0240572
967.422 .0240339
968.039 .0240107
968.655 .0239871
969.272 .0239630
969.887 .0239388
970.503 .0239146
971.118 .0238905
971.733 .0238665
972.347 .0238424
972.961 .0238179
973.575 .0237934
974.188 .0237685
974.801 .0237430
975.414 .0237163
976.026 .0236882
976.638 .0236584
977.250 .0236270
977.861 .0235943
978.472 .0235604
979.083 .0235258
979.693 .0234916
980.303 .0234575
980.912 .0234239
981.521 .0233908
982.130 .0233589
982.738 .0233278
983.346 .0232975
983.954 .0232675
984.562 .0232375
985.169 .0232080
985.775 .0231789
986.382 .0231505
986.988 .0231227
987.594 .0230962
988.199 .0230711
988.804 .0230478
989.409 .0230263
990.013 .0230067
990.617 .0229890
991.221 .0229732
991.824 .0229586
992.427 .0229451
993.030 .0229318
993.632 .0229197
994.234 .0229085
994.836 .0228986
995.438 .0228902
996.039 .0228832
996.640 .0228775
997.240 .0228734
997.840 .0228703
998.440 .0228677
999.040 .0228649
999.639 .0228623
1000.238 .0228582
1000.836 .0228531
1001.435 .0228473
1002.033 .0228413
1002.630 .0228350
1003.228 .0228294
1003.825 .0228246
1004.422 .0228207
1005.018 .0228182
1005.614 .0228163
1006.210 .0228154
1006.806 .0228154
1007.401 .0228154
1007.996 .0228152
1008.591 .0228155
1009.186 .0228170
1009.780 .0228192
1010.374 .0228232
1010.967 .0228290
1011.561 .0228366
1012.154 .0228458
1012.746 .0228559
1013.339 .0228668
1013.931 .0228770
1014.523 .0228865
1015.115 .0228948
1015.706 .0229027
1016.298 .0229102
1016.888 .0229177
1017.479 .0229267
1018.069 .0229375
1018.660 .0229494
1019.250 .0229627
1019.839 .0229772
1020.429 .0229926
1021.018 .0230082
1021.607 .0230235
1022.195 .0230387
1022.784 .0230548
1023.372 .0230718
1023.960 .0230907
1024.547 .0231117
1025.135 .0231355
1025.722 .0231609
1026.309 .0231883
1026.896 .0232173
1027.483 .0232463
1028.069 .0232751
1028.655 .0233043
1029.241 .0233327
1029.827 .0233610
1030.412 .0233892
1030.997 .0234183
1031.582 .0234482
1032.167 .0234783
1032.752 .0235077
1033.336 .0235368
1033.921 .0235655
1034.505 .0235931
1035.089 .0236188
1035.672 .0236442
1036.256 .0236690
1036.839 .0236930
1037.422 .0237161
1038.005 .0237390
1038.588 .0237609
1039.171 .0237828
1039.753 .0238044
1040.335 .0238261
1040.918 .0238476
1041.500 .0238690
1042.081 .0238913
1042.663 .0239137
1043.244 .0239365
1043.826 .0239596
1044.407 .0239826
1044.988 .0240057
1045.569 .0240276
1046.150 .0240475
1046.730 .0240658
1047.311 .0240833
1047.891 .0240997
1048.471 .0241153
1049.052 .0241317
1049.632 .0241484
1050.211 .0241663
1050.791 .0241853
1051.371 .0242057
1051.950 .0242263
1052.530 .0242466
1053.109 .0242656
1053.688 .0242819
1054.268 .0242960
1054.847 .0243077
1055.426 .0243175
1056.005 .0243273
1056.583 .0243372
1057.162 .0243483
1057.741 .0243617
1058.319 .0243786
1058.898 .0243982
1059.476 .0244203
1060.055 .0244434
1060.633 .0244664
1061.211 .0244888
1061.790 .0245087
1062.368 .0245272
1062.946 .0245440
1063.524 .0245600
1064.102 .0245750
1064.680 .0245906
1065.258 .0246066
1065.836 .0246223
1066.414 .0246386
1066.992 .0246547
1067.570 .0246699
1068.148 .0246846
1068.726 .0246962
1069.304 .0247049
1069.882 .0247120
1070.460 .0247174
1071.038 .0247196
1071.616 .0247209
1072.194 .0247217
1072.772 .0247221
1073.350 .0247227
1073.928 .0247249
1074.506 .0247276
1075.084 .0247330
1075.662 .0247401
1076.240 .0247474
1076.819 .0247541
1077.397 .0247598
1077.976 .0247623
1078.554 .0247619
1079.133 .0247588
1079.711 .0247528
1080.290 .0247445
1080.869 .0247357
1081.448 .0247278
1082.027 .0247209
1082.606 .0247169
1083.185 .0247171
1083.764 .0247207
1084.343 .0247272
1084.923 .0247347
1085.502 .0247425
1086.082 .0247503
1086.662 .0247598
1087.242 .0247689
1087.822 .0247765
1088.402 .0247851
1088.983 .0247942
1089.563 .0248040
1090.144 .0248152
1090.725 .0248296
1091.306 .0248447
1091.887 .0248613
1092.469 .0248776
1093.050 .0248920
1093.632 .0249057
1094.214 .0249180
1094.796 .0249282
1095.379 .0249384
1095.961 .0249484
1096.544 .0249562
1097.127 .0249625
1097.710 .0249708
1098.294 .0249778
1098.877 .0249835
1099.461 .0249881
1100.046 .0249929
1100.630 .0249971
1101.215 .0250013
1101.800 .0250037
1102.385 .0250056
1102.970 .0250057
1103.556 .0250042
1104.142 .0249998
1104.728 .0249934
1105.315 .0249852
1105.902 .0249764
1106.489 .0249670
1107.077 .0249590
1107.664 .0249517
1108.253 .0249467
1108.841 .0249424
1109.430 .0249379
1110.019 .0249272
1110.609 .0249127
1111.198 .0248948
1111.789 .0248749
1112.379 .0248537
1112.970 .0248351
1113.561 .0248181
1114.153 .0248076
1114.745 .0248045
1115.338 .0248085
1115.931 .0248198
1116.524 .0248384
1117.117 .0248602
1117.712 .0248857
1118.306 .0249132
1118.901 .0249451
1119.496 .0249800
1120.092 .0250215
1120.689 .0250630
1121.285 .0251045
1121.882 .0251461
1122.480 .0251860
1123.078 .0252255
1123.677 .0252642
1124.276 .0252989
1124.875 .0253311
1125.476 .0253592
1126.076 .0253848
1126.677 .0254084
1127.279 .0254322
1127.881 .0254531
1128.484 .0254732
1129.087 .0254941
1129.691 .0255182
1130.295 .0255466
1130.900 .0255857
1131.505 .0256361
1132.111 .0257011
1132.718 .0257771
1133.325 .0258605
1133.933 .0259510
1134.541 .0260491
1135.150 .0261443
1135.760 .0262391
1136.370 .0263319
1136.981 .0264270
1137.592 .0265210
1138.204 .0266249
1138.817 .0267312
1139.431 .0268461
1140.045 .0269615
1140.660 .0270763
1141.275 .0271818
1141.891 .0273078
1142.508 .0274766
1143.126 .0274369
1143.744 .0275438
1144.363 .0275332
1144.983 .0283419
