Measurement Sequence started on: 15-12-46-377
Integration time: 28
Scans to Average: 2 
>>>>>Begin Spectral Data<<<<<
432.689 .0000100
433.621 .0000100
434.552 .0000100
435.482 .0000100
436.410 .0000100
437.337 .0000100
438.262 .0262930
439.187 .0556178
440.110 .0920904
441.031 .1330975
441.952 .1728227
442.871 .2038918
443.789 .2206620
444.705 .2212208
445.621 .2079978
446.535 .1863085
447.447 .1618971
448.359 .1248153
449.269 .1064895
450.178 .0949187
451.086 .0868457
451.993 .0806876
452.898 .0758622
453.803 .0719173
454.706 .0686536
455.608 .0659115
456.508 .0635650
457.408 .0615465
458.306 .0597799
459.204 .0582164
460.100 .0568114
460.995 .0555606
461.888 .0544226
462.781 .0533765
463.673 .0523905
464.563 .0514708
465.452 .0505962
466.340 .0497554
467.228 .0489697
468.114 .0482323
468.999 .0475658
469.882 .0469511
470.765 .0463831
471.647 .0458768
472.528 .0454167
473.407 .0450033
474.286 .0446295
475.163 .0442984
476.040 .0440089
476.915 .0437622
477.790 .0435540
478.663 .0433907
479.535 .0432659
480.407 .0431778
481.277 .0431104
482.147 .0430633
483.015 .0430277
483.883 .0429952
484.749 .0429664
485.615 .0429449
486.479 .0429209
487.343 .0429097
488.206 .0429108
489.067 .0429298
489.928 .0429613
490.788 .0430132
491.647 .0430836
492.505 .0431756
493.362 .0432840
494.218 .0434091
495.073 .0435402
495.928 .0436927
496.781 .0438556
497.634 .0440328
498.486 .0442311
499.337 .0444532
500.187 .0446924
501.036 .0449626
501.884 .0452559
502.731 .0455734
503.578 .0459115
504.424 .0462729
505.268 .0466399
506.113 .0470172
506.956 .0474140
507.798 .0478424
508.640 .0483141
509.480 .0488607
510.320 .0494924
511.160 .0502323
511.998 .0510945
512.836 .0520742
513.672 .0531876
514.508 .0544376
515.344 .0558051
516.178 .0573058
517.012 .0589569
517.845 .0607910
518.677 .0628343
519.508 .0651094
520.339 .0676724
521.169 .0705634
521.998 .0737858
522.826 .0774016
523.654 .0814233
524.481 .0858682
525.307 .0907679
526.133 .0960952
526.958 .1017994
527.782 .1078416
528.605 .1141463
529.428 .1205918
530.250 .1267607
531.072 .1324411
531.892 .1373066
532.712 .1410930
533.532 .1435987
534.350 .1445951
535.168 .1440288
535.986 .1419634
536.802 .1385097
537.618 .1338787
538.434 .1282717
539.249 .1221085
540.063 .1155827
540.876 .1089301
541.689 .1023760
542.501 .0961145
543.313 .0903127
544.124 .0850469
544.934 .0803229
545.744 .0760994
546.553 .0723395
547.361 .0690510
548.169 .0661707
548.976 .0636206
549.783 .0613706
550.589 .0593830
551.395 .0575958
552.200 .0560025
553.004 .0545729
553.808 .0532719
554.611 .0521131
555.414 .0510900
556.216 .0501545
557.018 .0493105
557.819 .0485412
558.619 .0478160
559.419 .0471345
560.218 .0464870
561.017 .0458504
561.815 .0452275
562.613 .0446206
563.410 .0440099
564.207 .0433915
565.003 .0427892
565.799 .0421906
566.594 .0415960
567.388 .0410233
568.182 .0404663
568.976 .0399215
569.769 .0394037
570.562 .0389044
571.354 .0384202
572.145 .0379529
572.936 .0374961
573.727 .0370419
574.517 .0366016
575.307 .0361748
576.096 .0357653
576.885 .0353765
577.673 .0350165
578.461 .0346779
579.248 .0343672
580.035 .0340811
580.821 .0338158
581.607 .0335668
582.392 .0333354
583.177 .0331174
583.962 .0329182
584.746 .0327371
585.529 .0325745
586.313 .0324301
587.095 .0323051
587.878 .0321926
588.660 .0320898
589.441 .0319949
590.222 .0319067
591.003 .0318240
591.783 .0317457
592.563 .0316722
593.342 .0316040
594.121 .0315418
594.899 .0314855
595.678 .0314348
596.455 .0313902
597.233 .0313502
598.009 .0313139
598.786 .0312820
599.562 .0312540
600.338 .0312294
601.113 .0312072
601.888 .0311874
602.663 .0311682
603.437 .0311485
604.211 .0311274
604.984 .0311049
605.757 .0310809
606.530 .0310560
607.302 .0310300
608.074 .0310040
608.845 .0309782
609.616 .0309516
610.387 .0309257
611.158 .0308996
611.928 .0308731
612.697 .0308469
613.467 .0308205
614.236 .0307946
615.004 .0307692
615.773 .0307445
616.541 .0307207
617.308 .0306976
618.076 .0306750
618.843 .0306514
619.609 .0306277
620.375 .0306034
621.141 .0305782
621.907 .0305534
622.672 .0305283
623.437 .0305017
624.202 .0304745
624.966 .0304456
625.730 .0304136
626.493 .0303791
627.257 .0303424
628.020 .0303040
628.782 .0302650
629.545 .0302261
630.307 .0301885
631.068 .0301540
631.830 .0301224
632.591 .0300924
633.352 .0300646
634.112 .0300377
634.872 .0300102
635.632 .0299822
636.392 .0299538
637.151 .0299249
637.910 .0298966
638.668 .0298694
639.427 .0298440
640.185 .0298212
640.943 .0298011
641.700 .0297829
642.457 .0297675
643.214 .0297534
643.971 .0297390
644.727 .0297251
645.483 .0297117
646.239 .0296985
646.994 .0296860
647.750 .0296749
648.505 .0296664
649.259 .0296603
650.014 .0296567
650.768 .0296545
651.521 .0296539
652.275 .0296538
653.028 .0296526
653.781 .0296500
654.534 .0296466
655.286 .0296416
656.039 .0296352
656.791 .0296280
657.542 .0296196
658.294 .0296104
659.045 .0296008
659.796 .0295904
660.546 .0295794
661.297 .0295673
662.047 .0295543
662.796 .0295400
663.546 .0295248
664.295 .0295084
665.044 .0294913
665.793 .0294739
666.542 .0294556
667.290 .0294360
668.038 .0294159
668.786 .0293950
669.533 .0293737
670.281 .0293523
671.028 .0293306
671.774 .0293084
672.521 .0292862
673.267 .0292636
674.013 .0292411
674.759 .0292182
675.505 .0291949
676.250 .0291711
676.995 .0291468
677.740 .0291217
678.484 .0290962
679.229 .0290711
679.973 .0290464
680.717 .0290218
681.460 .0289977
682.204 .0289740
682.947 .0289508
683.690 .0289287
684.433 .0289070
685.175 .0288860
685.917 .0288656
686.659 .0288448
687.401 .0288236
688.142 .0288024
688.884 .0287805
689.625 .0287582
690.365 .0287357
691.106 .0287127
691.846 .0286896
692.586 .0286667
693.326 .0286439
694.066 .0286213
694.805 .0285990
695.545 .0285766
696.284 .0285538
697.022 .0285315
697.761 .0285092
698.499 .0284870
699.237 .0284661
699.975 .0284464
700.713 .0284284
701.450 .0284127
702.187 .0283993
702.924 .0283881
703.661 .0283793
704.397 .0283719
705.133 .0283658
705.869 .0283611
706.605 .0283576
707.341 .0283547
708.076 .0283526
708.811 .0283511
709.546 .0283494
710.281 .0283475
711.015 .0283451
711.749 .0283411
712.483 .0283360
713.217 .0283290
713.950 .0283206
714.684 .0283110
715.417 .0283004
716.150 .0282891
716.882 .0282779
717.615 .0282669
718.347 .0282561
719.079 .0282455
719.811 .0282356
720.542 .0282264
721.273 .0282179
722.005 .0282104
722.735 .0282040
723.466 .0281985
724.196 .0281948
724.927 .0281919
725.656 .0281902
726.386 .0281889
727.116 .0281876
727.845 .0281857
728.574 .0281824
729.303 .0281777
730.031 .0281712
730.760 .0281635
731.488 .0281546
732.216 .0281445
732.944 .0281340
733.671 .0281227
734.398 .0281110
735.125 .0280986
735.852 .0280859
736.579 .0280723
737.305 .0280585
738.031 .0280441
738.757 .0280296
739.483 .0280150
740.208 .0280005
740.933 .0279863
741.658 .0279723
742.383 .0279586
743.108 .0279444
743.832 .0279299
744.556 .0279151
745.280 .0278996
746.004 .0278839
746.727 .0278672
747.450 .0278500
748.173 .0278318
748.896 .0278126
749.618 .0277924
750.340 .0277711
751.062 .0277496
751.784 .0277276
752.506 .0277053
753.227 .0276833
753.948 .0276614
754.669 .0276397
755.389 .0276177
756.110 .0275948
756.830 .0275708
757.550 .0275450
758.269 .0275173
758.989 .0274878
759.708 .0274571
760.427 .0274258
761.146 .0273940
761.864 .0273623
762.582 .0273310
763.300 .0272996
764.018 .0272683
764.736 .0272370
765.453 .0272057
766.170 .0271749
766.887 .0271444
767.603 .0271152
768.320 .0270882
769.036 .0270637
769.751 .0270419
770.467 .0270231
771.182 .0270069
771.897 .0269925
772.612 .0269790
773.327 .0269669
774.041 .0269552
774.755 .0269442
775.469 .0269339
776.183 .0269243
776.896 .0269156
777.609 .0269077
778.322 .0269003
779.035 .0268939
779.747 .0268880
780.459 .0268826
781.171 .0268775
781.882 .0268735
782.594 .0268703
783.305 .0268683
784.016 .0268683
784.726 .0268704
785.436 .0268739
786.147 .0268783
786.856 .0268835
787.566 .0268893
788.275 .0268951
788.984 .0269013
789.693 .0269073
790.401 .0269138
791.110 .0269203
791.818 .0269268
792.525 .0269334
793.233 .0269402
793.940 .0269464
794.647 .0269520
795.353 .0269568
796.060 .0269608
796.766 .0269639
797.472 .0269666
798.177 .0269692
798.883 .0269719
799.588 .0269746
800.292 .0269778
800.997 .0269814
801.701 .0269854
802.405 .0269890
803.109 .0269925
803.812 .0269959
804.515 .0269981
805.218 .0269993
805.921 .0269996
806.623 .0269993
807.325 .0269987
808.027 .0269979
808.728 .0269971
809.429 .0269960
810.130 .0269944
810.831 .0269922
811.531 .0269884
812.231 .0269832
812.931 .0269759
813.630 .0269669
814.330 .0269564
815.029 .0269448
815.727 .0269323
816.426 .0269203
817.124 .0269088
817.821 .0268975
818.519 .0268863
819.216 .0268755
819.913 .0268644
820.609 .0268529
821.306 .0268407
822.002 .0268284
822.697 .0268158
823.393 .0268041
824.088 .0267925
824.783 .0267816
825.477 .0267712
826.171 .0267608
826.865 .0267502
827.559 .0267391
828.252 .0267270
828.945 .0267139
829.638 .0266999
830.330 .0266849
831.023 .0266687
831.714 .0266515
832.406 .0266332
833.097 .0266143
833.788 .0265944
834.479 .0265738
835.169 .0265529
835.859 .0265325
836.548 .0265120
837.238 .0264921
837.927 .0264728
838.615 .0264538
839.304 .0264349
839.992 .0264158
840.680 .0263959
841.367 .0263751
842.054 .0263537
842.741 .0263316
843.428 .0263092
844.114 .0262872
844.800 .0262650
845.485 .0262428
846.170 .0262205
846.855 .0261975
847.540 .0261730
848.224 .0261474
848.908 .0261208
849.592 .0260930
850.275 .0260649
850.958 .0260366
851.641 .0260083
852.323 .0259804
853.005 .0259531
853.687 .0259256
854.368 .0258980
855.049 .0258704
855.730 .0258430
856.410 .0258155
857.090 .0257885
857.769 .0257619
858.449 .0257364
859.128 .0257117
859.806 .0256877
860.485 .0256641
861.163 .0256411
861.840 .0256184
862.518 .0255957
863.195 .0255730
863.871 .0255508
864.548 .0255286
865.224 .0255074
865.899 .0254872
866.574 .0254686
867.249 .0254512
867.924 .0254359
868.598 .0254220
869.272 .0254101
869.946 .0253995
870.619 .0253902
871.292 .0253822
871.964 .0253756
872.636 .0253698
873.308 .0253649
873.979 .0253611
874.651 .0253586
875.321 .0253568
875.992 .0253560
876.662 .0253556
877.331 .0253558
878.001 .0253561
878.670 .0253560
879.338 .0253555
880.007 .0253550
880.675 .0253549
881.342 .0253557
882.009 .0253575
882.676 .0253613
883.343 .0253668
884.009 .0253740
884.675 .0253829
885.340 .0253934
886.005 .0254048
886.670 .0254174
887.334 .0254307
887.998 .0254452
888.662 .0254604
889.325 .0254766
889.988 .0254936
890.650 .0255113
891.312 .0255293
891.974 .0255471
892.636 .0255646
893.297 .0255821
893.957 .0255989
894.618 .0256153
895.278 .0256315
895.937 .0256480
896.596 .0256646
897.255 .0256813
897.914 .0256983
898.572 .0257156
899.230 .0257326
899.887 .0257491
900.544 .0257647
901.201 .0257799
901.857 .0257943
902.513 .0258077
903.168 .0258201
903.823 .0258315
904.478 .0258418
905.132 .0258506
905.786 .0258577
906.440 .0258631
907.093 .0258664
907.746 .0258682
908.399 .0258684
909.051 .0258674
909.703 .0258651
910.354 .0258615
911.005 .0258571
911.656 .0258515
912.306 .0258447
912.956 .0258369
913.605 .0258284
914.254 .0258195
914.903 .0258099
915.551 .0257999
916.199 .0257903
916.847 .0257811
917.494 .0257721
918.141 .0257628
918.788 .0257529
919.434 .0257428
920.079 .0257319
920.725 .0257203
921.370 .0257085
922.014 .0256963
922.658 .0256837
923.302 .0256708
923.946 .0256571
924.589 .0256421
925.231 .0256256
925.873 .0256074
926.515 .0255872
927.157 .0255649
927.798 .0255409
928.439 .0255158
929.079 .0254902
929.719 .0254645
930.359 .0254385
930.998 .0254126
931.637 .0253868
932.275 .0253611
932.913 .0253351
933.551 .0253091
934.188 .0252832
934.825 .0252579
935.462 .0252332
936.098 .0252098
936.733 .0251878
937.369 .0251675
938.004 .0251488
938.638 .0251311
939.273 .0251134
939.907 .0250957
940.540 .0250771
941.173 .0250574
941.806 .0250362
942.438 .0250139
943.070 .0249905
943.702 .0249666
944.333 .0249425
944.964 .0249183
945.594 .0248943
946.224 .0248706
946.854 .0248468
947.483 .0248233
948.112 .0247993
948.741 .0247750
949.369 .0247504
949.996 .0247258
950.624 .0247012
951.251 .0246765
951.878 .0246523
952.504 .0246283
953.130 .0246038
953.755 .0245788
954.380 .0245532
955.005 .0245271
955.629 .0245003
956.253 .0244730
956.877 .0244460
957.500 .0244191
958.123 .0243929
958.746 .0243670
959.368 .0243414
959.990 .0243159
960.611 .0242898
961.232 .0242629
961.853 .0242361
962.473 .0242094
963.093 .0241834
963.712 .0241586
964.331 .0241354
964.950 .0241139
965.569 .0240944
966.187 .0240765
966.804 .0240600
967.422 .0240439
968.039 .0240280
968.655 .0240109
969.272 .0239929
969.887 .0239735
970.503 .0239527
971.118 .0239314
971.733 .0239098
972.347 .0238882
972.961 .0238670
973.575 .0238467
974.188 .0238269
974.801 .0238074
975.414 .0237877
976.026 .0237670
976.638 .0237449
977.250 .0237215
977.861 .0236970
978.472 .0236722
979.083 .0236475
979.693 .0236232
980.303 .0235998
980.912 .0235780
981.521 .0235574
982.130 .0235382
982.738 .0235203
983.346 .0235032
983.954 .0234867
984.562 .0234708
985.169 .0234555
985.775 .0234412
986.382 .0234279
986.988 .0234158
987.594 .0234048
988.199 .0233951
988.804 .0233867
989.409 .0233800
990.013 .0233754
990.617 .0233726
991.221 .0233717
991.824 .0233722
992.427 .0233746
993.030 .0233783
993.632 .0233830
994.234 .0233888
994.836 .0233958
995.438 .0234033
996.039 .0234118
996.640 .0234210
997.240 .0234315
997.840 .0234436
998.440 .0234576
999.040 .0234724
999.639 .0234888
1000.238 .0235056
1000.836 .0235224
1001.435 .0235392
1002.033 .0235561
1002.630 .0235721
1003.228 .0235877
1003.825 .0236034
1004.422 .0236194
1005.018 .0236355
1005.614 .0236525
1006.210 .0236694
1006.806 .0236866
1007.401 .0237035
1007.996 .0237188
1008.591 .0237328
1009.186 .0237462
1009.780 .0237589
1010.374 .0237711
1010.967 .0237841
1011.561 .0237980
1012.154 .0238128
1012.746 .0238291
1013.339 .0238466
1013.931 .0238648
1014.523 .0238838
1015.115 .0239029
1015.706 .0239222
1016.298 .0239419
1016.888 .0239623
1017.479 .0239832
1018.069 .0240054
1018.660 .0240286
1019.250 .0240526
1019.839 .0240771
1020.429 .0241029
1021.018 .0241295
1021.607 .0241567
1022.195 .0241843
1022.784 .0242120
1023.372 .0242392
1023.960 .0242660
1024.547 .0242922
1025.135 .0243183
1025.722 .0243445
1026.309 .0243719
1026.896 .0244003
1027.483 .0244310
1028.069 .0244643
1028.655 .0244998
1029.241 .0245362
1029.827 .0245731
1030.412 .0246093
1030.997 .0246440
1031.582 .0246767
1032.167 .0247080
1032.752 .0247383
1033.336 .0247684
1033.921 .0247987
1034.505 .0248287
1035.089 .0248587
1035.672 .0248889
1036.256 .0249169
1036.839 .0249422
1037.422 .0249637
1038.005 .0249818
1038.588 .0249965
1039.171 .0250086
1039.753 .0250190
1040.335 .0250280
1040.918 .0250365
1041.500 .0250443
1042.081 .0250510
1042.663 .0250571
1043.244 .0250623
1043.826 .0250665
1044.407 .0250704
1044.988 .0250750
1045.569 .0250792
1046.150 .0250840
1046.730 .0250894
1047.311 .0250948
1047.891 .0250997
1048.471 .0251035
1049.052 .0251068
1049.632 .0251095
1050.211 .0251131
1050.791 .0251168
1051.371 .0251219
1051.950 .0251295
1052.530 .0251384
1053.109 .0251486
1053.688 .0251597
1054.268 .0251704
1054.847 .0251795
1055.426 .0251869
1056.005 .0251932
1056.583 .0251977
1057.162 .0252027
1057.741 .0252069
1058.319 .0252124
1058.898 .0252183
1059.476 .0252243
1060.055 .0252291
1060.633 .0252330
1061.211 .0252343
1061.790 .0252321
1062.368 .0252268
1062.946 .0252186
1063.524 .0252087
1064.102 .0251990
1064.680 .0251892
1065.258 .0251811
1065.836 .0251744
1066.414 .0251700
1066.992 .0251655
1067.570 .0251620
1068.148 .0251566
1068.726 .0251498
1069.304 .0251420
1069.882 .0251326
1070.460 .0251223
1071.038 .0251118
1071.616 .0251020
1072.194 .0250927
1072.772 .0250840
1073.350 .0250754
1073.928 .0250660
1074.506 .0250562
1075.084 .0250443
1075.662 .0250290
1076.240 .0250113
1076.819 .0249921
1077.397 .0249726
1077.976 .0249532
1078.554 .0249356
1079.133 .0249202
1079.711 .0249083
1080.290 .0248992
1080.869 .0248935
1081.448 .0248899
1082.027 .0248874
1082.606 .0248847
1083.185 .0248819
1083.764 .0248778
1084.343 .0248729
1084.923 .0248673
1085.502 .0248631
1086.082 .0248592
1086.662 .0248560
1087.242 .0248540
1087.822 .0248536
1088.402 .0248551
1088.983 .0248571
1089.563 .0248596
1090.144 .0248630
1090.725 .0248666
1091.306 .0248690
1091.887 .0248708
1092.469 .0248723
1093.050 .0248708
1093.632 .0248667
1094.214 .0248607
1094.796 .0248520
1095.379 .0248406
1095.961 .0248266
1096.544 .0248108
1097.127 .0247928
1097.710 .0247740
1098.294 .0247535
1098.877 .0247329
1099.461 .0247141
1100.046 .0246951
1100.630 .0246773
1101.215 .0246616
1101.800 .0246468
1102.385 .0246329
1102.970 .0246218
1103.556 .0246129
1104.142 .0246061
1104.728 .0246028
1105.315 .0246045
1105.902 .0246097
1106.489 .0246196
1107.077 .0246320
1107.664 .0246472
1108.253 .0246643
1108.841 .0246805
1109.430 .0246929
1110.019 .0247044
1110.609 .0247135
1111.198 .0247205
1111.789 .0247269
1112.379 .0247339
1112.970 .0247424
1113.561 .0247531
1114.153 .0247650
1114.745 .0247759
1115.338 .0247861
1115.931 .0247943
1116.524 .0247967
1117.117 .0247953
1117.712 .0247904
1118.306 .0247836
1118.901 .0247790
1119.496 .0247773
1120.092 .0247809
1120.689 .0247903
1121.285 .0248065
1121.882 .0248258
1122.480 .0248519
1123.078 .0248821
1123.677 .0249168
1124.276 .0249547
1124.875 .0249989
1125.476 .0250444
1126.076 .0250933
1126.677 .0251465
1127.279 .0252028
1127.881 .0252596
1128.484 .0253178
1129.087 .0253709
1129.691 .0254247
1130.295 .0254755
1130.900 .0255263
1131.505 .0255758
1132.111 .0256309
1132.718 .0256889
1133.325 .0257505
1133.933 .0258212
1134.541 .0259009
1135.150 .0259854
1135.760 .0260800
1136.370 .0261807
1136.981 .0262908
1137.592 .0264070
1138.204 .0265292
1138.817 .0266613
1139.431 .0268050
1140.045 .0269587
1140.660 .0271154
1141.275 .0272657
1141.891 .0274388
1142.508 .0276885
1143.126 .0278642
1143.744 .0279085
1144.363 .0277301
1144.983 .0286160
