Measurement Sequence started on: 15-12-46-377
Integration time: 28
Scans to Average: 2 
>>>>>Begin Spectral Data<<<<<
432.689 .0000100
433.621 .0000100
434.552 .0000100
435.482 .0000100
436.410 .0000100
437.337 .0000100
438.262 .0293578
439.187 .0621185
440.110 .1027437
441.031 .1484963
441.952 .1928617
442.871 .2276137
443.789 .2464177
444.705 .2471185
445.621 .2324594
446.535 .2082984
447.447 .1810513
448.359 .1395586
449.269 .1189386
450.178 .1058881
451.086 .0966421
451.993 .0895658
452.898 .0840595
453.803 .0796146
454.706 .0759921
455.608 .0729397
456.508 .0703312
457.408 .0680441
458.306 .0660115
459.204 .0641748
460.100 .0625091
460.995 .0610073
461.888 .0596624
462.781 .0584639
463.673 .0574118
464.563 .0564653
465.452 .0555969
466.340 .0547786
467.228 .0540170
468.114 .0532808
468.999 .0525808
469.882 .0519187
470.765 .0513034
471.647 .0507401
472.528 .0502238
473.407 .0497581
474.286 .0493372
475.163 .0489543
476.040 .0485976
476.915 .0482505
477.790 .0479226
478.663 .0476052
479.535 .0473047
480.407 .0470309
481.277 .0467820
482.147 .0465567
483.015 .0463518
483.883 .0461707
484.749 .0460019
485.615 .0458541
486.479 .0457255
487.343 .0456170
488.206 .0455313
489.067 .0454654
489.928 .0454128
490.788 .0453865
491.647 .0453863
492.505 .0454114
493.362 .0454653
494.218 .0455542
495.073 .0456758
495.928 .0458414
496.781 .0460457
497.634 .0462990
498.486 .0465945
499.337 .0469302
500.187 .0472949
501.036 .0476815
501.884 .0480901
502.731 .0485133
503.578 .0489581
504.424 .0494266
505.268 .0499046
506.113 .0504012
506.956 .0509052
507.798 .0514334
508.640 .0519766
509.480 .0525424
510.320 .0531494
511.160 .0538092
511.998 .0545321
512.836 .0553309
513.672 .0562363
514.508 .0572558
515.344 .0584100
516.178 .0597152
517.012 .0612144
517.845 .0629525
518.677 .0649777
519.508 .0673199
520.339 .0700512
521.169 .0732126
521.998 .0767945
522.826 .0808573
523.654 .0853982
524.481 .0903780
525.307 .0958287
526.133 .1017002
526.958 .1079817
527.782 .1145746
528.605 .1214030
529.428 .1283191
530.250 .1348942
531.072 .1408988
531.892 .1459290
532.712 .1497021
533.532 .1520356
534.350 .1526963
535.168 .1516705
535.986 .1490753
536.802 .1451405
537.618 .1401082
538.434 .1342433
539.249 .1279826
540.063 .1214872
540.876 .1149978
541.689 .1086971
542.501 .1026767
543.313 .0970843
544.124 .0919468
544.934 .0872305
545.744 .0829006
546.553 .0789452
547.361 .0753641
548.169 .0721370
548.976 .0692177
549.783 .0665940
550.589 .0642431
551.395 .0621351
552.200 .0602351
553.004 .0585198
553.808 .0569734
554.611 .0556006
555.414 .0543652
556.216 .0532558
557.018 .0522667
557.819 .0513906
558.619 .0505958
559.419 .0498767
560.218 .0492260
561.017 .0486196
561.815 .0480429
562.613 .0474849
563.410 .0469220
564.207 .0463599
565.003 .0457898
565.799 .0452067
566.594 .0446088
567.388 .0440128
568.182 .0434073
568.976 .0428047
569.769 .0422163
570.562 .0416366
571.354 .0410636
572.145 .0405051
572.936 .0399554
573.727 .0394165
574.517 .0388973
575.307 .0384049
576.096 .0379409
576.885 .0375121
577.673 .0371150
578.461 .0367462
579.248 .0364073
580.035 .0360972
580.821 .0358104
581.607 .0355467
582.392 .0352997
583.177 .0350703
583.962 .0348597
584.746 .0346670
585.529 .0344893
586.313 .0343264
587.095 .0341778
587.878 .0340404
588.660 .0339099
589.441 .0337900
590.222 .0336767
591.003 .0335727
591.783 .0334767
592.563 .0333878
593.342 .0333070
594.121 .0332327
594.899 .0331662
595.678 .0331059
596.455 .0330510
597.233 .0330010
598.009 .0329532
598.786 .0329086
599.562 .0328662
600.338 .0328250
601.113 .0327856
601.888 .0327485
602.663 .0327117
603.437 .0326754
604.211 .0326395
604.984 .0326034
605.757 .0325675
606.530 .0325315
607.302 .0324964
608.074 .0324623
608.845 .0324306
609.616 .0324006
610.387 .0323732
611.158 .0323484
611.928 .0323252
612.697 .0323036
613.467 .0322829
614.236 .0322631
615.004 .0322439
615.773 .0322256
616.541 .0322094
617.308 .0321949
618.076 .0321833
618.843 .0321737
619.609 .0321665
620.375 .0321597
621.141 .0321523
621.907 .0321437
622.672 .0321328
623.437 .0321188
624.202 .0321020
624.966 .0320825
625.730 .0320608
626.493 .0320378
627.257 .0320138
628.020 .0319891
628.782 .0319642
629.545 .0319383
630.307 .0319115
631.068 .0318836
631.830 .0318548
632.591 .0318239
633.352 .0317925
634.112 .0317604
634.872 .0317276
635.632 .0316960
636.392 .0316654
637.151 .0316364
637.910 .0316088
638.668 .0315821
639.427 .0315558
640.185 .0315290
640.943 .0315014
641.700 .0314722
642.457 .0314423
643.214 .0314125
643.971 .0313817
644.727 .0313516
645.483 .0313221
646.239 .0312938
646.994 .0312654
647.750 .0312368
648.505 .0312072
649.259 .0311766
650.014 .0311452
650.768 .0311133
651.521 .0310818
652.275 .0310519
653.028 .0310239
653.781 .0309978
654.534 .0309737
655.286 .0309509
656.039 .0309283
656.791 .0309055
657.542 .0308814
658.294 .0308558
659.045 .0308294
659.796 .0308028
660.546 .0307771
661.297 .0307523
662.047 .0307300
662.796 .0307087
663.546 .0306901
664.295 .0306732
665.044 .0306573
665.793 .0306424
666.542 .0306286
667.290 .0306151
668.038 .0306021
668.786 .0305896
669.533 .0305779
670.281 .0305667
671.028 .0305567
671.774 .0305468
672.521 .0305380
673.267 .0305303
674.013 .0305237
674.759 .0305173
675.505 .0305120
676.250 .0305063
676.995 .0305002
677.740 .0304931
678.484 .0304849
679.229 .0304756
679.973 .0304654
680.717 .0304549
681.460 .0304438
682.204 .0304330
682.947 .0304227
683.690 .0304131
684.433 .0304037
685.175 .0303940
685.917 .0303832
686.659 .0303712
687.401 .0303575
688.142 .0303420
688.884 .0303247
689.625 .0303064
690.365 .0302871
691.106 .0302678
691.846 .0302479
692.586 .0302285
693.326 .0302090
694.066 .0301900
694.805 .0301706
695.545 .0301509
696.284 .0301307
697.022 .0301101
697.761 .0300894
698.499 .0300684
699.237 .0300478
699.975 .0300280
700.713 .0300095
701.450 .0299923
702.187 .0299759
702.924 .0299606
703.661 .0299455
704.397 .0299302
705.133 .0299145
705.869 .0298981
706.605 .0298808
707.341 .0298626
708.076 .0298439
708.811 .0298241
709.546 .0298035
710.281 .0297819
711.015 .0297591
711.749 .0297351
712.483 .0297098
713.217 .0296829
713.950 .0296552
714.684 .0296272
715.417 .0295986
716.150 .0295704
716.882 .0295431
717.615 .0295164
718.347 .0294908
719.079 .0294657
719.811 .0294412
720.542 .0294168
721.273 .0293929
722.005 .0293683
722.735 .0293432
723.466 .0293179
724.196 .0292920
724.927 .0292651
725.656 .0292382
726.386 .0292108
727.116 .0291833
727.845 .0291563
728.574 .0291295
729.303 .0291034
730.031 .0290784
730.760 .0290542
731.488 .0290306
732.216 .0290081
732.944 .0289869
733.671 .0289668
734.398 .0289486
735.125 .0289329
735.852 .0289197
736.579 .0289090
737.305 .0289010
738.031 .0288949
738.757 .0288904
739.483 .0288860
740.208 .0288812
740.933 .0288762
741.658 .0288704
742.383 .0288638
743.108 .0288568
743.832 .0288495
744.556 .0288423
745.280 .0288348
746.004 .0288269
746.727 .0288187
747.450 .0288103
748.173 .0288014
748.896 .0287922
749.618 .0287830
750.340 .0287741
751.062 .0287662
751.784 .0287598
752.506 .0287549
753.227 .0287515
753.948 .0287497
754.669 .0287488
755.389 .0287489
756.110 .0287499
756.830 .0287509
757.550 .0287524
758.269 .0287543
758.989 .0287561
759.708 .0287578
760.427 .0287598
761.146 .0287615
761.864 .0287631
762.582 .0287642
763.300 .0287646
764.018 .0287644
764.736 .0287643
765.453 .0287639
766.170 .0287630
766.887 .0287621
767.603 .0287607
768.320 .0287586
769.036 .0287560
769.751 .0287525
770.467 .0287482
771.182 .0287433
771.897 .0287374
772.612 .0287305
773.327 .0287232
774.041 .0287156
774.755 .0287071
775.469 .0286983
776.183 .0286888
776.896 .0286777
777.609 .0286650
778.322 .0286508
779.035 .0286351
779.747 .0286181
780.459 .0285999
781.171 .0285811
781.882 .0285622
782.594 .0285434
783.305 .0285250
784.016 .0285072
784.726 .0284897
785.436 .0284717
786.147 .0284529
786.856 .0284335
787.566 .0284133
788.275 .0283924
788.984 .0283708
789.693 .0283488
790.401 .0283264
791.110 .0283031
791.818 .0282787
792.525 .0282537
793.233 .0282275
793.940 .0282001
794.647 .0281717
795.353 .0281426
796.060 .0281131
796.766 .0280837
797.472 .0280548
798.177 .0280266
798.883 .0279988
799.588 .0279715
800.292 .0279443
800.997 .0279174
801.701 .0278910
802.405 .0278651
803.109 .0278400
803.812 .0278165
804.515 .0277942
805.218 .0277731
805.921 .0277533
806.623 .0277345
807.325 .0277161
808.027 .0276978
808.728 .0276794
809.429 .0276601
810.130 .0276400
810.831 .0276194
811.531 .0275975
812.231 .0275748
812.931 .0275514
813.630 .0275272
814.330 .0275030
815.029 .0274791
815.727 .0274554
816.426 .0274321
817.124 .0274097
817.821 .0273875
818.519 .0273655
819.216 .0273442
819.913 .0273232
820.609 .0273030
821.306 .0272846
822.002 .0272676
822.697 .0272531
823.393 .0272414
824.088 .0272327
824.783 .0272261
825.477 .0272213
826.171 .0272173
826.865 .0272139
827.559 .0272107
828.252 .0272076
828.945 .0272044
829.638 .0272015
830.330 .0271988
831.023 .0271963
831.714 .0271941
832.406 .0271916
833.097 .0271887
833.788 .0271847
834.479 .0271795
835.169 .0271735
835.859 .0271671
836.548 .0271606
837.238 .0271552
837.927 .0271508
838.615 .0271477
839.304 .0271456
839.992 .0271448
840.680 .0271445
841.367 .0271451
842.054 .0271467
842.741 .0271493
843.428 .0271536
844.114 .0271596
844.800 .0271671
845.485 .0271764
846.170 .0271871
846.855 .0271986
847.540 .0272102
848.224 .0272220
848.908 .0272333
849.592 .0272444
850.275 .0272555
850.958 .0272669
851.641 .0272783
852.323 .0272900
853.005 .0273015
853.687 .0273123
854.368 .0273224
855.049 .0273314
855.730 .0273394
856.410 .0273459
857.090 .0273514
857.769 .0273561
858.449 .0273600
859.128 .0273636
859.806 .0273665
860.485 .0273685
861.163 .0273699
861.840 .0273705
862.518 .0273702
863.195 .0273693
863.871 .0273682
864.548 .0273671
865.224 .0273660
865.899 .0273651
866.574 .0273646
867.249 .0273645
867.924 .0273650
868.598 .0273655
869.272 .0273660
869.946 .0273667
870.619 .0273670
871.292 .0273674
871.964 .0273675
872.636 .0273671
873.308 .0273659
873.979 .0273632
874.651 .0273591
875.321 .0273534
875.992 .0273459
876.662 .0273366
877.331 .0273255
878.001 .0273127
878.670 .0272983
879.338 .0272829
880.007 .0272667
880.675 .0272500
881.342 .0272329
882.009 .0272154
882.676 .0271974
883.343 .0271790
884.009 .0271599
884.675 .0271402
885.340 .0271200
886.005 .0270993
886.670 .0270783
887.334 .0270573
887.998 .0270363
888.662 .0270159
889.325 .0269958
889.988 .0269761
890.650 .0269565
891.312 .0269370
891.974 .0269171
892.636 .0268964
893.297 .0268753
893.957 .0268535
894.618 .0268311
895.278 .0268082
895.937 .0267847
896.596 .0267612
897.255 .0267376
897.914 .0267137
898.572 .0266898
899.230 .0266657
899.887 .0266409
900.544 .0266147
901.201 .0265869
901.857 .0265570
902.513 .0265253
903.168 .0264921
903.823 .0264573
904.478 .0264215
905.132 .0263849
905.786 .0263481
906.440 .0263113
907.093 .0262749
907.746 .0262385
908.399 .0262022
909.051 .0261659
909.703 .0261292
910.354 .0260923
911.005 .0260555
911.656 .0260194
912.306 .0259842
912.956 .0259495
913.605 .0259157
914.254 .0258829
914.903 .0258510
915.551 .0258203
916.199 .0257906
916.847 .0257617
917.494 .0257339
918.141 .0257068
918.788 .0256807
919.434 .0256559
920.079 .0256323
920.725 .0256100
921.370 .0255887
922.014 .0255685
922.658 .0255491
923.302 .0255304
923.946 .0255131
924.589 .0254958
925.231 .0254787
925.873 .0254617
926.515 .0254442
927.157 .0254263
927.798 .0254080
928.439 .0253886
929.079 .0253687
929.719 .0253480
930.359 .0253270
930.998 .0253055
931.637 .0252837
932.275 .0252622
932.913 .0252407
933.551 .0252197
934.188 .0251993
934.825 .0251798
935.462 .0251620
936.098 .0251457
936.733 .0251311
937.369 .0251184
938.004 .0251074
938.638 .0250977
939.273 .0250891
939.907 .0250809
940.540 .0250733
941.173 .0250661
941.806 .0250595
942.438 .0250539
943.070 .0250497
943.702 .0250464
944.333 .0250439
944.964 .0250421
945.594 .0250405
946.224 .0250384
946.854 .0250364
947.483 .0250345
948.112 .0250329
948.741 .0250318
949.369 .0250318
949.996 .0250327
950.624 .0250350
951.251 .0250380
951.878 .0250418
952.504 .0250461
953.130 .0250501
953.755 .0250538
954.380 .0250575
955.005 .0250615
955.629 .0250659
956.253 .0250706
956.877 .0250765
957.500 .0250832
958.123 .0250903
958.746 .0250981
959.368 .0251067
959.990 .0251163
960.611 .0251268
961.232 .0251384
961.853 .0251513
962.473 .0251653
963.093 .0251799
963.712 .0251957
964.331 .0252121
964.950 .0252289
965.569 .0252456
966.187 .0252623
966.804 .0252799
967.422 .0252975
968.039 .0253150
968.655 .0253325
969.272 .0253493
969.887 .0253653
970.503 .0253798
971.118 .0253930
971.733 .0254049
972.347 .0254158
972.961 .0254261
973.575 .0254359
974.188 .0254455
974.801 .0254548
975.414 .0254645
976.026 .0254746
976.638 .0254853
977.250 .0254959
977.861 .0255073
978.472 .0255194
979.083 .0255318
979.693 .0255438
980.303 .0255552
980.912 .0255656
981.521 .0255752
982.130 .0255835
982.738 .0255909
983.346 .0255975
983.954 .0256041
984.562 .0256102
985.169 .0256160
985.775 .0256207
986.382 .0256251
986.988 .0256285
987.594 .0256313
988.199 .0256330
988.804 .0256346
989.409 .0256365
990.013 .0256400
990.617 .0256449
991.221 .0256518
991.824 .0256602
992.427 .0256706
993.030 .0256818
993.632 .0256939
994.234 .0257060
994.836 .0257184
995.438 .0257303
996.039 .0257416
996.640 .0257508
997.240 .0257581
997.840 .0257637
998.440 .0257678
999.040 .0257697
999.639 .0257699
1000.238 .0257682
1000.836 .0257648
1001.435 .0257598
1002.033 .0257538
1002.630 .0257465
1003.228 .0257390
1003.825 .0257310
1004.422 .0257229
1005.018 .0257154
1005.614 .0257097
1006.210 .0257053
1006.806 .0257029
1007.401 .0257015
1007.996 .0256999
1008.591 .0256976
1009.186 .0256938
1009.780 .0256883
1010.374 .0256810
1010.967 .0256718
1011.561 .0256612
1012.154 .0256492
1012.746 .0256362
1013.339 .0256219
1013.931 .0256063
1014.523 .0255895
1015.115 .0255703
1015.706 .0255491
1016.298 .0255257
1016.888 .0255012
1017.479 .0254762
1018.069 .0254517
1018.660 .0254280
1019.250 .0254063
1019.839 .0253861
1020.429 .0253681
1021.018 .0253515
1021.607 .0253366
1022.195 .0253229
1022.784 .0253101
1023.372 .0252983
1023.960 .0252876
1024.547 .0252777
1025.135 .0252688
1025.722 .0252601
1026.309 .0252521
1026.896 .0252442
1027.483 .0252364
1028.069 .0252281
1028.655 .0252192
1029.241 .0252092
1029.827 .0251987
1030.412 .0251863
1030.997 .0251730
1031.582 .0251591
1032.167 .0251443
1032.752 .0251289
1033.336 .0251125
1033.921 .0250959
1034.505 .0250787
1035.089 .0250612
1035.672 .0250425
1036.256 .0250224
1036.839 .0250015
1037.422 .0249792
1038.005 .0249554
1038.588 .0249318
1039.171 .0249082
1039.753 .0248846
1040.335 .0248616
1040.918 .0248391
1041.500 .0248164
1042.081 .0247943
1042.663 .0247733
1043.244 .0247533
1043.826 .0247347
1044.407 .0247175
1044.988 .0247016
1045.569 .0246876
1046.150 .0246752
1046.730 .0246630
1047.311 .0246516
1047.891 .0246409
1048.471 .0246304
1049.052 .0246197
1049.632 .0246098
1050.211 .0246002
1050.791 .0245916
1051.371 .0245828
1051.950 .0245741
1052.530 .0245642
1053.109 .0245534
1053.688 .0245399
1054.268 .0245245
1054.847 .0245075
1055.426 .0244888
1056.005 .0244694
1056.583 .0244503
1057.162 .0244310
1057.741 .0244125
1058.319 .0243946
1058.898 .0243781
1059.476 .0243619
1060.055 .0243467
1060.633 .0243316
1061.211 .0243176
1061.790 .0243048
1062.368 .0242931
1062.946 .0242828
1063.524 .0242747
1064.102 .0242670
1064.680 .0242591
1065.258 .0242509
1065.836 .0242424
1066.414 .0242324
1066.992 .0242224
1067.570 .0242132
1068.148 .0242050
1068.726 .0241981
1069.304 .0241935
1069.882 .0241908
1070.460 .0241902
1071.038 .0241905
1071.616 .0241902
1072.194 .0241893
1072.772 .0241888
1073.350 .0241878
1073.928 .0241882
1074.506 .0241916
1075.084 .0241983
1075.662 .0242078
1076.240 .0242207
1076.819 .0242342
1077.397 .0242472
1077.976 .0242587
1078.554 .0242678
1079.133 .0242729
1079.711 .0242755
1080.290 .0242754
1080.869 .0242742
1081.448 .0242730
1082.027 .0242718
1082.606 .0242692
1083.185 .0242674
1083.764 .0242660
1084.343 .0242633
1084.923 .0242606
1085.502 .0242593
1086.082 .0242582
1086.662 .0242608
1087.242 .0242673
1087.822 .0242788
1088.402 .0242943
1088.983 .0243161
1089.563 .0243413
1090.144 .0243691
1090.725 .0244002
1091.306 .0244319
1091.887 .0244641
1092.469 .0244985
1093.050 .0245330
1093.632 .0245686
1094.214 .0246055
1094.796 .0246439
1095.379 .0246808
1095.961 .0247176
1096.544 .0247522
1097.127 .0247833
1097.710 .0248106
1098.294 .0248354
1098.877 .0248571
1099.461 .0248767
1100.046 .0248947
1100.630 .0249114
1101.215 .0249284
1101.800 .0249470
1102.385 .0249651
1102.970 .0249841
1103.556 .0250029
1104.142 .0250238
1104.728 .0250456
1105.315 .0250701
1105.902 .0250977
1106.489 .0251284
1107.077 .0251619
1107.664 .0251978
1108.253 .0252349
1108.841 .0252712
1109.430 .0253075
1110.019 .0253435
1110.609 .0253786
1111.198 .0254137
1111.789 .0254491
1112.379 .0254871
1112.970 .0255253
1113.561 .0255648
1114.153 .0256029
1114.745 .0256413
1115.338 .0256795
1115.931 .0257165
1116.524 .0257564
1117.117 .0257995
1117.712 .0258480
1118.306 .0259030
1118.901 .0259664
1119.496 .0260354
1120.092 .0261088
1120.689 .0261831
1121.285 .0262547
1121.882 .0263222
1122.480 .0263835
1123.078 .0264418
1123.677 .0264955
1124.276 .0265481
1124.875 .0265980
1125.476 .0266464
1126.076 .0266980
1126.677 .0267459
1127.279 .0267909
1127.881 .0268302
1128.484 .0268668
1129.087 .0268991
1129.691 .0269316
1130.295 .0269713
1130.900 .0270201
1131.505 .0270831
1132.111 .0271597
1132.718 .0272478
1133.325 .0273433
1133.933 .0274463
1134.541 .0275508
1135.150 .0276563
1135.760 .0277643
1136.370 .0278752
1136.981 .0279955
1137.592 .0281253
1138.204 .0282650
1138.817 .0284083
1139.431 .0285529
1140.045 .0287020
1140.660 .0288539
1141.275 .0290278
1141.891 .0292314
1142.508 .0291515
1143.126 .0294168
1143.744 .0297974
1144.363 .0304929
1144.983 .0310185
