Measurement Sequence started on: 15-12-46-377
Integration time: 28
Scans to Average: 2 
>>>>>Begin Spectral Data<<<<<
432.689 .0000100
433.621 .0000100
434.552 .0000100
435.482 .0000100
436.410 .0000100
437.337 .0000100
438.262 .0271154
439.187 .0574846
440.110 .0952484
441.031 .1377804
441.952 .1790223
442.871 .2113913
443.789 .2289915
444.705 .2298297
445.621 .2164413
446.535 .1942899
447.447 .1693377
448.359 .1313342
449.269 .1126422
450.178 .1009927
451.086 .0929255
451.993 .0868230
452.898 .0820226
453.803 .0780797
454.706 .0747687
455.608 .0719151
456.508 .0694416
457.408 .0672881
458.306 .0653776
459.204 .0636589
460.100 .0620983
460.995 .0606626
461.888 .0593286
462.781 .0580722
463.673 .0568898
464.563 .0557925
465.452 .0547681
466.340 .0538084
467.228 .0529276
468.114 .0521222
468.999 .0513951
469.882 .0507338
470.765 .0501378
471.647 .0495993
472.528 .0491076
473.407 .0486625
474.286 .0482606
475.163 .0478965
476.040 .0475765
476.915 .0472867
477.790 .0470317
478.663 .0468045
479.535 .0466006
480.407 .0464212
481.277 .0462619
482.147 .0461223
483.015 .0459947
483.883 .0458772
484.749 .0457733
485.615 .0456835
486.479 .0456105
487.343 .0455629
488.206 .0455479
489.067 .0455633
489.928 .0456093
490.788 .0456851
491.647 .0457924
492.505 .0459283
493.362 .0460831
494.218 .0462500
495.073 .0464291
495.928 .0466217
496.781 .0468216
497.634 .0470412
498.486 .0472807
499.337 .0475354
500.187 .0478059
501.036 .0480942
501.884 .0483961
502.731 .0487068
503.578 .0490300
504.424 .0493642
505.268 .0497039
506.113 .0500532
506.956 .0504175
507.798 .0508194
508.640 .0512750
509.480 .0517802
510.320 .0523562
511.160 .0530220
511.998 .0537805
512.836 .0546379
513.672 .0556219
514.508 .0567443
515.344 .0580075
516.178 .0594336
517.012 .0610483
517.845 .0629135
518.677 .0650322
519.508 .0674301
520.339 .0701636
521.169 .0732733
521.998 .0767713
522.826 .0807102
523.654 .0851241
524.481 .0900425
525.307 .0955067
526.133 .1015072
526.958 .1080673
527.782 .1151128
528.605 .1224497
529.428 .1299569
530.250 .1371367
531.072 .1437484
531.892 .1492861
532.712 .1535174
533.532 .1562435
534.350 .1572385
535.168 .1564547
535.986 .1539644
536.802 .1499679
537.618 .1447721
538.434 .1385406
539.249 .1317469
540.063 .1245812
540.876 .1174112
541.689 .1103937
542.501 .1037208
543.313 .0975561
544.124 .0919526
544.934 .0868610
545.744 .0822750
546.553 .0781214
547.361 .0744213
548.169 .0711550
548.976 .0682582
549.783 .0657106
550.589 .0634510
551.395 .0614241
552.200 .0596164
553.004 .0579860
553.808 .0564974
554.611 .0551418
555.414 .0539064
556.216 .0527921
557.018 .0517890
557.819 .0508820
558.619 .0500499
559.419 .0492886
560.218 .0485885
561.017 .0479354
561.815 .0473085
562.613 .0467066
563.410 .0461064
564.207 .0455091
565.003 .0449074
565.799 .0443101
566.594 .0437140
567.388 .0431383
568.182 .0425776
568.976 .0420321
569.769 .0414991
570.562 .0409838
571.354 .0404793
572.145 .0399927
572.936 .0395152
573.727 .0390552
574.517 .0386094
575.307 .0381872
576.096 .0377818
576.885 .0374001
577.673 .0370420
578.461 .0367048
579.248 .0363822
580.035 .0360794
580.821 .0357908
581.607 .0355206
582.392 .0352695
583.177 .0350404
583.962 .0348318
584.746 .0346427
585.529 .0344727
586.313 .0343189
587.095 .0341791
587.878 .0340510
588.660 .0339312
589.441 .0338221
590.222 .0337207
591.003 .0336274
591.783 .0335434
592.563 .0334675
593.342 .0333977
594.121 .0333305
594.899 .0332660
595.678 .0332039
596.455 .0331411
597.233 .0330784
598.009 .0330164
598.786 .0329557
599.562 .0328968
600.338 .0328396
601.113 .0327844
601.888 .0327309
602.663 .0326778
603.437 .0326258
604.211 .0325742
604.984 .0325223
605.757 .0324711
606.530 .0324203
607.302 .0323713
608.074 .0323240
608.845 .0322762
609.616 .0322296
610.387 .0321841
611.158 .0321385
611.928 .0320924
612.697 .0320470
613.467 .0320042
614.236 .0319641
615.004 .0319280
615.773 .0318963
616.541 .0318689
617.308 .0318457
618.076 .0318254
618.843 .0318062
619.609 .0317887
620.375 .0317713
621.141 .0317544
621.907 .0317384
622.672 .0317234
623.437 .0317091
624.202 .0316965
624.966 .0316850
625.730 .0316740
626.493 .0316612
627.257 .0316468
628.020 .0316290
628.782 .0316084
629.545 .0315841
630.307 .0315575
631.068 .0315294
631.830 .0315017
632.591 .0314741
633.352 .0314477
634.112 .0314224
634.872 .0313994
635.632 .0313775
636.392 .0313571
637.151 .0313382
637.910 .0313211
638.668 .0313053
639.427 .0312912
640.185 .0312777
640.943 .0312658
641.700 .0312540
642.457 .0312423
643.214 .0312297
643.971 .0312169
644.727 .0312034
645.483 .0311897
646.239 .0311759
646.994 .0311617
647.750 .0311473
648.505 .0311329
649.259 .0311177
650.014 .0311016
650.768 .0310845
651.521 .0310664
652.275 .0310473
653.028 .0310275
653.781 .0310067
654.534 .0309855
655.286 .0309636
656.039 .0309403
656.791 .0309156
657.542 .0308891
658.294 .0308601
659.045 .0308289
659.796 .0307960
660.546 .0307614
661.297 .0307255
662.047 .0306896
662.796 .0306532
663.546 .0306165
664.295 .0305801
665.044 .0305437
665.793 .0305075
666.542 .0304719
667.290 .0304369
668.038 .0304028
668.786 .0303703
669.533 .0303395
670.281 .0303103
671.028 .0302832
671.774 .0302577
672.521 .0302334
673.267 .0302102
674.013 .0301877
674.759 .0301651
675.505 .0301424
676.250 .0301197
676.995 .0300968
677.740 .0300735
678.484 .0300499
679.229 .0300263
679.973 .0300027
680.717 .0299793
681.460 .0299564
682.204 .0299339
682.947 .0299122
683.690 .0298915
684.433 .0298717
685.175 .0298531
685.917 .0298358
686.659 .0298196
687.401 .0298046
688.142 .0297909
688.884 .0297778
689.625 .0297658
690.365 .0297552
691.106 .0297454
691.846 .0297359
692.586 .0297267
693.326 .0297175
694.066 .0297082
694.805 .0296982
695.545 .0296873
696.284 .0296756
697.022 .0296634
697.761 .0296507
698.499 .0296374
699.237 .0296243
699.975 .0296114
700.713 .0295992
701.450 .0295877
702.187 .0295765
702.924 .0295662
703.661 .0295567
704.397 .0295477
705.133 .0295397
705.869 .0295326
706.605 .0295259
707.341 .0295196
708.076 .0295135
708.811 .0295069
709.546 .0294999
710.281 .0294919
711.015 .0294825
711.749 .0294716
712.483 .0294597
713.217 .0294464
713.950 .0294320
714.684 .0294171
715.417 .0294011
716.150 .0293846
716.882 .0293682
717.615 .0293513
718.347 .0293345
719.079 .0293176
719.811 .0293004
720.542 .0292830
721.273 .0292656
722.005 .0292479
722.735 .0292309
723.466 .0292145
724.196 .0291981
724.927 .0291818
725.656 .0291651
726.386 .0291481
727.116 .0291298
727.845 .0291107
728.574 .0290901
729.303 .0290682
730.031 .0290456
730.760 .0290221
731.488 .0289982
732.216 .0289748
732.944 .0289517
733.671 .0289290
734.398 .0289065
735.125 .0288838
735.852 .0288609
736.579 .0288384
737.305 .0288161
738.031 .0287940
738.757 .0287723
739.483 .0287509
740.208 .0287296
740.933 .0287083
741.658 .0286872
742.383 .0286654
743.108 .0286436
743.832 .0286213
744.556 .0285983
745.280 .0285754
746.004 .0285528
746.727 .0285303
747.450 .0285082
748.173 .0284858
748.896 .0284634
749.618 .0284402
750.340 .0284169
751.062 .0283932
751.784 .0283694
752.506 .0283463
753.227 .0283239
753.948 .0283024
754.669 .0282826
755.389 .0282640
756.110 .0282468
756.830 .0282305
757.550 .0282148
758.269 .0281988
758.989 .0281824
759.708 .0281650
760.427 .0281470
761.146 .0281281
761.864 .0281093
762.582 .0280906
763.300 .0280729
764.018 .0280568
764.736 .0280420
765.453 .0280285
766.170 .0280162
766.887 .0280047
767.603 .0279940
768.320 .0279835
769.036 .0279740
769.751 .0279653
770.467 .0279577
771.182 .0279516
771.897 .0279471
772.612 .0279445
773.327 .0279436
774.041 .0279439
774.755 .0279453
775.469 .0279473
776.183 .0279500
776.896 .0279529
777.609 .0279559
778.322 .0279597
779.035 .0279634
779.747 .0279673
780.459 .0279719
781.171 .0279769
781.882 .0279828
782.594 .0279897
783.305 .0279975
784.016 .0280065
784.726 .0280168
785.436 .0280277
786.147 .0280386
786.856 .0280499
787.566 .0280605
788.275 .0280700
788.984 .0280785
789.693 .0280859
790.401 .0280917
791.110 .0280966
791.818 .0280998
792.525 .0281016
793.233 .0281019
793.940 .0281003
794.647 .0280966
795.353 .0280914
796.060 .0280845
796.766 .0280762
797.472 .0280666
798.177 .0280567
798.883 .0280461
799.588 .0280357
800.292 .0280251
800.997 .0280147
801.701 .0280043
802.405 .0279942
803.109 .0279838
803.812 .0279739
804.515 .0279640
805.218 .0279534
805.921 .0279420
806.623 .0279296
807.325 .0279157
808.027 .0279009
808.728 .0278846
809.429 .0278673
810.130 .0278486
810.831 .0278290
811.531 .0278081
812.231 .0277858
812.931 .0277621
813.630 .0277368
814.330 .0277098
815.029 .0276815
815.727 .0276523
816.426 .0276229
817.124 .0275936
817.821 .0275646
818.519 .0275364
819.216 .0275085
819.913 .0274810
820.609 .0274537
821.306 .0274271
822.002 .0274017
822.697 .0273774
823.393 .0273546
824.088 .0273340
824.783 .0273148
825.477 .0272969
826.171 .0272794
826.865 .0272622
827.559 .0272443
828.252 .0272254
828.945 .0272058
829.638 .0271854
830.330 .0271651
831.023 .0271451
831.714 .0271253
832.406 .0271057
833.097 .0270854
833.788 .0270639
834.479 .0270411
835.169 .0270167
835.859 .0269910
836.548 .0269649
837.238 .0269390
837.927 .0269143
838.615 .0268910
839.304 .0268699
839.992 .0268505
840.680 .0268327
841.367 .0268156
842.054 .0267987
842.741 .0267818
843.428 .0267649
844.114 .0267479
844.800 .0267313
845.485 .0267149
846.170 .0266984
846.855 .0266820
847.540 .0266657
848.224 .0266489
848.908 .0266316
849.592 .0266136
850.275 .0265948
850.958 .0265753
851.641 .0265556
852.323 .0265355
853.005 .0265155
853.687 .0264958
854.368 .0264762
855.049 .0264573
855.730 .0264394
856.410 .0264224
857.090 .0264069
857.769 .0263932
858.449 .0263811
859.128 .0263705
859.806 .0263613
860.485 .0263532
861.163 .0263457
861.840 .0263386
862.518 .0263315
863.195 .0263248
863.871 .0263190
864.548 .0263140
865.224 .0263101
865.899 .0263078
866.574 .0263071
867.249 .0263074
867.924 .0263088
868.598 .0263108
869.272 .0263132
869.946 .0263160
870.619 .0263190
871.292 .0263225
871.964 .0263267
872.636 .0263319
873.308 .0263376
873.979 .0263443
874.651 .0263519
875.321 .0263600
875.992 .0263688
876.662 .0263781
877.331 .0263881
878.001 .0263984
878.670 .0264093
879.338 .0264205
880.007 .0264316
880.675 .0264431
881.342 .0264543
882.009 .0264655
882.676 .0264767
883.343 .0264883
884.009 .0265005
884.675 .0265135
885.340 .0265276
886.005 .0265421
886.670 .0265573
887.334 .0265731
887.998 .0265887
888.662 .0266041
889.325 .0266189
889.988 .0266333
890.650 .0266474
891.312 .0266618
891.974 .0266761
892.636 .0266910
893.297 .0267065
893.957 .0267226
894.618 .0267382
895.278 .0267534
895.937 .0267675
896.596 .0267800
897.255 .0267902
897.914 .0267981
898.572 .0268031
899.230 .0268065
899.887 .0268082
900.544 .0268083
901.201 .0268077
901.857 .0268065
902.513 .0268042
903.168 .0268009
903.823 .0267960
904.478 .0267895
905.132 .0267802
905.786 .0267688
906.440 .0267548
907.093 .0267391
907.746 .0267219
908.399 .0267033
909.051 .0266840
909.703 .0266646
910.354 .0266445
911.005 .0266240
911.656 .0266036
912.306 .0265826
912.956 .0265610
913.605 .0265387
914.254 .0265156
914.903 .0264920
915.551 .0264675
916.199 .0264433
916.847 .0264190
917.494 .0263954
918.141 .0263721
918.788 .0263493
919.434 .0263279
920.079 .0263066
920.725 .0262853
921.370 .0262638
922.014 .0262412
922.658 .0262169
923.302 .0261905
923.946 .0261620
924.589 .0261312
925.231 .0260982
925.873 .0260634
926.515 .0260273
927.157 .0259902
927.798 .0259524
928.439 .0259142
929.079 .0258759
929.719 .0258372
930.359 .0257977
930.998 .0257582
931.637 .0257187
932.275 .0256789
932.913 .0256392
933.551 .0256006
934.188 .0255631
934.825 .0255268
935.462 .0254925
936.098 .0254600
936.733 .0254292
937.369 .0253997
938.004 .0253712
938.638 .0253431
939.273 .0253155
939.907 .0252880
940.540 .0252606
941.173 .0252334
941.806 .0252064
942.438 .0251797
943.070 .0251536
943.702 .0251284
944.333 .0251034
944.964 .0250788
945.594 .0250550
946.224 .0250320
946.854 .0250095
947.483 .0249877
948.112 .0249669
948.741 .0249462
949.369 .0249258
949.996 .0249054
950.624 .0248847
951.251 .0248643
951.878 .0248440
952.504 .0248241
953.130 .0248045
953.755 .0247855
954.380 .0247666
955.005 .0247479
955.629 .0247290
956.253 .0247094
956.877 .0246891
957.500 .0246683
958.123 .0246471
958.746 .0246257
959.368 .0246045
959.990 .0245841
960.611 .0245639
961.232 .0245444
961.853 .0245254
962.473 .0245070
963.093 .0244888
963.712 .0244710
964.331 .0244534
964.950 .0244363
965.569 .0244199
966.187 .0244043
966.804 .0243901
967.422 .0243779
968.039 .0243673
968.655 .0243581
969.272 .0243499
969.887 .0243424
970.503 .0243352
971.118 .0243286
971.733 .0243225
972.347 .0243166
972.961 .0243112
973.575 .0243067
974.188 .0243028
974.801 .0242996
975.414 .0242972
976.026 .0242954
976.638 .0242940
977.250 .0242924
977.861 .0242907
978.472 .0242889
979.083 .0242874
979.693 .0242859
980.303 .0242847
980.912 .0242839
981.521 .0242838
982.130 .0242845
982.738 .0242864
983.346 .0242899
983.954 .0242941
984.562 .0242987
985.169 .0243032
985.775 .0243069
986.382 .0243093
986.988 .0243106
987.594 .0243111
988.199 .0243107
988.804 .0243102
989.409 .0243104
990.013 .0243116
990.617 .0243150
991.221 .0243199
991.824 .0243271
992.427 .0243359
993.030 .0243460
993.632 .0243568
994.234 .0243687
994.836 .0243823
995.438 .0243977
996.039 .0244144
996.640 .0244332
997.240 .0244540
997.840 .0244769
998.440 .0245009
999.040 .0245255
999.639 .0245506
1000.238 .0245756
1000.836 .0245997
1001.435 .0246229
1002.033 .0246448
1002.630 .0246661
1003.228 .0246868
1003.825 .0247069
1004.422 .0247270
1005.018 .0247476
1005.614 .0247682
1006.210 .0247901
1006.806 .0248129
1007.401 .0248360
1007.996 .0248583
1008.591 .0248803
1009.186 .0249016
1009.780 .0249214
1010.374 .0249406
1010.967 .0249596
1011.561 .0249789
1012.154 .0249991
1012.746 .0250193
1013.339 .0250400
1013.931 .0250614
1014.523 .0250828
1015.115 .0251025
1015.706 .0251210
1016.298 .0251382
1016.888 .0251537
1017.479 .0251682
1018.069 .0251827
1018.660 .0251975
1019.250 .0252132
1019.839 .0252300
1020.429 .0252474
1021.018 .0252653
1021.607 .0252833
1022.195 .0253001
1022.784 .0253163
1023.372 .0253314
1023.960 .0253454
1024.547 .0253590
1025.135 .0253736
1025.722 .0253892
1026.309 .0254060
1026.896 .0254247
1027.483 .0254449
1028.069 .0254663
1028.655 .0254884
1029.241 .0255100
1029.827 .0255308
1030.412 .0255506
1030.997 .0255685
1031.582 .0255840
1032.167 .0255981
1032.752 .0256109
1033.336 .0256219
1033.921 .0256323
1034.505 .0256426
1035.089 .0256517
1035.672 .0256609
1036.256 .0256698
1036.839 .0256775
1037.422 .0256847
1038.005 .0256914
1038.588 .0256971
1039.171 .0257027
1039.753 .0257091
1040.335 .0257154
1040.918 .0257222
1041.500 .0257301
1042.081 .0257382
1042.663 .0257464
1043.244 .0257555
1043.826 .0257634
1044.407 .0257686
1044.988 .0257722
1045.569 .0257725
1046.150 .0257683
1046.730 .0257612
1047.311 .0257504
1047.891 .0257361
1048.471 .0257200
1049.052 .0257019
1049.632 .0256811
1050.211 .0256599
1050.791 .0256385
1051.371 .0256159
1051.950 .0255937
1052.530 .0255712
1053.109 .0255482
1053.688 .0255262
1054.268 .0255064
1054.847 .0254875
1055.426 .0254713
1056.005 .0254595
1056.583 .0254502
1057.162 .0254437
1057.741 .0254397
1058.319 .0254369
1058.898 .0254356
1059.476 .0254342
1060.055 .0254317
1060.633 .0254272
1061.211 .0254214
1061.790 .0254141
1062.368 .0254058
1062.946 .0253970
1063.524 .0253867
1064.102 .0253739
1064.680 .0253597
1065.258 .0253434
1065.836 .0253236
1066.414 .0253009
1066.992 .0252761
1067.570 .0252508
1068.148 .0252241
1068.726 .0251970
1069.304 .0251713
1069.882 .0251478
1070.460 .0251259
1071.038 .0251053
1071.616 .0250852
1072.194 .0250661
1072.772 .0250470
1073.350 .0250291
1073.928 .0250114
1074.506 .0249960
1075.084 .0249805
1075.662 .0249664
1076.240 .0249530
1076.819 .0249404
1077.397 .0249269
1077.976 .0249140
1078.554 .0249010
1079.133 .0248878
1079.711 .0248737
1080.290 .0248605
1080.869 .0248460
1081.448 .0248319
1082.027 .0248154
1082.606 .0247970
1083.185 .0247786
1083.764 .0247602
1084.343 .0247404
1084.923 .0247209
1085.502 .0247015
1086.082 .0246821
1086.662 .0246630
1087.242 .0246440
1087.822 .0246238
1088.402 .0246034
1088.983 .0245834
1089.563 .0245618
1090.144 .0245403
1090.725 .0245217
1091.306 .0245048
1091.887 .0244907
1092.469 .0244804
1093.050 .0244725
1093.632 .0244684
1094.214 .0244681
1094.796 .0244705
1095.379 .0244748
1095.961 .0244818
1096.544 .0244903
1097.127 .0244994
1097.710 .0245092
1098.294 .0245210
1098.877 .0245318
1099.461 .0245421
1100.046 .0245522
1100.630 .0245608
1101.215 .0245695
1101.800 .0245794
1102.385 .0245898
1102.970 .0246005
1103.556 .0246104
1104.142 .0246196
1104.728 .0246276
1105.315 .0246343
1105.902 .0246406
1106.489 .0246450
1107.077 .0246499
1107.664 .0246571
1108.253 .0246667
1108.841 .0246809
1109.430 .0247002
1110.019 .0247205
1110.609 .0247406
1111.198 .0247575
1111.789 .0247721
1112.379 .0247835
1112.970 .0247928
1113.561 .0248034
1114.153 .0248169
1114.745 .0248353
1115.338 .0248624
1115.931 .0248966
1116.524 .0249389
1117.117 .0249866
1117.712 .0250379
1118.306 .0250888
1118.901 .0251393
1119.496 .0251880
1120.092 .0252359
1120.689 .0252834
1121.285 .0253326
1121.882 .0253826
1122.480 .0254343
1123.078 .0254875
1123.677 .0255415
1124.276 .0255945
1124.875 .0256487
1125.476 .0256990
1126.076 .0257513
1126.677 .0258044
1127.279 .0258585
1127.881 .0259133
1128.484 .0259686
1129.087 .0260265
1129.691 .0260899
1130.295 .0261573
1130.900 .0262308
1131.505 .0263118
1132.111 .0264019
1132.718 .0264972
1133.325 .0266015
1133.933 .0267081
1134.541 .0268126
1135.150 .0269132
1135.760 .0270087
1136.370 .0270942
1136.981 .0271777
1137.592 .0272607
1138.204 .0273464
1138.817 .0274361
1139.431 .0275339
1140.045 .0276315
1140.660 .0277275
1141.275 .0278490
1141.891 .0279973
1142.508 .0281369
1143.126 .0281134
1143.744 .0279898
1144.363 .0289025
1144.983 .0294678
