Measurement Sequence started on: 15-12-46-377
Integration time: 28
Scans to Average: 2 
>>>>>Begin Spectral Data<<<<<
432.689 .0000100
433.621 .0000100
434.552 .0000100
435.482 .0000100
436.410 .0000100
437.337 .0000100
438.262 .0284801
439.187 .0603500
440.110 .0999732
441.031 .1447183
441.952 .1881940
442.871 .2224720
443.789 .2413403
444.705 .2426899
445.621 .2290991
446.535 .2062194
447.447 .1802456
448.359 .1403828
449.269 .1206389
450.178 .1081494
451.086 .0992957
451.993 .0925423
452.898 .0872154
453.803 .0828746
454.706 .0792565
455.608 .0761832
456.508 .0735388
457.408 .0712224
458.306 .0691519
459.204 .0673045
460.100 .0656406
460.995 .0641442
461.888 .0627996
462.781 .0615826
463.673 .0604810
464.563 .0594786
465.452 .0585345
466.340 .0576449
467.228 .0568199
468.114 .0560454
468.999 .0553195
469.882 .0546512
470.765 .0540295
471.647 .0534560
472.528 .0529377
473.407 .0524704
474.286 .0520484
475.163 .0516764
476.040 .0513414
476.915 .0510434
477.790 .0507776
478.663 .0505376
479.535 .0503249
480.407 .0501449
481.277 .0499908
482.147 .0498570
483.015 .0497428
483.883 .0496514
484.749 .0495745
485.615 .0495130
486.479 .0494640
487.343 .0494271
488.206 .0494036
489.067 .0493902
489.928 .0493822
490.788 .0493905
491.647 .0494122
492.505 .0494564
493.362 .0495272
494.218 .0496169
495.073 .0497324
495.928 .0498748
496.781 .0500433
497.634 .0502437
498.486 .0504720
499.337 .0507396
500.187 .0510448
501.036 .0513846
501.884 .0517594
502.731 .0521671
503.578 .0526099
504.424 .0530856
505.268 .0535804
506.113 .0540999
506.956 .0546498
507.798 .0552371
508.640 .0558738
509.480 .0565671
510.320 .0573444
511.160 .0582145
511.998 .0591768
512.836 .0602486
513.672 .0614221
514.508 .0627033
515.344 .0640897
516.178 .0655969
517.012 .0672674
517.845 .0691286
518.677 .0712368
519.508 .0736350
520.339 .0763998
521.169 .0795663
521.998 .0831387
522.826 .0871889
523.654 .0917352
524.481 .0967585
525.307 .1022789
526.133 .1082694
526.958 .1147383
527.782 .1215852
528.605 .1286731
529.428 .1359352
530.250 .1428551
531.072 .1491363
531.892 .1543965
532.712 .1583347
533.532 .1607469
534.350 .1613823
535.168 .1602051
535.986 .1573151
536.802 .1529212
537.618 .1473203
538.434 .1406884
539.249 .1335973
540.063 .1262612
540.876 .1189333
541.689 .1118767
542.501 .1052804
543.313 .0993080
544.124 .0939899
544.934 .0892621
545.744 .0850729
546.553 .0813277
547.361 .0780140
548.169 .0750585
548.976 .0724048
549.783 .0700347
550.589 .0679073
551.395 .0659808
552.200 .0642432
553.004 .0626449
553.808 .0611606
554.611 .0597700
555.414 .0584692
556.216 .0572474
557.018 .0561100
557.819 .0550471
558.619 .0540598
559.419 .0531421
560.218 .0522994
561.017 .0515047
561.815 .0507481
562.613 .0500124
563.410 .0492950
564.207 .0485873
565.003 .0478946
565.799 .0472207
566.594 .0465653
567.388 .0459375
568.182 .0453384
568.976 .0447536
569.769 .0441857
570.562 .0436281
571.354 .0430814
572.145 .0425408
572.936 .0420068
573.727 .0414798
574.517 .0409655
575.307 .0404767
576.096 .0400145
576.885 .0395763
577.673 .0391674
578.461 .0387860
579.248 .0384318
580.035 .0381042
580.821 .0377991
581.607 .0375137
582.392 .0372499
583.177 .0370056
583.962 .0367757
584.746 .0365619
585.529 .0363670
586.313 .0361861
587.095 .0360183
587.878 .0358641
588.660 .0357221
589.441 .0355923
590.222 .0354747
591.003 .0353669
591.783 .0352671
592.563 .0351760
593.342 .0350908
594.121 .0350101
594.899 .0349358
595.678 .0348649
596.455 .0347974
597.233 .0347353
598.009 .0346774
598.786 .0346209
599.562 .0345667
600.338 .0345140
601.113 .0344615
601.888 .0344082
602.663 .0343545
603.437 .0342986
604.211 .0342424
604.984 .0341870
605.757 .0341319
606.530 .0340791
607.302 .0340293
608.074 .0339823
608.845 .0339384
609.616 .0338969
610.387 .0338569
611.158 .0338171
611.928 .0337778
612.697 .0337378
613.467 .0336972
614.236 .0336571
615.004 .0336184
615.773 .0335818
616.541 .0335484
617.308 .0335178
618.076 .0334897
618.843 .0334631
619.609 .0334364
620.375 .0334089
621.141 .0333794
621.907 .0333481
622.672 .0333150
623.437 .0332806
624.202 .0332459
624.966 .0332123
625.730 .0331805
626.493 .0331505
627.257 .0331222
628.020 .0330953
628.782 .0330688
629.545 .0330423
630.307 .0330153
631.068 .0329875
631.830 .0329594
632.591 .0329309
633.352 .0329022
634.112 .0328734
634.872 .0328451
635.632 .0328172
636.392 .0327897
637.151 .0327626
637.910 .0327348
638.668 .0327066
639.427 .0326786
640.185 .0326502
640.943 .0326223
641.700 .0325945
642.457 .0325677
643.214 .0325409
643.971 .0325136
644.727 .0324858
645.483 .0324574
646.239 .0324289
646.994 .0324003
647.750 .0323716
648.505 .0323436
649.259 .0323169
650.014 .0322919
650.768 .0322681
651.521 .0322454
652.275 .0322231
653.028 .0322008
653.781 .0321774
654.534 .0321535
655.286 .0321289
656.039 .0321032
656.791 .0320773
657.542 .0320501
658.294 .0320224
659.045 .0319941
659.796 .0319646
660.546 .0319347
661.297 .0319039
662.047 .0318727
662.796 .0318409
663.546 .0318096
664.295 .0317796
665.044 .0317504
665.793 .0317223
666.542 .0316954
667.290 .0316693
668.038 .0316439
668.786 .0316192
669.533 .0315951
670.281 .0315723
671.028 .0315504
671.774 .0315292
672.521 .0315092
673.267 .0314902
674.013 .0314723
674.759 .0314543
675.505 .0314363
676.250 .0314175
676.995 .0313972
677.740 .0313757
678.484 .0313528
679.229 .0313285
679.973 .0313036
680.717 .0312784
681.460 .0312531
682.204 .0312279
682.947 .0312036
683.690 .0311801
684.433 .0311572
685.175 .0311343
685.917 .0311112
686.659 .0310873
687.401 .0310626
688.142 .0310367
688.884 .0310104
689.625 .0309839
690.365 .0309578
691.106 .0309316
691.846 .0309061
692.586 .0308813
693.326 .0308570
694.066 .0308332
694.805 .0308096
695.545 .0307856
696.284 .0307612
697.022 .0307367
697.761 .0307126
698.499 .0306892
699.237 .0306674
699.975 .0306473
700.713 .0306295
701.450 .0306137
702.187 .0305996
702.924 .0305870
703.661 .0305755
704.397 .0305638
705.133 .0305517
705.869 .0305388
706.605 .0305255
707.341 .0305120
708.076 .0304991
708.811 .0304867
709.546 .0304752
710.281 .0304642
711.015 .0304534
711.749 .0304413
712.483 .0304284
713.217 .0304136
713.950 .0303968
714.684 .0303779
715.417 .0303577
716.150 .0303371
716.882 .0303173
717.615 .0302983
718.347 .0302802
719.079 .0302626
719.811 .0302456
720.542 .0302280
721.273 .0302099
722.005 .0301905
722.735 .0301706
723.466 .0301501
724.196 .0301299
724.927 .0301094
725.656 .0300892
726.386 .0300698
727.116 .0300507
727.845 .0300312
728.574 .0300111
729.303 .0299901
730.031 .0299688
730.760 .0299471
731.488 .0299255
732.216 .0299044
732.944 .0298847
733.671 .0298663
734.398 .0298495
735.125 .0298347
735.852 .0298212
736.579 .0298089
737.305 .0297978
738.031 .0297869
738.757 .0297757
739.483 .0297642
740.208 .0297523
740.933 .0297401
741.658 .0297278
742.383 .0297152
743.108 .0297025
743.832 .0296901
744.556 .0296772
745.280 .0296632
746.004 .0296484
746.727 .0296317
747.450 .0296128
748.173 .0295915
748.896 .0295687
749.618 .0295451
750.340 .0295217
751.062 .0294995
751.784 .0294790
752.506 .0294602
753.227 .0294432
753.948 .0294274
754.669 .0294122
755.389 .0293971
756.110 .0293813
756.830 .0293649
757.550 .0293481
758.269 .0293309
758.989 .0293145
759.708 .0292983
760.427 .0292834
761.146 .0292691
761.864 .0292547
762.582 .0292403
763.300 .0292258
764.018 .0292111
764.736 .0291962
765.453 .0291812
766.170 .0291665
766.887 .0291523
767.603 .0291392
768.320 .0291267
769.036 .0291147
769.751 .0291035
770.467 .0290923
771.182 .0290812
771.897 .0290706
772.612 .0290603
773.327 .0290507
774.041 .0290421
774.755 .0290343
775.469 .0290267
776.183 .0290190
776.896 .0290108
777.609 .0290020
778.322 .0289926
779.035 .0289825
779.747 .0289723
780.459 .0289628
781.171 .0289543
781.882 .0289471
782.594 .0289418
783.305 .0289380
784.016 .0289355
784.726 .0289337
785.436 .0289319
786.147 .0289296
786.856 .0289270
787.566 .0289238
788.275 .0289204
788.984 .0289172
789.693 .0289142
790.401 .0289116
791.110 .0289091
791.818 .0289065
792.525 .0289036
793.233 .0289001
793.940 .0288953
794.647 .0288893
795.353 .0288824
796.060 .0288746
796.766 .0288661
797.472 .0288574
798.177 .0288488
798.883 .0288403
799.588 .0288321
800.292 .0288242
800.997 .0288164
801.701 .0288092
802.405 .0288022
803.109 .0287955
803.812 .0287889
804.515 .0287827
805.218 .0287761
805.921 .0287694
806.623 .0287627
807.325 .0287556
808.027 .0287483
808.728 .0287409
809.429 .0287331
810.130 .0287245
810.831 .0287157
811.531 .0287063
812.231 .0286961
812.931 .0286851
813.630 .0286729
814.330 .0286597
815.029 .0286455
815.727 .0286309
816.426 .0286156
817.124 .0286007
817.821 .0285859
818.519 .0285710
819.216 .0285563
819.913 .0285420
820.609 .0285280
821.306 .0285144
822.002 .0285014
822.697 .0284889
823.393 .0284775
824.088 .0284670
824.783 .0284574
825.477 .0284484
826.171 .0284394
826.865 .0284303
827.559 .0284202
828.252 .0284092
828.945 .0283971
829.638 .0283842
830.330 .0283706
831.023 .0283567
831.714 .0283424
832.406 .0283276
833.097 .0283127
833.788 .0282969
834.479 .0282804
835.169 .0282631
835.859 .0282454
836.548 .0282271
837.238 .0282086
837.927 .0281904
838.615 .0281726
839.304 .0281561
839.992 .0281404
840.680 .0281255
841.367 .0281116
842.054 .0280983
842.741 .0280856
843.428 .0280735
844.114 .0280620
844.800 .0280509
845.485 .0280400
846.170 .0280290
846.855 .0280180
847.540 .0280066
848.224 .0279948
848.908 .0279826
849.592 .0279700
850.275 .0279564
850.958 .0279419
851.641 .0279265
852.323 .0279098
853.005 .0278918
853.687 .0278727
854.368 .0278518
855.049 .0278296
855.730 .0278063
856.410 .0277822
857.090 .0277576
857.769 .0277333
858.449 .0277089
859.128 .0276851
859.806 .0276619
860.485 .0276400
861.163 .0276188
861.840 .0275997
862.518 .0275822
863.195 .0275661
863.871 .0275517
864.548 .0275388
865.224 .0275268
865.899 .0275157
866.574 .0275053
867.249 .0274956
867.924 .0274861
868.598 .0274776
869.272 .0274696
869.946 .0274626
870.619 .0274563
871.292 .0274504
871.964 .0274443
872.636 .0274380
873.308 .0274307
873.979 .0274223
874.651 .0274125
875.321 .0274018
875.992 .0273906
876.662 .0273792
877.331 .0273683
878.001 .0273578
878.670 .0273480
879.338 .0273394
880.007 .0273313
880.675 .0273240
881.342 .0273173
882.009 .0273114
882.676 .0273057
883.343 .0273007
884.009 .0272959
884.675 .0272912
885.340 .0272869
886.005 .0272832
886.670 .0272805
887.334 .0272791
887.998 .0272794
888.662 .0272814
889.325 .0272850
889.988 .0272902
890.650 .0272958
891.312 .0273017
891.974 .0273070
892.636 .0273114
893.297 .0273147
893.957 .0273173
894.618 .0273197
895.278 .0273222
895.937 .0273251
896.596 .0273288
897.255 .0273327
897.914 .0273369
898.572 .0273411
899.230 .0273452
899.887 .0273489
900.544 .0273525
901.201 .0273556
901.857 .0273586
902.513 .0273613
903.168 .0273638
903.823 .0273652
904.478 .0273653
905.132 .0273643
905.786 .0273616
906.440 .0273577
907.093 .0273532
907.746 .0273479
908.399 .0273429
909.051 .0273377
909.703 .0273321
910.354 .0273257
911.005 .0273184
911.656 .0273098
912.306 .0272993
912.956 .0272871
913.605 .0272737
914.254 .0272598
914.903 .0272461
915.551 .0272332
916.199 .0272216
916.847 .0272114
917.494 .0272021
918.141 .0271933
918.788 .0271849
919.434 .0271763
920.079 .0271668
920.725 .0271569
921.370 .0271462
922.014 .0271351
922.658 .0271234
923.302 .0271115
923.946 .0270998
924.589 .0270874
925.231 .0270739
925.873 .0270599
926.515 .0270451
927.157 .0270299
927.798 .0270136
928.439 .0269969
929.079 .0269797
929.719 .0269619
930.359 .0269434
930.998 .0269240
931.637 .0269039
932.275 .0268832
932.913 .0268613
933.551 .0268391
934.188 .0268169
934.825 .0267953
935.462 .0267750
936.098 .0267565
936.733 .0267393
937.369 .0267237
938.004 .0267089
938.638 .0266948
939.273 .0266808
939.907 .0266668
940.540 .0266528
941.173 .0266390
941.806 .0266260
942.438 .0266143
943.070 .0266038
943.702 .0265949
944.333 .0265869
944.964 .0265792
945.594 .0265705
946.224 .0265610
946.854 .0265504
947.483 .0265389
948.112 .0265268
948.741 .0265143
949.369 .0265017
949.996 .0264899
950.624 .0264781
951.251 .0264665
951.878 .0264554
952.504 .0264437
953.130 .0264311
953.755 .0264174
954.380 .0264027
955.005 .0263871
955.629 .0263710
956.253 .0263545
956.877 .0263375
957.500 .0263204
958.123 .0263026
958.746 .0262836
959.368 .0262642
959.990 .0262437
960.611 .0262220
961.232 .0261998
961.853 .0261770
962.473 .0261542
963.093 .0261318
963.712 .0261098
964.331 .0260886
964.950 .0260680
965.569 .0260482
966.187 .0260289
966.804 .0260105
967.422 .0259934
968.039 .0259767
968.655 .0259610
969.272 .0259460
969.887 .0259307
970.503 .0259162
971.118 .0259019
971.733 .0258880
972.347 .0258744
972.961 .0258609
973.575 .0258473
974.188 .0258335
974.801 .0258190
975.414 .0258035
976.026 .0257865
976.638 .0257688
977.250 .0257500
977.861 .0257309
978.472 .0257121
979.083 .0256935
979.693 .0256750
980.303 .0256566
980.912 .0256373
981.521 .0256170
982.130 .0255948
982.738 .0255714
983.346 .0255467
983.954 .0255211
984.562 .0254957
985.169 .0254707
985.775 .0254464
986.382 .0254233
986.988 .0254006
987.594 .0253786
988.199 .0253566
988.804 .0253351
989.409 .0253137
990.013 .0252930
990.617 .0252734
991.221 .0252555
991.824 .0252400
992.427 .0252272
993.030 .0252165
993.632 .0252077
994.234 .0252009
994.836 .0251949
995.438 .0251897
996.039 .0251848
996.640 .0251803
997.240 .0251767
997.840 .0251737
998.440 .0251720
999.040 .0251714
999.639 .0251718
1000.238 .0251728
1000.836 .0251735
1001.435 .0251738
1002.033 .0251725
1002.630 .0251699
1003.228 .0251668
1003.825 .0251633
1004.422 .0251606
1005.018 .0251586
1005.614 .0251582
1006.210 .0251593
1006.806 .0251612
1007.401 .0251631
1007.996 .0251646
1008.591 .0251654
1009.186 .0251648
1009.780 .0251631
1010.374 .0251610
1010.967 .0251592
1011.561 .0251582
1012.154 .0251583
1012.746 .0251596
1013.339 .0251615
1013.931 .0251640
1014.523 .0251656
1015.115 .0251665
1015.706 .0251667
1016.298 .0251666
1016.888 .0251667
1017.479 .0251674
1018.069 .0251699
1018.660 .0251738
1019.250 .0251808
1019.839 .0251904
1020.429 .0252025
1021.018 .0252168
1021.607 .0252326
1022.195 .0252493
1022.784 .0252661
1023.372 .0252830
1023.960 .0253003
1024.547 .0253177
1025.135 .0253361
1025.722 .0253547
1026.309 .0253743
1026.896 .0253953
1027.483 .0254170
1028.069 .0254394
1028.655 .0254619
1029.241 .0254835
1029.827 .0255036
1030.412 .0255225
1030.997 .0255403
1031.582 .0255571
1032.167 .0255737
1032.752 .0255911
1033.336 .0256088
1033.921 .0256272
1034.505 .0256464
1035.089 .0256661
1035.672 .0256860
1036.256 .0257055
1036.839 .0257230
1037.422 .0257388
1038.005 .0257526
1038.588 .0257645
1039.171 .0257741
1039.753 .0257828
1040.335 .0257907
1040.918 .0257983
1041.500 .0258061
1042.081 .0258153
1042.663 .0258243
1043.244 .0258344
1043.826 .0258442
1044.407 .0258528
1044.988 .0258597
1045.569 .0258649
1046.150 .0258675
1046.730 .0258685
1047.311 .0258694
1047.891 .0258707
1048.471 .0258735
1049.052 .0258791
1049.632 .0258867
1050.211 .0258970
1050.791 .0259090
1051.371 .0259219
1051.950 .0259343
1052.530 .0259474
1053.109 .0259597
1053.688 .0259706
1054.268 .0259813
1054.847 .0259921
1055.426 .0260036
1056.005 .0260161
1056.583 .0260302
1057.162 .0260451
1057.741 .0260612
1058.319 .0260774
1058.898 .0260939
1059.476 .0261106
1060.055 .0261263
1060.633 .0261413
1061.211 .0261556
1061.790 .0261696
1062.368 .0261828
1062.946 .0261953
1063.524 .0262096
1064.102 .0262232
1064.680 .0262370
1065.258 .0262485
1065.836 .0262593
1066.414 .0262696
1066.992 .0262784
1067.570 .0262860
1068.148 .0262922
1068.726 .0262983
1069.304 .0263036
1069.882 .0263090
1070.460 .0263145
1071.038 .0263190
1071.616 .0263235
1072.194 .0263276
1072.772 .0263315
1073.350 .0263352
1073.928 .0263407
1074.506 .0263473
1075.084 .0263557
1075.662 .0263664
1076.240 .0263776
1076.819 .0263898
1077.397 .0264021
1077.976 .0264144
1078.554 .0264239
1079.133 .0264324
1079.711 .0264394
1080.290 .0264459
1080.869 .0264532
1081.448 .0264596
1082.027 .0264656
1082.606 .0264713
1083.185 .0264763
1083.764 .0264800
1084.343 .0264812
1084.923 .0264825
1085.502 .0264824
1086.082 .0264825
1086.662 .0264845
1087.242 .0264890
1087.822 .0264969
1088.402 .0265090
1088.983 .0265240
1089.563 .0265422
1090.144 .0265607
1090.725 .0265797
1091.306 .0265975
1091.887 .0266138
1092.469 .0266279
1093.050 .0266391
1093.632 .0266488
1094.214 .0266602
1094.796 .0266715
1095.379 .0266840
1095.961 .0266965
1096.544 .0267092
1097.127 .0267209
1097.710 .0267317
1098.294 .0267411
1098.877 .0267500
1099.461 .0267577
1100.046 .0267658
1100.630 .0267726
1101.215 .0267799
1101.800 .0267882
1102.385 .0267979
1102.970 .0268097
1103.556 .0268234
1104.142 .0268402
1104.728 .0268616
1105.315 .0268877
1105.902 .0269177
1106.489 .0269497
1107.077 .0269819
1107.664 .0270111
1108.253 .0270360
1108.841 .0270553
1109.430 .0270709
1110.019 .0270852
1110.609 .0270990
1111.198 .0271159
1111.789 .0271375
1112.379 .0271636
1112.970 .0271924
1113.561 .0272213
1114.153 .0272472
1114.745 .0272677
1115.338 .0272838
1115.931 .0272976
1116.524 .0273114
1117.117 .0273287
1117.712 .0273533
1118.306 .0273851
1118.901 .0274246
1119.496 .0274664
1120.092 .0275061
1120.689 .0275431
1121.285 .0275728
1121.882 .0275951
1122.480 .0276141
1123.078 .0276363
1123.677 .0276658
1124.276 .0277042
1124.875 .0277532
1125.476 .0278071
1126.076 .0278674
1126.677 .0279303
1127.279 .0279904
1127.881 .0280469
1128.484 .0281013
1129.087 .0281568
1129.691 .0282181
1130.295 .0282909
1130.900 .0283732
1131.505 .0284686
1132.111 .0285768
1132.718 .0286885
1133.325 .0287999
1133.933 .0289106
1134.541 .0290178
1135.150 .0291198
1135.760 .0292208
1136.370 .0293189
1136.981 .0294181
1137.592 .0295217
1138.204 .0296303
1138.817 .0297365
1139.431 .0298486
1140.045 .0299643
1140.660 .0300760
1141.275 .0302005
1141.891 .0303424
1142.508 .0304415
1143.126 .0306162
1143.744 .0305958
1144.363 .0310573
1144.983 .0314701
