Measurement Sequence started on: 15-12-46-377
Integration time: 28
Scans to Average: 2 
>>>>>Begin Spectral Data<<<<<
432.689 .0000100
433.621 .0000100
434.552 .0000100
435.482 .0000100
436.410 .0000100
437.337 .0000100
438.262 .0255889
439.187 .0541244
440.110 .0896657
441.031 .1298029
441.952 .1688136
442.871 .1995768
443.789 .2165669
444.705 .2179013
445.621 .2058981
446.535 .1856444
447.447 .1626694
448.359 .1272159
449.269 .1098814
450.178 .0989441
451.086 .0912055
451.993 .0852721
452.898 .0805568
453.803 .0766411
454.706 .0733423
455.608 .0705079
456.508 .0680402
457.408 .0658910
458.306 .0639923
459.204 .0622749
460.100 .0607114
460.995 .0592893
461.888 .0579854
462.781 .0567851
463.673 .0556890
464.563 .0546777
465.452 .0537448
466.340 .0528731
467.228 .0520677
468.114 .0513187
468.999 .0506278
469.882 .0499833
470.765 .0493873
471.647 .0488296
472.528 .0483116
473.407 .0478419
474.286 .0474292
475.163 .0470652
476.040 .0467556
476.915 .0464894
477.790 .0462656
478.663 .0460738
479.535 .0459120
480.407 .0457766
481.277 .0456676
482.147 .0455816
483.015 .0455176
483.883 .0454769
484.749 .0454700
485.615 .0454915
486.479 .0455464
487.343 .0456284
488.206 .0457286
489.067 .0458296
489.928 .0459294
490.788 .0460225
491.647 .0460966
492.505 .0461576
493.362 .0462110
494.218 .0462581
495.073 .0463112
495.928 .0463796
496.781 .0464618
497.634 .0465737
498.486 .0467148
499.337 .0468744
500.187 .0470515
501.036 .0472516
501.884 .0474748
502.731 .0477269
503.578 .0480250
504.424 .0483646
505.268 .0487461
506.113 .0491871
506.956 .0496698
507.798 .0501986
508.640 .0507855
509.480 .0514237
510.320 .0521207
511.160 .0528956
511.998 .0537394
512.836 .0546750
513.672 .0557197
514.508 .0568832
515.344 .0581663
516.178 .0596011
517.012 .0612025
517.845 .0629509
518.677 .0649197
519.508 .0671148
520.339 .0695690
521.169 .0723759
521.998 .0755490
522.826 .0791325
523.654 .0831903
524.481 .0877190
525.307 .0927449
526.133 .0982470
526.958 .1041898
527.782 .1104895
528.605 .1170133
529.428 .1237042
530.250 .1300413
531.072 .1358471
531.892 .1408601
532.712 .1447527
533.532 .1473679
534.350 .1485534
535.168 .1481267
535.986 .1462057
536.802 .1428804
537.618 .1383636
538.434 .1328394
539.249 .1267627
540.063 .1203083
540.876 .1137300
541.689 .1072918
542.501 .1011821
543.313 .0954574
544.124 .0902779
544.934 .0855044
545.744 .0810999
546.553 .0770675
547.361 .0734035
548.169 .0701362
548.976 .0672200
549.783 .0646517
550.589 .0624029
551.395 .0603989
552.200 .0586453
553.004 .0570730
553.808 .0556449
554.611 .0543601
555.414 .0532019
556.216 .0521424
557.018 .0512068
557.819 .0503799
558.619 .0496466
559.419 .0490057
560.218 .0484345
561.017 .0478992
561.815 .0473670
562.613 .0468350
563.410 .0462680
564.207 .0456681
565.003 .0450479
565.799 .0444031
566.594 .0437465
567.388 .0431080
568.182 .0424831
568.976 .0418729
569.769 .0412851
570.562 .0407145
571.354 .0401470
572.145 .0395963
572.936 .0390557
573.727 .0385306
574.517 .0380320
575.307 .0375616
576.096 .0371197
576.885 .0367131
577.673 .0363428
578.461 .0360042
579.248 .0356935
580.035 .0354072
580.821 .0351394
581.607 .0348852
582.392 .0346451
583.177 .0344186
583.962 .0342071
584.746 .0340127
585.529 .0338342
586.313 .0336717
587.095 .0335245
587.878 .0333889
588.660 .0332659
589.441 .0331535
590.222 .0330487
591.003 .0329510
591.783 .0328588
592.563 .0327737
593.342 .0326960
594.121 .0326223
594.899 .0325559
595.678 .0324962
596.455 .0324426
597.233 .0323930
598.009 .0323457
598.786 .0322992
599.562 .0322522
600.338 .0322038
601.113 .0321535
601.888 .0321022
602.663 .0320517
603.437 .0320035
604.211 .0319584
604.984 .0319170
605.757 .0318783
606.530 .0318413
607.302 .0318057
608.074 .0317699
608.845 .0317329
609.616 .0316952
610.387 .0316578
611.158 .0316219
611.928 .0315887
612.697 .0315583
613.467 .0315315
614.236 .0315081
615.004 .0314863
615.773 .0314648
616.541 .0314428
617.308 .0314197
618.076 .0313961
618.843 .0313725
619.609 .0313499
620.375 .0313287
621.141 .0313095
621.907 .0312919
622.672 .0312750
623.437 .0312578
624.202 .0312393
624.966 .0312189
625.730 .0311974
626.493 .0311732
627.257 .0311475
628.020 .0311220
628.782 .0310964
629.545 .0310704
630.307 .0310446
631.068 .0310185
631.830 .0309921
632.591 .0309647
633.352 .0309365
634.112 .0309075
634.872 .0308787
635.632 .0308498
636.392 .0308205
637.151 .0307924
637.910 .0307653
638.668 .0307385
639.427 .0307128
640.185 .0306880
640.943 .0306630
641.700 .0306384
642.457 .0306143
643.214 .0305901
643.971 .0305653
644.727 .0305399
645.483 .0305138
646.239 .0304878
646.994 .0304614
647.750 .0304350
648.505 .0304092
649.259 .0303848
650.014 .0303613
650.768 .0303386
651.521 .0303170
652.275 .0302961
653.028 .0302755
653.781 .0302549
654.534 .0302335
655.286 .0302122
656.039 .0301903
656.791 .0301682
657.542 .0301457
658.294 .0301228
659.045 .0301000
659.796 .0300770
660.546 .0300540
661.297 .0300303
662.047 .0300058
662.796 .0299804
663.546 .0299540
664.295 .0299271
665.044 .0299001
665.793 .0298732
666.542 .0298469
667.290 .0298221
668.038 .0297982
668.786 .0297758
669.533 .0297552
670.281 .0297358
671.028 .0297177
671.774 .0296996
672.521 .0296819
673.267 .0296645
674.013 .0296475
674.759 .0296307
675.505 .0296137
676.250 .0295972
676.995 .0295810
677.740 .0295649
678.484 .0295496
679.229 .0295349
679.973 .0295212
680.717 .0295075
681.460 .0294927
682.204 .0294767
682.947 .0294594
683.690 .0294403
684.433 .0294197
685.175 .0293978
685.917 .0293752
686.659 .0293524
687.401 .0293300
688.142 .0293083
688.884 .0292872
689.625 .0292663
690.365 .0292451
691.106 .0292228
691.846 .0292000
692.586 .0291762
693.326 .0291518
694.066 .0291278
694.805 .0291042
695.545 .0290814
696.284 .0290592
697.022 .0290383
697.761 .0290183
698.499 .0289984
699.237 .0289784
699.975 .0289580
700.713 .0289370
701.450 .0289157
702.187 .0288937
702.924 .0288720
703.661 .0288510
704.397 .0288310
705.133 .0288116
705.869 .0287936
706.605 .0287777
707.341 .0287631
708.076 .0287496
708.811 .0287369
709.546 .0287240
710.281 .0287104
711.015 .0286960
711.749 .0286803
712.483 .0286633
713.217 .0286453
713.950 .0286264
714.684 .0286077
715.417 .0285891
716.150 .0285708
716.882 .0285532
717.615 .0285360
718.347 .0285184
719.079 .0284993
719.811 .0284797
720.542 .0284594
721.273 .0284385
722.005 .0284172
722.735 .0283963
723.466 .0283763
724.196 .0283575
724.927 .0283400
725.656 .0283236
726.386 .0283082
727.116 .0282931
727.845 .0282779
728.574 .0282625
729.303 .0282467
730.031 .0282304
730.760 .0282138
731.488 .0281972
732.216 .0281805
732.944 .0281636
733.671 .0281475
734.398 .0281324
735.125 .0281188
735.852 .0281066
736.579 .0280954
737.305 .0280856
738.031 .0280766
738.757 .0280681
739.483 .0280592
740.208 .0280497
740.933 .0280394
741.658 .0280280
742.383 .0280163
743.108 .0280044
743.832 .0279931
744.556 .0279826
745.280 .0279728
746.004 .0279639
746.727 .0279554
747.450 .0279470
748.173 .0279381
748.896 .0279285
749.618 .0279181
750.340 .0279070
751.062 .0278953
751.784 .0278837
752.506 .0278725
753.227 .0278617
753.948 .0278513
754.669 .0278408
755.389 .0278304
756.110 .0278198
756.830 .0278086
757.550 .0277971
758.269 .0277852
758.989 .0277732
759.708 .0277605
760.427 .0277477
761.146 .0277350
761.864 .0277220
762.582 .0277089
763.300 .0276956
764.018 .0276824
764.736 .0276694
765.453 .0276561
766.170 .0276429
766.887 .0276294
767.603 .0276158
768.320 .0276015
769.036 .0275865
769.751 .0275713
770.467 .0275558
771.182 .0275402
771.897 .0275246
772.612 .0275095
773.327 .0274950
774.041 .0274811
774.755 .0274681
775.469 .0274556
776.183 .0274437
776.896 .0274323
777.609 .0274215
778.322 .0274113
779.035 .0274016
779.747 .0273923
780.459 .0273839
781.171 .0273761
781.882 .0273686
782.594 .0273608
783.305 .0273533
784.016 .0273460
784.726 .0273392
785.436 .0273329
786.147 .0273272
786.856 .0273227
787.566 .0273191
788.275 .0273160
788.984 .0273133
789.693 .0273106
790.401 .0273071
791.110 .0273024
791.818 .0272968
792.525 .0272896
793.233 .0272813
793.940 .0272720
794.647 .0272622
795.353 .0272509
796.060 .0272389
796.766 .0272254
797.472 .0272105
798.177 .0271944
798.883 .0271767
799.588 .0271581
800.292 .0271392
800.997 .0271203
801.701 .0271017
802.405 .0270839
803.109 .0270677
803.812 .0270527
804.515 .0270390
805.218 .0270264
805.921 .0270148
806.623 .0270040
807.325 .0269943
808.027 .0269851
808.728 .0269757
809.429 .0269661
810.130 .0269558
810.831 .0269445
811.531 .0269319
812.231 .0269182
812.931 .0269034
813.630 .0268878
814.330 .0268717
815.029 .0268549
815.727 .0268380
816.426 .0268211
817.124 .0268038
817.821 .0267860
818.519 .0267679
819.216 .0267495
819.913 .0267313
820.609 .0267142
821.306 .0266981
822.002 .0266839
822.697 .0266718
823.393 .0266625
824.088 .0266552
824.783 .0266491
825.477 .0266437
826.171 .0266386
826.865 .0266331
827.559 .0266271
828.252 .0266206
828.945 .0266139
829.638 .0266069
830.330 .0266003
831.023 .0265938
831.714 .0265872
832.406 .0265799
833.097 .0265718
833.788 .0265620
834.479 .0265505
835.169 .0265371
835.859 .0265223
836.548 .0265069
837.238 .0264908
837.927 .0264746
838.615 .0264587
839.304 .0264437
839.992 .0264298
840.680 .0264164
841.367 .0264039
842.054 .0263920
842.741 .0263803
843.428 .0263690
844.114 .0263580
844.800 .0263474
845.485 .0263369
846.170 .0263262
846.855 .0263155
847.540 .0263045
848.224 .0262935
848.908 .0262828
849.592 .0262719
850.275 .0262618
850.958 .0262515
851.641 .0262409
852.323 .0262295
853.005 .0262170
853.687 .0262027
854.368 .0261865
855.049 .0261685
855.730 .0261495
856.410 .0261292
857.090 .0261095
857.769 .0260899
858.449 .0260712
859.128 .0260531
859.806 .0260358
860.485 .0260188
861.163 .0260022
861.840 .0259858
862.518 .0259693
863.195 .0259530
863.871 .0259376
864.548 .0259228
865.224 .0259089
865.899 .0258963
866.574 .0258846
867.249 .0258737
867.924 .0258641
868.598 .0258552
869.272 .0258475
869.946 .0258409
870.619 .0258352
871.292 .0258303
871.964 .0258254
872.636 .0258206
873.308 .0258149
873.979 .0258089
874.651 .0258019
875.321 .0257939
875.992 .0257852
876.662 .0257761
877.331 .0257669
878.001 .0257580
878.670 .0257492
879.338 .0257407
880.007 .0257323
880.675 .0257243
881.342 .0257162
882.009 .0257082
882.676 .0257005
883.343 .0256934
884.009 .0256865
884.675 .0256798
885.340 .0256731
886.005 .0256667
886.670 .0256609
887.334 .0256560
887.998 .0256517
888.662 .0256483
889.325 .0256462
889.988 .0256451
890.650 .0256445
891.312 .0256445
891.974 .0256441
892.636 .0256431
893.297 .0256419
893.957 .0256398
894.618 .0256372
895.278 .0256347
895.937 .0256326
896.596 .0256312
897.255 .0256300
897.914 .0256293
898.572 .0256282
899.230 .0256271
899.887 .0256256
900.544 .0256232
901.201 .0256204
901.857 .0256174
902.513 .0256142
903.168 .0256107
903.823 .0256070
904.478 .0256027
905.132 .0255977
905.786 .0255921
906.440 .0255857
907.093 .0255784
907.746 .0255704
908.399 .0255621
909.051 .0255531
909.703 .0255436
910.354 .0255336
911.005 .0255226
911.656 .0255111
912.306 .0254983
912.956 .0254844
913.605 .0254693
914.254 .0254535
914.903 .0254370
915.551 .0254198
916.199 .0254032
916.847 .0253872
917.494 .0253722
918.141 .0253584
918.788 .0253458
919.434 .0253346
920.079 .0253241
920.725 .0253148
921.370 .0253060
922.014 .0252977
922.658 .0252896
923.302 .0252820
923.946 .0252744
924.589 .0252669
925.231 .0252594
925.873 .0252514
926.515 .0252430
927.157 .0252341
927.798 .0252242
928.439 .0252136
929.079 .0252023
929.719 .0251907
930.359 .0251782
930.998 .0251654
931.637 .0251519
932.275 .0251378
932.913 .0251231
933.551 .0251077
934.188 .0250915
934.825 .0250752
935.462 .0250597
936.098 .0250450
936.733 .0250319
937.369 .0250204
938.004 .0250103
938.638 .0250008
939.273 .0249914
939.907 .0249819
940.540 .0249721
941.173 .0249624
941.806 .0249533
942.438 .0249450
943.070 .0249385
943.702 .0249333
944.333 .0249298
944.964 .0249277
945.594 .0249263
946.224 .0249245
946.854 .0249226
947.483 .0249204
948.112 .0249185
948.741 .0249163
949.369 .0249145
949.996 .0249130
950.624 .0249112
951.251 .0249089
951.878 .0249056
952.504 .0249012
953.130 .0248961
953.755 .0248898
954.380 .0248833
955.005 .0248765
955.629 .0248693
956.253 .0248617
956.877 .0248541
957.500 .0248460
958.123 .0248372
958.746 .0248271
959.368 .0248161
959.990 .0248046
960.611 .0247925
961.232 .0247801
961.853 .0247679
962.473 .0247563
963.093 .0247449
963.712 .0247331
964.331 .0247213
964.950 .0247096
965.569 .0246983
966.187 .0246874
966.804 .0246772
967.422 .0246680
968.039 .0246596
968.655 .0246519
969.272 .0246449
969.887 .0246381
970.503 .0246311
971.118 .0246239
971.733 .0246165
972.347 .0246088
972.961 .0246011
973.575 .0245933
974.188 .0245859
974.801 .0245787
975.414 .0245706
976.026 .0245613
976.638 .0245514
977.250 .0245406
977.861 .0245289
978.472 .0245165
979.083 .0245040
979.693 .0244910
980.303 .0244779
980.912 .0244644
981.521 .0244505
982.130 .0244364
982.738 .0244218
983.346 .0244062
983.954 .0243905
984.562 .0243750
985.169 .0243588
985.775 .0243427
986.382 .0243270
986.988 .0243115
987.594 .0242957
988.199 .0242800
988.804 .0242645
989.409 .0242490
990.013 .0242340
990.617 .0242195
991.221 .0242055
991.824 .0241932
992.427 .0241822
993.030 .0241732
993.632 .0241665
994.234 .0241620
994.836 .0241590
995.438 .0241581
996.039 .0241584
996.640 .0241589
997.240 .0241595
997.840 .0241608
998.440 .0241619
999.040 .0241623
999.639 .0241622
1000.238 .0241614
1000.836 .0241599
1001.435 .0241583
1002.033 .0241553
1002.630 .0241518
1003.228 .0241481
1003.825 .0241446
1004.422 .0241415
1005.018 .0241390
1005.614 .0241373
1006.210 .0241361
1006.806 .0241353
1007.401 .0241337
1007.996 .0241303
1008.591 .0241257
1009.186 .0241198
1009.780 .0241126
1010.374 .0241049
1010.967 .0240975
1011.561 .0240903
1012.154 .0240842
1012.746 .0240789
1013.339 .0240735
1013.931 .0240673
1014.523 .0240596
1015.115 .0240500
1015.706 .0240387
1016.298 .0240261
1016.888 .0240133
1017.479 .0240015
1018.069 .0239923
1018.660 .0239854
1019.250 .0239812
1019.839 .0239797
1020.429 .0239808
1021.018 .0239828
1021.607 .0239857
1022.195 .0239891
1022.784 .0239927
1023.372 .0239964
1023.960 .0240010
1024.547 .0240065
1025.135 .0240132
1025.722 .0240204
1026.309 .0240283
1026.896 .0240356
1027.483 .0240431
1028.069 .0240492
1028.655 .0240543
1029.241 .0240591
1029.827 .0240641
1030.412 .0240684
1030.997 .0240728
1031.582 .0240781
1032.167 .0240837
1032.752 .0240891
1033.336 .0240945
1033.921 .0240988
1034.505 .0241024
1035.089 .0241045
1035.672 .0241057
1036.256 .0241060
1036.839 .0241061
1037.422 .0241054
1038.005 .0241047
1038.588 .0241042
1039.171 .0241031
1039.753 .0241018
1040.335 .0241002
1040.918 .0240983
1041.500 .0240956
1042.081 .0240919
1042.663 .0240873
1043.244 .0240826
1043.826 .0240782
1044.407 .0240721
1044.988 .0240667
1045.569 .0240611
1046.150 .0240553
1046.730 .0240497
1047.311 .0240445
1047.891 .0240403
1048.471 .0240375
1049.052 .0240352
1049.632 .0240327
1050.211 .0240302
1050.791 .0240284
1051.371 .0240251
1051.950 .0240219
1052.530 .0240186
1053.109 .0240153
1053.688 .0240111
1054.268 .0240086
1054.847 .0240064
1055.426 .0240062
1056.005 .0240074
1056.583 .0240093
1057.162 .0240122
1057.741 .0240151
1058.319 .0240172
1058.898 .0240200
1059.476 .0240229
1060.055 .0240264
1060.633 .0240296
1061.211 .0240344
1061.790 .0240401
1062.368 .0240470
1062.946 .0240544
1063.524 .0240616
1064.102 .0240682
1064.680 .0240737
1065.258 .0240759
1065.836 .0240772
1066.414 .0240782
1066.992 .0240777
1067.570 .0240777
1068.148 .0240779
1068.726 .0240777
1069.304 .0240781
1069.882 .0240775
1070.460 .0240755
1071.038 .0240717
1071.616 .0240673
1072.194 .0240615
1072.772 .0240541
1073.350 .0240495
1073.928 .0240450
1074.506 .0240422
1075.084 .0240421
1075.662 .0240427
1076.240 .0240448
1076.819 .0240475
1077.397 .0240492
1077.976 .0240493
1078.554 .0240492
1079.133 .0240479
1079.711 .0240450
1080.290 .0240436
1080.869 .0240423
1081.448 .0240409
1082.027 .0240399
1082.606 .0240398
1083.185 .0240382
1083.764 .0240375
1084.343 .0240371
1084.923 .0240371
1085.502 .0240400
1086.082 .0240449
1086.662 .0240539
1087.242 .0240672
1087.822 .0240850
1088.402 .0241042
1088.983 .0241239
1089.563 .0241450
1090.144 .0241622
1090.725 .0241776
1091.306 .0241891
1091.887 .0241982
1092.469 .0242070
1093.050 .0242169
1093.632 .0242290
1094.214 .0242436
1094.796 .0242624
1095.379 .0242820
1095.961 .0243023
1096.544 .0243223
1097.127 .0243404
1097.710 .0243573
1098.294 .0243734
1098.877 .0243888
1099.461 .0244049
1100.046 .0244245
1100.630 .0244466
1101.215 .0244702
1101.800 .0244936
1102.385 .0245146
1102.970 .0245318
1103.556 .0245442
1104.142 .0245536
1104.728 .0245621
1105.315 .0245715
1105.902 .0245829
1106.489 .0245976
1107.077 .0246162
1107.664 .0246385
1108.253 .0246629
1108.841 .0246893
1109.430 .0247185
1110.019 .0247502
1110.609 .0247843
1111.198 .0248241
1111.789 .0248724
1112.379 .0249263
1112.970 .0249862
1113.561 .0250498
1114.153 .0251136
1114.745 .0251751
1115.338 .0252338
1115.931 .0252876
1116.524 .0253359
1117.117 .0253805
1117.712 .0254218
1118.306 .0254608
1118.901 .0254999
1119.496 .0255360
1120.092 .0255706
1120.689 .0256057
1121.285 .0256380
1121.882 .0256671
1122.480 .0256986
1123.078 .0257310
1123.677 .0257654
1124.276 .0258032
1124.875 .0258432
1125.476 .0258848
1126.076 .0259286
1126.677 .0259765
1127.279 .0260266
1127.881 .0260810
1128.484 .0261409
1129.087 .0262029
1129.691 .0262708
1130.295 .0263390
1130.900 .0264046
1131.505 .0264709
1132.111 .0265368
1132.718 .0266013
1133.325 .0266679
1133.933 .0267374
1134.541 .0268147
1135.150 .0269004
1135.760 .0269993
1136.370 .0271069
1136.981 .0272244
1137.592 .0273474
1138.204 .0274725
1138.817 .0275998
1139.431 .0277336
1140.045 .0278671
1140.660 .0280023
1141.275 .0281500
1141.891 .0282798
1142.508 .0285364
1143.126 .0286249
1143.744 .0286603
1144.363 .0291274
1144.983 .0285524
