Measurement Sequence started on: 15-12-46-377
Integration time: 28
Scans to Average: 2 
>>>>>Begin Spectral Data<<<<<
432.689 .0000100
433.621 .0000100
434.552 .0000100
435.482 .0000100
436.410 .0000100
437.337 .0000100
438.262 .0281251
439.187 .0594470
440.110 .0983755
441.031 .1421491
441.952 .1845479
442.871 .2177501
443.789 .2357049
444.705 .2363758
445.621 .2224267
446.535 .1995138
447.447 .1737506
448.359 .1344295
449.269 .1151736
450.178 .1030732
451.086 .0946186
451.993 .0881276
452.898 .0829762
453.803 .0787223
454.706 .0751706
455.608 .0721066
456.508 .0694430
457.408 .0671035
458.306 .0650144
459.204 .0631157
460.100 .0613787
460.995 .0597926
461.888 .0583538
462.781 .0570339
463.673 .0558373
464.563 .0547440
465.452 .0537392
466.340 .0527967
467.228 .0519399
468.114 .0511458
468.999 .0504201
469.882 .0497489
470.765 .0491423
471.647 .0485950
472.528 .0481114
473.407 .0476839
474.286 .0473125
475.163 .0469906
476.040 .0467156
476.915 .0464747
477.790 .0462659
478.663 .0460831
479.535 .0459243
480.407 .0457910
481.277 .0456842
482.147 .0456021
483.015 .0455432
483.883 .0455018
484.749 .0454798
485.615 .0454785
486.479 .0454903
487.343 .0455168
488.206 .0455587
489.067 .0456153
489.928 .0456799
490.788 .0457584
491.647 .0458478
492.505 .0459505
493.362 .0460665
494.218 .0461958
495.073 .0463354
495.928 .0464995
496.781 .0466738
497.634 .0468730
498.486 .0470948
499.337 .0473456
500.187 .0476128
501.036 .0479109
501.884 .0482434
502.731 .0486059
503.578 .0489966
504.424 .0494234
505.268 .0498736
506.113 .0503477
506.956 .0508437
507.798 .0513792
508.640 .0519598
509.480 .0526033
510.320 .0533119
511.160 .0541065
511.998 .0549793
512.836 .0559467
513.672 .0569956
514.508 .0581472
515.344 .0594065
516.178 .0608029
517.012 .0623807
517.845 .0641977
518.677 .0662736
519.508 .0686489
520.339 .0713657
521.169 .0745030
521.998 .0780285
522.826 .0820160
523.654 .0864722
524.481 .0914207
525.307 .0969115
526.133 .1029128
526.958 .1093961
527.782 .1163054
528.605 .1234491
529.428 .1307662
530.250 .1376576
531.072 .1439347
531.892 .1491908
532.712 .1531714
533.532 .1556550
534.350 .1563982
535.168 .1553433
535.986 .1526144
536.802 .1483539
537.618 .1428607
538.434 .1363029
539.249 .1292764
540.063 .1219791
540.876 .1147400
541.689 .1077791
542.501 .1013162
543.313 .0954781
544.124 .0902878
544.934 .0855932
545.744 .0813641
546.553 .0775176
547.361 .0740521
548.169 .0709519
548.976 .0681639
549.783 .0656850
550.589 .0635047
551.395 .0615594
552.200 .0598319
553.004 .0582650
553.808 .0568312
554.611 .0554901
555.414 .0542406
556.216 .0530762
557.018 .0519883
557.819 .0509866
558.619 .0500783
559.419 .0492415
560.218 .0484771
561.017 .0477613
561.815 .0470871
562.613 .0464430
563.410 .0458263
564.207 .0452217
565.003 .0446360
565.799 .0440716
566.594 .0435277
567.388 .0430061
568.182 .0425098
568.976 .0420321
569.769 .0415780
570.562 .0411310
571.354 .0406895
572.145 .0402474
572.936 .0398067
573.727 .0393644
574.517 .0389251
575.307 .0384861
576.096 .0380589
576.885 .0376445
577.673 .0372491
578.461 .0368727
579.248 .0365228
580.035 .0361953
580.821 .0358899
581.607 .0356041
582.392 .0353345
583.177 .0350769
583.962 .0348379
584.746 .0346156
585.529 .0344117
586.313 .0342255
587.095 .0340602
587.878 .0339113
588.660 .0337799
589.441 .0336633
590.222 .0335611
591.003 .0334702
591.783 .0333877
592.563 .0333102
593.342 .0332393
594.121 .0331721
594.899 .0331073
595.678 .0330438
596.455 .0329824
597.233 .0329207
598.009 .0328598
598.786 .0327996
599.562 .0327405
600.338 .0326822
601.113 .0326241
601.888 .0325663
602.663 .0325091
603.437 .0324519
604.211 .0323944
604.984 .0323373
605.757 .0322812
606.530 .0322251
607.302 .0321709
608.074 .0321196
608.845 .0320717
609.616 .0320275
610.387 .0319865
611.158 .0319495
611.928 .0319146
612.697 .0318821
613.467 .0318513
614.236 .0318227
615.004 .0317961
615.773 .0317707
616.541 .0317469
617.308 .0317252
618.076 .0317054
618.843 .0316868
619.609 .0316687
620.375 .0316512
621.141 .0316324
621.907 .0316126
622.672 .0315912
623.437 .0315688
624.202 .0315445
624.966 .0315194
625.730 .0314931
626.493 .0314661
627.257 .0314386
628.020 .0314103
628.782 .0313821
629.545 .0313539
630.307 .0313260
631.068 .0312987
631.830 .0312722
632.591 .0312478
633.352 .0312246
634.112 .0312037
634.872 .0311842
635.632 .0311658
636.392 .0311484
637.151 .0311318
637.910 .0311156
638.668 .0310995
639.427 .0310831
640.185 .0310663
640.943 .0310487
641.700 .0310299
642.457 .0310097
643.214 .0309881
643.971 .0309646
644.727 .0309403
645.483 .0309145
646.239 .0308880
646.994 .0308619
647.750 .0308365
648.505 .0308124
649.259 .0307899
650.014 .0307695
650.768 .0307503
651.521 .0307326
652.275 .0307165
653.028 .0307016
653.781 .0306880
654.534 .0306758
655.286 .0306642
656.039 .0306528
656.791 .0306412
657.542 .0306281
658.294 .0306136
659.045 .0305979
659.796 .0305806
660.546 .0305618
661.297 .0305417
662.047 .0305211
662.796 .0304992
663.546 .0304769
664.295 .0304539
665.044 .0304296
665.793 .0304038
666.542 .0303770
667.290 .0303489
668.038 .0303206
668.786 .0302925
669.533 .0302657
670.281 .0302404
671.028 .0302168
671.774 .0301941
672.521 .0301729
673.267 .0301525
674.013 .0301325
674.759 .0301120
675.505 .0300915
676.250 .0300702
676.995 .0300485
677.740 .0300268
678.484 .0300056
679.229 .0299848
679.973 .0299649
680.717 .0299452
681.460 .0299258
682.204 .0299057
682.947 .0298850
683.690 .0298632
684.433 .0298403
685.175 .0298152
685.917 .0297880
686.659 .0297595
687.401 .0297302
688.142 .0297006
688.884 .0296720
689.625 .0296449
690.365 .0296193
691.106 .0295947
691.846 .0295709
692.586 .0295470
693.326 .0295228
694.066 .0294976
694.805 .0294718
695.545 .0294454
696.284 .0294192
697.022 .0293942
697.761 .0293713
698.499 .0293508
699.237 .0293325
699.975 .0293159
700.713 .0293008
701.450 .0292858
702.187 .0292703
702.924 .0292540
703.661 .0292375
704.397 .0292204
705.133 .0292030
705.869 .0291861
706.605 .0291705
707.341 .0291560
708.076 .0291429
708.811 .0291306
709.546 .0291187
710.281 .0291066
711.015 .0290941
711.749 .0290807
712.483 .0290666
713.217 .0290514
713.950 .0290352
714.684 .0290183
715.417 .0290010
716.150 .0289835
716.882 .0289663
717.615 .0289500
718.347 .0289344
719.079 .0289194
719.811 .0289046
720.542 .0288901
721.273 .0288755
722.005 .0288606
722.735 .0288451
723.466 .0288293
724.196 .0288129
724.927 .0287964
725.656 .0287799
726.386 .0287641
727.116 .0287491
727.845 .0287348
728.574 .0287206
729.303 .0287071
730.031 .0286934
730.760 .0286800
731.488 .0286667
732.216 .0286538
732.944 .0286410
733.671 .0286287
734.398 .0286169
735.125 .0286063
735.852 .0285972
736.579 .0285899
737.305 .0285840
738.031 .0285802
738.757 .0285774
739.483 .0285752
740.208 .0285731
740.933 .0285708
741.658 .0285674
742.383 .0285633
743.108 .0285577
743.832 .0285517
744.556 .0285459
745.280 .0285405
746.004 .0285354
746.727 .0285315
747.450 .0285282
748.173 .0285251
748.896 .0285217
749.618 .0285178
750.340 .0285126
751.062 .0285068
751.784 .0285001
752.506 .0284923
753.227 .0284842
753.948 .0284761
754.669 .0284675
755.389 .0284589
756.110 .0284494
756.830 .0284390
757.550 .0284276
758.269 .0284154
758.989 .0284016
759.708 .0283867
760.427 .0283711
761.146 .0283545
761.864 .0283372
762.582 .0283195
763.300 .0283012
764.018 .0282826
764.736 .0282642
765.453 .0282454
766.170 .0282266
766.887 .0282081
767.603 .0281896
768.320 .0281713
769.036 .0281534
769.751 .0281360
770.467 .0281187
771.182 .0281020
771.897 .0280856
772.612 .0280691
773.327 .0280530
774.041 .0280368
774.755 .0280206
775.469 .0280045
776.183 .0279889
776.896 .0279736
777.609 .0279596
778.322 .0279469
779.035 .0279351
779.747 .0279247
780.459 .0279154
781.171 .0279068
781.882 .0278987
782.594 .0278910
783.305 .0278833
784.016 .0278754
784.726 .0278673
785.436 .0278584
786.147 .0278492
786.856 .0278397
787.566 .0278298
788.275 .0278199
788.984 .0278097
789.693 .0277994
790.401 .0277884
791.110 .0277770
791.818 .0277651
792.525 .0277525
793.233 .0277392
793.940 .0277250
794.647 .0277095
795.353 .0276928
796.060 .0276753
796.766 .0276565
797.472 .0276368
798.177 .0276165
798.883 .0275955
799.588 .0275740
800.292 .0275522
800.997 .0275304
801.701 .0275084
802.405 .0274868
803.109 .0274654
803.812 .0274439
804.515 .0274227
805.218 .0274009
805.921 .0273788
806.623 .0273564
807.325 .0273338
808.027 .0273109
808.728 .0272882
809.429 .0272662
810.130 .0272450
810.831 .0272249
811.531 .0272060
812.231 .0271878
812.931 .0271698
813.630 .0271517
814.330 .0271330
815.029 .0271134
815.727 .0270936
816.426 .0270736
817.124 .0270541
817.821 .0270356
818.519 .0270183
819.216 .0270028
819.913 .0269889
820.609 .0269767
821.306 .0269654
822.002 .0269551
822.697 .0269454
823.393 .0269357
824.088 .0269261
824.783 .0269167
825.477 .0269075
826.171 .0268986
826.865 .0268905
827.559 .0268832
828.252 .0268766
828.945 .0268709
829.638 .0268657
830.330 .0268613
831.023 .0268572
831.714 .0268538
832.406 .0268504
833.097 .0268477
833.788 .0268454
834.479 .0268434
835.169 .0268425
835.859 .0268423
836.548 .0268433
837.238 .0268453
837.927 .0268484
838.615 .0268519
839.304 .0268552
839.992 .0268586
840.680 .0268615
841.367 .0268636
842.054 .0268650
842.741 .0268658
843.428 .0268665
844.114 .0268672
844.800 .0268682
845.485 .0268688
846.170 .0268693
846.855 .0268689
847.540 .0268675
848.224 .0268648
848.908 .0268613
849.592 .0268566
850.275 .0268516
850.958 .0268464
851.641 .0268412
852.323 .0268358
853.005 .0268307
853.687 .0268253
854.368 .0268199
855.049 .0268139
855.730 .0268078
856.410 .0268014
857.090 .0267953
857.769 .0267891
858.449 .0267833
859.128 .0267780
859.806 .0267730
860.485 .0267683
861.163 .0267642
861.840 .0267602
862.518 .0267567
863.195 .0267534
863.871 .0267503
864.548 .0267473
865.224 .0267444
865.899 .0267411
866.574 .0267375
867.249 .0267334
867.924 .0267285
868.598 .0267230
869.272 .0267173
869.946 .0267119
870.619 .0267072
871.292 .0267035
871.964 .0267007
872.636 .0266987
873.308 .0266971
873.979 .0266954
874.651 .0266934
875.321 .0266911
875.992 .0266880
876.662 .0266851
877.331 .0266821
878.001 .0266793
878.670 .0266771
879.338 .0266755
880.007 .0266744
880.675 .0266736
881.342 .0266727
882.009 .0266711
882.676 .0266691
883.343 .0266669
884.009 .0266644
884.675 .0266621
885.340 .0266601
886.005 .0266583
886.670 .0266568
887.334 .0266561
887.998 .0266557
888.662 .0266557
889.325 .0266558
889.988 .0266560
890.650 .0266562
891.312 .0266563
891.974 .0266568
892.636 .0266577
893.297 .0266593
893.957 .0266615
894.618 .0266639
895.278 .0266664
895.937 .0266694
896.596 .0266723
897.255 .0266750
897.914 .0266772
898.572 .0266786
899.230 .0266789
899.887 .0266782
900.544 .0266763
901.201 .0266733
901.857 .0266687
902.513 .0266627
903.168 .0266544
903.823 .0266435
904.478 .0266299
905.132 .0266134
905.786 .0265940
906.440 .0265724
907.093 .0265484
907.746 .0265226
908.399 .0264961
909.051 .0264692
909.703 .0264421
910.354 .0264147
911.005 .0263874
911.656 .0263600
912.306 .0263323
912.956 .0263048
913.605 .0262772
914.254 .0262505
914.903 .0262247
915.551 .0262002
916.199 .0261773
916.847 .0261560
917.494 .0261360
918.141 .0261167
918.788 .0260976
919.434 .0260784
920.079 .0260583
920.725 .0260377
921.370 .0260165
922.014 .0259949
922.658 .0259728
923.302 .0259505
923.946 .0259275
924.589 .0259035
925.231 .0258780
925.873 .0258506
926.515 .0258211
927.157 .0257898
927.798 .0257565
928.439 .0257220
929.079 .0256868
929.719 .0256515
930.359 .0256160
930.998 .0255812
931.637 .0255467
932.275 .0255133
932.913 .0254809
933.551 .0254499
934.188 .0254206
934.825 .0253935
935.462 .0253690
936.098 .0253472
936.733 .0253280
937.369 .0253111
938.004 .0252958
938.638 .0252816
939.273 .0252674
939.907 .0252533
940.540 .0252390
941.173 .0252245
941.806 .0252099
942.438 .0251955
943.070 .0251809
943.702 .0251656
944.333 .0251498
944.964 .0251325
945.594 .0251137
946.224 .0250936
946.854 .0250724
947.483 .0250505
948.112 .0250289
948.741 .0250076
949.369 .0249869
949.996 .0249674
950.624 .0249488
951.251 .0249304
951.878 .0249127
952.504 .0248950
953.130 .0248772
953.755 .0248593
954.380 .0248416
955.005 .0248238
955.629 .0248065
956.253 .0247896
956.877 .0247730
957.500 .0247567
958.123 .0247407
958.746 .0247243
959.368 .0247077
959.990 .0246914
960.611 .0246751
961.232 .0246585
961.853 .0246427
962.473 .0246270
963.093 .0246115
963.712 .0245965
964.331 .0245819
964.950 .0245671
965.569 .0245529
966.187 .0245394
966.804 .0245267
967.422 .0245152
968.039 .0245047
968.655 .0244949
969.272 .0244862
969.887 .0244778
970.503 .0244691
971.118 .0244607
971.733 .0244524
972.347 .0244440
972.961 .0244363
973.575 .0244292
974.188 .0244225
974.801 .0244162
975.414 .0244102
976.026 .0244040
976.638 .0243976
977.250 .0243906
977.861 .0243831
978.472 .0243757
979.083 .0243681
979.693 .0243601
980.303 .0243523
980.912 .0243446
981.521 .0243364
982.130 .0243272
982.738 .0243174
983.346 .0243071
983.954 .0242965
984.562 .0242857
985.169 .0242756
985.775 .0242664
986.382 .0242583
986.988 .0242506
987.594 .0242434
988.199 .0242361
988.804 .0242290
989.409 .0242216
990.013 .0242149
990.617 .0242084
991.221 .0242028
991.824 .0241986
992.427 .0241964
993.030 .0241962
993.632 .0241977
994.234 .0242011
994.836 .0242062
995.438 .0242119
996.039 .0242180
996.640 .0242238
997.240 .0242301
997.840 .0242361
998.440 .0242426
999.040 .0242494
999.639 .0242571
1000.238 .0242650
1000.836 .0242732
1001.435 .0242815
1002.033 .0242898
1002.630 .0242975
1003.228 .0243053
1003.825 .0243132
1004.422 .0243213
1005.018 .0243296
1005.614 .0243388
1006.210 .0243490
1006.806 .0243606
1007.401 .0243722
1007.996 .0243841
1008.591 .0243965
1009.186 .0244094
1009.780 .0244223
1010.374 .0244363
1010.967 .0244513
1011.561 .0244671
1012.154 .0244828
1012.746 .0244986
1013.339 .0245133
1013.931 .0245275
1014.523 .0245404
1015.115 .0245520
1015.706 .0245627
1016.298 .0245728
1016.888 .0245825
1017.479 .0245929
1018.069 .0246044
1018.660 .0246165
1019.250 .0246288
1019.839 .0246419
1020.429 .0246543
1021.018 .0246667
1021.607 .0246799
1022.195 .0246940
1022.784 .0247094
1023.372 .0247270
1023.960 .0247461
1024.547 .0247672
1025.135 .0247909
1025.722 .0248155
1026.309 .0248409
1026.896 .0248674
1027.483 .0248938
1028.069 .0249191
1028.655 .0249435
1029.241 .0249672
1029.827 .0249896
1030.412 .0250113
1030.997 .0250322
1031.582 .0250526
1032.167 .0250734
1032.752 .0250942
1033.336 .0251148
1033.921 .0251352
1034.505 .0251552
1035.089 .0251737
1035.672 .0251909
1036.256 .0252066
1036.839 .0252209
1037.422 .0252344
1038.005 .0252479
1038.588 .0252612
1039.171 .0252744
1039.753 .0252881
1040.335 .0253021
1040.918 .0253159
1041.500 .0253290
1042.081 .0253407
1042.663 .0253513
1043.244 .0253600
1043.826 .0253672
1044.407 .0253727
1044.988 .0253773
1045.569 .0253810
1046.150 .0253840
1046.730 .0253870
1047.311 .0253907
1047.891 .0253949
1048.471 .0254003
1049.052 .0254066
1049.632 .0254134
1050.211 .0254203
1050.791 .0254271
1051.371 .0254340
1051.950 .0254420
1052.530 .0254506
1053.109 .0254610
1053.688 .0254733
1054.268 .0254877
1054.847 .0255025
1055.426 .0255180
1056.005 .0255335
1056.583 .0255470
1057.162 .0255584
1057.741 .0255681
1058.319 .0255763
1058.898 .0255848
1059.476 .0255938
1060.055 .0256045
1060.633 .0256170
1061.211 .0256307
1061.790 .0256434
1062.368 .0256551
1062.946 .0256653
1063.524 .0256733
1064.102 .0256785
1064.680 .0256823
1065.258 .0256859
1065.836 .0256888
1066.414 .0256926
1066.992 .0256981
1067.570 .0257050
1068.148 .0257131
1068.726 .0257215
1069.304 .0257302
1069.882 .0257384
1070.460 .0257444
1071.038 .0257472
1071.616 .0257465
1072.194 .0257423
1072.772 .0257344
1073.350 .0257240
1073.928 .0257144
1074.506 .0257069
1075.084 .0257027
1075.662 .0257031
1076.240 .0257085
1076.819 .0257170
1077.397 .0257260
1077.976 .0257341
1078.554 .0257392
1079.133 .0257399
1079.711 .0257359
1080.290 .0257300
1080.869 .0257240
1081.448 .0257193
1082.027 .0257179
1082.606 .0257195
1083.185 .0257249
1083.764 .0257315
1084.343 .0257374
1084.923 .0257413
1085.502 .0257436
1086.082 .0257426
1086.662 .0257380
1087.242 .0257327
1087.822 .0257276
1088.402 .0257230
1088.983 .0257218
1089.563 .0257246
1090.144 .0257301
1090.725 .0257389
1091.306 .0257506
1091.887 .0257622
1092.469 .0257770
1093.050 .0257925
1093.632 .0258091
1094.214 .0258280
1094.796 .0258481
1095.379 .0258670
1095.961 .0258860
1096.544 .0259062
1097.127 .0259248
1097.710 .0259413
1098.294 .0259569
1098.877 .0259691
1099.461 .0259803
1100.046 .0259920
1100.630 .0260030
1101.215 .0260186
1101.800 .0260390
1102.385 .0260592
1102.970 .0260804
1103.556 .0261012
1104.142 .0261208
1104.728 .0261375
1105.315 .0261522
1105.902 .0261620
1106.489 .0261693
1107.077 .0261783
1107.664 .0261896
1108.253 .0262063
1108.841 .0262299
1109.430 .0262580
1110.019 .0262877
1110.609 .0263192
1111.198 .0263466
1111.789 .0263716
1112.379 .0263959
1112.970 .0264171
1113.561 .0264382
1114.153 .0264600
1114.745 .0264840
1115.338 .0265125
1115.931 .0265459
1116.524 .0265812
1117.117 .0266162
1117.712 .0266505
1118.306 .0266800
1118.901 .0267062
1119.496 .0267275
1120.092 .0267456
1120.689 .0267609
1121.285 .0267737
1121.882 .0267821
1122.480 .0267889
1123.078 .0267975
1123.677 .0268036
1124.276 .0268092
1124.875 .0268165
1125.476 .0268228
1126.076 .0268323
1126.677 .0268437
1127.279 .0268611
1127.881 .0268856
1128.484 .0269196
1129.087 .0269590
1129.691 .0270072
1130.295 .0270676
1130.900 .0271397
1131.505 .0272187
1132.111 .0273061
1132.718 .0273978
1133.325 .0274946
1133.933 .0275941
1134.541 .0277011
1135.150 .0278138
1135.760 .0279390
1136.370 .0280741
1136.981 .0282220
1137.592 .0283731
1138.204 .0285281
1138.817 .0286839
1139.431 .0288312
1140.045 .0289844
1140.660 .0291376
1141.275 .0293055
1141.891 .0294742
1142.508 .0293972
1143.126 .0299937
1143.744 .0300894
1144.363 .0305604
1144.983 .0302553
