Measurement Sequence started on: 15-12-46-377
Integration time: 28
Scans to Average: 2 
>>>>>Begin Spectral Data<<<<<
432.689 .0000100
433.621 .0000100
434.552 .0000100
435.482 .0000100
436.410 .0000100
437.337 .0000100
438.262 .0267977
439.187 .0568022
440.110 .0941300
441.031 .1362893
441.952 .1772459
442.871 .2095576
443.789 .2273470
444.705 .2286087
445.621 .2157315
446.535 .1940859
447.447 .1694768
448.359 .1317342
449.269 .1128621
450.178 .1007884
451.086 .0921291
451.993 .0854445
452.898 .0801011
453.803 .0757456
454.706 .0721547
455.608 .0691714
456.508 .0666257
457.408 .0644840
458.306 .0626409
459.204 .0610302
460.100 .0595743
460.995 .0582651
461.888 .0570708
462.781 .0559720
463.673 .0549588
464.563 .0540340
465.452 .0531795
466.340 .0523933
467.228 .0516662
468.114 .0509900
468.999 .0503577
469.882 .0497747
470.765 .0492276
471.647 .0487338
472.528 .0482744
473.407 .0478593
474.286 .0474870
475.163 .0471605
476.040 .0468686
476.915 .0466071
477.790 .0463810
478.663 .0461853
479.535 .0460161
480.407 .0458743
481.277 .0457585
482.147 .0456676
483.015 .0455954
483.883 .0455411
484.749 .0454929
485.615 .0454520
486.479 .0454094
487.343 .0453743
488.206 .0453486
489.067 .0453335
489.928 .0453322
490.788 .0453526
491.647 .0453976
492.505 .0454706
493.362 .0455629
494.218 .0456825
495.073 .0458206
495.928 .0459807
496.781 .0461535
497.634 .0463446
498.486 .0465498
499.337 .0467808
500.187 .0470362
501.036 .0473243
501.884 .0476418
502.731 .0479952
503.578 .0483811
504.424 .0487987
505.268 .0492344
506.113 .0496916
506.956 .0501540
507.798 .0506417
508.640 .0511399
509.480 .0516775
510.320 .0522651
511.160 .0529328
511.998 .0536822
512.836 .0545366
513.672 .0555009
514.508 .0565882
515.344 .0578001
516.178 .0591654
517.012 .0606780
517.845 .0623900
518.677 .0643355
519.508 .0665514
520.339 .0690770
521.169 .0719896
521.998 .0752987
522.826 .0791294
523.654 .0834645
524.481 .0883278
525.307 .0937501
526.133 .0997582
526.958 .1063011
527.782 .1132912
528.605 .1205455
529.428 .1279600
530.250 .1350073
531.072 .1414873
531.892 .1469143
532.712 .1511235
533.532 .1538420
534.350 .1548741
535.168 .1541463
535.986 .1517691
536.802 .1478226
537.618 .1426091
538.434 .1363036
539.249 .1293645
540.063 .1219409
540.876 .1144258
541.689 .1070292
542.501 .1000428
543.313 .0936217
544.124 .0878566
544.934 .0827357
545.744 .0782913
546.553 .0743877
547.361 .0710057
548.169 .0681005
548.976 .0655820
549.783 .0633868
550.589 .0614491
551.395 .0597160
552.200 .0581727
553.004 .0568025
553.808 .0555802
554.611 .0545015
555.414 .0535495
556.216 .0526781
557.018 .0518899
557.819 .0511586
558.619 .0504345
559.419 .0497092
560.218 .0489813
561.017 .0482492
561.815 .0475030
562.613 .0467678
563.410 .0460381
564.207 .0453362
565.003 .0446614
565.799 .0440076
566.594 .0433682
567.388 .0427574
568.182 .0421590
568.976 .0415750
569.769 .0410150
570.562 .0404805
571.354 .0399651
572.145 .0394840
572.936 .0390298
573.727 .0385969
574.517 .0381798
575.307 .0377803
576.096 .0373896
576.885 .0370116
577.673 .0366468
578.461 .0362961
579.248 .0359617
580.035 .0356478
580.821 .0353510
581.607 .0350692
582.392 .0348041
583.177 .0345526
583.962 .0343153
584.746 .0340970
585.529 .0338958
586.313 .0337128
587.095 .0335496
587.878 .0334068
588.660 .0332797
589.441 .0331672
590.222 .0330669
591.003 .0329745
591.783 .0328910
592.563 .0328129
593.342 .0327397
594.121 .0326710
594.899 .0326079
595.678 .0325490
596.455 .0324956
597.233 .0324475
598.009 .0324017
598.786 .0323586
599.562 .0323181
600.338 .0322774
601.113 .0322366
601.888 .0321957
602.663 .0321539
603.437 .0321113
604.211 .0320689
604.984 .0320248
605.757 .0319813
606.530 .0319392
607.302 .0318984
608.074 .0318591
608.845 .0318232
609.616 .0317898
610.387 .0317586
611.158 .0317307
611.928 .0317050
612.697 .0316805
613.467 .0316580
614.236 .0316363
615.004 .0316160
615.773 .0315976
616.541 .0315813
617.308 .0315665
618.076 .0315547
618.843 .0315444
619.609 .0315347
620.375 .0315254
621.141 .0315161
621.907 .0315059
622.672 .0314945
623.437 .0314814
624.202 .0314664
624.966 .0314499
625.730 .0314323
626.493 .0314137
627.257 .0313946
628.020 .0313749
628.782 .0313542
629.545 .0313320
630.307 .0313079
631.068 .0312820
631.830 .0312544
632.591 .0312252
633.352 .0311944
634.112 .0311624
634.872 .0311292
635.632 .0310954
636.392 .0310613
637.151 .0310275
637.910 .0309937
638.668 .0309596
639.427 .0309250
640.185 .0308896
640.943 .0308539
641.700 .0308184
642.457 .0307834
643.214 .0307495
643.971 .0307161
644.727 .0306840
645.483 .0306533
646.239 .0306242
646.994 .0305967
647.750 .0305704
648.505 .0305456
649.259 .0305220
650.014 .0304990
650.768 .0304771
651.521 .0304569
652.275 .0304383
653.028 .0304208
653.781 .0304044
654.534 .0303890
655.286 .0303743
656.039 .0303596
656.791 .0303442
657.542 .0303277
658.294 .0303100
659.045 .0302912
659.796 .0302703
660.546 .0302485
661.297 .0302256
662.047 .0302019
662.796 .0301772
663.546 .0301521
664.295 .0301261
665.044 .0300997
665.793 .0300733
666.542 .0300472
667.290 .0300211
668.038 .0299960
668.786 .0299720
669.533 .0299495
670.281 .0299283
671.028 .0299086
671.774 .0298899
672.521 .0298736
673.267 .0298588
674.013 .0298451
674.759 .0298324
675.505 .0298212
676.250 .0298102
676.995 .0297995
677.740 .0297889
678.484 .0297787
679.229 .0297686
679.973 .0297586
680.717 .0297480
681.460 .0297375
682.204 .0297266
682.947 .0297151
683.690 .0297025
684.433 .0296891
685.175 .0296739
685.917 .0296577
686.659 .0296407
687.401 .0296239
688.142 .0296068
688.884 .0295899
689.625 .0295730
690.365 .0295562
691.106 .0295384
691.846 .0295195
692.586 .0294997
693.326 .0294792
694.066 .0294581
694.805 .0294377
695.545 .0294178
696.284 .0293995
697.022 .0293823
697.761 .0293664
698.499 .0293509
699.237 .0293353
699.975 .0293190
700.713 .0293018
701.450 .0292841
702.187 .0292657
702.924 .0292471
703.661 .0292285
704.397 .0292103
705.133 .0291921
705.869 .0291737
706.605 .0291553
707.341 .0291363
708.076 .0291176
708.811 .0290988
709.546 .0290806
710.281 .0290628
711.015 .0290455
711.749 .0290294
712.483 .0290135
713.217 .0289978
713.950 .0289818
714.684 .0289650
715.417 .0289477
716.150 .0289297
716.882 .0289115
717.615 .0288932
718.347 .0288752
719.079 .0288572
719.811 .0288390
720.542 .0288206
721.273 .0288014
722.005 .0287813
722.735 .0287607
723.466 .0287397
724.196 .0287182
724.927 .0286968
725.656 .0286755
726.386 .0286554
727.116 .0286365
727.845 .0286185
728.574 .0286019
729.303 .0285863
730.031 .0285714
730.760 .0285572
731.488 .0285432
732.216 .0285294
732.944 .0285158
733.671 .0285026
734.398 .0284896
735.125 .0284773
735.852 .0284657
736.579 .0284545
737.305 .0284441
738.031 .0284344
738.757 .0284246
739.483 .0284147
740.208 .0284047
740.933 .0283945
741.658 .0283839
742.383 .0283734
743.108 .0283626
743.832 .0283520
744.556 .0283413
745.280 .0283304
746.004 .0283191
746.727 .0283072
747.450 .0282949
748.173 .0282821
748.896 .0282686
749.618 .0282549
750.340 .0282410
751.062 .0282269
751.784 .0282129
752.506 .0281989
753.227 .0281846
753.948 .0281706
754.669 .0281569
755.389 .0281437
756.110 .0281310
756.830 .0281193
757.550 .0281086
758.269 .0280983
758.989 .0280888
759.708 .0280786
760.427 .0280679
761.146 .0280568
761.864 .0280449
762.582 .0280324
763.300 .0280198
764.018 .0280074
764.736 .0279955
765.453 .0279840
766.170 .0279729
766.887 .0279615
767.603 .0279498
768.320 .0279375
769.036 .0279242
769.751 .0279103
770.467 .0278967
771.182 .0278830
771.897 .0278701
772.612 .0278582
773.327 .0278474
774.041 .0278374
774.755 .0278281
775.469 .0278191
776.183 .0278097
776.896 .0277997
777.609 .0277893
778.322 .0277781
779.035 .0277670
779.747 .0277562
780.459 .0277459
781.171 .0277365
781.882 .0277284
782.594 .0277212
783.305 .0277151
784.016 .0277099
784.726 .0277051
785.436 .0277003
786.147 .0276953
786.856 .0276899
787.566 .0276842
788.275 .0276782
788.984 .0276720
789.693 .0276654
790.401 .0276584
791.110 .0276504
791.818 .0276412
792.525 .0276311
793.233 .0276195
793.940 .0276065
794.647 .0275922
795.353 .0275769
796.060 .0275609
796.766 .0275445
797.472 .0275276
798.177 .0275106
798.883 .0274937
799.588 .0274771
800.292 .0274608
800.997 .0274454
801.701 .0274310
802.405 .0274178
803.109 .0274056
803.812 .0273944
804.515 .0273833
805.218 .0273719
805.921 .0273593
806.623 .0273455
807.325 .0273302
808.027 .0273137
808.728 .0272956
809.429 .0272766
810.130 .0272574
810.831 .0272380
811.531 .0272187
812.231 .0271997
812.931 .0271806
813.630 .0271614
814.330 .0271420
815.029 .0271228
815.727 .0271037
816.426 .0270863
817.124 .0270701
817.821 .0270557
818.519 .0270430
819.216 .0270323
819.913 .0270227
820.609 .0270147
821.306 .0270078
822.002 .0270014
822.697 .0269952
823.393 .0269896
824.088 .0269841
824.783 .0269792
825.477 .0269743
826.171 .0269699
826.865 .0269658
827.559 .0269627
828.252 .0269598
828.945 .0269571
829.638 .0269549
830.330 .0269531
831.023 .0269510
831.714 .0269485
832.406 .0269456
833.097 .0269427
833.788 .0269396
834.479 .0269369
835.169 .0269341
835.859 .0269321
836.548 .0269304
837.238 .0269288
837.927 .0269270
838.615 .0269246
839.304 .0269214
839.992 .0269170
840.680 .0269119
841.367 .0269059
842.054 .0268991
842.741 .0268924
843.428 .0268864
844.114 .0268809
844.800 .0268756
845.485 .0268709
846.170 .0268657
846.855 .0268601
847.540 .0268535
848.224 .0268457
848.908 .0268371
849.592 .0268273
850.275 .0268171
850.958 .0268058
851.641 .0267946
852.323 .0267831
853.005 .0267715
853.687 .0267601
854.368 .0267482
855.049 .0267358
855.730 .0267232
856.410 .0267100
857.090 .0266961
857.769 .0266817
858.449 .0266666
859.128 .0266508
859.806 .0266347
860.485 .0266185
861.163 .0266026
861.840 .0265871
862.518 .0265721
863.195 .0265572
863.871 .0265428
864.548 .0265287
865.224 .0265148
865.899 .0265013
866.574 .0264881
867.249 .0264746
867.924 .0264609
868.598 .0264471
869.272 .0264329
869.946 .0264186
870.619 .0264043
871.292 .0263898
871.964 .0263755
872.636 .0263617
873.308 .0263483
873.979 .0263356
874.651 .0263238
875.321 .0263125
875.992 .0263007
876.662 .0262889
877.331 .0262760
878.001 .0262625
878.670 .0262490
879.338 .0262350
880.007 .0262213
880.675 .0262089
881.342 .0261975
882.009 .0261873
882.676 .0261785
883.343 .0261706
884.009 .0261629
884.675 .0261553
885.340 .0261472
886.005 .0261380
886.670 .0261289
887.334 .0261204
887.998 .0261124
888.662 .0261065
889.325 .0261020
889.988 .0260990
890.650 .0260983
891.312 .0260984
891.974 .0260987
892.636 .0260988
893.297 .0260986
893.957 .0260977
894.618 .0260957
895.278 .0260933
895.937 .0260903
896.596 .0260876
897.255 .0260848
897.914 .0260813
898.572 .0260773
899.230 .0260726
899.887 .0260667
900.544 .0260594
901.201 .0260504
901.857 .0260398
902.513 .0260275
903.168 .0260141
903.823 .0259993
904.478 .0259832
905.132 .0259662
905.786 .0259491
906.440 .0259311
907.093 .0259127
907.746 .0258937
908.399 .0258748
909.051 .0258559
909.703 .0258366
910.354 .0258167
911.005 .0257967
911.656 .0257771
912.306 .0257573
912.956 .0257377
913.605 .0257189
914.254 .0257009
914.903 .0256842
915.551 .0256684
916.199 .0256535
916.847 .0256394
917.494 .0256261
918.141 .0256131
918.788 .0256004
919.434 .0255883
920.079 .0255764
920.725 .0255649
921.370 .0255539
922.014 .0255426
922.658 .0255308
923.302 .0255185
923.946 .0255056
924.589 .0254916
925.231 .0254765
925.873 .0254602
926.515 .0254435
927.157 .0254266
927.798 .0254095
928.439 .0253920
929.079 .0253753
929.719 .0253583
930.359 .0253412
930.998 .0253243
931.637 .0253077
932.275 .0252915
932.913 .0252762
933.551 .0252615
934.188 .0252478
934.825 .0252355
935.462 .0252247
936.098 .0252151
936.733 .0252072
937.369 .0252002
938.004 .0251942
938.638 .0251895
939.273 .0251859
939.907 .0251830
940.540 .0251816
941.173 .0251815
941.806 .0251822
942.438 .0251840
943.070 .0251861
943.702 .0251885
944.333 .0251906
944.964 .0251922
945.594 .0251927
946.224 .0251924
946.854 .0251919
947.483 .0251907
948.112 .0251895
948.741 .0251878
949.369 .0251850
949.996 .0251811
950.624 .0251759
951.251 .0251689
951.878 .0251605
952.504 .0251512
953.130 .0251412
953.755 .0251314
954.380 .0251227
955.005 .0251155
955.629 .0251097
956.253 .0251057
956.877 .0251028
957.500 .0251004
958.123 .0250982
958.746 .0250958
959.368 .0250933
959.990 .0250912
960.611 .0250889
961.232 .0250869
961.853 .0250856
962.473 .0250851
963.093 .0250845
963.712 .0250837
964.331 .0250822
964.950 .0250797
965.569 .0250757
966.187 .0250704
966.804 .0250642
967.422 .0250575
968.039 .0250503
968.655 .0250431
969.272 .0250360
969.887 .0250293
970.503 .0250230
971.118 .0250178
971.733 .0250132
972.347 .0250090
972.961 .0250053
973.575 .0250019
974.188 .0249987
974.801 .0249954
975.414 .0249913
976.026 .0249865
976.638 .0249811
977.250 .0249750
977.861 .0249684
978.472 .0249618
979.083 .0249555
979.693 .0249493
980.303 .0249431
980.912 .0249364
981.521 .0249296
982.130 .0249228
982.738 .0249157
983.346 .0249079
983.954 .0248994
984.562 .0248906
985.169 .0248813
985.775 .0248718
986.382 .0248618
986.988 .0248517
987.594 .0248417
988.199 .0248315
988.804 .0248213
989.409 .0248116
990.013 .0248018
990.617 .0247920
991.221 .0247815
991.824 .0247704
992.427 .0247579
993.030 .0247452
993.632 .0247319
994.234 .0247185
994.836 .0247055
995.438 .0246933
996.039 .0246814
996.640 .0246706
997.240 .0246608
997.840 .0246514
998.440 .0246428
999.040 .0246341
999.639 .0246255
1000.238 .0246170
1000.836 .0246084
1001.435 .0245997
1002.033 .0245908
1002.630 .0245823
1003.228 .0245733
1003.825 .0245645
1004.422 .0245567
1005.018 .0245490
1005.614 .0245424
1006.210 .0245369
1006.806 .0245322
1007.401 .0245275
1007.996 .0245231
1008.591 .0245184
1009.186 .0245137
1009.780 .0245092
1010.374 .0245041
1010.967 .0244992
1011.561 .0244952
1012.154 .0244919
1012.746 .0244888
1013.339 .0244863
1013.931 .0244841
1014.523 .0244812
1015.115 .0244773
1015.706 .0244721
1016.298 .0244653
1016.888 .0244577
1017.479 .0244501
1018.069 .0244422
1018.660 .0244343
1019.250 .0244272
1019.839 .0244204
1020.429 .0244146
1021.018 .0244092
1021.607 .0244039
1022.195 .0243982
1022.784 .0243929
1023.372 .0243880
1023.960 .0243835
1024.547 .0243802
1025.135 .0243786
1025.722 .0243786
1026.309 .0243801
1026.896 .0243827
1027.483 .0243856
1028.069 .0243889
1028.655 .0243919
1029.241 .0243941
1029.827 .0243952
1030.412 .0243960
1030.997 .0243966
1031.582 .0243965
1032.167 .0243961
1032.752 .0243960
1033.336 .0243966
1033.921 .0243978
1034.505 .0244007
1035.089 .0244044
1035.672 .0244093
1036.256 .0244151
1036.839 .0244208
1037.422 .0244271
1038.005 .0244335
1038.588 .0244405
1039.171 .0244473
1039.753 .0244548
1040.335 .0244637
1040.918 .0244726
1041.500 .0244827
1042.081 .0244938
1042.663 .0245042
1043.244 .0245126
1043.826 .0245181
1044.407 .0245201
1044.988 .0245187
1045.569 .0245139
1046.150 .0245054
1046.730 .0244956
1047.311 .0244852
1047.891 .0244753
1048.471 .0244650
1049.052 .0244565
1049.632 .0244496
1050.211 .0244432
1050.791 .0244369
1051.371 .0244311
1051.950 .0244260
1052.530 .0244213
1053.109 .0244167
1053.688 .0244131
1054.268 .0244098
1054.847 .0244082
1055.426 .0244081
1056.005 .0244110
1056.583 .0244164
1057.162 .0244243
1057.741 .0244333
1058.319 .0244438
1058.898 .0244549
1059.476 .0244631
1060.055 .0244689
1060.633 .0244724
1061.211 .0244723
1061.790 .0244699
1062.368 .0244659
1062.946 .0244623
1063.524 .0244598
1064.102 .0244572
1064.680 .0244541
1065.258 .0244502
1065.836 .0244455
1066.414 .0244381
1066.992 .0244286
1067.570 .0244181
1068.148 .0244062
1068.726 .0243941
1069.304 .0243841
1069.882 .0243766
1070.460 .0243738
1071.038 .0243751
1071.616 .0243797
1072.194 .0243882
1072.772 .0243991
1073.350 .0244116
1073.928 .0244267
1074.506 .0244442
1075.084 .0244637
1075.662 .0244851
1076.240 .0245094
1076.819 .0245352
1077.397 .0245612
1077.976 .0245870
1078.554 .0246112
1079.133 .0246336
1079.711 .0246519
1080.290 .0246664
1080.869 .0246784
1081.448 .0246884
1082.027 .0246974
1082.606 .0247057
1083.185 .0247152
1083.764 .0247262
1084.343 .0247377
1084.923 .0247495
1085.502 .0247607
1086.082 .0247719
1086.662 .0247824
1087.242 .0247918
1087.822 .0248019
1088.402 .0248111
1088.983 .0248208
1089.563 .0248310
1090.144 .0248413
1090.725 .0248521
1091.306 .0248623
1091.887 .0248724
1092.469 .0248849
1093.050 .0248977
1093.632 .0249135
1094.214 .0249314
1094.796 .0249517
1095.379 .0249735
1095.961 .0249944
1096.544 .0250148
1097.127 .0250359
1097.710 .0250565
1098.294 .0250779
1098.877 .0251003
1099.461 .0251257
1100.046 .0251527
1100.630 .0251801
1101.215 .0252079
1101.800 .0252327
1102.385 .0252531
1102.970 .0252694
1103.556 .0252798
1104.142 .0252889
1104.728 .0252957
1105.315 .0253023
1105.902 .0253124
1106.489 .0253249
1107.077 .0253394
1107.664 .0253565
1108.253 .0253773
1108.841 .0254016
1109.430 .0254272
1110.019 .0254567
1110.609 .0254903
1111.198 .0255292
1111.789 .0255738
1112.379 .0256220
1112.970 .0256773
1113.561 .0257375
1114.153 .0257988
1114.745 .0258642
1115.338 .0259315
1115.931 .0259982
1116.524 .0260623
1117.117 .0261245
1117.712 .0261839
1118.306 .0262419
1118.901 .0262981
1119.496 .0263520
1120.092 .0264056
1120.689 .0264605
1121.285 .0265126
1121.882 .0265642
1122.480 .0266173
1123.078 .0266683
1123.677 .0267157
1124.276 .0267624
1124.875 .0268067
1125.476 .0268526
1126.076 .0269008
1126.677 .0269561
1127.279 .0270164
1127.881 .0270850
1128.484 .0271588
1129.087 .0272383
1129.691 .0273252
1130.295 .0274173
1130.900 .0275089
1131.505 .0276067
1132.111 .0277094
1132.718 .0278176
1133.325 .0279311
1133.933 .0280501
1134.541 .0281722
1135.150 .0282943
1135.760 .0284108
1136.370 .0285221
1136.981 .0286257
1137.592 .0287239
1138.204 .0288147
1138.817 .0289061
1139.431 .0290021
1140.045 .0290943
1140.660 .0291794
1141.275 .0292652
1141.891 .0293559
1142.508 .0296431
1143.126 .0295025
1143.744 .0293329
1144.363 .0296233
1144.983 .0299556
