Measurement Sequence started on: 15-12-46-377
Integration time: 28
Scans to Average: 2 
>>>>>Begin Spectral Data<<<<<
432.689 .0000100
433.621 .0000100
434.552 .0000100
435.482 .0000100
436.410 .0000100
437.337 .0000100
438.262 .0300030
439.187 .0633985
440.110 .1048714
441.031 .1515418
441.952 .1967881
442.871 .2322532
443.789 .2514738
444.705 .2522608
445.621 .2374345
446.535 .2129674
447.447 .1853610
448.359 .1432099
449.269 .1223888
450.178 .1091764
451.086 .0998311
451.993 .0926137
452.898 .0869068
453.803 .0822557
454.706 .0784389
455.608 .0751749
456.508 .0723657
457.408 .0699085
458.306 .0677048
459.204 .0657122
460.100 .0638841
460.995 .0622131
461.888 .0607134
462.781 .0593554
463.673 .0581276
464.563 .0570167
465.452 .0560241
466.340 .0551158
467.228 .0543001
468.114 .0535570
468.999 .0529015
469.882 .0523134
470.765 .0518060
471.647 .0513816
472.528 .0510354
473.407 .0507506
474.286 .0505199
475.163 .0503342
476.040 .0501787
476.915 .0500407
477.790 .0499132
478.663 .0497969
479.535 .0496948
480.407 .0496039
481.277 .0495233
482.147 .0494506
483.015 .0493889
483.883 .0493253
484.749 .0492616
485.615 .0492059
486.479 .0491477
487.343 .0490966
488.206 .0490602
489.067 .0490399
489.928 .0490325
490.788 .0490446
491.647 .0490789
492.505 .0491392
493.362 .0492253
494.218 .0493371
495.073 .0494679
495.928 .0496368
496.781 .0498301
497.634 .0500431
498.486 .0502831
499.337 .0505460
500.187 .0508255
501.036 .0511373
501.884 .0514730
502.731 .0518389
503.578 .0522427
504.424 .0526887
505.268 .0531589
506.113 .0536629
506.956 .0542000
507.798 .0547691
508.640 .0553775
509.480 .0560304
510.320 .0567304
511.160 .0575180
511.998 .0584016
512.836 .0593865
513.672 .0604927
514.508 .0617262
515.344 .0630726
516.178 .0645700
517.012 .0662481
517.845 .0681556
518.677 .0703298
519.508 .0728036
520.339 .0756260
521.169 .0788636
521.998 .0824964
522.826 .0865693
523.654 .0911124
524.481 .0961327
525.307 .1016743
526.133 .1077303
526.958 .1142765
527.782 .1212791
528.605 .1285465
529.428 .1359845
530.250 .1430644
531.072 .1495325
531.892 .1549067
532.712 .1589666
533.532 .1615087
534.350 .1622829
535.168 .1612369
535.986 .1585295
536.802 .1542888
537.618 .1488559
538.434 .1424097
539.249 .1354265
540.063 .1281432
540.876 .1208584
541.689 .1136903
542.501 .1068912
543.313 .1006126
544.124 .0949356
544.934 .0897577
545.744 .0851021
546.553 .0808861
547.361 .0771296
548.169 .0738399
548.976 .0709159
549.783 .0683407
550.589 .0660724
551.395 .0640209
552.200 .0621862
553.004 .0605088
553.808 .0589763
554.611 .0575758
555.414 .0563091
556.216 .0551481
557.018 .0541111
557.819 .0531881
558.619 .0523654
559.419 .0516158
560.218 .0509271
561.017 .0502631
561.815 .0495969
562.613 .0489221
563.410 .0482364
564.207 .0475543
565.003 .0468857
565.799 .0462261
566.594 .0455938
567.388 .0449904
568.182 .0444099
568.976 .0438443
569.769 .0433034
570.562 .0427692
571.354 .0422338
572.145 .0417041
572.936 .0411795
573.727 .0406682
574.517 .0401756
575.307 .0397093
576.096 .0392745
576.885 .0388730
577.673 .0385019
578.461 .0381580
579.248 .0378427
580.035 .0375478
580.821 .0372652
581.607 .0369958
582.392 .0367402
583.177 .0364984
583.962 .0362726
584.746 .0360651
585.529 .0358734
586.313 .0357002
587.095 .0355442
587.878 .0354049
588.660 .0352783
589.441 .0351628
590.222 .0350562
591.003 .0349569
591.783 .0348626
592.563 .0347718
593.342 .0346860
594.121 .0346043
594.899 .0345271
595.678 .0344531
596.455 .0343833
597.233 .0343181
598.009 .0342540
598.786 .0341936
599.562 .0341351
600.338 .0340773
601.113 .0340197
601.888 .0339621
602.663 .0339047
603.437 .0338472
604.211 .0337899
604.984 .0337338
605.757 .0336794
606.530 .0336273
607.302 .0335763
608.074 .0335279
608.845 .0334831
609.616 .0334403
610.387 .0333995
611.158 .0333618
611.928 .0333249
612.697 .0332900
613.467 .0332570
614.236 .0332257
615.004 .0331966
615.773 .0331699
616.541 .0331460
617.308 .0331250
618.076 .0331070
618.843 .0330913
619.609 .0330776
620.375 .0330666
621.141 .0330560
621.907 .0330451
622.672 .0330341
623.437 .0330224
624.202 .0330102
624.966 .0329978
625.730 .0329848
626.493 .0329718
627.257 .0329585
628.020 .0329437
628.782 .0329272
629.545 .0329080
630.307 .0328858
631.068 .0328609
631.830 .0328332
632.591 .0328026
633.352 .0327698
634.112 .0327359
634.872 .0327017
635.632 .0326669
636.392 .0326321
637.151 .0325967
637.910 .0325610
638.668 .0325253
639.427 .0324881
640.185 .0324501
640.943 .0324120
641.700 .0323740
642.457 .0323366
643.214 .0322997
643.971 .0322640
644.727 .0322305
645.483 .0321994
646.239 .0321698
646.994 .0321410
647.750 .0321127
648.505 .0320848
649.259 .0320567
650.014 .0320282
650.768 .0319995
651.521 .0319703
652.275 .0319412
653.028 .0319124
653.781 .0318838
654.534 .0318557
655.286 .0318275
656.039 .0317997
656.791 .0317716
657.542 .0317418
658.294 .0317103
659.045 .0316778
659.796 .0316441
660.546 .0316093
661.297 .0315735
662.047 .0315380
662.796 .0315028
663.546 .0314688
664.295 .0314362
665.044 .0314045
665.793 .0313748
666.542 .0313464
667.290 .0313188
668.038 .0312920
668.786 .0312660
669.533 .0312404
670.281 .0312160
671.028 .0311931
671.774 .0311714
672.521 .0311516
673.267 .0311339
674.013 .0311176
674.759 .0311022
675.505 .0310876
676.250 .0310730
676.995 .0310576
677.740 .0310421
678.484 .0310258
679.229 .0310095
679.973 .0309936
680.717 .0309788
681.460 .0309651
682.204 .0309524
682.947 .0309411
683.690 .0309307
684.433 .0309208
685.175 .0309110
685.917 .0309007
686.659 .0308901
687.401 .0308788
688.142 .0308673
688.884 .0308551
689.625 .0308430
690.365 .0308308
691.106 .0308182
691.846 .0308047
692.586 .0307903
693.326 .0307744
694.066 .0307572
694.805 .0307389
695.545 .0307195
696.284 .0306992
697.022 .0306789
697.761 .0306592
698.499 .0306399
699.237 .0306214
699.975 .0306035
700.713 .0305861
701.450 .0305691
702.187 .0305516
702.924 .0305340
703.661 .0305169
704.397 .0305003
705.133 .0304836
705.869 .0304673
706.605 .0304509
707.341 .0304338
708.076 .0304154
708.811 .0303953
709.546 .0303731
710.281 .0303487
711.015 .0303228
711.749 .0302952
712.483 .0302672
713.217 .0302394
713.950 .0302115
714.684 .0301838
715.417 .0301558
716.150 .0301269
716.882 .0300973
717.615 .0300672
718.347 .0300367
719.079 .0300060
719.811 .0299760
720.542 .0299469
721.273 .0299190
722.005 .0298923
722.735 .0298666
723.466 .0298417
724.196 .0298174
724.927 .0297928
725.656 .0297675
726.386 .0297419
727.116 .0297157
727.845 .0296895
728.574 .0296630
729.303 .0296364
730.031 .0296105
730.760 .0295853
731.488 .0295610
732.216 .0295375
732.944 .0295152
733.671 .0294938
734.398 .0294733
735.125 .0294536
735.852 .0294339
736.579 .0294149
737.305 .0293967
738.031 .0293793
738.757 .0293633
739.483 .0293490
740.208 .0293360
740.933 .0293251
741.658 .0293164
742.383 .0293087
743.108 .0293019
743.832 .0292961
744.556 .0292909
745.280 .0292859
746.004 .0292810
746.727 .0292764
747.450 .0292717
748.173 .0292677
748.896 .0292637
749.618 .0292591
750.340 .0292546
751.062 .0292495
751.784 .0292434
752.506 .0292367
753.227 .0292289
753.948 .0292200
754.669 .0292102
755.389 .0291999
756.110 .0291885
756.830 .0291765
757.550 .0291641
758.269 .0291516
758.989 .0291387
759.708 .0291252
760.427 .0291108
761.146 .0290961
761.864 .0290813
762.582 .0290662
763.300 .0290513
764.018 .0290371
764.736 .0290237
765.453 .0290112
766.170 .0289995
766.887 .0289888
767.603 .0289791
768.320 .0289704
769.036 .0289620
769.751 .0289537
770.467 .0289455
771.182 .0289373
771.897 .0289296
772.612 .0289225
773.327 .0289161
774.041 .0289104
774.755 .0289054
775.469 .0289013
776.183 .0288977
776.896 .0288945
777.609 .0288917
778.322 .0288890
779.035 .0288858
779.747 .0288820
780.459 .0288771
781.171 .0288718
781.882 .0288658
782.594 .0288594
783.305 .0288525
784.016 .0288453
784.726 .0288381
785.436 .0288303
786.147 .0288223
786.856 .0288138
787.566 .0288045
788.275 .0287944
788.984 .0287830
789.693 .0287703
790.401 .0287562
791.110 .0287413
791.818 .0287253
792.525 .0287087
793.233 .0286916
793.940 .0286741
794.647 .0286564
795.353 .0286388
796.060 .0286214
796.766 .0286037
797.472 .0285859
798.177 .0285672
798.883 .0285472
799.588 .0285258
800.292 .0285030
800.997 .0284794
801.701 .0284549
802.405 .0284301
803.109 .0284050
803.812 .0283798
804.515 .0283546
805.218 .0283287
805.921 .0283024
806.623 .0282752
807.325 .0282470
808.027 .0282179
808.728 .0281881
809.429 .0281580
810.130 .0281279
810.831 .0280981
811.531 .0280688
812.231 .0280401
812.931 .0280115
813.630 .0279827
814.330 .0279539
815.029 .0279250
815.727 .0278962
816.426 .0278678
817.124 .0278399
817.821 .0278133
818.519 .0277880
819.216 .0277645
819.913 .0277428
820.609 .0277233
821.306 .0277056
822.002 .0276899
822.697 .0276763
823.393 .0276644
824.088 .0276540
824.783 .0276447
825.477 .0276359
826.171 .0276274
826.865 .0276196
827.559 .0276122
828.252 .0276053
828.945 .0275994
829.638 .0275939
830.330 .0275893
831.023 .0275855
831.714 .0275823
832.406 .0275796
833.097 .0275769
833.788 .0275737
834.479 .0275702
835.169 .0275664
835.859 .0275626
836.548 .0275593
837.238 .0275570
837.927 .0275554
838.615 .0275548
839.304 .0275553
839.992 .0275570
840.680 .0275596
841.367 .0275629
842.054 .0275662
842.741 .0275694
843.428 .0275722
844.114 .0275743
844.800 .0275760
845.485 .0275773
846.170 .0275780
846.855 .0275781
847.540 .0275778
848.224 .0275774
848.908 .0275771
849.592 .0275770
850.275 .0275769
850.958 .0275766
851.641 .0275753
852.323 .0275730
853.005 .0275695
853.687 .0275647
854.368 .0275591
855.049 .0275524
855.730 .0275452
856.410 .0275378
857.090 .0275303
857.769 .0275227
858.449 .0275153
859.128 .0275079
859.806 .0275000
860.485 .0274918
861.163 .0274834
861.840 .0274747
862.518 .0274658
863.195 .0274572
863.871 .0274487
864.548 .0274406
865.224 .0274329
865.899 .0274254
866.574 .0274184
867.249 .0274119
867.924 .0274056
868.598 .0273996
869.272 .0273944
869.946 .0273906
870.619 .0273875
871.292 .0273861
871.964 .0273862
872.636 .0273875
873.308 .0273899
873.979 .0273934
874.651 .0273970
875.321 .0274007
875.992 .0274039
876.662 .0274065
877.331 .0274084
878.001 .0274093
878.670 .0274086
879.338 .0274070
880.007 .0274047
880.675 .0274015
881.342 .0273973
882.009 .0273929
882.676 .0273877
883.343 .0273818
884.009 .0273747
884.675 .0273665
885.340 .0273572
886.005 .0273473
886.670 .0273364
887.334 .0273257
887.998 .0273154
888.662 .0273058
889.325 .0272970
889.988 .0272898
890.650 .0272831
891.312 .0272767
891.974 .0272702
892.636 .0272637
893.297 .0272565
893.957 .0272490
894.618 .0272406
895.278 .0272320
895.937 .0272235
896.596 .0272150
897.255 .0272061
897.914 .0271973
898.572 .0271883
899.230 .0271785
899.887 .0271674
900.544 .0271549
901.201 .0271401
901.857 .0271235
902.513 .0271047
903.168 .0270837
903.823 .0270605
904.478 .0270356
905.132 .0270088
905.786 .0269804
906.440 .0269511
907.093 .0269204
907.746 .0268880
908.399 .0268546
909.051 .0268201
909.703 .0267846
910.354 .0267480
911.005 .0267114
911.656 .0266750
912.306 .0266392
912.956 .0266044
913.605 .0265704
914.254 .0265378
914.903 .0265060
915.551 .0264745
916.199 .0264432
916.847 .0264121
917.494 .0263812
918.141 .0263506
918.788 .0263209
919.434 .0262924
920.079 .0262649
920.725 .0262379
921.370 .0262118
922.014 .0261858
922.658 .0261592
923.302 .0261319
923.946 .0261038
924.589 .0260753
925.231 .0260463
925.873 .0260178
926.515 .0259898
927.157 .0259627
927.798 .0259365
928.439 .0259104
929.079 .0258837
929.719 .0258564
930.359 .0258275
930.998 .0257973
931.637 .0257662
932.275 .0257350
932.913 .0257039
933.551 .0256740
934.188 .0256456
934.825 .0256188
935.462 .0255936
936.098 .0255703
936.733 .0255476
937.369 .0255262
938.004 .0255059
938.638 .0254864
939.273 .0254684
939.907 .0254524
940.540 .0254386
941.173 .0254274
941.806 .0254186
942.438 .0254121
943.070 .0254071
943.702 .0254034
944.333 .0254002
944.964 .0253969
945.594 .0253938
946.224 .0253903
946.854 .0253867
947.483 .0253833
948.112 .0253802
948.741 .0253776
949.369 .0253756
949.996 .0253745
950.624 .0253736
951.251 .0253725
951.878 .0253716
952.504 .0253699
953.130 .0253676
953.755 .0253648
954.380 .0253618
955.005 .0253588
955.629 .0253566
956.253 .0253548
956.877 .0253541
957.500 .0253544
958.123 .0253556
958.746 .0253568
959.368 .0253577
959.990 .0253588
960.611 .0253597
961.232 .0253609
961.853 .0253631
962.473 .0253661
963.093 .0253712
963.712 .0253780
964.331 .0253859
964.950 .0253944
965.569 .0254036
966.187 .0254129
966.804 .0254220
967.422 .0254310
968.039 .0254401
968.655 .0254497
969.272 .0254601
969.887 .0254708
970.503 .0254812
971.118 .0254917
971.733 .0255016
972.347 .0255102
972.961 .0255177
973.575 .0255237
974.188 .0255282
974.801 .0255318
975.414 .0255346
976.026 .0255366
976.638 .0255382
977.250 .0255399
977.861 .0255416
978.472 .0255440
979.083 .0255468
979.693 .0255497
980.303 .0255532
980.912 .0255567
981.521 .0255590
982.130 .0255603
982.738 .0255607
983.346 .0255601
983.954 .0255592
984.562 .0255582
985.169 .0255568
985.775 .0255561
986.382 .0255559
986.988 .0255565
987.594 .0255578
988.199 .0255601
988.804 .0255625
989.409 .0255654
990.013 .0255685
990.617 .0255712
991.221 .0255738
991.824 .0255762
992.427 .0255782
993.030 .0255797
993.632 .0255811
994.234 .0255833
994.836 .0255865
995.438 .0255922
996.039 .0255991
996.640 .0256077
997.240 .0256171
997.840 .0256268
998.440 .0256362
999.040 .0256436
999.639 .0256485
1000.238 .0256511
1000.836 .0256517
1001.435 .0256515
1002.033 .0256510
1002.630 .0256517
1003.228 .0256544
1003.825 .0256589
1004.422 .0256644
1005.018 .0256702
1005.614 .0256755
1006.210 .0256795
1006.806 .0256817
1007.401 .0256823
1007.996 .0256809
1008.591 .0256785
1009.186 .0256769
1009.780 .0256762
1010.374 .0256769
1010.967 .0256792
1011.561 .0256833
1012.154 .0256886
1012.746 .0256950
1013.339 .0257008
1013.931 .0257063
1014.523 .0257109
1015.115 .0257147
1015.706 .0257166
1016.298 .0257176
1016.888 .0257182
1017.479 .0257174
1018.069 .0257158
1018.660 .0257128
1019.250 .0257088
1019.839 .0257042
1020.429 .0256993
1021.018 .0256947
1021.607 .0256897
1022.195 .0256847
1022.784 .0256791
1023.372 .0256737
1023.960 .0256676
1024.547 .0256607
1025.135 .0256533
1025.722 .0256455
1026.309 .0256377
1026.896 .0256302
1027.483 .0256240
1028.069 .0256188
1028.655 .0256153
1029.241 .0256124
1029.827 .0256094
1030.412 .0256065
1030.997 .0256033
1031.582 .0255992
1032.167 .0255943
1032.752 .0255886
1033.336 .0255817
1033.921 .0255746
1034.505 .0255675
1035.089 .0255601
1035.672 .0255535
1036.256 .0255480
1036.839 .0255434
1037.422 .0255386
1038.005 .0255353
1038.588 .0255322
1039.171 .0255294
1039.753 .0255271
1040.335 .0255239
1040.918 .0255203
1041.500 .0255158
1042.081 .0255107
1042.663 .0255046
1043.244 .0254977
1043.826 .0254903
1044.407 .0254820
1044.988 .0254727
1045.569 .0254619
1046.150 .0254484
1046.730 .0254327
1047.311 .0254159
1047.891 .0253976
1048.471 .0253774
1049.052 .0253568
1049.632 .0253355
1050.211 .0253147
1050.791 .0252926
1051.371 .0252704
1051.950 .0252481
1052.530 .0252267
1053.109 .0252062
1053.688 .0251861
1054.268 .0251683
1054.847 .0251538
1055.426 .0251411
1056.005 .0251312
1056.583 .0251222
1057.162 .0251140
1057.741 .0251051
1058.319 .0250955
1058.898 .0250841
1059.476 .0250712
1060.055 .0250564
1060.633 .0250412
1061.211 .0250252
1061.790 .0250094
1062.368 .0249931
1062.946 .0249763
1063.524 .0249604
1064.102 .0249436
1064.680 .0249251
1065.258 .0249058
1065.836 .0248855
1066.414 .0248643
1066.992 .0248415
1067.570 .0248181
1068.148 .0247956
1068.726 .0247737
1069.304 .0247538
1069.882 .0247358
1070.460 .0247207
1071.038 .0247092
1071.616 .0247002
1072.194 .0246938
1072.772 .0246904
1073.350 .0246879
1073.928 .0246865
1074.506 .0246851
1075.084 .0246853
1075.662 .0246852
1076.240 .0246863
1076.819 .0246890
1077.397 .0246930
1077.976 .0246977
1078.554 .0247043
1079.133 .0247102
1079.711 .0247165
1080.290 .0247211
1080.869 .0247232
1081.448 .0247227
1082.027 .0247206
1082.606 .0247155
1083.185 .0247099
1083.764 .0247041
1084.343 .0246996
1084.923 .0246939
1085.502 .0246902
1086.082 .0246864
1086.662 .0246844
1087.242 .0246832
1087.822 .0246843
1088.402 .0246856
1088.983 .0246902
1089.563 .0246950
1090.144 .0247011
1090.725 .0247081
1091.306 .0247156
1091.887 .0247212
1092.469 .0247284
1093.050 .0247352
1093.632 .0247430
1094.214 .0247517
1094.796 .0247652
1095.379 .0247808
1095.961 .0248007
1096.544 .0248231
1097.127 .0248490
1097.710 .0248760
1098.294 .0249064
1098.877 .0249365
1099.461 .0249688
1100.046 .0250027
1100.630 .0250374
1101.215 .0250740
1101.800 .0251136
1102.385 .0251546
1102.970 .0251967
1103.556 .0252376
1104.142 .0252763
1104.728 .0253091
1105.315 .0253364
1105.902 .0253560
1106.489 .0253690
1107.077 .0253768
1107.664 .0253802
1108.253 .0253825
1108.841 .0253867
1109.430 .0253930
1110.019 .0254015
1110.609 .0254142
1111.198 .0254277
1111.789 .0254421
1112.379 .0254571
1112.970 .0254738
1113.561 .0254934
1114.153 .0255195
1114.745 .0255513
1115.338 .0255926
1115.931 .0256459
1116.524 .0257101
1117.117 .0257829
1117.712 .0258655
1118.306 .0259511
1118.901 .0260415
1119.496 .0261319
1120.092 .0262229
1120.689 .0263115
1121.285 .0264006
1121.882 .0264879
1122.480 .0265754
1123.078 .0266641
1123.677 .0267517
1124.276 .0268369
1124.875 .0269232
1125.476 .0270013
1126.076 .0270754
1126.677 .0271432
1127.279 .0272058
1127.881 .0272629
1128.484 .0273182
1129.087 .0273667
1129.691 .0274125
1130.295 .0274607
1130.900 .0275097
1131.505 .0275614
1132.111 .0276201
1132.718 .0276824
1133.325 .0277508
1133.933 .0278303
1134.541 .0279168
1135.150 .0280062
1135.760 .0281097
1136.370 .0282158
1136.981 .0283224
1137.592 .0284287
1138.204 .0285330
1138.817 .0286426
1139.431 .0287513
1140.045 .0288625
1140.660 .0289704
1141.275 .0290804
1141.891 .0291732
1142.508 .0293421
1143.126 .0295047
1143.744 .0294839
1144.363 .0295746
1144.983 .0291411
