Measurement Sequence started on: 15-12-46-377
Integration time: 28
Scans to Average: 2 
>>>>>Begin Spectral Data<<<<<
432.689 .0000100
433.621 .0000100
434.552 .0000100
435.482 .0000100
436.410 .0000100
437.337 .0000100
438.262 .0251936
439.187 .0534147
440.110 .0884094
441.031 .1278506
441.952 .1660457
442.871 .1960410
443.789 .2123734
444.705 .2132027
445.621 .2009141
446.535 .1805846
447.447 .1577231
448.359 .1227636
449.269 .1057076
450.178 .0952084
451.086 .0879037
451.993 .0823857
452.898 .0779762
453.803 .0743356
454.706 .0712753
455.608 .0686297
456.508 .0663233
457.408 .0643138
458.306 .0625260
459.204 .0609418
460.100 .0595026
460.995 .0582059
461.888 .0570174
462.781 .0559233
463.673 .0548951
464.563 .0539443
465.452 .0530403
466.340 .0521804
467.228 .0513745
468.114 .0506310
468.999 .0499514
469.882 .0493450
470.765 .0488140
471.647 .0483595
472.528 .0479674
473.407 .0476390
474.286 .0473529
475.163 .0471067
476.040 .0468874
476.915 .0466839
477.790 .0464982
478.663 .0463297
479.535 .0461699
480.407 .0460249
481.277 .0459030
482.147 .0458009
483.015 .0457164
483.883 .0456559
484.749 .0456092
485.615 .0455796
486.479 .0455611
487.343 .0455589
488.206 .0455694
489.067 .0455956
489.928 .0456348
490.788 .0456890
491.647 .0457616
492.505 .0458506
493.362 .0459562
494.218 .0460931
495.073 .0462626
495.928 .0464622
496.781 .0466839
497.634 .0469347
498.486 .0472073
499.337 .0475010
500.187 .0478011
501.036 .0481189
501.884 .0484475
502.731 .0487909
503.578 .0491517
504.424 .0495336
505.268 .0499309
506.113 .0503521
506.956 .0507886
507.798 .0512529
508.640 .0517459
509.480 .0522728
510.320 .0528497
511.160 .0535047
511.998 .0542415
512.836 .0550798
513.672 .0560479
514.508 .0571519
515.344 .0583858
516.178 .0597861
517.012 .0613581
517.845 .0631273
518.677 .0651186
519.508 .0673809
520.339 .0699763
521.169 .0729839
521.998 .0764427
522.826 .0804057
523.654 .0849291
524.481 .0900158
525.307 .0956663
526.133 .1018779
526.958 .1085659
527.782 .1156254
528.605 .1229440
529.428 .1304428
530.250 .1375731
531.072 .1441255
531.892 .1497192
532.712 .1540965
533.532 .1570142
534.350 .1582265
535.168 .1576124
535.986 .1552463
536.802 .1512954
537.618 .1459589
538.434 .1394741
539.249 .1324295
540.063 .1249955
540.876 .1175317
541.689 .1102746
542.501 .1034761
543.313 .0972662
544.124 .0917090
544.934 .0867366
545.744 .0822579
546.553 .0782202
547.361 .0746236
548.169 .0714149
548.976 .0685639
549.783 .0660139
550.589 .0637170
551.395 .0616291
552.200 .0597606
553.004 .0580520
553.808 .0564897
554.611 .0550745
555.414 .0537873
556.216 .0525986
557.018 .0515137
557.819 .0505100
558.619 .0495766
559.419 .0487091
560.218 .0479037
561.017 .0471420
561.815 .0464304
562.613 .0457617
563.410 .0451313
564.207 .0445406
565.003 .0439833
565.799 .0434411
566.594 .0429070
567.388 .0423906
568.182 .0418821
568.976 .0413804
569.769 .0408954
570.562 .0404219
571.354 .0399568
572.145 .0394991
572.936 .0390538
573.727 .0386167
574.517 .0381857
575.307 .0377601
576.096 .0373449
576.885 .0369447
577.673 .0365668
578.461 .0362134
579.248 .0358873
580.035 .0355953
580.821 .0353314
581.607 .0350881
582.392 .0348611
583.177 .0346498
583.962 .0344506
584.746 .0342630
585.529 .0340886
586.313 .0339277
587.095 .0337795
587.878 .0336456
588.660 .0335246
589.441 .0334146
590.222 .0333147
591.003 .0332238
591.783 .0331397
592.563 .0330605
593.342 .0329844
594.121 .0329085
594.899 .0328338
595.678 .0327613
596.455 .0326890
597.233 .0326182
598.009 .0325501
598.786 .0324858
599.562 .0324255
600.338 .0323689
601.113 .0323160
601.888 .0322668
602.663 .0322207
603.437 .0321764
604.211 .0321330
604.984 .0320908
605.757 .0320506
606.530 .0320105
607.302 .0319711
608.074 .0319333
608.845 .0318968
609.616 .0318629
610.387 .0318319
611.158 .0318042
611.928 .0317785
612.697 .0317549
613.467 .0317326
614.236 .0317108
615.004 .0316884
615.773 .0316651
616.541 .0316411
617.308 .0316166
618.076 .0315923
618.843 .0315681
619.609 .0315459
620.375 .0315258
621.141 .0315072
621.907 .0314896
622.672 .0314725
623.437 .0314558
624.202 .0314381
624.966 .0314193
625.730 .0313990
626.493 .0313769
627.257 .0313533
628.020 .0313286
628.782 .0313031
629.545 .0312766
630.307 .0312497
631.068 .0312217
631.830 .0311928
632.591 .0311625
633.352 .0311311
634.112 .0310987
634.872 .0310661
635.632 .0310330
636.392 .0309994
637.151 .0309666
637.910 .0309350
638.668 .0309043
639.427 .0308748
640.185 .0308470
640.943 .0308203
641.700 .0307950
642.457 .0307713
643.214 .0307481
643.971 .0307254
644.727 .0307032
645.483 .0306811
646.239 .0306589
646.994 .0306364
647.750 .0306139
648.505 .0305917
649.259 .0305705
650.014 .0305489
650.768 .0305276
651.521 .0305069
652.275 .0304862
653.028 .0304646
653.781 .0304424
654.534 .0304191
655.286 .0303949
656.039 .0303699
656.791 .0303446
657.542 .0303186
658.294 .0302933
659.045 .0302686
659.796 .0302446
660.546 .0302209
661.297 .0301966
662.047 .0301711
662.796 .0301449
663.546 .0301180
664.295 .0300904
665.044 .0300633
665.793 .0300380
666.542 .0300147
667.290 .0299929
668.038 .0299725
668.786 .0299528
669.533 .0299332
670.281 .0299135
671.028 .0298929
671.774 .0298718
672.521 .0298515
673.267 .0298319
674.013 .0298146
674.759 .0297990
675.505 .0297854
676.250 .0297729
676.995 .0297609
677.740 .0297483
678.484 .0297339
679.229 .0297183
679.973 .0297011
680.717 .0296827
681.460 .0296638
682.204 .0296446
682.947 .0296258
683.690 .0296075
684.433 .0295898
685.175 .0295721
685.917 .0295545
686.659 .0295365
687.401 .0295181
688.142 .0294994
688.884 .0294804
689.625 .0294609
690.365 .0294417
691.106 .0294229
691.846 .0294038
692.586 .0293852
693.326 .0293669
694.066 .0293490
694.805 .0293321
695.545 .0293157
696.284 .0292999
697.022 .0292841
697.761 .0292686
698.499 .0292519
699.237 .0292342
699.975 .0292158
700.713 .0291962
701.450 .0291758
702.187 .0291553
702.924 .0291350
703.661 .0291148
704.397 .0290957
705.133 .0290777
705.869 .0290603
706.605 .0290438
707.341 .0290276
708.076 .0290113
708.811 .0289947
709.546 .0289784
710.281 .0289617
711.015 .0289454
711.749 .0289292
712.483 .0289127
713.217 .0288960
713.950 .0288793
714.684 .0288623
715.417 .0288450
716.150 .0288278
716.882 .0288104
717.615 .0287924
718.347 .0287743
719.079 .0287559
719.811 .0287374
720.542 .0287186
721.273 .0286992
722.005 .0286790
722.735 .0286581
723.466 .0286369
724.196 .0286149
724.927 .0285928
725.656 .0285704
726.386 .0285480
727.116 .0285252
727.845 .0285021
728.574 .0284784
729.303 .0284545
730.031 .0284306
730.760 .0284069
731.488 .0283834
732.216 .0283609
732.944 .0283395
733.671 .0283198
734.398 .0283012
735.125 .0282833
735.852 .0282663
736.579 .0282500
737.305 .0282342
738.031 .0282194
738.757 .0282054
739.483 .0281923
740.208 .0281806
740.933 .0281700
741.658 .0281600
742.383 .0281500
743.108 .0281399
743.832 .0281287
744.556 .0281158
745.280 .0281013
746.004 .0280852
746.727 .0280683
747.450 .0280515
748.173 .0280342
748.896 .0280176
749.618 .0280023
750.340 .0279878
751.062 .0279742
751.784 .0279615
752.506 .0279489
753.227 .0279362
753.948 .0279237
754.669 .0279115
755.389 .0278995
756.110 .0278883
756.830 .0278772
757.550 .0278662
758.269 .0278554
758.989 .0278439
759.708 .0278312
760.427 .0278182
761.146 .0278043
761.864 .0277891
762.582 .0277732
763.300 .0277564
764.018 .0277395
764.736 .0277227
765.453 .0277063
766.170 .0276902
766.887 .0276744
767.603 .0276597
768.320 .0276451
769.036 .0276316
769.751 .0276193
770.467 .0276078
771.182 .0275975
771.897 .0275882
772.612 .0275793
773.327 .0275709
774.041 .0275631
774.755 .0275555
775.469 .0275479
776.183 .0275405
776.896 .0275329
777.609 .0275250
778.322 .0275172
779.035 .0275096
779.747 .0275016
780.459 .0274935
781.171 .0274854
781.882 .0274769
782.594 .0274689
783.305 .0274613
784.016 .0274547
784.726 .0274491
785.436 .0274444
786.147 .0274402
786.856 .0274359
787.566 .0274316
788.275 .0274269
788.984 .0274215
789.693 .0274158
790.401 .0274095
791.110 .0274029
791.818 .0273963
792.525 .0273902
793.233 .0273838
793.940 .0273774
794.647 .0273704
795.353 .0273626
796.060 .0273537
796.766 .0273437
797.472 .0273328
798.177 .0273210
798.883 .0273090
799.588 .0272969
800.292 .0272848
800.997 .0272729
801.701 .0272613
802.405 .0272499
803.109 .0272390
803.812 .0272283
804.515 .0272177
805.218 .0272074
805.921 .0271976
806.623 .0271878
807.325 .0271783
808.027 .0271692
808.728 .0271603
809.429 .0271515
810.130 .0271425
810.831 .0271330
811.531 .0271233
812.231 .0271132
812.931 .0271026
813.630 .0270917
814.330 .0270808
815.029 .0270692
815.727 .0270572
816.426 .0270450
817.124 .0270326
817.821 .0270198
818.519 .0270071
819.216 .0269949
819.913 .0269832
820.609 .0269723
821.306 .0269621
822.002 .0269531
822.697 .0269455
823.393 .0269386
824.088 .0269326
824.783 .0269269
825.477 .0269214
826.171 .0269158
826.865 .0269102
827.559 .0269050
828.252 .0269001
828.945 .0268957
829.638 .0268913
830.330 .0268871
831.023 .0268826
831.714 .0268773
832.406 .0268712
833.097 .0268634
833.788 .0268539
834.479 .0268428
835.169 .0268307
835.859 .0268181
836.548 .0268056
837.238 .0267937
837.927 .0267823
838.615 .0267714
839.304 .0267605
839.992 .0267497
840.680 .0267386
841.367 .0267268
842.054 .0267145
842.741 .0267018
843.428 .0266891
844.114 .0266769
844.800 .0266657
845.485 .0266558
846.170 .0266465
846.855 .0266381
847.540 .0266294
848.224 .0266207
848.908 .0266114
849.592 .0266010
850.275 .0265896
850.958 .0265777
851.641 .0265653
852.323 .0265526
853.005 .0265396
853.687 .0265269
854.368 .0265136
855.049 .0264999
855.730 .0264852
856.410 .0264693
857.090 .0264525
857.769 .0264348
858.449 .0264160
859.128 .0263966
859.806 .0263762
860.485 .0263560
861.163 .0263357
861.840 .0263157
862.518 .0262955
863.195 .0262752
863.871 .0262550
864.548 .0262349
865.224 .0262148
865.899 .0261951
866.574 .0261755
867.249 .0261566
867.924 .0261379
868.598 .0261194
869.272 .0261014
869.946 .0260843
870.619 .0260675
871.292 .0260516
871.964 .0260360
872.636 .0260208
873.308 .0260062
873.979 .0259921
874.651 .0259783
875.321 .0259648
875.992 .0259522
876.662 .0259401
877.331 .0259286
878.001 .0259179
878.670 .0259075
879.338 .0258976
880.007 .0258885
880.675 .0258794
881.342 .0258702
882.009 .0258611
882.676 .0258519
883.343 .0258424
884.009 .0258329
884.675 .0258233
885.340 .0258135
886.005 .0258036
886.670 .0257932
887.334 .0257823
887.998 .0257712
888.662 .0257600
889.325 .0257490
889.988 .0257389
890.650 .0257298
891.312 .0257219
891.974 .0257157
892.636 .0257113
893.297 .0257087
893.957 .0257073
894.618 .0257071
895.278 .0257077
895.937 .0257085
896.596 .0257095
897.255 .0257099
897.914 .0257103
898.572 .0257102
899.230 .0257091
899.887 .0257067
900.544 .0257034
901.201 .0256990
901.857 .0256935
902.513 .0256869
903.168 .0256793
903.823 .0256700
904.478 .0256589
905.132 .0256454
905.786 .0256297
906.440 .0256124
907.093 .0255938
907.746 .0255741
908.399 .0255543
909.051 .0255346
909.703 .0255156
910.354 .0254976
911.005 .0254809
911.656 .0254646
912.306 .0254483
912.956 .0254319
913.605 .0254149
914.254 .0253977
914.903 .0253809
915.551 .0253646
916.199 .0253499
916.847 .0253366
917.494 .0253248
918.141 .0253145
918.788 .0253053
919.434 .0252974
920.079 .0252896
920.725 .0252818
921.370 .0252741
922.014 .0252658
922.658 .0252572
923.302 .0252484
923.946 .0252389
924.589 .0252286
925.231 .0252171
925.873 .0252043
926.515 .0251904
927.157 .0251751
927.798 .0251587
928.439 .0251411
929.079 .0251226
929.719 .0251030
930.359 .0250829
930.998 .0250623
931.637 .0250421
932.275 .0250222
932.913 .0250032
933.551 .0249852
934.188 .0249685
934.825 .0249532
935.462 .0249389
936.098 .0249261
936.733 .0249145
937.369 .0249038
938.004 .0248948
938.638 .0248867
939.273 .0248796
939.907 .0248733
940.540 .0248682
941.173 .0248639
941.806 .0248601
942.438 .0248565
943.070 .0248528
943.702 .0248493
944.333 .0248459
944.964 .0248423
945.594 .0248391
946.224 .0248369
946.854 .0248351
947.483 .0248339
948.112 .0248333
948.741 .0248330
949.369 .0248329
949.996 .0248330
950.624 .0248327
951.251 .0248320
951.878 .0248311
952.504 .0248300
953.130 .0248285
953.755 .0248271
954.380 .0248253
955.005 .0248230
955.629 .0248206
956.253 .0248178
956.877 .0248145
957.500 .0248112
958.123 .0248081
958.746 .0248049
959.368 .0248017
959.990 .0247987
960.611 .0247955
961.232 .0247927
961.853 .0247905
962.473 .0247885
963.093 .0247869
963.712 .0247853
964.331 .0247838
964.950 .0247818
965.569 .0247796
966.187 .0247770
966.804 .0247736
967.422 .0247701
968.039 .0247659
968.655 .0247614
969.272 .0247567
969.887 .0247523
970.503 .0247475
971.118 .0247426
971.733 .0247373
972.347 .0247316
972.961 .0247248
973.575 .0247177
974.188 .0247100
974.801 .0247019
975.414 .0246943
976.026 .0246869
976.638 .0246798
977.250 .0246745
977.861 .0246698
978.472 .0246659
979.083 .0246626
979.693 .0246592
980.303 .0246548
980.912 .0246496
981.521 .0246438
982.130 .0246368
982.738 .0246295
983.346 .0246228
983.954 .0246163
984.562 .0246112
985.169 .0246067
985.775 .0246024
986.382 .0245987
986.988 .0245952
987.594 .0245905
988.199 .0245847
988.804 .0245788
989.409 .0245725
990.013 .0245662
990.617 .0245607
991.221 .0245560
991.824 .0245528
992.427 .0245516
993.030 .0245514
993.632 .0245525
994.234 .0245553
994.836 .0245589
995.438 .0245634
996.039 .0245684
996.640 .0245728
997.240 .0245768
997.840 .0245809
998.440 .0245846
999.040 .0245868
999.639 .0245887
1000.238 .0245899
1000.836 .0245908
1001.435 .0245912
1002.033 .0245904
1002.630 .0245883
1003.228 .0245855
1003.825 .0245813
1004.422 .0245753
1005.018 .0245685
1005.614 .0245615
1006.210 .0245545
1006.806 .0245481
1007.401 .0245422
1007.996 .0245365
1008.591 .0245312
1009.186 .0245265
1009.780 .0245217
1010.374 .0245168
1010.967 .0245116
1011.561 .0245068
1012.154 .0245028
1012.746 .0244998
1013.339 .0244978
1013.931 .0244969
1014.523 .0244970
1015.115 .0244967
1015.706 .0244960
1016.298 .0244952
1016.888 .0244945
1017.479 .0244945
1018.069 .0244956
1018.660 .0244986
1019.250 .0245034
1019.839 .0245099
1020.429 .0245176
1021.018 .0245257
1021.607 .0245334
1022.195 .0245399
1022.784 .0245454
1023.372 .0245505
1023.960 .0245551
1024.547 .0245598
1025.135 .0245658
1025.722 .0245723
1026.309 .0245793
1026.896 .0245867
1027.483 .0245932
1028.069 .0245987
1028.655 .0246022
1029.241 .0246043
1029.827 .0246051
1030.412 .0246059
1030.997 .0246067
1031.582 .0246082
1032.167 .0246111
1032.752 .0246149
1033.336 .0246193
1033.921 .0246247
1034.505 .0246294
1035.089 .0246324
1035.672 .0246329
1036.256 .0246310
1036.839 .0246258
1037.422 .0246184
1038.005 .0246095
1038.588 .0246000
1039.171 .0245906
1039.753 .0245823
1040.335 .0245748
1040.918 .0245693
1041.500 .0245645
1042.081 .0245598
1042.663 .0245537
1043.244 .0245459
1043.826 .0245357
1044.407 .0245243
1044.988 .0245130
1045.569 .0245022
1046.150 .0244926
1046.730 .0244852
1047.311 .0244802
1047.891 .0244770
1048.471 .0244752
1049.052 .0244743
1049.632 .0244724
1050.211 .0244695
1050.791 .0244647
1051.371 .0244583
1051.950 .0244514
1052.530 .0244449
1053.109 .0244388
1053.688 .0244334
1054.268 .0244286
1054.847 .0244247
1055.426 .0244218
1056.005 .0244194
1056.583 .0244163
1057.162 .0244123
1057.741 .0244080
1058.319 .0244026
1058.898 .0243964
1059.476 .0243908
1060.055 .0243870
1060.633 .0243844
1061.211 .0243836
1061.790 .0243842
1062.368 .0243862
1062.946 .0243884
1063.524 .0243905
1064.102 .0243926
1064.680 .0243938
1065.258 .0243941
1065.836 .0243938
1066.414 .0243935
1066.992 .0243939
1067.570 .0243924
1068.148 .0243903
1068.726 .0243863
1069.304 .0243792
1069.882 .0243682
1070.460 .0243551
1071.038 .0243405
1071.616 .0243254
1072.194 .0243115
1072.772 .0242987
1073.350 .0242872
1073.928 .0242786
1074.506 .0242701
1075.084 .0242638
1075.662 .0242589
1076.240 .0242555
1076.819 .0242524
1077.397 .0242524
1077.976 .0242549
1078.554 .0242601
1079.133 .0242691
1079.711 .0242814
1080.290 .0242942
1080.869 .0243093
1081.448 .0243242
1082.027 .0243385
1082.606 .0243526
1083.185 .0243670
1083.764 .0243801
1084.343 .0243933
1084.923 .0244054
1085.502 .0244165
1086.082 .0244276
1086.662 .0244383
1087.242 .0244467
1087.822 .0244536
1088.402 .0244590
1088.983 .0244627
1089.563 .0244631
1090.144 .0244613
1090.725 .0244554
1091.306 .0244460
1091.887 .0244339
1092.469 .0244198
1093.050 .0244068
1093.632 .0243945
1094.214 .0243860
1094.796 .0243804
1095.379 .0243780
1095.961 .0243770
1096.544 .0243765
1097.127 .0243775
1097.710 .0243787
1098.294 .0243800
1098.877 .0243823
1099.461 .0243878
1100.046 .0243977
1100.630 .0244117
1101.215 .0244304
1101.800 .0244517
1102.385 .0244767
1102.970 .0245007
1103.556 .0245237
1104.142 .0245452
1104.728 .0245673
1105.315 .0245894
1105.902 .0246120
1106.489 .0246392
1107.077 .0246677
1107.664 .0246996
1108.253 .0247348
1108.841 .0247695
1109.430 .0248014
1110.019 .0248260
1110.609 .0248429
1111.198 .0248519
1111.789 .0248557
1112.379 .0248556
1112.970 .0248536
1113.561 .0248568
1114.153 .0248636
1114.745 .0248735
1115.338 .0248900
1115.931 .0249127
1116.524 .0249365
1117.117 .0249634
1117.712 .0249904
1118.306 .0250187
1118.901 .0250519
1119.496 .0250923
1120.092 .0251419
1120.689 .0252052
1121.285 .0252814
1121.882 .0253667
1122.480 .0254581
1123.078 .0255537
1123.677 .0256464
1124.276 .0257353
1124.875 .0258183
1125.476 .0258915
1126.076 .0259590
1126.677 .0260244
1127.279 .0260880
1127.881 .0261547
1128.484 .0262223
1129.087 .0262892
1129.691 .0263558
1130.295 .0264196
1130.900 .0264789
1131.505 .0265312
1132.111 .0265808
1132.718 .0266274
1133.325 .0266749
1133.933 .0267208
1134.541 .0267725
1135.150 .0268315
1135.760 .0269014
1136.370 .0269742
1136.981 .0270583
1137.592 .0271488
1138.204 .0272479
1138.817 .0273511
1139.431 .0274590
1140.045 .0275784
1140.660 .0277140
1141.275 .0278691
1141.891 .0280525
1142.508 .0280762
1143.126 .0284135
1143.744 .0286185
1144.363 .0290494
1144.983 .0294459
