Measurement Sequence started on: 15-12-46-377
Integration time: 28
Scans to Average: 2 
>>>>>Begin Spectral Data<<<<<
432.689 .0000100
433.621 .0000100
434.552 .0000100
435.482 .0000100
436.410 .0000100
437.337 .0000100
438.262 .0258209
439.187 .0546369
440.110 .0903526
441.031 .1305853
441.952 .1696260
442.871 .2002683
443.789 .2169258
444.705 .2177356
445.621 .2050961
446.535 .1841680
447.447 .1605761
448.359 .1244950
449.269 .1067845
450.178 .0957378
451.086 .0880176
451.993 .0821574
452.898 .0776068
453.803 .0739642
454.706 .0709790
455.608 .0684486
456.508 .0662687
457.408 .0643538
458.306 .0626419
459.204 .0611037
460.100 .0597111
460.995 .0584442
461.888 .0572965
462.781 .0562511
463.673 .0552826
464.563 .0543809
465.452 .0535307
466.340 .0527090
467.228 .0519345
468.114 .0512025
468.999 .0505113
469.882 .0498657
470.765 .0492691
471.647 .0487265
472.528 .0482371
473.407 .0478034
474.286 .0474219
475.163 .0470848
476.040 .0467881
476.915 .0465219
477.790 .0462891
478.663 .0460832
479.535 .0459076
480.407 .0457617
481.277 .0456474
482.147 .0455571
483.015 .0454902
483.883 .0454403
484.749 .0454055
485.615 .0453877
486.479 .0453764
487.343 .0453648
488.206 .0453574
489.067 .0453502
489.928 .0453460
490.788 .0453571
491.647 .0453864
492.505 .0454316
493.362 .0455028
494.218 .0455943
495.073 .0456992
495.928 .0458278
496.781 .0459738
497.634 .0461402
498.486 .0463322
499.337 .0465546
500.187 .0468056
501.036 .0470962
501.884 .0474303
502.731 .0477967
503.578 .0481979
504.424 .0486240
505.268 .0490612
506.113 .0495196
506.956 .0499984
507.798 .0505154
508.640 .0510725
509.480 .0516915
510.320 .0523706
511.160 .0531097
511.998 .0539108
512.836 .0547709
513.672 .0556902
514.508 .0566721
515.344 .0577217
516.178 .0588702
517.012 .0601541
517.845 .0616401
518.677 .0633786
519.508 .0654107
520.339 .0677712
521.169 .0705415
521.998 .0737036
522.826 .0773215
523.654 .0814009
524.481 .0859659
525.307 .0910872
526.133 .0967529
526.958 .1029942
527.782 .1097642
528.605 .1169602
529.428 .1244893
530.250 .1318021
531.072 .1386278
531.892 .1444567
532.712 .1489518
533.532 .1518272
534.350 .1527959
535.168 .1517813
535.986 .1488916
536.802 .1444123
537.618 .1386808
538.434 .1319720
539.249 .1248751
540.063 .1176287
540.876 .1105504
541.689 .1037643
542.501 .0974315
543.313 .0916724
544.124 .0865073
544.934 .0818614
545.744 .0776721
546.553 .0739374
547.361 .0706813
548.169 .0678546
548.976 .0654009
549.783 .0632854
550.589 .0614482
551.395 .0597907
552.200 .0582864
553.004 .0569073
553.808 .0556092
554.611 .0544050
555.414 .0533157
556.216 .0523222
557.018 .0514210
557.819 .0506253
558.619 .0498878
559.419 .0492153
560.218 .0485784
561.017 .0479470
561.815 .0473172
562.613 .0466921
563.410 .0460606
564.207 .0454168
565.003 .0447870
565.799 .0441688
566.594 .0435473
567.388 .0429441
568.182 .0423435
568.976 .0417486
569.769 .0411696
570.562 .0406050
571.354 .0400574
572.145 .0395425
572.936 .0390489
573.727 .0385781
574.517 .0381323
575.307 .0377097
576.096 .0373071
576.885 .0369243
577.673 .0365622
578.461 .0362193
579.248 .0358978
580.035 .0355961
580.821 .0353103
581.607 .0350446
582.392 .0347963
583.177 .0345662
583.962 .0343527
584.746 .0341567
585.529 .0339754
586.313 .0338113
587.095 .0336628
587.878 .0335262
588.660 .0334023
589.441 .0332880
590.222 .0331833
591.003 .0330866
591.783 .0329954
592.563 .0329100
593.342 .0328310
594.121 .0327568
594.899 .0326871
595.678 .0326211
596.455 .0325581
597.233 .0324992
598.009 .0324436
598.786 .0323912
599.562 .0323416
600.338 .0322947
601.113 .0322488
601.888 .0322029
602.663 .0321577
603.437 .0321109
604.211 .0320634
604.984 .0320163
605.757 .0319693
606.530 .0319225
607.302 .0318769
608.074 .0318332
608.845 .0317919
609.616 .0317519
610.387 .0317133
611.158 .0316755
611.928 .0316388
612.697 .0316028
613.467 .0315678
614.236 .0315344
615.004 .0315034
615.773 .0314739
616.541 .0314471
617.308 .0314224
618.076 .0314005
618.843 .0313804
619.609 .0313633
620.375 .0313486
621.141 .0313352
621.907 .0313229
622.672 .0313120
623.437 .0313010
624.202 .0312893
624.966 .0312762
625.730 .0312622
626.493 .0312472
627.257 .0312318
628.020 .0312152
628.782 .0311985
629.545 .0311812
630.307 .0311628
631.068 .0311426
631.830 .0311211
632.591 .0310967
633.352 .0310699
634.112 .0310409
634.872 .0310103
635.632 .0309785
636.392 .0309468
637.151 .0309154
637.910 .0308847
638.668 .0308555
639.427 .0308269
640.185 .0307995
640.943 .0307741
641.700 .0307502
642.457 .0307278
643.214 .0307067
643.971 .0306865
644.727 .0306671
645.483 .0306483
646.239 .0306295
646.994 .0306104
647.750 .0305909
648.505 .0305713
649.259 .0305517
650.014 .0305325
650.768 .0305143
651.521 .0304966
652.275 .0304789
653.028 .0304604
653.781 .0304404
654.534 .0304189
655.286 .0303955
656.039 .0303711
656.791 .0303456
657.542 .0303192
658.294 .0302928
659.045 .0302680
659.796 .0302440
660.546 .0302214
661.297 .0301991
662.047 .0301765
662.796 .0301531
663.546 .0301282
664.295 .0301010
665.044 .0300726
665.793 .0300434
666.542 .0300136
667.290 .0299837
668.038 .0299553
668.786 .0299281
669.533 .0299031
670.281 .0298798
671.028 .0298575
671.774 .0298358
672.521 .0298149
673.267 .0297932
674.013 .0297710
674.759 .0297480
675.505 .0297247
676.250 .0297016
676.995 .0296793
677.740 .0296580
678.484 .0296382
679.229 .0296199
679.973 .0296033
680.717 .0295878
681.460 .0295732
682.204 .0295589
682.947 .0295449
683.690 .0295309
684.433 .0295165
685.175 .0295018
685.917 .0294877
686.659 .0294739
687.401 .0294610
688.142 .0294487
688.884 .0294372
689.625 .0294266
690.365 .0294162
691.106 .0294059
691.846 .0293951
692.586 .0293835
693.326 .0293706
694.066 .0293568
694.805 .0293422
695.545 .0293268
696.284 .0293113
697.022 .0292959
697.761 .0292807
698.499 .0292657
699.237 .0292511
699.975 .0292366
700.713 .0292225
701.450 .0292087
702.187 .0291948
702.924 .0291813
703.661 .0291677
704.397 .0291544
705.133 .0291412
705.869 .0291280
706.605 .0291147
707.341 .0291015
708.076 .0290880
708.811 .0290743
709.546 .0290598
710.281 .0290450
711.015 .0290291
711.749 .0290126
712.483 .0289952
713.217 .0289766
713.950 .0289573
714.684 .0289370
715.417 .0289154
716.150 .0288933
716.882 .0288708
717.615 .0288481
718.347 .0288256
719.079 .0288036
719.811 .0287817
720.542 .0287603
721.273 .0287393
722.005 .0287182
722.735 .0286971
723.466 .0286761
724.196 .0286548
724.927 .0286334
725.656 .0286120
726.386 .0285907
727.116 .0285694
727.845 .0285488
728.574 .0285281
729.303 .0285080
730.031 .0284880
730.760 .0284685
731.488 .0284492
732.216 .0284302
732.944 .0284118
733.671 .0283942
734.398 .0283778
735.125 .0283631
735.852 .0283501
736.579 .0283393
737.305 .0283303
738.031 .0283230
738.757 .0283161
739.483 .0283093
740.208 .0283024
740.933 .0282946
741.658 .0282861
742.383 .0282772
743.108 .0282676
743.832 .0282584
744.556 .0282498
745.280 .0282416
746.004 .0282335
746.727 .0282254
747.450 .0282163
748.173 .0282056
748.896 .0281933
749.618 .0281791
750.340 .0281636
751.062 .0281477
751.784 .0281318
752.506 .0281163
753.227 .0281024
753.948 .0280895
754.669 .0280777
755.389 .0280662
756.110 .0280544
756.830 .0280418
757.550 .0280286
758.269 .0280146
758.989 .0280004
759.708 .0279863
760.427 .0279735
761.146 .0279616
761.864 .0279516
762.582 .0279429
763.300 .0279351
764.018 .0279279
764.736 .0279207
765.453 .0279131
766.170 .0279042
766.887 .0278942
767.603 .0278837
768.320 .0278720
769.036 .0278595
769.751 .0278462
770.467 .0278327
771.182 .0278189
771.897 .0278047
772.612 .0277901
773.327 .0277756
774.041 .0277613
774.755 .0277473
775.469 .0277337
776.183 .0277214
776.896 .0277099
777.609 .0276991
778.322 .0276896
779.035 .0276810
779.747 .0276732
780.459 .0276666
781.171 .0276608
781.882 .0276562
782.594 .0276522
783.305 .0276487
784.016 .0276456
784.726 .0276427
785.436 .0276394
786.147 .0276354
786.856 .0276306
787.566 .0276249
788.275 .0276179
788.984 .0276104
789.693 .0276021
790.401 .0275933
791.110 .0275838
791.818 .0275737
792.525 .0275631
793.233 .0275521
793.940 .0275400
794.647 .0275271
795.353 .0275134
796.060 .0274991
796.766 .0274840
797.472 .0274686
798.177 .0274527
798.883 .0274366
799.588 .0274203
800.292 .0274040
800.997 .0273870
801.701 .0273699
802.405 .0273521
803.109 .0273338
803.812 .0273150
804.515 .0272958
805.218 .0272755
805.921 .0272554
806.623 .0272351
807.325 .0272146
808.027 .0271946
808.728 .0271752
809.429 .0271560
810.130 .0271373
810.831 .0271186
811.531 .0271000
812.231 .0270814
812.931 .0270629
813.630 .0270439
814.330 .0270253
815.029 .0270074
815.727 .0269902
816.426 .0269741
817.124 .0269593
817.821 .0269451
818.519 .0269320
819.216 .0269197
819.913 .0269077
820.609 .0268956
821.306 .0268833
822.002 .0268707
822.697 .0268583
823.393 .0268462
824.088 .0268347
824.783 .0268238
825.477 .0268140
826.171 .0268046
826.865 .0267961
827.559 .0267882
828.252 .0267808
828.945 .0267742
829.638 .0267682
830.330 .0267629
831.023 .0267586
831.714 .0267555
832.406 .0267539
833.097 .0267535
833.788 .0267542
834.479 .0267554
835.169 .0267570
835.859 .0267586
836.548 .0267605
837.238 .0267621
837.927 .0267632
838.615 .0267636
839.304 .0267637
839.992 .0267631
840.680 .0267617
841.367 .0267600
842.054 .0267581
842.741 .0267557
843.428 .0267529
844.114 .0267495
844.800 .0267463
845.485 .0267425
846.170 .0267380
846.855 .0267322
847.540 .0267257
848.224 .0267182
848.908 .0267099
849.592 .0267015
850.275 .0266935
850.958 .0266859
851.641 .0266789
852.323 .0266729
853.005 .0266673
853.687 .0266618
854.368 .0266558
855.049 .0266488
855.730 .0266410
856.410 .0266319
857.090 .0266223
857.769 .0266127
858.449 .0266040
859.128 .0265961
859.806 .0265888
860.485 .0265825
861.163 .0265769
861.840 .0265712
862.518 .0265654
863.195 .0265590
863.871 .0265517
864.548 .0265437
865.224 .0265352
865.899 .0265267
866.574 .0265187
867.249 .0265112
867.924 .0265041
868.598 .0264971
869.272 .0264903
869.946 .0264831
870.619 .0264752
871.292 .0264672
871.964 .0264587
872.636 .0264493
873.308 .0264397
873.979 .0264300
874.651 .0264205
875.321 .0264114
875.992 .0264023
876.662 .0263931
877.331 .0263838
878.001 .0263741
878.670 .0263641
879.338 .0263536
880.007 .0263435
880.675 .0263336
881.342 .0263241
882.009 .0263149
882.676 .0263059
883.343 .0262976
884.009 .0262899
884.675 .0262823
885.340 .0262748
886.005 .0262669
886.670 .0262590
887.334 .0262508
887.998 .0262425
888.662 .0262339
889.325 .0262257
889.988 .0262171
890.650 .0262083
891.312 .0261989
891.974 .0261894
892.636 .0261795
893.297 .0261698
893.957 .0261603
894.618 .0261511
895.278 .0261424
895.937 .0261348
896.596 .0261278
897.255 .0261215
897.914 .0261155
898.572 .0261094
899.230 .0261027
899.887 .0260950
900.544 .0260863
901.201 .0260768
901.857 .0260669
902.513 .0260562
903.168 .0260448
903.823 .0260327
904.478 .0260198
905.132 .0260052
905.786 .0259888
906.440 .0259701
907.093 .0259490
907.746 .0259257
908.399 .0259002
909.051 .0258734
909.703 .0258457
910.354 .0258175
911.005 .0257895
911.656 .0257614
912.306 .0257333
912.956 .0257052
913.605 .0256770
914.254 .0256489
914.903 .0256207
915.551 .0255932
916.199 .0255669
916.847 .0255423
917.494 .0255196
918.141 .0254987
918.788 .0254794
919.434 .0254614
920.079 .0254439
920.725 .0254265
921.370 .0254090
922.014 .0253912
922.658 .0253735
923.302 .0253561
923.946 .0253389
924.589 .0253219
925.231 .0253049
925.873 .0252882
926.515 .0252709
927.157 .0252528
927.798 .0252337
928.439 .0252136
929.079 .0251927
929.719 .0251709
930.359 .0251486
930.998 .0251266
931.637 .0251047
932.275 .0250832
932.913 .0250623
933.551 .0250423
934.188 .0250234
934.825 .0250056
935.462 .0249893
936.098 .0249745
936.733 .0249611
937.369 .0249490
938.004 .0249387
938.638 .0249295
939.273 .0249212
939.907 .0249138
940.540 .0249075
941.173 .0249018
941.806 .0248968
942.438 .0248926
943.070 .0248896
943.702 .0248874
944.333 .0248854
944.964 .0248831
945.594 .0248811
946.224 .0248790
946.854 .0248769
947.483 .0248744
948.112 .0248722
948.741 .0248701
949.369 .0248677
949.996 .0248654
950.624 .0248631
951.251 .0248608
951.878 .0248589
952.504 .0248570
953.130 .0248553
953.755 .0248541
954.380 .0248536
955.005 .0248535
955.629 .0248534
956.253 .0248529
956.877 .0248518
957.500 .0248500
958.123 .0248479
958.746 .0248452
959.368 .0248421
959.990 .0248392
960.611 .0248362
961.232 .0248337
961.853 .0248314
962.473 .0248298
963.093 .0248283
963.712 .0248272
964.331 .0248260
964.950 .0248248
965.569 .0248238
966.187 .0248240
966.804 .0248253
967.422 .0248280
968.039 .0248321
968.655 .0248372
969.272 .0248429
969.887 .0248488
970.503 .0248546
971.118 .0248601
971.733 .0248652
972.347 .0248701
972.961 .0248742
973.575 .0248783
974.188 .0248823
974.801 .0248861
975.414 .0248893
976.026 .0248917
976.638 .0248928
977.250 .0248927
977.861 .0248916
978.472 .0248893
979.083 .0248864
979.693 .0248833
980.303 .0248797
980.912 .0248759
981.521 .0248722
982.130 .0248682
982.738 .0248643
983.346 .0248605
983.954 .0248562
984.562 .0248520
985.169 .0248477
985.775 .0248433
986.382 .0248390
986.988 .0248346
987.594 .0248299
988.199 .0248250
988.804 .0248204
989.409 .0248158
990.013 .0248113
990.617 .0248075
991.221 .0248037
991.824 .0248005
992.427 .0247981
993.030 .0247960
993.632 .0247946
994.234 .0247944
994.836 .0247948
995.438 .0247958
996.039 .0247977
996.640 .0248003
997.240 .0248038
997.840 .0248084
998.440 .0248134
999.040 .0248189
999.639 .0248250
1000.238 .0248314
1000.836 .0248379
1001.435 .0248446
1002.033 .0248511
1002.630 .0248570
1003.228 .0248625
1003.825 .0248676
1004.422 .0248718
1005.018 .0248753
1005.614 .0248780
1006.210 .0248802
1006.806 .0248818
1007.401 .0248823
1007.996 .0248820
1008.591 .0248812
1009.186 .0248800
1009.780 .0248776
1010.374 .0248736
1010.967 .0248685
1011.561 .0248622
1012.154 .0248546
1012.746 .0248462
1013.339 .0248379
1013.931 .0248300
1014.523 .0248236
1015.115 .0248186
1015.706 .0248145
1016.298 .0248114
1016.888 .0248090
1017.479 .0248067
1018.069 .0248043
1018.660 .0248014
1019.250 .0247976
1019.839 .0247939
1020.429 .0247914
1021.018 .0247894
1021.607 .0247888
1022.195 .0247894
1022.784 .0247911
1023.372 .0247931
1023.960 .0247953
1024.547 .0247964
1025.135 .0247964
1025.722 .0247960
1026.309 .0247945
1026.896 .0247928
1027.483 .0247918
1028.069 .0247910
1028.655 .0247915
1029.241 .0247926
1029.827 .0247941
1030.412 .0247952
1030.997 .0247965
1031.582 .0247971
1032.167 .0247966
1032.752 .0247953
1033.336 .0247921
1033.921 .0247873
1034.505 .0247808
1035.089 .0247726
1035.672 .0247625
1036.256 .0247516
1036.839 .0247398
1037.422 .0247278
1038.005 .0247160
1038.588 .0247046
1039.171 .0246939
1039.753 .0246841
1040.335 .0246744
1040.918 .0246646
1041.500 .0246548
1042.081 .0246446
1042.663 .0246333
1043.244 .0246230
1043.826 .0246121
1044.407 .0246018
1044.988 .0245917
1045.569 .0245816
1046.150 .0245715
1046.730 .0245615
1047.311 .0245509
1047.891 .0245398
1048.471 .0245280
1049.052 .0245158
1049.632 .0245018
1050.211 .0244890
1050.791 .0244759
1051.371 .0244632
1051.950 .0244522
1052.530 .0244427
1053.109 .0244334
1053.688 .0244249
1054.268 .0244170
1054.847 .0244097
1055.426 .0244033
1056.005 .0243976
1056.583 .0243914
1057.162 .0243863
1057.741 .0243823
1058.319 .0243789
1058.898 .0243764
1059.476 .0243756
1060.055 .0243747
1060.633 .0243739
1061.211 .0243727
1061.790 .0243710
1062.368 .0243683
1062.946 .0243648
1063.524 .0243607
1064.102 .0243554
1064.680 .0243494
1065.258 .0243423
1065.836 .0243342
1066.414 .0243252
1066.992 .0243149
1067.570 .0243033
1068.148 .0242900
1068.726 .0242763
1069.304 .0242630
1069.882 .0242495
1070.460 .0242377
1071.038 .0242278
1071.616 .0242193
1072.194 .0242128
1072.772 .0242083
1073.350 .0242048
1073.928 .0242035
1074.506 .0242036
1075.084 .0242054
1075.662 .0242089
1076.240 .0242145
1076.819 .0242201
1077.397 .0242261
1077.976 .0242336
1078.554 .0242406
1079.133 .0242478
1079.711 .0242553
1080.290 .0242619
1080.869 .0242681
1081.448 .0242729
1082.027 .0242764
1082.606 .0242791
1083.185 .0242823
1083.764 .0242866
1084.343 .0242921
1084.923 .0242992
1085.502 .0243083
1086.082 .0243188
1086.662 .0243303
1087.242 .0243423
1087.822 .0243533
1088.402 .0243635
1088.983 .0243725
1089.563 .0243820
1090.144 .0243922
1090.725 .0244050
1091.306 .0244207
1091.887 .0244388
1092.469 .0244602
1093.050 .0244835
1093.632 .0245062
1094.214 .0245291
1094.796 .0245514
1095.379 .0245719
1095.961 .0245921
1096.544 .0246134
1097.127 .0246355
1097.710 .0246616
1098.294 .0246906
1098.877 .0247214
1099.461 .0247526
1100.046 .0247838
1100.630 .0248112
1101.215 .0248347
1101.800 .0248557
1102.385 .0248734
1102.970 .0248909
1103.556 .0249093
1104.142 .0249297
1104.728 .0249546
1105.315 .0249832
1105.902 .0250143
1106.489 .0250481
1107.077 .0250841
1107.664 .0251189
1108.253 .0251533
1108.841 .0251874
1109.430 .0252229
1110.019 .0252614
1110.609 .0253029
1111.198 .0253491
1111.789 .0253989
1112.379 .0254516
1112.970 .0255037
1113.561 .0255543
1114.153 .0256028
1114.745 .0256449
1115.338 .0256829
1115.931 .0257160
1116.524 .0257452
1117.117 .0257744
1117.712 .0258032
1118.306 .0258368
1118.901 .0258742
1119.496 .0259148
1120.092 .0259576
1120.689 .0260029
1121.285 .0260509
1121.882 .0260979
1122.480 .0261459
1123.078 .0261938
1123.677 .0262451
1124.276 .0263012
1124.875 .0263662
1125.476 .0264366
1126.076 .0265166
1126.677 .0266048
1127.279 .0266933
1127.881 .0267805
1128.484 .0268610
1129.087 .0269327
1129.691 .0269954
1130.295 .0270463
1130.900 .0270915
1131.505 .0271319
1132.111 .0271819
1132.718 .0272357
1133.325 .0273017
1133.933 .0273805
1134.541 .0274708
1135.150 .0275649
1135.760 .0276658
1136.370 .0277635
1136.981 .0278622
1137.592 .0279595
1138.204 .0280618
1138.817 .0281716
1139.431 .0283020
1140.045 .0284420
1140.660 .0285970
1141.275 .0287420
1141.891 .0289007
1142.508 .0293206
1143.126 .0292901
1143.744 .0294050
1144.363 .0290310
1144.983 .0296557
