Measurement Sequence started on: 15-12-46-377
Integration time: 28
Scans to Average: 2 
>>>>>Begin Spectral Data<<<<<
432.689 .0000100
433.621 .0000100
434.552 .0000100
435.482 .0000100
436.410 .0000100
437.337 .0000100
438.262 .0275141
439.187 .0582046
440.110 .0962082
441.031 .1389762
441.952 .1803196
442.871 .2125893
443.789 .2298731
444.705 .2302105
445.621 .2162310
446.535 .1935247
447.447 .1681021
448.359 .1295297
449.269 .1106665
450.178 .0989807
451.086 .0908330
451.993 .0846735
452.898 .0798369
453.803 .0758814
454.706 .0726035
455.608 .0698346
456.508 .0674602
457.408 .0654570
458.306 .0637170
459.204 .0621854
460.100 .0608152
460.995 .0595627
461.888 .0583983
462.781 .0573077
463.673 .0562830
464.563 .0553317
465.452 .0544320
466.340 .0535992
467.228 .0528257
468.114 .0521106
468.999 .0514584
469.882 .0508612
470.765 .0503099
471.647 .0498098
472.528 .0493435
473.407 .0489251
474.286 .0485448
475.163 .0482039
476.040 .0478962
476.915 .0476173
477.790 .0473689
478.663 .0471457
479.535 .0469437
480.407 .0467752
481.277 .0466329
482.147 .0465198
483.015 .0464363
483.883 .0463738
484.749 .0463231
485.615 .0462863
486.479 .0462613
487.343 .0462528
488.206 .0462533
489.067 .0462708
489.928 .0463070
490.788 .0463702
491.647 .0464622
492.505 .0465739
493.362 .0467073
494.218 .0468640
495.073 .0470324
495.928 .0472132
496.781 .0474042
497.634 .0476161
498.486 .0478550
499.337 .0481267
500.187 .0484286
501.036 .0487578
501.884 .0491160
502.731 .0495010
503.578 .0498995
504.424 .0503151
505.268 .0507369
506.113 .0511687
506.956 .0516181
507.798 .0521041
508.640 .0526190
509.480 .0531823
510.320 .0538006
511.160 .0544769
511.998 .0552018
512.836 .0559855
513.672 .0568334
514.508 .0577654
515.344 .0587928
516.178 .0599577
517.012 .0613055
517.845 .0628963
518.677 .0647524
519.508 .0669235
520.339 .0694413
521.169 .0723629
521.998 .0756341
522.826 .0793691
523.654 .0836059
524.481 .0883830
525.307 .0937169
526.133 .0995986
526.958 .1059850
527.782 .1128381
528.605 .1199681
529.428 .1272395
530.250 .1340687
531.072 .1403094
531.892 .1455171
532.712 .1494320
533.532 .1518948
534.350 .1527606
535.168 .1519481
535.986 .1495699
536.802 .1457220
537.618 .1406633
538.434 .1346033
539.249 .1280861
540.063 .1211944
540.876 .1142903
541.689 .1075887
542.501 .1012829
543.313 .0955165
544.124 .0903733
544.934 .0857256
545.744 .0815359
546.553 .0777520
547.361 .0743425
548.169 .0712644
548.976 .0685223
549.783 .0660754
550.589 .0639248
551.395 .0619957
552.200 .0602753
553.004 .0587028
553.808 .0572917
554.611 .0560035
555.414 .0548216
556.216 .0537379
557.018 .0527437
557.819 .0518248
558.619 .0509759
559.419 .0501856
560.218 .0494424
561.017 .0487222
561.815 .0480291
562.613 .0473448
563.410 .0466727
564.207 .0460118
565.003 .0453639
565.799 .0447281
566.594 .0441060
567.388 .0435038
568.182 .0429241
568.976 .0423631
569.769 .0418230
570.562 .0413058
571.354 .0408080
572.145 .0403270
572.936 .0398646
573.727 .0394208
574.517 .0389934
575.307 .0385808
576.096 .0381751
576.885 .0377833
577.673 .0374059
578.461 .0370439
579.248 .0366929
580.035 .0363595
580.821 .0360401
581.607 .0357347
582.392 .0354507
583.177 .0351892
583.962 .0349537
584.746 .0347480
585.529 .0345667
586.313 .0344103
587.095 .0342765
587.878 .0341619
588.660 .0340588
589.441 .0339689
590.222 .0338873
591.003 .0338111
591.783 .0337407
592.563 .0336751
593.342 .0336135
594.121 .0335563
594.899 .0335014
595.678 .0334474
596.455 .0333942
597.233 .0333403
598.009 .0332843
598.786 .0332274
599.562 .0331687
600.338 .0331090
601.113 .0330494
601.888 .0329913
602.663 .0329354
603.437 .0328827
604.211 .0328329
604.984 .0327852
605.757 .0327407
606.530 .0326985
607.302 .0326583
608.074 .0326201
608.845 .0325840
609.616 .0325490
610.387 .0325154
611.158 .0324831
611.928 .0324510
612.697 .0324195
613.467 .0323884
614.236 .0323572
615.004 .0323259
615.773 .0322945
616.541 .0322635
617.308 .0322328
618.076 .0322040
618.843 .0321762
619.609 .0321497
620.375 .0321249
621.141 .0321017
621.907 .0320792
622.672 .0320569
623.437 .0320347
624.202 .0320120
624.966 .0319890
625.730 .0319656
626.493 .0319408
627.257 .0319154
628.020 .0318898
628.782 .0318637
629.545 .0318366
630.307 .0318093
631.068 .0317816
631.830 .0317536
632.591 .0317251
633.352 .0316957
634.112 .0316646
634.872 .0316325
635.632 .0315995
636.392 .0315652
637.151 .0315310
637.910 .0314974
638.668 .0314656
639.427 .0314363
640.185 .0314093
640.943 .0313849
641.700 .0313630
642.457 .0313430
643.214 .0313238
643.971 .0313041
644.727 .0312836
645.483 .0312620
646.239 .0312390
646.994 .0312151
647.750 .0311909
648.505 .0311678
649.259 .0311452
650.014 .0311237
650.768 .0311037
651.521 .0310847
652.275 .0310665
653.028 .0310492
653.781 .0310320
654.534 .0310151
655.286 .0309981
656.039 .0309815
656.791 .0309649
657.542 .0309491
658.294 .0309335
659.045 .0309181
659.796 .0309037
660.546 .0308902
661.297 .0308768
662.047 .0308644
662.796 .0308523
663.546 .0308397
664.295 .0308258
665.044 .0308102
665.793 .0307920
666.542 .0307717
667.290 .0307492
668.038 .0307248
668.786 .0306995
669.533 .0306744
670.281 .0306498
671.028 .0306263
671.774 .0306046
672.521 .0305843
673.267 .0305655
674.013 .0305476
674.759 .0305305
675.505 .0305138
676.250 .0304973
676.995 .0304810
677.740 .0304651
678.484 .0304494
679.229 .0304342
679.973 .0304191
680.717 .0304045
681.460 .0303895
682.204 .0303737
682.947 .0303568
683.690 .0303388
684.433 .0303194
685.175 .0302986
685.917 .0302767
686.659 .0302541
687.401 .0302316
688.142 .0302093
688.884 .0301878
689.625 .0301671
690.365 .0301470
691.106 .0301276
691.846 .0301076
692.586 .0300881
693.326 .0300676
694.066 .0300465
694.805 .0300249
695.545 .0300024
696.284 .0299792
697.022 .0299553
697.761 .0299309
698.499 .0299055
699.237 .0298796
699.975 .0298531
700.713 .0298263
701.450 .0298001
702.187 .0297747
702.924 .0297504
703.661 .0297277
704.397 .0297073
705.133 .0296881
705.869 .0296711
706.605 .0296553
707.341 .0296403
708.076 .0296263
708.811 .0296126
709.546 .0295993
710.281 .0295865
711.015 .0295746
711.749 .0295629
712.483 .0295515
713.217 .0295400
713.950 .0295272
714.684 .0295134
715.417 .0294984
716.150 .0294819
716.882 .0294641
717.615 .0294457
718.347 .0294268
719.079 .0294084
719.811 .0293911
720.542 .0293754
721.273 .0293616
722.005 .0293495
722.735 .0293387
723.466 .0293284
724.196 .0293185
724.927 .0293078
725.656 .0292957
726.386 .0292823
727.116 .0292672
727.845 .0292510
728.574 .0292339
729.303 .0292166
730.031 .0291998
730.760 .0291839
731.488 .0291694
732.216 .0291559
732.944 .0291431
733.671 .0291307
734.398 .0291187
735.125 .0291068
735.852 .0290950
736.579 .0290838
737.305 .0290739
738.031 .0290659
738.757 .0290601
739.483 .0290563
740.208 .0290542
740.933 .0290541
741.658 .0290547
742.383 .0290550
743.108 .0290547
743.832 .0290531
744.556 .0290501
745.280 .0290461
746.004 .0290411
746.727 .0290355
747.450 .0290298
748.173 .0290240
748.896 .0290174
749.618 .0290102
750.340 .0290024
751.062 .0289930
751.784 .0289822
752.506 .0289699
753.227 .0289559
753.948 .0289405
754.669 .0289249
755.389 .0289090
756.110 .0288932
756.830 .0288783
757.550 .0288638
758.269 .0288496
758.989 .0288355
759.708 .0288205
760.427 .0288049
761.146 .0287882
761.864 .0287703
762.582 .0287516
763.300 .0287327
764.018 .0287142
764.736 .0286960
765.453 .0286784
766.170 .0286619
766.887 .0286456
767.603 .0286293
768.320 .0286124
769.036 .0285946
769.751 .0285757
770.467 .0285555
771.182 .0285346
771.897 .0285131
772.612 .0284917
773.327 .0284709
774.041 .0284506
774.755 .0284312
775.469 .0284130
776.183 .0283960
776.896 .0283804
777.609 .0283664
778.322 .0283536
779.035 .0283422
779.747 .0283324
780.459 .0283236
781.171 .0283157
781.882 .0283088
782.594 .0283022
783.305 .0282959
784.016 .0282903
784.726 .0282847
785.436 .0282796
786.147 .0282749
786.856 .0282702
787.566 .0282649
788.275 .0282590
788.984 .0282519
789.693 .0282430
790.401 .0282328
791.110 .0282204
791.818 .0282063
792.525 .0281917
793.233 .0281766
793.940 .0281618
794.647 .0281483
795.353 .0281365
796.060 .0281261
796.766 .0281177
797.472 .0281104
798.177 .0281042
798.883 .0280989
799.588 .0280939
800.292 .0280889
800.997 .0280841
801.701 .0280794
802.405 .0280747
803.109 .0280703
803.812 .0280665
804.515 .0280626
805.218 .0280583
805.921 .0280531
806.623 .0280467
807.325 .0280390
808.027 .0280302
808.728 .0280196
809.429 .0280078
810.130 .0279951
810.831 .0279815
811.531 .0279675
812.231 .0279538
812.931 .0279405
813.630 .0279275
814.330 .0279149
815.029 .0279030
815.727 .0278915
816.426 .0278807
817.124 .0278705
817.821 .0278609
818.519 .0278518
819.216 .0278432
819.913 .0278350
820.609 .0278276
821.306 .0278207
822.002 .0278145
822.697 .0278089
823.393 .0278040
824.088 .0278001
824.783 .0277964
825.477 .0277932
826.171 .0277903
826.865 .0277875
827.559 .0277849
828.252 .0277822
828.945 .0277800
829.638 .0277780
830.330 .0277767
831.023 .0277760
831.714 .0277755
832.406 .0277757
833.097 .0277759
833.788 .0277762
834.479 .0277767
835.169 .0277773
835.859 .0277780
836.548 .0277791
837.238 .0277807
837.927 .0277824
838.615 .0277840
839.304 .0277856
839.992 .0277869
840.680 .0277872
841.367 .0277866
842.054 .0277847
842.741 .0277811
843.428 .0277764
844.114 .0277704
844.800 .0277632
845.485 .0277550
846.170 .0277457
846.855 .0277354
847.540 .0277238
848.224 .0277110
848.908 .0276970
849.592 .0276818
850.275 .0276653
850.958 .0276471
851.641 .0276278
852.323 .0276079
853.005 .0275874
853.687 .0275665
854.368 .0275457
855.049 .0275248
855.730 .0275043
856.410 .0274836
857.090 .0274629
857.769 .0274423
858.449 .0274217
859.128 .0274010
859.806 .0273803
860.485 .0273602
861.163 .0273407
861.840 .0273222
862.518 .0273046
863.195 .0272881
863.871 .0272719
864.548 .0272565
865.224 .0272415
865.899 .0272267
866.574 .0272125
867.249 .0271985
867.924 .0271851
868.598 .0271720
869.272 .0271591
869.946 .0271465
870.619 .0271337
871.292 .0271209
871.964 .0271075
872.636 .0270935
873.308 .0270791
873.979 .0270643
874.651 .0270495
875.321 .0270346
875.992 .0270200
876.662 .0270058
877.331 .0269923
878.001 .0269790
878.670 .0269659
879.338 .0269529
880.007 .0269399
880.675 .0269268
881.342 .0269134
882.009 .0269001
882.676 .0268869
883.343 .0268742
884.009 .0268623
884.675 .0268513
885.340 .0268417
886.005 .0268327
886.670 .0268248
887.334 .0268177
887.998 .0268108
888.662 .0268043
889.325 .0267981
889.988 .0267924
890.650 .0267874
891.312 .0267833
891.974 .0267805
892.636 .0267791
893.297 .0267787
893.957 .0267787
894.618 .0267788
895.278 .0267784
895.937 .0267771
896.596 .0267746
897.255 .0267712
897.914 .0267669
898.572 .0267620
899.230 .0267571
899.887 .0267517
900.544 .0267467
901.201 .0267415
901.857 .0267363
902.513 .0267311
903.168 .0267250
903.823 .0267181
904.478 .0267107
905.132 .0267028
905.786 .0266939
906.440 .0266846
907.093 .0266750
907.746 .0266652
908.399 .0266550
909.051 .0266447
909.703 .0266338
910.354 .0266225
911.005 .0266108
911.656 .0265976
912.306 .0265836
912.956 .0265691
913.605 .0265536
914.254 .0265377
914.903 .0265217
915.551 .0265060
916.199 .0264906
916.847 .0264765
917.494 .0264634
918.141 .0264510
918.788 .0264394
919.434 .0264286
920.079 .0264176
920.725 .0264068
921.370 .0263961
922.014 .0263849
922.658 .0263734
923.302 .0263616
923.946 .0263492
924.589 .0263365
925.231 .0263236
925.873 .0263109
926.515 .0262976
927.157 .0262844
927.798 .0262709
928.439 .0262564
929.079 .0262420
929.719 .0262272
930.359 .0262116
930.998 .0261959
931.637 .0261803
932.275 .0261649
932.913 .0261502
933.551 .0261364
934.188 .0261236
934.825 .0261115
935.462 .0261010
936.098 .0260909
936.733 .0260817
937.369 .0260736
938.004 .0260663
938.638 .0260595
939.273 .0260537
939.907 .0260484
940.540 .0260441
941.173 .0260407
941.806 .0260385
942.438 .0260369
943.070 .0260364
943.702 .0260363
944.333 .0260369
944.964 .0260375
945.594 .0260387
946.224 .0260393
946.854 .0260403
947.483 .0260410
948.112 .0260415
948.741 .0260413
949.369 .0260413
949.996 .0260407
950.624 .0260395
951.251 .0260372
951.878 .0260344
952.504 .0260307
953.130 .0260267
953.755 .0260214
954.380 .0260156
955.005 .0260087
955.629 .0260010
956.253 .0259919
956.877 .0259821
957.500 .0259715
958.123 .0259599
958.746 .0259477
959.368 .0259352
959.990 .0259225
960.611 .0259102
961.232 .0258983
961.853 .0258876
962.473 .0258775
963.093 .0258684
963.712 .0258598
964.331 .0258519
964.950 .0258447
965.569 .0258383
966.187 .0258324
966.804 .0258271
967.422 .0258224
968.039 .0258181
968.655 .0258142
969.272 .0258107
969.887 .0258073
970.503 .0258042
971.118 .0258011
971.733 .0257973
972.347 .0257927
972.961 .0257871
973.575 .0257802
974.188 .0257713
974.801 .0257607
975.414 .0257484
976.026 .0257346
976.638 .0257199
977.250 .0257049
977.861 .0256900
978.472 .0256758
979.083 .0256621
979.693 .0256486
980.303 .0256350
980.912 .0256208
981.521 .0256048
982.130 .0255881
982.738 .0255705
983.346 .0255523
983.954 .0255341
984.562 .0255169
985.169 .0255005
985.775 .0254849
986.382 .0254702
986.988 .0254560
987.594 .0254415
988.199 .0254268
988.804 .0254109
989.409 .0253945
990.013 .0253782
990.617 .0253622
991.221 .0253466
991.824 .0253324
992.427 .0253197
993.030 .0253080
993.632 .0252976
994.234 .0252886
994.836 .0252800
995.438 .0252723
996.039 .0252650
996.640 .0252579
997.240 .0252516
997.840 .0252465
998.440 .0252427
999.040 .0252402
999.639 .0252389
1000.238 .0252382
1000.836 .0252380
1001.435 .0252380
1002.033 .0252372
1002.630 .0252354
1003.228 .0252331
1003.825 .0252300
1004.422 .0252259
1005.018 .0252214
1005.614 .0252170
1006.210 .0252127
1006.806 .0252085
1007.401 .0252039
1007.996 .0251990
1008.591 .0251934
1009.186 .0251875
1009.780 .0251807
1010.374 .0251738
1010.967 .0251670
1011.561 .0251605
1012.154 .0251544
1012.746 .0251492
1013.339 .0251443
1013.931 .0251398
1014.523 .0251359
1015.115 .0251325
1015.706 .0251295
1016.298 .0251276
1016.888 .0251270
1017.479 .0251282
1018.069 .0251309
1018.660 .0251351
1019.250 .0251400
1019.839 .0251462
1020.429 .0251533
1021.018 .0251612
1021.607 .0251700
1022.195 .0251804
1022.784 .0251923
1023.372 .0252056
1023.960 .0252207
1024.547 .0252371
1025.135 .0252537
1025.722 .0252703
1026.309 .0252860
1026.896 .0253009
1027.483 .0253144
1028.069 .0253268
1028.655 .0253377
1029.241 .0253480
1029.827 .0253574
1030.412 .0253653
1030.997 .0253721
1031.582 .0253782
1032.167 .0253830
1032.752 .0253868
1033.336 .0253900
1033.921 .0253932
1034.505 .0253967
1035.089 .0254002
1035.672 .0254036
1036.256 .0254061
1036.839 .0254061
1037.422 .0254039
1038.005 .0253994
1038.588 .0253932
1039.171 .0253860
1039.753 .0253789
1040.335 .0253724
1040.918 .0253677
1041.500 .0253647
1042.081 .0253636
1042.663 .0253640
1043.244 .0253667
1043.826 .0253694
1044.407 .0253723
1044.988 .0253762
1045.569 .0253804
1046.150 .0253854
1046.730 .0253919
1047.311 .0253991
1047.891 .0254072
1048.471 .0254164
1049.052 .0254261
1049.632 .0254346
1050.211 .0254435
1050.791 .0254504
1051.371 .0254552
1051.950 .0254585
1052.530 .0254602
1053.109 .0254600
1053.688 .0254587
1054.268 .0254576
1054.847 .0254566
1055.426 .0254573
1056.005 .0254601
1056.583 .0254649
1057.162 .0254728
1057.741 .0254829
1058.319 .0254942
1058.898 .0255067
1059.476 .0255201
1060.055 .0255318
1060.633 .0255435
1061.211 .0255544
1061.790 .0255649
1062.368 .0255755
1062.946 .0255855
1063.524 .0255956
1064.102 .0256046
1064.680 .0256120
1065.258 .0256169
1065.836 .0256197
1066.414 .0256210
1066.992 .0256194
1067.570 .0256173
1068.148 .0256140
1068.726 .0256102
1069.304 .0256077
1069.882 .0256073
1070.460 .0256079
1071.038 .0256107
1071.616 .0256149
1072.194 .0256201
1072.772 .0256261
1073.350 .0256333
1073.928 .0256407
1074.506 .0256487
1075.084 .0256575
1075.662 .0256651
1076.240 .0256724
1076.819 .0256809
1077.397 .0256894
1077.976 .0256991
1078.554 .0257102
1079.133 .0257227
1079.711 .0257350
1080.290 .0257483
1080.869 .0257606
1081.448 .0257715
1082.027 .0257799
1082.606 .0257844
1083.185 .0257853
1083.764 .0257841
1084.343 .0257812
1084.923 .0257768
1085.502 .0257751
1086.082 .0257769
1086.662 .0257824
1087.242 .0257920
1087.822 .0258042
1088.402 .0258202
1088.983 .0258372
1089.563 .0258555
1090.144 .0258725
1090.725 .0258891
1091.306 .0259057
1091.887 .0259218
1092.469 .0259402
1093.050 .0259603
1093.632 .0259833
1094.214 .0260096
1094.796 .0260383
1095.379 .0260676
1095.961 .0260963
1096.544 .0261247
1097.127 .0261498
1097.710 .0261719
1098.294 .0261896
1098.877 .0262036
1099.461 .0262151
1100.046 .0262256
1100.630 .0262367
1101.215 .0262490
1101.800 .0262648
1102.385 .0262824
1102.970 .0263016
1103.556 .0263209
1104.142 .0263386
1104.728 .0263541
1105.315 .0263671
1105.902 .0263773
1106.489 .0263846
1107.077 .0263919
1107.664 .0263999
1108.253 .0264109
1108.841 .0264263
1109.430 .0264450
1110.019 .0264662
1110.609 .0264891
1111.198 .0265127
1111.789 .0265365
1112.379 .0265608
1112.970 .0265874
1113.561 .0266190
1114.153 .0266579
1114.745 .0267035
1115.338 .0267561
1115.931 .0268159
1116.524 .0268784
1117.117 .0269407
1117.712 .0270019
1118.306 .0270576
1118.901 .0271093
1119.496 .0271594
1120.092 .0272086
1120.689 .0272575
1121.285 .0273080
1121.882 .0273588
1122.480 .0274106
1123.078 .0274620
1123.677 .0275072
1124.276 .0275468
1124.875 .0275841
1125.476 .0276184
1126.076 .0276484
1126.677 .0276827
1127.279 .0277234
1127.881 .0277714
1128.484 .0278299
1129.087 .0278937
1129.691 .0279634
1130.295 .0280396
1130.900 .0281180
1131.505 .0281959
1132.111 .0282760
1132.718 .0283584
1133.325 .0284412
1133.933 .0285301
1134.541 .0286231
1135.150 .0287221
1135.760 .0288256
1136.370 .0289328
1136.981 .0290396
1137.592 .0291435
1138.204 .0292450
1138.817 .0293430
1139.431 .0294386
1140.045 .0295303
1140.660 .0296255
1141.275 .0297324
1141.891 .0298422
1142.508 .0299189
1143.126 .0299703
1143.744 .0302348
1144.363 .0305516
1144.983 .0304839
