Measurement Sequence started on: 15-12-46-377
Integration time: 28
Scans to Average: 2 
>>>>>Begin Spectral Data<<<<<
432.689 .0000100
433.621 .0000100
434.552 .0000100
435.482 .0000100
436.410 .0000100
437.337 .0000100
438.262 .0274008
439.187 .0581572
440.110 .0964466
441.031 .1395859
441.952 .1815164
442.871 .2145555
443.789 .2327284
444.705 .2339779
445.621 .2207939
446.535 .1986410
447.447 .1735143
448.359 .1350274
449.269 .1158447
450.178 .1036463
451.086 .0950279
451.993 .0883573
452.898 .0830495
453.803 .0786865
454.706 .0750687
455.608 .0720309
456.508 .0694544
457.408 .0672250
458.306 .0652679
459.204 .0635086
460.100 .0619115
460.995 .0604400
461.888 .0590951
462.781 .0578624
463.673 .0567396
464.563 .0557190
465.452 .0547706
466.340 .0538929
467.228 .0530938
468.114 .0523432
468.999 .0516647
469.882 .0510425
470.765 .0504810
471.647 .0499818
472.528 .0495482
473.407 .0491796
474.286 .0488731
475.163 .0486151
476.040 .0483974
476.915 .0482022
477.790 .0480330
478.663 .0478803
479.535 .0477446
480.407 .0476395
481.277 .0475505
482.147 .0474834
483.015 .0474388
483.883 .0474028
484.749 .0473761
485.615 .0473418
486.479 .0472980
487.343 .0472391
488.206 .0471658
489.067 .0470845
489.928 .0470010
490.788 .0469309
491.647 .0468883
492.505 .0468745
493.362 .0468956
494.218 .0469465
495.073 .0470216
495.928 .0471256
496.781 .0472417
497.634 .0473808
498.486 .0475350
499.337 .0477063
500.187 .0479081
501.036 .0481337
501.884 .0483951
502.731 .0486925
503.578 .0490289
504.424 .0493996
505.268 .0497942
506.113 .0502185
506.956 .0506620
507.798 .0511429
508.640 .0516642
509.480 .0522389
510.320 .0528774
511.160 .0535903
511.998 .0543659
512.836 .0552182
513.672 .0561678
514.508 .0572080
515.344 .0583724
516.178 .0596888
517.012 .0611915
517.845 .0629155
518.677 .0649000
519.508 .0671592
520.339 .0697015
521.169 .0725844
521.998 .0757971
522.826 .0794071
523.654 .0834553
524.481 .0879438
525.307 .0929810
526.133 .0985666
526.958 .1047218
527.782 .1113651
528.605 .1184294
529.428 .1257208
530.250 .1327707
531.072 .1393015
531.892 .1448394
532.712 .1491378
533.532 .1519955
534.350 .1531738
535.168 .1526428
535.986 .1504778
536.802 .1467996
537.618 .1418440
538.434 .1359019
539.249 .1293371
540.063 .1223826
540.876 .1153668
541.689 .1084997
542.501 .1019840
543.313 .0960049
544.124 .0906145
544.934 .0857624
545.744 .0814355
546.553 .0775174
547.361 .0740006
548.169 .0708887
548.976 .0681247
549.783 .0656974
550.589 .0635486
551.395 .0616238
552.200 .0598757
553.004 .0582834
553.808 .0568205
554.611 .0554834
555.414 .0542774
556.216 .0531862
557.018 .0522203
557.819 .0513501
558.619 .0505497
559.419 .0497889
560.218 .0490697
561.017 .0483703
561.815 .0476747
562.613 .0469839
563.410 .0462942
564.207 .0456261
565.003 .0449840
565.799 .0443658
566.594 .0437734
567.388 .0432006
568.182 .0426429
568.976 .0420884
569.769 .0415378
570.562 .0409928
571.354 .0404589
572.145 .0399474
572.936 .0394557
573.727 .0389886
574.517 .0385500
575.307 .0381419
576.096 .0377613
576.885 .0374039
577.673 .0370631
578.461 .0367450
579.248 .0364479
580.035 .0361695
580.821 .0359087
581.607 .0356637
582.392 .0354332
583.177 .0352171
583.962 .0350105
584.746 .0348164
585.529 .0346327
586.313 .0344653
587.095 .0343108
587.878 .0341688
588.660 .0340377
589.441 .0339169
590.222 .0338042
591.003 .0336998
591.783 .0336003
592.563 .0335065
593.342 .0334191
594.121 .0333375
594.899 .0332604
595.678 .0331880
596.455 .0331205
597.233 .0330589
598.009 .0330008
598.786 .0329468
599.562 .0328954
600.338 .0328479
601.113 .0328038
601.888 .0327629
602.663 .0327245
603.437 .0326891
604.211 .0326551
604.984 .0326228
605.757 .0325905
606.530 .0325574
607.302 .0325240
608.074 .0324909
608.845 .0324582
609.616 .0324267
610.387 .0323965
611.158 .0323688
611.928 .0323430
612.697 .0323190
613.467 .0322951
614.236 .0322716
615.004 .0322481
615.773 .0322239
616.541 .0321998
617.308 .0321758
618.076 .0321523
618.843 .0321305
619.609 .0321107
620.375 .0320916
621.141 .0320735
621.907 .0320563
622.672 .0320388
623.437 .0320203
624.202 .0320005
624.966 .0319795
625.730 .0319572
626.493 .0319339
627.257 .0319097
628.020 .0318855
628.782 .0318621
629.545 .0318386
630.307 .0318150
631.068 .0317917
631.830 .0317685
632.591 .0317444
633.352 .0317201
634.112 .0316956
634.872 .0316707
635.632 .0316452
636.392 .0316199
637.151 .0315947
637.910 .0315692
638.668 .0315442
639.427 .0315191
640.185 .0314947
640.943 .0314701
641.700 .0314449
642.457 .0314194
643.214 .0313940
643.971 .0313679
644.727 .0313402
645.483 .0313123
646.239 .0312841
646.994 .0312554
647.750 .0312274
648.505 .0312002
649.259 .0311740
650.014 .0311487
650.768 .0311245
651.521 .0311006
652.275 .0310775
653.028 .0310540
653.781 .0310302
654.534 .0310059
655.286 .0309810
656.039 .0309554
656.791 .0309303
657.542 .0309057
658.294 .0308817
659.045 .0308581
659.796 .0308348
660.546 .0308113
661.297 .0307882
662.047 .0307652
662.796 .0307423
663.546 .0307200
664.295 .0306986
665.044 .0306780
665.793 .0306592
666.542 .0306419
667.290 .0306256
668.038 .0306105
668.786 .0305960
669.533 .0305810
670.281 .0305659
671.028 .0305511
671.774 .0305361
672.521 .0305216
673.267 .0305080
674.013 .0304948
674.759 .0304822
675.505 .0304704
676.250 .0304588
676.995 .0304474
677.740 .0304361
678.484 .0304239
679.229 .0304111
679.973 .0303981
680.717 .0303848
681.460 .0303715
682.204 .0303587
682.947 .0303466
683.690 .0303352
684.433 .0303248
685.175 .0303151
685.917 .0303056
686.659 .0302967
687.401 .0302878
688.142 .0302783
688.884 .0302680
689.625 .0302572
690.365 .0302455
691.106 .0302330
691.846 .0302203
692.586 .0302074
693.326 .0301945
694.066 .0301822
694.805 .0301701
695.545 .0301581
696.284 .0301461
697.022 .0301338
697.761 .0301210
698.499 .0301075
699.237 .0300930
699.975 .0300772
700.713 .0300609
701.450 .0300441
702.187 .0300265
702.924 .0300084
703.661 .0299904
704.397 .0299721
705.133 .0299531
705.869 .0299334
706.605 .0299129
707.341 .0298921
708.076 .0298709
708.811 .0298488
709.546 .0298258
710.281 .0298024
711.015 .0297778
711.749 .0297520
712.483 .0297256
713.217 .0296981
713.950 .0296695
714.684 .0296403
715.417 .0296106
716.150 .0295809
716.882 .0295515
717.615 .0295229
718.347 .0294950
719.079 .0294681
719.811 .0294415
720.542 .0294153
721.273 .0293897
722.005 .0293644
722.735 .0293392
723.466 .0293144
724.196 .0292899
724.927 .0292660
725.656 .0292423
726.386 .0292191
727.116 .0291964
727.845 .0291737
728.574 .0291507
729.303 .0291274
730.031 .0291042
730.760 .0290809
731.488 .0290572
732.216 .0290341
732.944 .0290114
733.671 .0289899
734.398 .0289696
735.125 .0289506
735.852 .0289334
736.579 .0289182
737.305 .0289047
738.031 .0288927
738.757 .0288823
739.483 .0288725
740.208 .0288633
740.933 .0288547
741.658 .0288462
742.383 .0288379
743.108 .0288301
743.832 .0288228
744.556 .0288159
745.280 .0288094
746.004 .0288026
746.727 .0287955
747.450 .0287886
748.173 .0287812
748.896 .0287733
749.618 .0287659
750.340 .0287593
751.062 .0287539
751.784 .0287503
752.506 .0287485
753.227 .0287486
753.948 .0287503
754.669 .0287527
755.389 .0287558
756.110 .0287592
756.830 .0287629
757.550 .0287666
758.269 .0287705
758.989 .0287745
759.708 .0287783
760.427 .0287817
761.146 .0287846
761.864 .0287860
762.582 .0287863
763.300 .0287847
764.018 .0287820
764.736 .0287782
765.453 .0287734
766.170 .0287684
766.887 .0287635
767.603 .0287583
768.320 .0287531
769.036 .0287476
769.751 .0287420
770.467 .0287355
771.182 .0287289
771.897 .0287218
772.612 .0287144
773.327 .0287070
774.041 .0286995
774.755 .0286918
775.469 .0286843
776.183 .0286764
776.896 .0286684
777.609 .0286599
778.322 .0286504
779.035 .0286399
779.747 .0286286
780.459 .0286167
781.171 .0286039
781.882 .0285902
782.594 .0285763
783.305 .0285621
784.016 .0285479
784.726 .0285334
785.436 .0285189
786.147 .0285041
786.856 .0284886
787.566 .0284718
788.275 .0284540
788.984 .0284348
789.693 .0284147
790.401 .0283933
791.110 .0283709
791.818 .0283476
792.525 .0283236
793.233 .0282992
793.940 .0282749
794.647 .0282507
795.353 .0282267
796.060 .0282023
796.766 .0281778
797.472 .0281526
798.177 .0281268
798.883 .0281003
799.588 .0280735
800.292 .0280465
800.997 .0280194
801.701 .0279928
802.405 .0279674
803.109 .0279434
803.812 .0279206
804.515 .0278983
805.218 .0278762
805.921 .0278539
806.623 .0278309
807.325 .0278071
808.027 .0277830
808.728 .0277587
809.429 .0277345
810.130 .0277108
810.831 .0276878
811.531 .0276656
812.231 .0276438
812.931 .0276220
813.630 .0275999
814.330 .0275772
815.029 .0275538
815.727 .0275295
816.426 .0275054
817.124 .0274809
817.821 .0274562
818.519 .0274319
819.216 .0274082
819.913 .0273849
820.609 .0273625
821.306 .0273411
822.002 .0273209
822.697 .0273022
823.393 .0272855
824.088 .0272704
824.783 .0272575
825.477 .0272460
826.171 .0272359
826.865 .0272267
827.559 .0272188
828.252 .0272113
828.945 .0272043
829.638 .0271980
830.330 .0271923
831.023 .0271864
831.714 .0271812
832.406 .0271761
833.097 .0271710
833.788 .0271655
834.479 .0271598
835.169 .0271534
835.859 .0271471
836.548 .0271408
837.238 .0271350
837.927 .0271299
838.615 .0271263
839.304 .0271238
839.992 .0271230
840.680 .0271238
841.367 .0271262
842.054 .0271299
842.741 .0271354
843.428 .0271424
844.114 .0271508
844.800 .0271607
845.485 .0271718
846.170 .0271838
846.855 .0271964
847.540 .0272095
848.224 .0272225
848.908 .0272357
849.592 .0272491
850.275 .0272621
850.958 .0272752
851.641 .0272886
852.323 .0273015
853.005 .0273145
853.687 .0273264
854.368 .0273374
855.049 .0273469
855.730 .0273549
856.410 .0273610
857.090 .0273658
857.769 .0273696
858.449 .0273722
859.128 .0273742
859.806 .0273761
860.485 .0273778
861.163 .0273796
861.840 .0273816
862.518 .0273835
863.195 .0273852
863.871 .0273869
864.548 .0273882
865.224 .0273897
865.899 .0273913
866.574 .0273929
867.249 .0273949
867.924 .0273972
868.598 .0273999
869.272 .0274031
869.946 .0274068
870.619 .0274107
871.292 .0274142
871.964 .0274169
872.636 .0274183
873.308 .0274179
873.979 .0274156
874.651 .0274112
875.321 .0274048
875.992 .0273969
876.662 .0273877
877.331 .0273777
878.001 .0273675
878.670 .0273567
879.338 .0273454
880.007 .0273334
880.675 .0273201
881.342 .0273055
882.009 .0272899
882.676 .0272730
883.343 .0272551
884.009 .0272367
884.675 .0272176
885.340 .0271978
886.005 .0271776
886.670 .0271566
887.334 .0271351
887.998 .0271132
888.662 .0270904
889.325 .0270670
889.988 .0270433
890.650 .0270197
891.312 .0269955
891.974 .0269719
892.636 .0269484
893.297 .0269244
893.957 .0269003
894.618 .0268760
895.278 .0268507
895.937 .0268254
896.596 .0268000
897.255 .0267746
897.914 .0267491
898.572 .0267235
899.230 .0266971
899.887 .0266702
900.544 .0266425
901.201 .0266138
901.857 .0265838
902.513 .0265533
903.168 .0265215
903.823 .0264890
904.478 .0264564
905.132 .0264237
905.786 .0263909
906.440 .0263581
907.093 .0263249
907.746 .0262916
908.399 .0262578
909.051 .0262241
909.703 .0261898
910.354 .0261556
911.005 .0261215
911.656 .0260873
912.306 .0260536
912.956 .0260212
913.605 .0259898
914.254 .0259594
914.903 .0259300
915.551 .0259016
916.199 .0258738
916.847 .0258462
917.494 .0258190
918.141 .0257922
918.788 .0257659
919.434 .0257403
920.079 .0257155
920.725 .0256923
921.370 .0256707
922.014 .0256503
922.658 .0256311
923.302 .0256121
923.946 .0255928
924.589 .0255726
925.231 .0255510
925.873 .0255279
926.515 .0255035
927.157 .0254780
927.798 .0254521
928.439 .0254263
929.079 .0254011
929.719 .0253765
930.359 .0253526
930.998 .0253289
931.637 .0253051
932.275 .0252812
932.913 .0252574
933.551 .0252335
934.188 .0252101
934.825 .0251872
935.462 .0251657
936.098 .0251461
936.733 .0251289
937.369 .0251139
938.004 .0251012
938.638 .0250902
939.273 .0250803
939.907 .0250712
940.540 .0250627
941.173 .0250544
941.806 .0250469
942.438 .0250397
943.070 .0250333
943.702 .0250278
944.333 .0250234
944.964 .0250198
945.594 .0250171
946.224 .0250151
946.854 .0250130
947.483 .0250110
948.112 .0250095
948.741 .0250077
949.369 .0250065
949.996 .0250058
950.624 .0250055
951.251 .0250060
951.878 .0250075
952.504 .0250096
953.130 .0250120
953.755 .0250153
954.380 .0250186
955.005 .0250222
955.629 .0250260
956.253 .0250302
956.877 .0250347
957.500 .0250402
958.123 .0250463
958.746 .0250533
959.368 .0250616
959.990 .0250709
960.611 .0250810
961.232 .0250925
961.853 .0251047
962.473 .0251176
963.093 .0251308
963.712 .0251444
964.331 .0251576
964.950 .0251708
965.569 .0251842
966.187 .0251988
966.804 .0252150
967.422 .0252329
968.039 .0252522
968.655 .0252737
969.272 .0252957
969.887 .0253171
970.503 .0253375
971.118 .0253564
971.733 .0253731
972.347 .0253882
972.961 .0254019
973.575 .0254153
974.188 .0254288
974.801 .0254425
975.414 .0254565
976.026 .0254703
976.638 .0254827
977.250 .0254932
977.861 .0255012
978.472 .0255067
979.083 .0255098
979.693 .0255112
980.303 .0255118
980.912 .0255122
981.521 .0255131
982.130 .0255145
982.738 .0255171
983.346 .0255205
983.954 .0255242
984.562 .0255282
985.169 .0255318
985.775 .0255347
986.382 .0255376
986.988 .0255405
987.594 .0255436
988.199 .0255472
988.804 .0255516
989.409 .0255565
990.013 .0255625
990.617 .0255693
991.221 .0255773
991.824 .0255860
992.427 .0255958
993.030 .0256059
993.632 .0256172
994.234 .0256296
994.836 .0256424
995.438 .0256560
996.039 .0256699
996.640 .0256833
997.240 .0256960
997.840 .0257082
998.440 .0257198
999.040 .0257304
999.639 .0257397
1000.238 .0257479
1000.836 .0257552
1001.435 .0257612
1002.033 .0257659
1002.630 .0257692
1003.228 .0257710
1003.825 .0257715
1004.422 .0257703
1005.018 .0257684
1005.614 .0257659
1006.210 .0257627
1006.806 .0257587
1007.401 .0257542
1007.996 .0257489
1008.591 .0257425
1009.186 .0257358
1009.780 .0257282
1010.374 .0257190
1010.967 .0257080
1011.561 .0256950
1012.154 .0256802
1012.746 .0256636
1013.339 .0256455
1013.931 .0256258
1014.523 .0256058
1015.115 .0255854
1015.706 .0255644
1016.298 .0255437
1016.888 .0255239
1017.479 .0255045
1018.069 .0254852
1018.660 .0254660
1019.250 .0254466
1019.839 .0254275
1020.429 .0254091
1021.018 .0253915
1021.607 .0253753
1022.195 .0253608
1022.784 .0253479
1023.372 .0253365
1023.960 .0253267
1024.547 .0253179
1025.135 .0253099
1025.722 .0253026
1026.309 .0252952
1026.896 .0252871
1027.483 .0252783
1028.069 .0252691
1028.655 .0252595
1029.241 .0252490
1029.827 .0252381
1030.412 .0252278
1030.997 .0252174
1031.582 .0252070
1032.167 .0251969
1032.752 .0251866
1033.336 .0251762
1033.921 .0251650
1034.505 .0251517
1035.089 .0251357
1035.672 .0251181
1036.256 .0250982
1036.839 .0250760
1037.422 .0250533
1038.005 .0250299
1038.588 .0250065
1039.171 .0249836
1039.753 .0249609
1040.335 .0249371
1040.918 .0249131
1041.500 .0248886
1042.081 .0248619
1042.663 .0248337
1043.244 .0248043
1043.826 .0247747
1044.407 .0247455
1044.988 .0247181
1045.569 .0246918
1046.150 .0246668
1046.730 .0246445
1047.311 .0246233
1047.891 .0246038
1048.471 .0245860
1049.052 .0245708
1049.632 .0245588
1050.211 .0245499
1050.791 .0245438
1051.371 .0245388
1051.950 .0245365
1052.530 .0245346
1053.109 .0245314
1053.688 .0245265
1054.268 .0245201
1054.847 .0245124
1055.426 .0245034
1056.005 .0244943
1056.583 .0244852
1057.162 .0244773
1057.741 .0244695
1058.319 .0244618
1058.898 .0244533
1059.476 .0244438
1060.055 .0244335
1060.633 .0244220
1061.211 .0244097
1061.790 .0243967
1062.368 .0243832
1062.946 .0243707
1063.524 .0243589
1064.102 .0243492
1064.680 .0243404
1065.258 .0243333
1065.836 .0243277
1066.414 .0243230
1066.992 .0243194
1067.570 .0243167
1068.148 .0243133
1068.726 .0243103
1069.304 .0243060
1069.882 .0243013
1070.460 .0242961
1071.038 .0242909
1071.616 .0242867
1072.194 .0242835
1072.772 .0242806
1073.350 .0242782
1073.928 .0242753
1074.506 .0242721
1075.084 .0242674
1075.662 .0242617
1076.240 .0242550
1076.819 .0242466
1077.397 .0242380
1077.976 .0242308
1078.554 .0242248
1079.133 .0242218
1079.711 .0242199
1080.290 .0242198
1080.869 .0242218
1081.448 .0242244
1082.027 .0242280
1082.606 .0242330
1083.185 .0242403
1083.764 .0242494
1084.343 .0242605
1084.923 .0242736
1085.502 .0242888
1086.082 .0243063
1086.662 .0243259
1087.242 .0243463
1087.822 .0243667
1088.402 .0243876
1088.983 .0244072
1089.563 .0244261
1090.144 .0244428
1090.725 .0244567
1091.306 .0244687
1091.887 .0244788
1092.469 .0244874
1093.050 .0244953
1093.632 .0245039
1094.214 .0245147
1094.796 .0245288
1095.379 .0245467
1095.961 .0245679
1096.544 .0245920
1097.127 .0246186
1097.710 .0246469
1098.294 .0246743
1098.877 .0247012
1099.461 .0247257
1100.046 .0247505
1100.630 .0247762
1101.215 .0248020
1101.800 .0248305
1102.385 .0248632
1102.970 .0248995
1103.556 .0249379
1104.142 .0249769
1104.728 .0250160
1105.315 .0250542
1105.902 .0250903
1106.489 .0251231
1107.077 .0251535
1107.664 .0251835
1108.253 .0252133
1108.841 .0252438
1109.430 .0252763
1110.019 .0253112
1110.609 .0253477
1111.198 .0253849
1111.789 .0254218
1112.379 .0254594
1112.970 .0254975
1113.561 .0255381
1114.153 .0255820
1114.745 .0256294
1115.338 .0256814
1115.931 .0257363
1116.524 .0257930
1117.117 .0258530
1117.712 .0259135
1118.306 .0259754
1118.901 .0260390
1119.496 .0261058
1120.092 .0261771
1120.689 .0262540
1121.285 .0263375
1121.882 .0264239
1122.480 .0265129
1123.078 .0266011
1123.677 .0266823
1124.276 .0267572
1124.875 .0268257
1125.476 .0268856
1126.076 .0269412
1126.677 .0269966
1127.279 .0270496
1127.881 .0271054
1128.484 .0271642
1129.087 .0272269
1129.691 .0272929
1130.295 .0273642
1130.900 .0274367
1131.505 .0275124
1132.111 .0275981
1132.718 .0276878
1133.325 .0277861
1133.933 .0278977
1134.541 .0280149
1135.150 .0281423
1135.760 .0282726
1136.370 .0284059
1136.981 .0285405
1137.592 .0286772
1138.204 .0288159
1138.817 .0289564
1139.431 .0291049
1140.045 .0292540
1140.660 .0294001
1141.275 .0295603
1141.891 .0297134
1142.508 .0299624
1143.126 .0299989
1143.744 .0299669
1144.363 .0305192
1144.983 .0304242
