Measurement Sequence started on: 15-12-46-377
Integration time: 28
Scans to Average: 2 
>>>>>Begin Spectral Data<<<<<
432.689 .0000100
433.621 .0000100
434.552 .0000100
435.482 .0000100
436.410 .0000100
437.337 .0000100
438.262 .0268981
439.187 .0569378
440.110 .0943375
441.031 .1365911
441.952 .1776972
442.871 .2101523
443.789 .2281029
444.705 .2295700
445.621 .2169733
446.535 .1956471
447.447 .1714209
448.359 .1340874
449.269 .1157944
450.178 .1042950
451.086 .0962067
451.993 .0900530
452.898 .0851891
453.803 .0811931
454.706 .0778023
455.608 .0748592
456.508 .0722700
457.408 .0699751
458.306 .0679135
459.204 .0660513
460.100 .0643507
460.995 .0627981
461.888 .0613685
462.781 .0600519
463.673 .0588147
464.563 .0576625
465.452 .0565835
466.340 .0555694
467.228 .0546346
468.114 .0537700
468.999 .0529779
469.882 .0522523
470.765 .0515882
471.647 .0509893
472.528 .0504584
473.407 .0499941
474.286 .0495991
475.163 .0492632
476.040 .0489828
476.915 .0487427
477.790 .0485334
478.663 .0483595
479.535 .0482133
480.407 .0480924
481.277 .0479937
482.147 .0479180
483.015 .0478625
483.883 .0478229
484.749 .0478026
485.615 .0477978
486.479 .0478049
487.343 .0478203
488.206 .0478410
489.067 .0478613
489.928 .0478833
490.788 .0479077
491.647 .0479393
492.505 .0479907
493.362 .0480528
494.218 .0481345
495.073 .0482354
495.928 .0483645
496.781 .0485102
497.634 .0486802
498.486 .0488783
499.337 .0490968
500.187 .0493361
501.036 .0496003
501.884 .0498959
502.731 .0502312
503.578 .0506076
504.424 .0510296
505.268 .0514908
506.113 .0519942
506.956 .0525220
507.798 .0530854
508.640 .0536964
509.480 .0543676
510.320 .0551161
511.160 .0559600
511.998 .0569163
512.836 .0579811
513.672 .0591742
514.508 .0604938
515.344 .0619205
516.178 .0634628
517.012 .0651350
517.845 .0670053
518.677 .0690982
519.508 .0714814
520.339 .0742333
521.169 .0774233
521.998 .0810702
522.826 .0851582
523.654 .0896863
524.481 .0946193
525.307 .0999892
526.133 .1057658
526.958 .1119665
527.782 .1185540
528.605 .1254424
529.428 .1325776
530.250 .1395456
531.072 .1461357
531.892 .1518533
532.712 .1564315
533.532 .1595177
534.350 .1607566
535.168 .1600445
535.986 .1574153
536.802 .1530890
537.618 .1473725
538.434 .1405488
539.249 .1331786
540.063 .1255486
540.876 .1180848
541.689 .1109215
542.501 .1042644
543.313 .0982126
544.124 .0927297
544.934 .0877286
545.744 .0831798
546.553 .0790149
547.361 .0752712
548.169 .0719500
548.976 .0690122
549.783 .0664426
550.589 .0641889
551.395 .0622233
552.200 .0604895
553.004 .0589413
553.808 .0575257
554.611 .0562011
555.414 .0549783
556.216 .0538337
557.018 .0527717
557.819 .0518064
558.619 .0509258
559.419 .0501266
560.218 .0494013
561.017 .0487272
561.815 .0480925
562.613 .0474857
563.410 .0468954
564.207 .0463076
565.003 .0457283
565.799 .0451509
566.594 .0445797
567.388 .0440289
568.182 .0435005
568.976 .0429822
569.769 .0424860
570.562 .0420066
571.354 .0415418
572.145 .0410890
572.936 .0406475
573.727 .0402142
574.517 .0397937
575.307 .0393820
576.096 .0389762
576.885 .0385831
577.673 .0382107
578.461 .0378497
579.248 .0375059
580.035 .0371793
580.821 .0368702
581.607 .0365755
582.392 .0362981
583.177 .0360348
583.962 .0357881
584.746 .0355606
585.529 .0353465
586.313 .0351495
587.095 .0349723
587.878 .0348120
588.660 .0346696
589.441 .0345437
590.222 .0344309
591.003 .0343300
591.783 .0342386
592.563 .0341525
593.342 .0340718
594.121 .0339930
594.899 .0339185
595.678 .0338462
596.455 .0337779
597.233 .0337127
598.009 .0336498
598.786 .0335907
599.562 .0335342
600.338 .0334791
601.113 .0334255
601.888 .0333717
602.663 .0333187
603.437 .0332658
604.211 .0332133
604.984 .0331615
605.757 .0331122
606.530 .0330643
607.302 .0330192
608.074 .0329769
608.845 .0329381
609.616 .0329015
610.387 .0328676
611.158 .0328358
611.928 .0328052
612.697 .0327758
613.467 .0327473
614.236 .0327204
615.004 .0326965
615.773 .0326752
616.541 .0326565
617.308 .0326409
618.076 .0326283
618.843 .0326164
619.609 .0326053
620.375 .0325940
621.141 .0325813
621.907 .0325674
622.672 .0325526
623.437 .0325368
624.202 .0325210
624.966 .0325061
625.730 .0324913
626.493 .0324760
627.257 .0324595
628.020 .0324401
628.782 .0324177
629.545 .0323927
630.307 .0323634
631.068 .0323313
631.830 .0322979
632.591 .0322641
633.352 .0322301
634.112 .0321968
634.872 .0321633
635.632 .0321299
636.392 .0320959
637.151 .0320607
637.910 .0320240
638.668 .0319871
639.427 .0319502
640.185 .0319140
640.943 .0318794
641.700 .0318468
642.457 .0318158
643.214 .0317874
643.971 .0317595
644.727 .0317327
645.483 .0317062
646.239 .0316795
646.994 .0316526
647.750 .0316265
648.505 .0316005
649.259 .0315760
650.014 .0315528
650.768 .0315307
651.521 .0315091
652.275 .0314885
653.028 .0314678
653.781 .0314464
654.534 .0314238
655.286 .0314004
656.039 .0313752
656.791 .0313500
657.542 .0313233
658.294 .0312960
659.045 .0312683
659.796 .0312400
660.546 .0312103
661.297 .0311802
662.047 .0311489
662.796 .0311164
663.546 .0310827
664.295 .0310487
665.044 .0310138
665.793 .0309795
666.542 .0309465
667.290 .0309147
668.038 .0308840
668.786 .0308546
669.533 .0308254
670.281 .0307978
671.028 .0307706
671.774 .0307435
672.521 .0307167
673.267 .0306913
674.013 .0306668
674.759 .0306433
675.505 .0306212
676.250 .0306004
676.995 .0305806
677.740 .0305619
678.484 .0305431
679.229 .0305244
679.973 .0305058
680.717 .0304875
681.460 .0304691
682.204 .0304514
682.947 .0304336
683.690 .0304161
684.433 .0303990
685.175 .0303823
685.917 .0303655
686.659 .0303491
687.401 .0303327
688.142 .0303164
688.884 .0302998
689.625 .0302828
690.365 .0302650
691.106 .0302469
691.846 .0302285
692.586 .0302098
693.326 .0301907
694.066 .0301719
694.805 .0301535
695.545 .0301353
696.284 .0301172
697.022 .0300993
697.761 .0300816
698.499 .0300640
699.237 .0300463
699.975 .0300285
700.713 .0300113
701.450 .0299954
702.187 .0299808
702.924 .0299678
703.661 .0299564
704.397 .0299457
705.133 .0299354
705.869 .0299256
706.605 .0299156
707.341 .0299054
708.076 .0298956
708.811 .0298862
709.546 .0298776
710.281 .0298697
711.015 .0298629
711.749 .0298569
712.483 .0298517
713.217 .0298457
713.950 .0298383
714.684 .0298289
715.417 .0298173
716.150 .0298034
716.882 .0297881
717.615 .0297715
718.347 .0297539
719.079 .0297361
719.811 .0297179
720.542 .0296991
721.273 .0296804
722.005 .0296608
722.735 .0296406
723.466 .0296192
724.196 .0295967
724.927 .0295726
725.656 .0295478
726.386 .0295224
727.116 .0294961
727.845 .0294699
728.574 .0294436
729.303 .0294170
730.031 .0293910
730.760 .0293658
731.488 .0293411
732.216 .0293173
732.944 .0292948
733.671 .0292727
734.398 .0292512
735.125 .0292301
735.852 .0292091
736.579 .0291881
737.305 .0291672
738.031 .0291468
738.757 .0291268
739.483 .0291080
740.208 .0290898
740.933 .0290730
741.658 .0290573
742.383 .0290424
743.108 .0290277
743.832 .0290129
744.556 .0289981
745.280 .0289823
746.004 .0289656
746.727 .0289481
747.450 .0289303
748.173 .0289118
748.896 .0288930
749.618 .0288742
750.340 .0288550
751.062 .0288364
751.784 .0288181
752.506 .0287996
753.227 .0287811
753.948 .0287624
754.669 .0287434
755.389 .0287239
756.110 .0287043
756.830 .0286841
757.550 .0286642
758.269 .0286450
758.989 .0286258
759.708 .0286063
760.427 .0285872
761.146 .0285678
761.864 .0285478
762.582 .0285273
763.300 .0285058
764.018 .0284839
764.736 .0284620
765.453 .0284396
766.170 .0284171
766.887 .0283950
767.603 .0283733
768.320 .0283516
769.036 .0283301
769.751 .0283087
770.467 .0282876
771.182 .0282681
771.897 .0282495
772.612 .0282328
773.327 .0282184
774.041 .0282061
774.755 .0281959
775.469 .0281878
776.183 .0281813
776.896 .0281766
777.609 .0281736
778.322 .0281716
779.035 .0281703
779.747 .0281701
780.459 .0281707
781.171 .0281720
781.882 .0281738
782.594 .0281759
783.305 .0281776
784.016 .0281798
784.726 .0281817
785.436 .0281837
786.147 .0281859
786.856 .0281881
787.566 .0281907
788.275 .0281934
788.984 .0281965
789.693 .0282000
790.401 .0282041
791.110 .0282085
791.818 .0282127
792.525 .0282165
793.233 .0282200
793.940 .0282227
794.647 .0282249
795.353 .0282264
796.060 .0282274
796.766 .0282278
797.472 .0282275
798.177 .0282264
798.883 .0282246
799.588 .0282217
800.292 .0282180
800.997 .0282130
801.701 .0282072
802.405 .0282006
803.109 .0281935
803.812 .0281863
804.515 .0281790
805.218 .0281714
805.921 .0281636
806.623 .0281549
807.325 .0281457
808.027 .0281354
808.728 .0281244
809.429 .0281126
810.130 .0280998
810.831 .0280866
811.531 .0280732
812.231 .0280593
812.931 .0280445
813.630 .0280288
814.330 .0280120
815.029 .0279936
815.727 .0279741
816.426 .0279538
817.124 .0279334
817.821 .0279135
818.519 .0278946
819.216 .0278771
819.913 .0278615
820.609 .0278476
821.306 .0278349
822.002 .0278239
822.697 .0278141
823.393 .0278049
824.088 .0277965
824.783 .0277885
825.477 .0277806
826.171 .0277727
826.865 .0277651
827.559 .0277577
828.252 .0277506
828.945 .0277436
829.638 .0277364
830.330 .0277288
831.023 .0277202
831.714 .0277101
832.406 .0276986
833.097 .0276856
833.788 .0276710
834.479 .0276547
835.169 .0276375
835.859 .0276196
836.548 .0276018
837.238 .0275839
837.927 .0275661
838.615 .0275486
839.304 .0275314
839.992 .0275143
840.680 .0274972
841.367 .0274802
842.054 .0274636
842.741 .0274469
843.428 .0274302
844.114 .0274134
844.800 .0273969
845.485 .0273806
846.170 .0273640
846.855 .0273474
847.540 .0273302
848.224 .0273126
848.908 .0272948
849.592 .0272766
850.275 .0272580
850.958 .0272388
851.641 .0272190
852.323 .0271981
853.005 .0271763
853.687 .0271531
854.368 .0271285
855.049 .0271032
855.730 .0270769
856.410 .0270496
857.090 .0270216
857.769 .0269936
858.449 .0269652
859.128 .0269366
859.806 .0269078
860.485 .0268788
861.163 .0268503
861.840 .0268222
862.518 .0267949
863.195 .0267686
863.871 .0267439
864.548 .0267206
865.224 .0266990
865.899 .0266794
866.574 .0266614
867.249 .0266452
867.924 .0266305
868.598 .0266164
869.272 .0266032
869.946 .0265906
870.619 .0265783
871.292 .0265664
871.964 .0265548
872.636 .0265432
873.308 .0265317
873.979 .0265208
874.651 .0265095
875.321 .0264983
875.992 .0264871
876.662 .0264755
877.331 .0264638
878.001 .0264526
878.670 .0264413
879.338 .0264311
880.007 .0264223
880.675 .0264149
881.342 .0264086
882.009 .0264041
882.676 .0264002
883.343 .0263971
884.009 .0263946
884.675 .0263923
885.340 .0263901
886.005 .0263889
886.670 .0263888
887.334 .0263895
887.998 .0263917
888.662 .0263955
889.325 .0264001
889.988 .0264056
890.650 .0264114
891.312 .0264173
891.974 .0264238
892.636 .0264310
893.297 .0264391
893.957 .0264486
894.618 .0264599
895.278 .0264729
895.937 .0264874
896.596 .0265029
897.255 .0265190
897.914 .0265347
898.572 .0265498
899.230 .0265639
899.887 .0265769
900.544 .0265887
901.201 .0265998
901.857 .0266098
902.513 .0266187
903.168 .0266260
903.823 .0266315
904.478 .0266349
905.132 .0266360
905.786 .0266350
906.440 .0266318
907.093 .0266269
907.746 .0266206
908.399 .0266128
909.051 .0266043
909.703 .0265948
910.354 .0265849
911.005 .0265747
911.656 .0265644
912.306 .0265541
912.956 .0265443
913.605 .0265350
914.254 .0265263
914.903 .0265184
915.551 .0265114
916.199 .0265056
916.847 .0265004
917.494 .0264959
918.141 .0264919
918.788 .0264884
919.434 .0264852
920.079 .0264819
920.725 .0264785
921.370 .0264754
922.014 .0264716
922.658 .0264672
923.302 .0264622
923.946 .0264564
924.589 .0264492
925.231 .0264406
925.873 .0264307
926.515 .0264195
927.157 .0264071
927.798 .0263939
928.439 .0263792
929.079 .0263641
929.719 .0263478
930.359 .0263304
930.998 .0263124
931.637 .0262940
932.275 .0262749
932.913 .0262556
933.551 .0262360
934.188 .0262166
934.825 .0261976
935.462 .0261797
936.098 .0261629
936.733 .0261478
937.369 .0261346
938.004 .0261229
938.638 .0261127
939.273 .0261037
939.907 .0260956
940.540 .0260879
941.173 .0260808
941.806 .0260741
942.438 .0260683
943.070 .0260629
943.702 .0260584
944.333 .0260547
944.964 .0260511
945.594 .0260472
946.224 .0260424
946.854 .0260366
947.483 .0260290
948.112 .0260191
948.741 .0260072
949.369 .0259933
949.996 .0259784
950.624 .0259623
951.251 .0259453
951.878 .0259282
952.504 .0259109
953.130 .0258929
953.755 .0258745
954.380 .0258556
955.005 .0258358
955.629 .0258150
956.253 .0257936
956.877 .0257719
957.500 .0257501
958.123 .0257285
958.746 .0257074
959.368 .0256864
959.990 .0256664
960.611 .0256464
961.232 .0256265
961.853 .0256074
962.473 .0255884
963.093 .0255693
963.712 .0255500
964.331 .0255306
964.950 .0255113
965.569 .0254923
966.187 .0254740
966.804 .0254564
967.422 .0254399
968.039 .0254246
968.655 .0254099
969.272 .0253957
969.887 .0253819
970.503 .0253673
971.118 .0253522
971.733 .0253359
972.347 .0253186
972.961 .0252999
973.575 .0252802
974.188 .0252593
974.801 .0252377
975.414 .0252142
976.026 .0251895
976.638 .0251635
977.250 .0251367
977.861 .0251092
978.472 .0250815
979.083 .0250543
979.693 .0250279
980.303 .0250024
980.912 .0249777
981.521 .0249534
982.130 .0249300
982.738 .0249066
983.346 .0248835
983.954 .0248605
984.562 .0248378
985.169 .0248147
985.775 .0247917
986.382 .0247686
986.988 .0247444
987.594 .0247195
988.199 .0246934
988.804 .0246666
989.409 .0246391
990.013 .0246112
990.617 .0245831
991.221 .0245553
991.824 .0245288
992.427 .0245042
993.030 .0244813
993.632 .0244613
994.234 .0244439
994.836 .0244294
995.438 .0244179
996.039 .0244096
996.640 .0244036
997.240 .0244005
997.840 .0243993
998.440 .0243995
999.040 .0244003
999.639 .0244017
1000.238 .0244024
1000.836 .0244022
1001.435 .0244007
1002.033 .0243974
1002.630 .0243919
1003.228 .0243851
1003.825 .0243765
1004.422 .0243675
1005.018 .0243580
1005.614 .0243482
1006.210 .0243388
1006.806 .0243297
1007.401 .0243207
1007.996 .0243116
1008.591 .0243027
1009.186 .0242942
1009.780 .0242858
1010.374 .0242781
1010.967 .0242712
1011.561 .0242661
1012.154 .0242630
1012.746 .0242612
1013.339 .0242610
1013.931 .0242619
1014.523 .0242634
1015.115 .0242652
1015.706 .0242676
1016.298 .0242702
1016.888 .0242738
1017.479 .0242782
1018.069 .0242840
1018.660 .0242907
1019.250 .0242990
1019.839 .0243079
1020.429 .0243182
1021.018 .0243298
1021.607 .0243423
1022.195 .0243554
1022.784 .0243702
1023.372 .0243860
1023.960 .0244034
1024.547 .0244216
1025.135 .0244415
1025.722 .0244619
1026.309 .0244832
1026.896 .0245046
1027.483 .0245264
1028.069 .0245480
1028.655 .0245693
1029.241 .0245891
1029.827 .0246079
1030.412 .0246248
1030.997 .0246405
1031.582 .0246543
1032.167 .0246672
1032.752 .0246785
1033.336 .0246899
1033.921 .0247015
1034.505 .0247138
1035.089 .0247257
1035.672 .0247380
1036.256 .0247494
1036.839 .0247604
1037.422 .0247704
1038.005 .0247809
1038.588 .0247921
1039.171 .0248054
1039.753 .0248220
1040.335 .0248416
1040.918 .0248646
1041.500 .0248904
1042.081 .0249172
1042.663 .0249447
1043.244 .0249705
1043.826 .0249937
1044.407 .0250137
1044.988 .0250320
1045.569 .0250483
1046.150 .0250629
1046.730 .0250770
1047.311 .0250909
1047.891 .0251046
1048.471 .0251182
1049.052 .0251307
1049.632 .0251413
1050.211 .0251513
1050.791 .0251600
1051.371 .0251680
1051.950 .0251768
1052.530 .0251865
1053.109 .0251984
1053.688 .0252113
1054.268 .0252248
1054.847 .0252384
1055.426 .0252518
1056.005 .0252658
1056.583 .0252791
1057.162 .0252926
1057.741 .0253062
1058.319 .0253193
1058.898 .0253338
1059.476 .0253477
1060.055 .0253613
1060.633 .0253739
1061.211 .0253859
1061.790 .0253969
1062.368 .0254079
1062.946 .0254185
1063.524 .0254305
1064.102 .0254437
1064.680 .0254579
1065.258 .0254720
1065.836 .0254853
1066.414 .0254974
1066.992 .0255083
1067.570 .0255178
1068.148 .0255270
1068.726 .0255350
1069.304 .0255448
1069.882 .0255548
1070.460 .0255663
1071.038 .0255790
1071.616 .0255914
1072.194 .0256032
1072.772 .0256139
1073.350 .0256222
1073.928 .0256292
1074.506 .0256343
1075.084 .0256396
1075.662 .0256452
1076.240 .0256534
1076.819 .0256633
1077.397 .0256747
1077.976 .0256884
1078.554 .0257034
1079.133 .0257177
1079.711 .0257323
1080.290 .0257459
1080.869 .0257572
1081.448 .0257664
1082.027 .0257735
1082.606 .0257788
1083.185 .0257854
1083.764 .0257927
1084.343 .0258027
1084.923 .0258147
1085.502 .0258301
1086.082 .0258468
1086.662 .0258648
1087.242 .0258829
1087.822 .0258993
1088.402 .0259137
1088.983 .0259261
1089.563 .0259352
1090.144 .0259427
1090.725 .0259495
1091.306 .0259566
1091.887 .0259641
1092.469 .0259743
1093.050 .0259847
1093.632 .0259976
1094.214 .0260117
1094.796 .0260262
1095.379 .0260400
1095.961 .0260532
1096.544 .0260657
1097.127 .0260790
1097.710 .0260936
1098.294 .0261103
1098.877 .0261291
1099.461 .0261528
1100.046 .0261780
1100.630 .0262062
1101.215 .0262371
1101.800 .0262683
1102.385 .0262989
1102.970 .0263284
1103.556 .0263565
1104.142 .0263843
1104.728 .0264131
1105.315 .0264433
1105.902 .0264757
1106.489 .0265094
1107.077 .0265414
1107.664 .0265705
1108.253 .0265968
1108.841 .0266185
1109.430 .0266334
1110.019 .0266449
1110.609 .0266536
1111.198 .0266626
1111.789 .0266764
1112.379 .0266952
1112.970 .0267217
1113.561 .0267536
1114.153 .0267891
1114.745 .0268247
1115.338 .0268590
1115.931 .0268898
1116.524 .0269159
1117.117 .0269425
1117.712 .0269726
1118.306 .0270086
1118.901 .0270551
1119.496 .0271130
1120.092 .0271798
1120.689 .0272528
1121.285 .0273261
1121.882 .0273937
1122.480 .0274547
1123.078 .0275066
1123.677 .0275501
1124.276 .0275866
1124.875 .0276241
1125.476 .0276635
1126.076 .0277109
1126.677 .0277665
1127.279 .0278272
1127.881 .0278924
1128.484 .0279607
1129.087 .0280262
1129.691 .0280901
1130.295 .0281530
1130.900 .0282122
1131.505 .0282656
1132.111 .0283189
1132.718 .0283666
1133.325 .0284120
1133.933 .0284584
1134.541 .0285061
1135.150 .0285537
1135.760 .0286052
1136.370 .0286583
1136.981 .0287161
1137.592 .0287785
1138.204 .0288398
1138.817 .0288985
1139.431 .0289587
1140.045 .0290249
1140.660 .0291024
1141.275 .0291942
1141.891 .0293214
1142.508 .0292662
1143.126 .0295543
1143.744 .0298626
1144.363 .0299751
1144.983 .0305400
