Measurement Sequence started on: 15-12-46-377
Integration time: 28
Scans to Average: 2 
>>>>>Begin Spectral Data<<<<<
432.689 .0000100
433.621 .0000100
434.552 .0000100
435.482 .0000100
436.410 .0000100
437.337 .0000100
438.262 .0286189
439.187 .0605689
440.110 .1002339
441.031 .1449306
441.952 .1883226
442.871 .2224064
443.789 .2410108
444.705 .2419996
445.621 .2280506
446.535 .2048866
447.447 .1787439
448.359 .1387383
449.269 .1190618
450.178 .1067134
451.086 .0980246
451.993 .0913645
452.898 .0861170
453.803 .0818029
454.706 .0782147
455.608 .0751254
456.508 .0724405
457.408 .0700877
458.306 .0680212
459.204 .0661808
460.100 .0645264
460.995 .0630275
461.888 .0616550
462.781 .0603808
463.673 .0592004
464.563 .0581061
465.452 .0570694
466.340 .0560855
467.228 .0551670
468.114 .0542941
468.999 .0534871
469.882 .0527334
470.765 .0520416
471.647 .0514095
472.528 .0508467
473.407 .0503444
474.286 .0499071
475.163 .0495260
476.040 .0491933
476.915 .0488983
477.790 .0486455
478.663 .0484186
479.535 .0482156
480.407 .0480422
481.277 .0478989
482.147 .0477809
483.015 .0476950
483.883 .0476331
484.749 .0476015
485.615 .0475938
486.479 .0476147
487.343 .0476533
488.206 .0477135
489.067 .0477850
489.928 .0478693
490.788 .0479633
491.647 .0480644
492.505 .0481648
493.362 .0482734
494.218 .0483875
495.073 .0485067
495.928 .0486319
496.781 .0487586
497.634 .0488914
498.486 .0490370
499.337 .0491849
500.187 .0493484
501.036 .0495214
501.884 .0497169
502.731 .0499371
503.578 .0501861
504.424 .0504636
505.268 .0507765
506.113 .0511420
506.956 .0515565
507.798 .0520320
508.640 .0525935
509.480 .0532383
510.320 .0539856
511.160 .0548570
511.998 .0558506
512.836 .0569695
513.672 .0582307
514.508 .0596119
515.344 .0611223
516.178 .0627795
517.012 .0645797
517.845 .0665828
518.677 .0688405
519.508 .0713931
520.339 .0742575
521.169 .0775390
521.998 .0812447
522.826 .0854327
523.654 .0901748
524.481 .0954862
525.307 .1013660
526.133 .1078403
526.958 .1148463
527.782 .1223354
528.605 .1301316
529.428 .1380816
530.250 .1455685
531.072 .1524132
531.892 .1580928
532.712 .1622841
533.532 .1647466
534.350 .1653407
535.168 .1640128
535.986 .1608830
536.802 .1561198
537.618 .1500673
538.434 .1430156
539.249 .1355069
540.063 .1276669
540.876 .1199349
541.689 .1125111
542.501 .1056124
543.313 .0993675
544.124 .0938348
544.934 .0889590
545.744 .0846827
546.553 .0808934
547.361 .0775367
548.169 .0745564
548.976 .0718776
549.783 .0694469
550.589 .0672453
551.395 .0652193
552.200 .0633348
553.004 .0615573
553.808 .0599025
554.611 .0583684
555.414 .0569490
556.216 .0556369
557.018 .0544426
557.819 .0533722
558.619 .0523894
559.419 .0514878
560.218 .0506535
561.017 .0498750
561.815 .0491411
562.613 .0484297
563.410 .0477396
564.207 .0470689
565.003 .0464216
565.799 .0457951
566.594 .0451986
567.388 .0446337
568.182 .0440798
568.976 .0435363
569.769 .0430059
570.562 .0424816
571.354 .0419593
572.145 .0414428
572.936 .0409369
573.727 .0404457
574.517 .0399738
575.307 .0395198
576.096 .0390911
576.885 .0386870
577.673 .0383078
578.461 .0379459
579.248 .0376057
580.035 .0372891
580.821 .0369893
581.607 .0367096
582.392 .0364490
583.177 .0362074
583.962 .0359805
584.746 .0357688
585.529 .0355705
586.313 .0353828
587.095 .0352062
587.878 .0350407
588.660 .0348868
589.441 .0347465
590.222 .0346192
591.003 .0345025
591.783 .0343958
592.563 .0342974
593.342 .0342033
594.121 .0341117
594.899 .0340226
595.678 .0339361
596.455 .0338516
597.233 .0337709
598.009 .0336944
598.786 .0336228
599.562 .0335561
600.338 .0334931
601.113 .0334321
601.888 .0333727
602.663 .0333136
603.437 .0332543
604.211 .0331964
604.984 .0331396
605.757 .0330845
606.530 .0330321
607.302 .0329831
608.074 .0329377
608.845 .0328952
609.616 .0328550
610.387 .0328171
611.158 .0327810
611.928 .0327455
612.697 .0327108
613.467 .0326772
614.236 .0326446
615.004 .0326131
615.773 .0325828
616.541 .0325546
617.308 .0325285
618.076 .0325049
618.843 .0324829
619.609 .0324639
620.375 .0324471
621.141 .0324314
621.907 .0324172
622.672 .0324047
623.437 .0323920
624.202 .0323790
624.966 .0323658
625.730 .0323522
626.493 .0323380
627.257 .0323239
628.020 .0323095
628.782 .0322959
629.545 .0322824
630.307 .0322675
631.068 .0322509
631.830 .0322334
632.591 .0322125
633.352 .0321890
634.112 .0321631
634.872 .0321352
635.632 .0321061
636.392 .0320773
637.151 .0320497
637.910 .0320232
638.668 .0319981
639.427 .0319743
640.185 .0319504
640.943 .0319272
641.700 .0319027
642.457 .0318781
643.214 .0318544
643.971 .0318316
644.727 .0318102
645.483 .0317909
646.239 .0317739
646.994 .0317582
647.750 .0317431
648.505 .0317274
649.259 .0317104
650.014 .0316919
650.768 .0316711
651.521 .0316487
652.275 .0316247
653.028 .0316004
653.781 .0315752
654.534 .0315495
655.286 .0315227
656.039 .0314943
656.791 .0314649
657.542 .0314340
658.294 .0314016
659.045 .0313676
659.796 .0313326
660.546 .0312972
661.297 .0312606
662.047 .0312233
662.796 .0311853
663.546 .0311474
664.295 .0311097
665.044 .0310720
665.793 .0310349
666.542 .0309989
667.290 .0309638
668.038 .0309289
668.786 .0308947
669.533 .0308605
670.281 .0308265
671.028 .0307926
671.774 .0307591
672.521 .0307260
673.267 .0306936
674.013 .0306621
674.759 .0306310
675.505 .0306006
676.250 .0305702
676.995 .0305394
677.740 .0305089
678.484 .0304781
679.229 .0304478
679.973 .0304182
680.717 .0303903
681.460 .0303640
682.204 .0303394
682.947 .0303164
683.690 .0302948
684.433 .0302738
685.175 .0302536
685.917 .0302332
686.659 .0302132
687.401 .0301934
688.142 .0301739
688.884 .0301549
689.625 .0301368
690.365 .0301191
691.106 .0301020
691.846 .0300841
692.586 .0300660
693.326 .0300466
694.066 .0300263
694.805 .0300044
695.545 .0299816
696.284 .0299583
697.022 .0299352
697.761 .0299126
698.499 .0298916
699.237 .0298717
699.975 .0298536
700.713 .0298367
701.450 .0298210
702.187 .0298060
702.924 .0297924
703.661 .0297794
704.397 .0297680
705.133 .0297584
705.869 .0297507
706.605 .0297446
707.341 .0297404
708.076 .0297372
708.811 .0297343
709.546 .0297311
710.281 .0297270
711.015 .0297217
711.749 .0297154
712.483 .0297081
713.217 .0297003
713.950 .0296925
714.684 .0296850
715.417 .0296772
716.150 .0296694
716.882 .0296605
717.615 .0296503
718.347 .0296388
719.079 .0296260
719.811 .0296122
720.542 .0295982
721.273 .0295841
722.005 .0295706
722.735 .0295578
723.466 .0295456
724.196 .0295337
724.927 .0295221
725.656 .0295101
726.386 .0294975
727.116 .0294843
727.845 .0294705
728.574 .0294559
729.303 .0294414
730.031 .0294270
730.760 .0294125
731.488 .0293980
732.216 .0293834
732.944 .0293688
733.671 .0293544
734.398 .0293393
735.125 .0293239
735.852 .0293079
736.579 .0292915
737.305 .0292742
738.031 .0292565
738.757 .0292388
739.483 .0292213
740.208 .0292042
740.933 .0291874
741.658 .0291709
742.383 .0291553
743.108 .0291401
743.832 .0291254
744.556 .0291111
745.280 .0290973
746.004 .0290831
746.727 .0290691
747.450 .0290551
748.173 .0290413
748.896 .0290271
749.618 .0290130
750.340 .0289986
751.062 .0289835
751.784 .0289676
752.506 .0289504
753.227 .0289322
753.948 .0289130
754.669 .0288921
755.389 .0288696
756.110 .0288459
756.830 .0288207
757.550 .0287938
758.269 .0287660
758.989 .0287378
759.708 .0287088
760.427 .0286799
761.146 .0286513
761.864 .0286230
762.582 .0285949
763.300 .0285670
764.018 .0285390
764.736 .0285113
765.453 .0284839
766.170 .0284563
766.887 .0284289
767.603 .0284022
768.320 .0283759
769.036 .0283497
769.751 .0283244
770.467 .0282991
771.182 .0282741
771.897 .0282493
772.612 .0282246
773.327 .0281999
774.041 .0281760
774.755 .0281526
775.469 .0281299
776.183 .0281080
776.896 .0280871
777.609 .0280672
778.322 .0280488
779.035 .0280316
779.747 .0280159
780.459 .0280017
781.171 .0279892
781.882 .0279779
782.594 .0279679
783.305 .0279586
784.016 .0279505
784.726 .0279431
785.436 .0279362
786.147 .0279295
786.856 .0279232
787.566 .0279175
788.275 .0279121
788.984 .0279072
789.693 .0279024
790.401 .0278976
791.110 .0278930
791.818 .0278877
792.525 .0278821
793.233 .0278764
793.940 .0278706
794.647 .0278646
795.353 .0278585
796.060 .0278522
796.766 .0278457
797.472 .0278391
798.177 .0278322
798.883 .0278254
799.588 .0278187
800.292 .0278124
800.997 .0278064
801.701 .0278012
802.405 .0277963
803.109 .0277913
803.812 .0277866
804.515 .0277814
805.218 .0277757
805.921 .0277694
806.623 .0277626
807.325 .0277560
808.027 .0277495
808.728 .0277436
809.429 .0277384
810.130 .0277337
810.831 .0277299
811.531 .0277260
812.231 .0277223
812.931 .0277183
813.630 .0277137
814.330 .0277087
815.029 .0277034
815.727 .0276977
816.426 .0276918
817.124 .0276857
817.821 .0276802
818.519 .0276750
819.216 .0276706
819.913 .0276671
820.609 .0276645
821.306 .0276628
822.002 .0276621
822.697 .0276618
823.393 .0276628
824.088 .0276644
824.783 .0276670
825.477 .0276703
826.171 .0276745
826.865 .0276800
827.559 .0276864
828.252 .0276939
828.945 .0277022
829.638 .0277105
830.330 .0277191
831.023 .0277272
831.714 .0277344
832.406 .0277405
833.097 .0277457
833.788 .0277495
834.479 .0277524
835.169 .0277544
835.859 .0277561
836.548 .0277575
837.238 .0277587
837.927 .0277595
838.615 .0277599
839.304 .0277601
839.992 .0277596
840.680 .0277583
841.367 .0277563
842.054 .0277532
842.741 .0277496
843.428 .0277452
844.114 .0277406
844.800 .0277355
845.485 .0277296
846.170 .0277229
846.855 .0277151
847.540 .0277060
848.224 .0276955
848.908 .0276840
849.592 .0276708
850.275 .0276563
850.958 .0276401
851.641 .0276227
852.323 .0276039
853.005 .0275838
853.687 .0275623
854.368 .0275394
855.049 .0275155
855.730 .0274905
856.410 .0274645
857.090 .0274381
857.769 .0274108
858.449 .0273829
859.128 .0273542
859.806 .0273246
860.485 .0272943
861.163 .0272638
861.840 .0272333
862.518 .0272032
863.195 .0271736
863.871 .0271448
864.548 .0271166
865.224 .0270890
865.899 .0270617
866.574 .0270345
867.249 .0270076
867.924 .0269808
868.598 .0269539
869.272 .0269275
869.946 .0269019
870.619 .0268771
871.292 .0268528
871.964 .0268291
872.636 .0268057
873.308 .0267825
873.979 .0267591
874.651 .0267357
875.321 .0267125
875.992 .0266900
876.662 .0266687
877.331 .0266482
878.001 .0266289
878.670 .0266108
879.338 .0265937
880.007 .0265777
880.675 .0265624
881.342 .0265475
882.009 .0265330
882.676 .0265188
883.343 .0265045
884.009 .0264900
884.675 .0264751
885.340 .0264598
886.005 .0264439
886.670 .0264276
887.334 .0264112
887.998 .0263948
888.662 .0263793
889.325 .0263648
889.988 .0263512
890.650 .0263387
891.312 .0263270
891.974 .0263158
892.636 .0263046
893.297 .0262936
893.957 .0262824
894.618 .0262713
895.278 .0262608
895.937 .0262511
896.596 .0262428
897.255 .0262358
897.914 .0262298
898.572 .0262239
899.230 .0262176
899.887 .0262097
900.544 .0261991
901.201 .0261855
901.857 .0261691
902.513 .0261501
903.168 .0261290
903.823 .0261065
904.478 .0260837
905.132 .0260611
905.786 .0260388
906.440 .0260166
907.093 .0259942
907.746 .0259715
908.399 .0259479
909.051 .0259232
909.703 .0258977
910.354 .0258720
911.005 .0258469
911.656 .0258230
912.306 .0258007
912.956 .0257803
913.605 .0257616
914.254 .0257450
914.903 .0257294
915.551 .0257144
916.199 .0256999
916.847 .0256855
917.494 .0256712
918.141 .0256575
918.788 .0256440
919.434 .0256317
920.079 .0256207
920.725 .0256108
921.370 .0256018
922.014 .0255937
922.658 .0255859
923.302 .0255778
923.946 .0255690
924.589 .0255591
925.231 .0255470
925.873 .0255340
926.515 .0255195
927.157 .0255040
927.798 .0254881
928.439 .0254718
929.079 .0254553
929.719 .0254389
930.359 .0254223
930.998 .0254058
931.637 .0253897
932.275 .0253744
932.913 .0253594
933.551 .0253454
934.188 .0253333
934.825 .0253229
935.462 .0253147
936.098 .0253090
936.733 .0253053
937.369 .0253036
938.004 .0253033
938.638 .0253044
939.273 .0253068
939.907 .0253105
940.540 .0253154
941.173 .0253217
941.806 .0253292
942.438 .0253378
943.070 .0253473
943.702 .0253575
944.333 .0253682
944.964 .0253790
945.594 .0253899
946.224 .0254009
946.854 .0254126
947.483 .0254250
948.112 .0254384
948.741 .0254524
949.369 .0254664
949.996 .0254802
950.624 .0254934
951.251 .0255058
951.878 .0255175
952.504 .0255287
953.130 .0255399
953.755 .0255512
954.380 .0255626
955.005 .0255739
955.629 .0255851
956.253 .0255953
956.877 .0256040
957.500 .0256105
958.123 .0256156
958.746 .0256190
959.368 .0256225
959.990 .0256264
960.611 .0256315
961.232 .0256381
961.853 .0256459
962.473 .0256541
963.093 .0256621
963.712 .0256689
964.331 .0256739
964.950 .0256769
965.569 .0256783
966.187 .0256784
966.804 .0256788
967.422 .0256801
968.039 .0256830
968.655 .0256874
969.272 .0256928
969.887 .0256978
970.503 .0257026
971.118 .0257064
971.733 .0257087
972.347 .0257095
972.961 .0257091
973.575 .0257083
974.188 .0257070
974.801 .0257058
975.414 .0257050
976.026 .0257043
976.638 .0257037
977.250 .0257022
977.861 .0256999
978.472 .0256968
979.083 .0256922
979.693 .0256864
980.303 .0256797
980.912 .0256719
981.521 .0256633
982.130 .0256540
982.738 .0256451
983.346 .0256366
983.954 .0256280
984.562 .0256199
985.169 .0256115
985.775 .0256030
986.382 .0255946
986.988 .0255856
987.594 .0255769
988.199 .0255687
988.804 .0255613
989.409 .0255550
990.013 .0255501
990.617 .0255463
991.221 .0255432
991.824 .0255405
992.427 .0255381
993.030 .0255350
993.632 .0255315
994.234 .0255281
994.836 .0255236
995.438 .0255187
996.039 .0255133
996.640 .0255068
997.240 .0255006
997.840 .0254940
998.440 .0254871
999.040 .0254797
999.639 .0254723
1000.238 .0254644
1000.836 .0254556
1001.435 .0254458
1002.033 .0254347
1002.630 .0254219
1003.228 .0254089
1003.825 .0253956
1004.422 .0253825
1005.018 .0253714
1005.614 .0253622
1006.210 .0253549
1006.806 .0253499
1007.401 .0253461
1007.996 .0253433
1008.591 .0253406
1009.186 .0253372
1009.780 .0253325
1010.374 .0253261
1010.967 .0253188
1011.561 .0253102
1012.154 .0253013
1012.746 .0252920
1013.339 .0252819
1013.931 .0252705
1014.523 .0252585
1015.115 .0252450
1015.706 .0252312
1016.298 .0252165
1016.888 .0252021
1017.479 .0251884
1018.069 .0251759
1018.660 .0251646
1019.250 .0251554
1019.839 .0251478
1020.429 .0251418
1021.018 .0251360
1021.607 .0251308
1022.195 .0251255
1022.784 .0251207
1023.372 .0251161
1023.960 .0251120
1024.547 .0251084
1025.135 .0251057
1025.722 .0251026
1026.309 .0250998
1026.896 .0250963
1027.483 .0250922
1028.069 .0250865
1028.655 .0250796
1029.241 .0250718
1029.827 .0250624
1030.412 .0250521
1030.997 .0250421
1031.582 .0250318
1032.167 .0250217
1032.752 .0250119
1033.336 .0250021
1033.921 .0249929
1034.505 .0249834
1035.089 .0249730
1035.672 .0249626
1036.256 .0249522
1036.839 .0249416
1037.422 .0249297
1038.005 .0249182
1038.588 .0249065
1039.171 .0248944
1039.753 .0248837
1040.335 .0248736
1040.918 .0248647
1041.500 .0248572
1042.081 .0248503
1042.663 .0248434
1043.244 .0248363
1043.826 .0248285
1044.407 .0248191
1044.988 .0248092
1045.569 .0247977
1046.150 .0247846
1046.730 .0247701
1047.311 .0247548
1047.891 .0247385
1048.471 .0247214
1049.052 .0247028
1049.632 .0246825
1050.211 .0246623
1050.791 .0246414
1051.371 .0246205
1051.950 .0246013
1052.530 .0245829
1053.109 .0245656
1053.688 .0245493
1054.268 .0245327
1054.847 .0245158
1055.426 .0244994
1056.005 .0244823
1056.583 .0244646
1057.162 .0244482
1057.741 .0244319
1058.319 .0244168
1058.898 .0244046
1059.476 .0243929
1060.055 .0243811
1060.633 .0243694
1061.211 .0243567
1061.790 .0243424
1062.368 .0243276
1062.946 .0243129
1063.524 .0242991
1064.102 .0242892
1064.680 .0242830
1065.258 .0242795
1065.836 .0242805
1066.414 .0242836
1066.992 .0242869
1067.570 .0242906
1068.148 .0242927
1068.726 .0242925
1069.304 .0242923
1069.882 .0242913
1070.460 .0242893
1071.038 .0242876
1071.616 .0242854
1072.194 .0242829
1072.772 .0242799
1073.350 .0242763
1073.928 .0242715
1074.506 .0242662
1075.084 .0242593
1075.662 .0242495
1076.240 .0242394
1076.819 .0242279
1077.397 .0242154
1077.976 .0242032
1078.554 .0241909
1079.133 .0241785
1079.711 .0241673
1080.290 .0241574
1080.869 .0241488
1081.448 .0241434
1082.027 .0241390
1082.606 .0241366
1083.185 .0241366
1083.764 .0241392
1084.343 .0241440
1084.923 .0241513
1085.502 .0241608
1086.082 .0241709
1086.662 .0241824
1087.242 .0241944
1087.822 .0242073
1088.402 .0242229
1088.983 .0242418
1089.563 .0242634
1090.144 .0242879
1090.725 .0243159
1091.306 .0243443
1091.887 .0243737
1092.469 .0244019
1093.050 .0244274
1093.632 .0244502
1094.214 .0244688
1094.796 .0244865
1095.379 .0245020
1095.961 .0245179
1096.544 .0245330
1097.127 .0245479
1097.710 .0245621
1098.294 .0245745
1098.877 .0245852
1099.461 .0245939
1100.046 .0246024
1100.630 .0246114
1101.215 .0246209
1101.800 .0246332
1102.385 .0246487
1102.970 .0246687
1103.556 .0246909
1104.142 .0247162
1104.728 .0247442
1105.315 .0247765
1105.902 .0248109
1106.489 .0248474
1107.077 .0248856
1107.664 .0249256
1108.253 .0249674
1108.841 .0250094
1109.430 .0250529
1110.019 .0250961
1110.609 .0251391
1111.198 .0251831
1111.789 .0252262
1112.379 .0252703
1112.970 .0253133
1113.561 .0253566
1114.153 .0254029
1114.745 .0254495
1115.338 .0254989
1115.931 .0255532
1116.524 .0256126
1117.117 .0256751
1117.712 .0257405
1118.306 .0258080
1118.901 .0258748
1119.496 .0259397
1120.092 .0260028
1120.689 .0260618
1121.285 .0261199
1121.882 .0261780
1122.480 .0262358
1123.078 .0262966
1123.677 .0263623
1124.276 .0264265
1124.875 .0264930
1125.476 .0265583
1126.076 .0266199
1126.677 .0266793
1127.279 .0267371
1127.881 .0267929
1128.484 .0268471
1129.087 .0269040
1129.691 .0269637
1130.295 .0270259
1130.900 .0270962
1131.505 .0271714
1132.111 .0272548
1132.718 .0273458
1133.325 .0274421
1133.933 .0275421
1134.541 .0276504
1135.150 .0277620
1135.760 .0278725
1136.370 .0279838
1136.981 .0280964
1137.592 .0282089
1138.204 .0283248
1138.817 .0284440
1139.431 .0285689
1140.045 .0286984
1140.660 .0288380
1141.275 .0289783
1141.891 .0291223
1142.508 .0292834
1143.126 .0294021
1143.744 .0296234
1144.363 .0296963
1144.983 .0298395
