Measurement Sequence started on: 15-12-46-377
Integration time: 28
Scans to Average: 2 
>>>>>Begin Spectral Data<<<<<
432.689 .0000100
433.621 .0000100
434.552 .0000100
435.482 .0000100
436.410 .0000100
437.337 .0000100
438.262 .0273737
439.187 .0579393
440.110 .0961535
441.031 .1392962
441.952 .1812376
442.871 .2143406
443.789 .2326265
444.705 .2339843
445.621 .2208917
446.535 .1987740
447.447 .1736028
448.359 .1350207
449.269 .1158053
450.178 .1034493
451.086 .0947171
451.993 .0880653
452.898 .0828112
453.803 .0785189
454.706 .0749820
455.608 .0719802
456.508 .0694300
457.408 .0672541
458.306 .0653682
459.204 .0636965
460.100 .0621999
460.995 .0608565
461.888 .0596228
462.781 .0584944
463.673 .0574449
464.563 .0564849
465.452 .0555956
466.340 .0547654
467.228 .0540044
468.114 .0533004
468.999 .0526583
469.882 .0520380
470.765 .0514575
471.647 .0509080
472.528 .0503782
473.407 .0498848
474.286 .0494302
475.163 .0490242
476.040 .0486701
476.915 .0483647
477.790 .0481027
478.663 .0478777
479.535 .0476847
480.407 .0475145
481.277 .0473635
482.147 .0472276
483.015 .0471099
483.883 .0470053
484.749 .0469326
485.615 .0468788
486.479 .0468466
487.343 .0468468
488.206 .0468634
489.067 .0468923
489.928 .0469173
490.788 .0469392
491.647 .0469539
492.505 .0469688
493.362 .0469901
494.218 .0470192
495.073 .0470699
495.928 .0471570
496.781 .0472649
497.634 .0474090
498.486 .0475839
499.337 .0477859
500.187 .0480067
501.036 .0482460
501.884 .0484938
502.731 .0487644
503.578 .0490661
504.424 .0494167
505.268 .0498014
506.113 .0502413
506.956 .0507300
507.798 .0512741
508.640 .0518793
509.480 .0525508
510.320 .0532920
511.160 .0541401
511.998 .0550935
512.836 .0561805
513.672 .0574063
514.508 .0587965
515.344 .0603618
516.178 .0621055
517.012 .0640671
517.845 .0662544
518.677 .0686992
519.508 .0714439
520.339 .0745088
521.169 .0779250
521.998 .0817219
522.826 .0859744
523.654 .0906700
524.481 .0958033
525.307 .1014182
526.133 .1074625
526.958 .1139305
527.782 .1207316
528.605 .1277069
529.428 .1347893
530.250 .1415255
531.072 .1476172
531.892 .1527322
532.712 .1566475
533.532 .1591360
534.350 .1600131
535.168 .1591949
535.986 .1567239
536.802 .1527073
537.618 .1474071
538.434 .1409825
539.249 .1339103
540.063 .1264440
540.876 .1188603
541.689 .1114311
542.501 .1044407
543.313 .0980202
544.124 .0922774
544.934 .0871595
545.744 .0826271
546.553 .0785584
547.361 .0749532
548.169 .0717736
548.976 .0689416
549.783 .0664537
550.589 .0642696
551.395 .0623207
552.200 .0606055
553.004 .0590738
553.808 .0576950
554.611 .0564421
555.414 .0553064
556.216 .0542472
557.018 .0532584
557.819 .0523294
558.619 .0514368
559.419 .0505819
560.218 .0497677
561.017 .0489950
561.815 .0482614
562.613 .0475663
563.410 .0469023
564.207 .0462613
565.003 .0456437
565.799 .0450525
566.594 .0444786
567.388 .0439193
568.182 .0433742
568.976 .0428473
569.769 .0423422
570.562 .0418536
571.354 .0413795
572.145 .0409202
572.936 .0404669
573.727 .0400203
574.517 .0395702
575.307 .0391257
576.096 .0386920
576.885 .0382667
577.673 .0378562
578.461 .0374646
579.248 .0370934
580.035 .0367440
580.821 .0364160
581.607 .0361075
582.392 .0358143
583.177 .0355381
583.962 .0352820
584.746 .0350455
585.529 .0348308
586.313 .0346370
587.095 .0344611
587.878 .0343044
588.660 .0341612
589.441 .0340295
590.222 .0339059
591.003 .0337886
591.783 .0336749
592.563 .0335644
593.342 .0334596
594.121 .0333596
594.899 .0332669
595.678 .0331829
596.455 .0331056
597.233 .0330349
598.009 .0329685
598.786 .0329064
599.562 .0328484
600.338 .0327943
601.113 .0327416
601.888 .0326920
602.663 .0326449
603.437 .0326004
604.211 .0325583
604.984 .0325193
605.757 .0324818
606.530 .0324446
607.302 .0324081
608.074 .0323717
608.845 .0323353
609.616 .0323002
610.387 .0322653
611.158 .0322321
611.928 .0322001
612.697 .0321693
613.467 .0321399
614.236 .0321128
615.004 .0320869
615.773 .0320617
616.541 .0320371
617.308 .0320135
618.076 .0319907
618.843 .0319692
619.609 .0319490
620.375 .0319300
621.141 .0319119
621.907 .0318939
622.672 .0318751
623.437 .0318557
624.202 .0318348
624.966 .0318123
625.730 .0317879
626.493 .0317616
627.257 .0317336
628.020 .0317045
628.782 .0316745
629.545 .0316443
630.307 .0316139
631.068 .0315841
631.830 .0315551
632.591 .0315264
633.352 .0314987
634.112 .0314712
634.872 .0314438
635.632 .0314161
636.392 .0313877
637.151 .0313596
637.910 .0313311
638.668 .0313034
639.427 .0312769
640.185 .0312520
640.943 .0312290
641.700 .0312078
642.457 .0311877
643.214 .0311678
643.971 .0311478
644.727 .0311270
645.483 .0311062
646.239 .0310858
646.994 .0310666
647.750 .0310497
648.505 .0310357
649.259 .0310251
650.014 .0310160
650.768 .0310086
651.521 .0310008
652.275 .0309909
653.028 .0309781
653.781 .0309628
654.534 .0309447
655.286 .0309246
656.039 .0309039
656.791 .0308826
657.542 .0308604
658.294 .0308376
659.045 .0308132
659.796 .0307868
660.546 .0307582
661.297 .0307265
662.047 .0306923
662.796 .0306572
663.546 .0306213
664.295 .0305851
665.044 .0305497
665.793 .0305160
666.542 .0304832
667.290 .0304522
668.038 .0304229
668.786 .0303940
669.533 .0303660
670.281 .0303391
671.028 .0303127
671.774 .0302868
672.521 .0302617
673.267 .0302372
674.013 .0302138
674.759 .0301915
675.505 .0301700
676.250 .0301490
676.995 .0301292
677.740 .0301093
678.484 .0300890
679.229 .0300683
679.973 .0300467
680.717 .0300243
681.460 .0300015
682.204 .0299777
682.947 .0299534
683.690 .0299295
684.433 .0299062
685.175 .0298835
685.917 .0298619
686.659 .0298411
687.401 .0298212
688.142 .0298016
688.884 .0297821
689.625 .0297625
690.365 .0297432
691.106 .0297237
691.846 .0297043
692.586 .0296856
693.326 .0296676
694.066 .0296507
694.805 .0296344
695.545 .0296187
696.284 .0296028
697.022 .0295862
697.761 .0295683
698.499 .0295492
699.237 .0295294
699.975 .0295088
700.713 .0294884
701.450 .0294689
702.187 .0294506
702.924 .0294337
703.661 .0294181
704.397 .0294027
705.133 .0293878
705.869 .0293726
706.605 .0293570
707.341 .0293411
708.076 .0293256
708.811 .0293103
709.546 .0292952
710.281 .0292804
711.015 .0292656
711.749 .0292502
712.483 .0292346
713.217 .0292180
713.950 .0292006
714.684 .0291823
715.417 .0291634
716.150 .0291441
716.882 .0291252
717.615 .0291061
718.347 .0290869
719.079 .0290678
719.811 .0290494
720.542 .0290314
721.273 .0290141
722.005 .0289976
722.735 .0289821
723.466 .0289672
724.196 .0289523
724.927 .0289365
725.656 .0289202
726.386 .0289029
727.116 .0288850
727.845 .0288664
728.574 .0288479
729.303 .0288300
730.031 .0288138
730.760 .0287992
731.488 .0287859
732.216 .0287735
732.944 .0287623
733.671 .0287513
734.398 .0287408
735.125 .0287306
735.852 .0287214
736.579 .0287134
737.305 .0287075
738.031 .0287027
738.757 .0286986
739.483 .0286949
740.208 .0286907
740.933 .0286852
741.658 .0286781
742.383 .0286686
743.108 .0286572
743.832 .0286443
744.556 .0286305
745.280 .0286154
746.004 .0285997
746.727 .0285836
747.450 .0285667
748.173 .0285488
748.896 .0285303
749.618 .0285109
750.340 .0284912
751.062 .0284719
751.784 .0284530
752.506 .0284350
753.227 .0284186
753.948 .0284037
754.669 .0283900
755.389 .0283770
756.110 .0283642
756.830 .0283508
757.550 .0283368
758.269 .0283217
758.989 .0283052
759.708 .0282875
760.427 .0282690
761.146 .0282496
761.864 .0282296
762.582 .0282093
763.300 .0281887
764.018 .0281679
764.736 .0281472
765.453 .0281265
766.170 .0281053
766.887 .0280839
767.603 .0280627
768.320 .0280413
769.036 .0280203
769.751 .0279996
770.467 .0279801
771.182 .0279617
771.897 .0279447
772.612 .0279291
773.327 .0279150
774.041 .0279024
774.755 .0278907
775.469 .0278793
776.183 .0278679
776.896 .0278564
777.609 .0278442
778.322 .0278312
779.035 .0278177
779.747 .0278037
780.459 .0277898
781.171 .0277765
781.882 .0277641
782.594 .0277526
783.305 .0277423
784.016 .0277328
784.726 .0277237
785.436 .0277150
786.147 .0277057
786.856 .0276965
787.566 .0276876
788.275 .0276790
788.984 .0276711
789.693 .0276644
790.401 .0276590
791.110 .0276545
791.818 .0276509
792.525 .0276473
793.233 .0276431
793.940 .0276380
794.647 .0276308
795.353 .0276216
796.060 .0276107
796.766 .0275986
797.472 .0275849
798.177 .0275708
798.883 .0275565
799.588 .0275423
800.292 .0275285
800.997 .0275155
801.701 .0275027
802.405 .0274904
803.109 .0274784
803.812 .0274667
804.515 .0274549
805.218 .0274436
805.921 .0274319
806.623 .0274205
807.325 .0274096
808.027 .0273989
808.728 .0273883
809.429 .0273783
810.130 .0273684
810.831 .0273578
811.531 .0273461
812.231 .0273333
812.931 .0273187
813.630 .0273022
814.330 .0272841
815.029 .0272646
815.727 .0272443
816.426 .0272239
817.124 .0272034
817.821 .0271839
818.519 .0271658
819.216 .0271492
819.913 .0271343
820.609 .0271215
821.306 .0271109
822.002 .0271019
822.697 .0270948
823.393 .0270900
824.088 .0270867
824.783 .0270846
825.477 .0270834
826.171 .0270825
826.865 .0270820
827.559 .0270815
828.252 .0270809
828.945 .0270801
829.638 .0270794
830.330 .0270784
831.023 .0270768
831.714 .0270749
832.406 .0270719
833.097 .0270673
833.788 .0270612
834.479 .0270539
835.169 .0270454
835.859 .0270369
836.548 .0270287
837.238 .0270213
837.927 .0270154
838.615 .0270107
839.304 .0270068
839.992 .0270036
840.680 .0270005
841.367 .0269965
842.054 .0269914
842.741 .0269857
843.428 .0269797
844.114 .0269737
844.800 .0269681
845.485 .0269632
846.170 .0269588
846.855 .0269545
847.540 .0269496
848.224 .0269436
848.908 .0269367
849.592 .0269283
850.275 .0269185
850.958 .0269077
851.641 .0268966
852.323 .0268853
853.005 .0268742
853.687 .0268634
854.368 .0268526
855.049 .0268418
855.730 .0268307
856.410 .0268192
857.090 .0268079
857.769 .0267963
858.449 .0267847
859.128 .0267732
859.806 .0267625
860.485 .0267523
861.163 .0267429
861.840 .0267347
862.518 .0267270
863.195 .0267197
863.871 .0267123
864.548 .0267046
865.224 .0266966
865.899 .0266883
866.574 .0266792
867.249 .0266694
867.924 .0266596
868.598 .0266490
869.272 .0266377
869.946 .0266262
870.619 .0266142
871.292 .0266015
871.964 .0265882
872.636 .0265747
873.308 .0265613
873.979 .0265483
874.651 .0265356
875.321 .0265234
875.992 .0265125
876.662 .0265025
877.331 .0264929
878.001 .0264841
878.670 .0264759
879.338 .0264676
880.007 .0264596
880.675 .0264521
881.342 .0264450
882.009 .0264387
882.676 .0264330
883.343 .0264278
884.009 .0264230
884.675 .0264179
885.340 .0264122
886.005 .0264063
886.670 .0263997
887.334 .0263923
887.998 .0263841
888.662 .0263758
889.325 .0263677
889.988 .0263595
890.650 .0263519
891.312 .0263447
891.974 .0263383
892.636 .0263325
893.297 .0263270
893.957 .0263222
894.618 .0263174
895.278 .0263130
895.937 .0263083
896.596 .0263039
897.255 .0262999
897.914 .0262962
898.572 .0262931
899.230 .0262903
899.887 .0262877
900.544 .0262848
901.201 .0262816
901.857 .0262773
902.513 .0262716
903.168 .0262640
903.823 .0262543
904.478 .0262429
905.132 .0262294
905.786 .0262144
906.440 .0261976
907.093 .0261796
907.746 .0261604
908.399 .0261401
909.051 .0261192
909.703 .0260979
910.354 .0260763
911.005 .0260549
911.656 .0260338
912.306 .0260131
912.956 .0259926
913.605 .0259727
914.254 .0259525
914.903 .0259324
915.551 .0259121
916.199 .0258917
916.847 .0258713
917.494 .0258516
918.141 .0258323
918.788 .0258139
919.434 .0257964
920.079 .0257797
920.725 .0257630
921.370 .0257469
922.014 .0257303
922.658 .0257132
923.302 .0256956
923.946 .0256775
924.589 .0256588
925.231 .0256399
925.873 .0256210
926.515 .0256017
927.157 .0255822
927.798 .0255624
928.439 .0255413
929.079 .0255195
929.719 .0254963
930.359 .0254713
930.998 .0254455
931.637 .0254190
932.275 .0253921
932.913 .0253655
933.551 .0253395
934.188 .0253140
934.825 .0252892
935.462 .0252651
936.098 .0252411
936.733 .0252177
937.369 .0251956
938.004 .0251744
938.638 .0251544
939.273 .0251367
939.907 .0251211
940.540 .0251079
941.173 .0250971
941.806 .0250878
942.438 .0250797
943.070 .0250720
943.702 .0250639
944.333 .0250547
944.964 .0250445
945.594 .0250336
946.224 .0250221
946.854 .0250109
947.483 .0250002
948.112 .0249900
948.741 .0249810
949.369 .0249723
949.996 .0249638
950.624 .0249550
951.251 .0249456
951.878 .0249356
952.504 .0249248
953.130 .0249134
953.755 .0249020
954.380 .0248910
955.005 .0248808
955.629 .0248716
956.253 .0248629
956.877 .0248551
957.500 .0248481
958.123 .0248414
958.746 .0248344
959.368 .0248270
959.990 .0248193
960.611 .0248108
961.232 .0248020
961.853 .0247930
962.473 .0247838
963.093 .0247752
963.712 .0247669
964.331 .0247589
964.950 .0247513
965.569 .0247444
966.187 .0247378
966.804 .0247320
967.422 .0247270
968.039 .0247222
968.655 .0247176
969.272 .0247133
969.887 .0247085
970.503 .0247027
971.118 .0246963
971.733 .0246890
972.347 .0246808
972.961 .0246724
973.575 .0246637
974.188 .0246552
974.801 .0246467
975.414 .0246385
976.026 .0246297
976.638 .0246205
977.250 .0246106
977.861 .0245996
978.472 .0245883
979.083 .0245768
979.693 .0245657
980.303 .0245554
980.912 .0245465
981.521 .0245391
982.130 .0245322
982.738 .0245266
983.346 .0245211
983.954 .0245149
984.562 .0245083
985.169 .0245011
985.775 .0244928
986.382 .0244840
986.988 .0244754
987.594 .0244671
988.199 .0244592
988.804 .0244524
989.409 .0244459
990.013 .0244404
990.617 .0244359
991.221 .0244315
991.824 .0244275
992.427 .0244247
993.030 .0244221
993.632 .0244203
994.234 .0244196
994.836 .0244207
995.438 .0244231
996.039 .0244276
996.640 .0244335
997.240 .0244408
997.840 .0244501
998.440 .0244600
999.040 .0244701
999.639 .0244808
1000.238 .0244907
1000.836 .0244997
1001.435 .0245080
1002.033 .0245157
1002.630 .0245226
1003.228 .0245290
1003.825 .0245349
1004.422 .0245405
1005.018 .0245459
1005.614 .0245508
1006.210 .0245546
1006.806 .0245582
1007.401 .0245608
1007.996 .0245618
1008.591 .0245625
1009.186 .0245630
1009.780 .0245632
1010.374 .0245641
1010.967 .0245657
1011.561 .0245681
1012.154 .0245711
1012.746 .0245748
1013.339 .0245790
1013.931 .0245840
1014.523 .0245901
1015.115 .0245960
1015.706 .0246030
1016.298 .0246110
1016.888 .0246193
1017.479 .0246281
1018.069 .0246380
1018.660 .0246479
1019.250 .0246580
1019.839 .0246679
1020.429 .0246779
1021.018 .0246877
1021.607 .0246983
1022.195 .0247095
1022.784 .0247214
1023.372 .0247341
1023.960 .0247481
1024.547 .0247629
1025.135 .0247787
1025.722 .0247950
1026.309 .0248115
1026.896 .0248285
1027.483 .0248460
1028.069 .0248628
1028.655 .0248800
1029.241 .0248977
1029.827 .0249163
1030.412 .0249346
1030.997 .0249528
1031.582 .0249711
1032.167 .0249893
1032.752 .0250071
1033.336 .0250245
1033.921 .0250411
1034.505 .0250567
1035.089 .0250711
1035.672 .0250841
1036.256 .0250964
1036.839 .0251076
1037.422 .0251174
1038.005 .0251262
1038.588 .0251333
1039.171 .0251390
1039.753 .0251425
1040.335 .0251451
1040.918 .0251465
1041.500 .0251463
1042.081 .0251455
1042.663 .0251446
1043.244 .0251449
1043.826 .0251458
1044.407 .0251472
1044.988 .0251489
1045.569 .0251503
1046.150 .0251497
1046.730 .0251472
1047.311 .0251433
1047.891 .0251379
1048.471 .0251321
1049.052 .0251260
1049.632 .0251210
1050.211 .0251183
1050.791 .0251175
1051.371 .0251192
1051.950 .0251223
1052.530 .0251260
1053.109 .0251282
1053.688 .0251285
1054.268 .0251269
1054.847 .0251233
1055.426 .0251189
1056.005 .0251155
1056.583 .0251131
1057.162 .0251136
1057.741 .0251170
1058.319 .0251231
1058.898 .0251316
1059.476 .0251409
1060.055 .0251489
1060.633 .0251556
1061.211 .0251599
1061.790 .0251619
1062.368 .0251620
1062.946 .0251619
1063.524 .0251620
1064.102 .0251635
1064.680 .0251659
1065.258 .0251689
1065.836 .0251720
1066.414 .0251755
1066.992 .0251775
1067.570 .0251788
1068.148 .0251783
1068.726 .0251778
1069.304 .0251770
1069.882 .0251768
1070.460 .0251772
1071.038 .0251778
1071.616 .0251785
1072.194 .0251796
1072.772 .0251798
1073.350 .0251815
1073.928 .0251839
1074.506 .0251889
1075.084 .0251962
1075.662 .0252067
1076.240 .0252193
1076.819 .0252333
1077.397 .0252489
1077.976 .0252644
1078.554 .0252774
1079.133 .0252893
1079.711 .0252982
1080.290 .0253054
1080.869 .0253108
1081.448 .0253131
1082.027 .0253119
1082.606 .0253085
1083.185 .0253011
1083.764 .0252899
1084.343 .0252756
1084.923 .0252592
1085.502 .0252400
1086.082 .0252212
1086.662 .0252040
1087.242 .0251870
1087.822 .0251733
1088.402 .0251633
1088.983 .0251554
1089.563 .0251505
1090.144 .0251474
1090.725 .0251471
1091.306 .0251499
1091.887 .0251571
1092.469 .0251676
1093.050 .0251812
1093.632 .0251998
1094.214 .0252197
1094.796 .0252416
1095.379 .0252636
1095.961 .0252846
1096.544 .0253038
1097.127 .0253225
1097.710 .0253393
1098.294 .0253548
1098.877 .0253701
1099.461 .0253852
1100.046 .0254008
1100.630 .0254170
1101.215 .0254335
1101.800 .0254485
1102.385 .0254633
1102.970 .0254780
1103.556 .0254911
1104.142 .0255052
1104.728 .0255186
1105.315 .0255329
1105.902 .0255471
1106.489 .0255604
1107.077 .0255733
1107.664 .0255849
1108.253 .0255956
1108.841 .0256053
1109.430 .0256148
1110.019 .0256253
1110.609 .0256378
1111.198 .0256543
1111.789 .0256776
1112.379 .0257069
1112.970 .0257409
1113.561 .0257814
1114.153 .0258248
1114.745 .0258706
1115.338 .0259159
1115.931 .0259616
1116.524 .0260064
1117.117 .0260507
1117.712 .0260944
1118.306 .0261383
1118.901 .0261838
1119.496 .0262314
1120.092 .0262776
1120.689 .0263246
1121.285 .0263706
1121.882 .0264133
1122.480 .0264537
1123.078 .0264945
1123.677 .0265336
1124.276 .0265741
1124.875 .0266168
1125.476 .0266608
1126.076 .0267065
1126.677 .0267580
1127.279 .0268099
1127.881 .0268658
1128.484 .0269266
1129.087 .0269895
1129.691 .0270513
1130.295 .0271165
1130.900 .0271815
1131.505 .0272442
1132.111 .0273074
1132.718 .0273659
1133.325 .0274204
1133.933 .0274755
1134.541 .0275271
1135.150 .0275783
1135.760 .0276380
1136.370 .0277078
1136.981 .0277812
1137.592 .0278641
1138.204 .0279534
1138.817 .0280528
1139.431 .0281544
1140.045 .0282572
1140.660 .0283635
1141.275 .0284777
1141.891 .0285977
1142.508 .0286357
1143.126 .0287890
1143.744 .0289675
1144.363 .0292243
1144.983 .0293083
