Measurement Sequence started on: 15-12-46-377
Integration time: 28
Scans to Average: 2 
>>>>>Begin Spectral Data<<<<<
432.689 .0000100
433.621 .0000100
434.552 .0000100
435.482 .0000100
436.410 .0000100
437.337 .0000100
438.262 .0275000
439.187 .0584060
440.110 .0969218
441.031 .1404140
441.952 .1827298
442.871 .2161437
443.789 .2346306
444.705 .2360798
445.621 .2229585
446.535 .2007893
447.447 .1755967
448.359 .1369857
449.269 .1177720
450.178 .1056331
451.086 .0971038
451.993 .0906017
452.898 .0854560
453.803 .0812065
454.706 .0776411
455.608 .0745904
456.508 .0719289
457.408 .0696214
458.306 .0676100
459.204 .0658291
460.100 .0642416
460.995 .0628365
461.888 .0615631
462.781 .0604054
463.673 .0593426
464.563 .0583692
465.452 .0574599
466.340 .0566118
467.228 .0558209
468.114 .0550915
468.999 .0544376
469.882 .0538464
470.765 .0533078
471.647 .0528325
472.528 .0524023
473.407 .0520098
474.286 .0516430
475.163 .0513004
476.040 .0509755
476.915 .0506793
477.790 .0504059
478.663 .0501614
479.535 .0499462
480.407 .0497667
481.277 .0496087
482.147 .0494739
483.015 .0493536
483.883 .0492447
484.749 .0491439
485.615 .0490502
486.479 .0489572
487.343 .0488796
488.206 .0488155
489.067 .0487680
489.928 .0487389
490.788 .0487339
491.647 .0487486
492.505 .0487919
493.362 .0488565
494.218 .0489476
495.073 .0490645
495.928 .0492138
496.781 .0493857
497.634 .0495936
498.486 .0498308
499.337 .0500949
500.187 .0503955
501.036 .0507379
501.884 .0511108
502.731 .0515212
503.578 .0519675
504.424 .0524464
505.268 .0529525
506.113 .0534915
506.956 .0540524
507.798 .0546616
508.640 .0553097
509.480 .0559962
510.320 .0567430
511.160 .0575790
511.998 .0584938
512.836 .0595162
513.672 .0606568
514.508 .0619261
515.344 .0633149
516.178 .0648683
517.012 .0665976
517.845 .0685438
518.677 .0707479
519.508 .0732113
520.339 .0759800
521.169 .0791465
521.998 .0827048
522.826 .0867616
523.654 .0913901
524.481 .0966183
525.307 .1024769
526.133 .1089722
526.958 .1160589
527.782 .1236304
528.605 .1314790
529.428 .1394536
530.250 .1469257
531.072 .1536575
531.892 .1592844
532.712 .1634633
533.532 .1660687
534.350 .1669106
535.168 .1658830
535.986 .1631379
536.802 .1588231
537.618 .1531992
538.434 .1464664
539.249 .1391377
540.063 .1313928
540.876 .1235057
541.689 .1158104
542.501 .1085056
543.313 .1017750
544.124 .0957528
544.934 .0903522
545.744 .0855437
546.553 .0813029
547.361 .0775559
548.169 .0742669
548.976 .0713259
549.783 .0686905
550.589 .0662990
551.395 .0640877
552.200 .0620625
553.004 .0602073
553.808 .0585215
554.611 .0570223
555.414 .0556867
556.216 .0545059
557.018 .0534652
557.819 .0525395
558.619 .0516998
559.419 .0509285
560.218 .0502086
561.017 .0495263
561.815 .0488644
562.613 .0482317
563.410 .0476203
564.207 .0470271
565.003 .0464653
565.799 .0459190
566.594 .0453869
567.388 .0448751
568.182 .0443748
568.976 .0438919
569.769 .0434263
570.562 .0429751
571.354 .0425291
572.145 .0420950
572.936 .0416648
573.727 .0412314
574.517 .0408018
575.307 .0403763
576.096 .0399562
576.885 .0395482
577.673 .0391597
578.461 .0387923
579.248 .0384520
580.035 .0381346
580.821 .0378351
581.607 .0375498
582.392 .0372769
583.177 .0370130
583.962 .0367616
584.746 .0365260
585.529 .0363051
586.313 .0361025
587.095 .0359198
587.878 .0357542
588.660 .0356047
589.441 .0354684
590.222 .0353428
591.003 .0352247
591.783 .0351128
592.563 .0350069
593.342 .0349076
594.121 .0348136
594.899 .0347260
595.678 .0346437
596.455 .0345666
597.233 .0344951
598.009 .0344294
598.786 .0343684
599.562 .0343111
600.338 .0342580
601.113 .0342078
601.888 .0341597
602.663 .0341135
603.437 .0340683
604.211 .0340240
604.984 .0339805
605.757 .0339371
606.530 .0338942
607.302 .0338531
608.074 .0338143
608.845 .0337778
609.616 .0337439
610.387 .0337129
611.158 .0336837
611.928 .0336568
612.697 .0336311
613.467 .0336055
614.236 .0335806
615.004 .0335560
615.773 .0335321
616.541 .0335089
617.308 .0334866
618.076 .0334656
618.843 .0334455
619.609 .0334265
620.375 .0334081
621.141 .0333903
621.907 .0333722
622.672 .0333531
623.437 .0333330
624.202 .0333109
624.966 .0332871
625.730 .0332614
626.493 .0332349
627.257 .0332073
628.020 .0331800
628.782 .0331525
629.545 .0331259
630.307 .0331000
631.068 .0330746
631.830 .0330494
632.591 .0330240
633.352 .0329982
634.112 .0329716
634.872 .0329435
635.632 .0329145
636.392 .0328841
637.151 .0328541
637.910 .0328238
638.668 .0327947
639.427 .0327664
640.185 .0327393
640.943 .0327126
641.700 .0326855
642.457 .0326579
643.214 .0326296
643.971 .0326003
644.727 .0325701
645.483 .0325395
646.239 .0325089
646.994 .0324785
647.750 .0324498
648.505 .0324221
649.259 .0323953
650.014 .0323684
650.768 .0323416
651.521 .0323138
652.275 .0322849
653.028 .0322549
653.781 .0322240
654.534 .0321932
655.286 .0321626
656.039 .0321316
656.791 .0321010
657.542 .0320709
658.294 .0320407
659.045 .0320096
659.796 .0319778
660.546 .0319450
661.297 .0319116
662.047 .0318784
662.796 .0318459
663.546 .0318142
664.295 .0317840
665.044 .0317545
665.793 .0317255
666.542 .0316962
667.290 .0316666
668.038 .0316368
668.786 .0316070
669.533 .0315775
670.281 .0315482
671.028 .0315199
671.774 .0314931
672.521 .0314682
673.267 .0314456
674.013 .0314252
674.759 .0314061
675.505 .0313883
676.250 .0313715
676.995 .0313551
677.740 .0313390
678.484 .0313230
679.229 .0313071
679.973 .0312908
680.717 .0312740
681.460 .0312570
682.204 .0312398
682.947 .0312226
683.690 .0312055
684.433 .0311879
685.175 .0311696
685.917 .0311506
686.659 .0311308
687.401 .0311109
688.142 .0310904
688.884 .0310695
689.625 .0310487
690.365 .0310285
691.106 .0310094
691.846 .0309914
692.586 .0309749
693.326 .0309601
694.066 .0309459
694.805 .0309322
695.545 .0309182
696.284 .0309038
697.022 .0308890
697.761 .0308737
698.499 .0308579
699.237 .0308417
699.975 .0308248
700.713 .0308079
701.450 .0307908
702.187 .0307733
702.924 .0307553
703.661 .0307370
704.397 .0307185
705.133 .0307001
705.869 .0306819
706.605 .0306646
707.341 .0306480
708.076 .0306328
708.811 .0306180
709.546 .0306036
710.281 .0305894
711.015 .0305750
711.749 .0305605
712.483 .0305458
713.217 .0305304
713.950 .0305152
714.684 .0305001
715.417 .0304860
716.150 .0304726
716.882 .0304598
717.615 .0304473
718.347 .0304350
719.079 .0304219
719.811 .0304077
720.542 .0303922
721.273 .0303758
722.005 .0303579
722.735 .0303389
723.466 .0303193
724.196 .0302992
724.927 .0302789
725.656 .0302582
726.386 .0302364
727.116 .0302139
727.845 .0301903
728.574 .0301653
729.303 .0301394
730.031 .0301136
730.760 .0300881
731.488 .0300637
732.216 .0300415
732.944 .0300217
733.671 .0300045
734.398 .0299900
735.125 .0299770
735.852 .0299649
736.579 .0299532
737.305 .0299416
738.031 .0299299
738.757 .0299187
739.483 .0299077
740.208 .0298973
740.933 .0298874
741.658 .0298779
742.383 .0298679
743.108 .0298569
743.832 .0298447
744.556 .0298305
745.280 .0298139
746.004 .0297950
746.727 .0297749
747.450 .0297538
748.173 .0297327
748.896 .0297121
749.618 .0296926
750.340 .0296744
751.062 .0296577
751.784 .0296417
752.506 .0296263
753.227 .0296110
753.948 .0295957
754.669 .0295798
755.389 .0295638
756.110 .0295476
756.830 .0295318
757.550 .0295167
758.269 .0295023
758.989 .0294879
759.708 .0294744
760.427 .0294605
761.146 .0294465
761.864 .0294320
762.582 .0294173
763.300 .0294020
764.018 .0293870
764.736 .0293718
765.453 .0293568
766.170 .0293422
766.887 .0293282
767.603 .0293143
768.320 .0293005
769.036 .0292869
769.751 .0292731
770.467 .0292594
771.182 .0292460
771.897 .0292327
772.612 .0292200
773.327 .0292076
774.041 .0291954
774.755 .0291833
775.469 .0291716
776.183 .0291606
776.896 .0291503
777.609 .0291409
778.322 .0291325
779.035 .0291258
779.747 .0291202
780.459 .0291161
781.171 .0291134
781.882 .0291115
782.594 .0291100
783.305 .0291088
784.016 .0291075
784.726 .0291060
785.436 .0291043
786.147 .0291024
786.856 .0290999
787.566 .0290972
788.275 .0290936
788.984 .0290893
789.693 .0290840
790.401 .0290775
791.110 .0290693
791.818 .0290595
792.525 .0290480
793.233 .0290351
793.940 .0290212
794.647 .0290067
795.353 .0289921
796.060 .0289778
796.766 .0289641
797.472 .0289509
798.177 .0289384
798.883 .0289263
799.588 .0289145
800.292 .0289031
800.997 .0288921
801.701 .0288814
802.405 .0288714
803.109 .0288622
803.812 .0288539
804.515 .0288459
805.218 .0288382
805.921 .0288302
806.623 .0288217
807.325 .0288128
808.027 .0288031
808.728 .0287928
809.429 .0287819
810.130 .0287701
810.831 .0287578
811.531 .0287445
812.231 .0287299
812.931 .0287138
813.630 .0286965
814.330 .0286776
815.029 .0286575
815.727 .0286373
816.426 .0286175
817.124 .0285984
817.821 .0285803
818.519 .0285636
819.216 .0285484
819.913 .0285350
820.609 .0285228
821.306 .0285116
822.002 .0285019
822.697 .0284935
823.393 .0284859
824.088 .0284795
824.783 .0284742
825.477 .0284693
826.171 .0284643
826.865 .0284593
827.559 .0284533
828.252 .0284467
828.945 .0284393
829.638 .0284309
830.330 .0284219
831.023 .0284120
831.714 .0284011
832.406 .0283894
833.097 .0283770
833.788 .0283635
834.479 .0283493
835.169 .0283350
835.859 .0283210
836.548 .0283077
837.238 .0282959
837.927 .0282854
838.615 .0282765
839.304 .0282690
839.992 .0282625
840.680 .0282568
841.367 .0282518
842.054 .0282466
842.741 .0282420
843.428 .0282377
844.114 .0282341
844.800 .0282308
845.485 .0282279
846.170 .0282250
846.855 .0282214
847.540 .0282168
848.224 .0282109
848.908 .0282035
849.592 .0281949
850.275 .0281845
850.958 .0281734
851.641 .0281615
852.323 .0281495
853.005 .0281373
853.687 .0281250
854.368 .0281126
855.049 .0280999
855.730 .0280866
856.410 .0280728
857.090 .0280588
857.769 .0280447
858.449 .0280306
859.128 .0280169
859.806 .0280034
860.485 .0279909
861.163 .0279792
861.840 .0279688
862.518 .0279590
863.195 .0279498
863.871 .0279403
864.548 .0279306
865.224 .0279205
865.899 .0279093
866.574 .0278975
867.249 .0278850
867.924 .0278721
868.598 .0278594
869.272 .0278467
869.946 .0278351
870.619 .0278240
871.292 .0278137
871.964 .0278034
872.636 .0277932
873.308 .0277828
873.979 .0277717
874.651 .0277600
875.321 .0277480
875.992 .0277358
876.662 .0277244
877.331 .0277136
878.001 .0277039
878.670 .0276954
879.338 .0276875
880.007 .0276796
880.675 .0276715
881.342 .0276624
882.009 .0276523
882.676 .0276412
883.343 .0276295
884.009 .0276175
884.675 .0276057
885.340 .0275946
886.005 .0275847
886.670 .0275766
887.334 .0275697
887.998 .0275636
888.662 .0275585
889.325 .0275534
889.988 .0275480
890.650 .0275423
891.312 .0275363
891.974 .0275303
892.636 .0275249
893.297 .0275201
893.957 .0275162
894.618 .0275134
895.278 .0275112
895.937 .0275090
896.596 .0275070
897.255 .0275042
897.914 .0275008
898.572 .0274967
899.230 .0274925
899.887 .0274879
900.544 .0274834
901.201 .0274789
901.857 .0274743
902.513 .0274698
903.168 .0274645
903.823 .0274575
904.478 .0274493
905.132 .0274391
905.786 .0274270
906.440 .0274131
907.093 .0273981
907.746 .0273820
908.399 .0273652
909.051 .0273477
909.703 .0273293
910.354 .0273100
911.005 .0272901
911.656 .0272688
912.306 .0272463
912.956 .0272232
913.605 .0271995
914.254 .0271759
914.903 .0271532
915.551 .0271319
916.199 .0271122
916.847 .0270945
917.494 .0270786
918.141 .0270640
918.788 .0270505
919.434 .0270376
920.079 .0270244
920.725 .0270104
921.370 .0269956
922.014 .0269795
922.658 .0269627
923.302 .0269457
923.946 .0269282
924.589 .0269102
925.231 .0268918
925.873 .0268727
926.515 .0268521
927.157 .0268306
927.798 .0268074
928.439 .0267828
929.079 .0267571
929.719 .0267305
930.359 .0267034
930.998 .0266767
931.637 .0266511
932.275 .0266266
932.913 .0266034
933.551 .0265813
934.188 .0265600
934.825 .0265396
935.462 .0265200
936.098 .0265007
936.733 .0264823
937.369 .0264650
938.004 .0264485
938.638 .0264334
939.273 .0264191
939.907 .0264061
940.540 .0263939
941.173 .0263828
941.806 .0263724
942.438 .0263626
943.070 .0263536
943.702 .0263450
944.333 .0263369
944.964 .0263296
945.594 .0263222
946.224 .0263151
946.854 .0263081
947.483 .0263013
948.112 .0262945
948.741 .0262878
949.369 .0262812
949.996 .0262748
950.624 .0262679
951.251 .0262606
951.878 .0262528
952.504 .0262442
953.130 .0262350
953.755 .0262248
954.380 .0262140
955.005 .0262026
955.629 .0261902
956.253 .0261772
956.877 .0261641
957.500 .0261511
958.123 .0261379
958.746 .0261246
959.368 .0261117
959.990 .0260990
960.611 .0260870
961.232 .0260758
961.853 .0260657
962.473 .0260566
963.093 .0260484
963.712 .0260404
964.331 .0260332
964.950 .0260264
965.569 .0260203
966.187 .0260153
966.804 .0260115
967.422 .0260085
968.039 .0260070
968.655 .0260069
969.272 .0260080
969.887 .0260100
970.503 .0260123
971.118 .0260142
971.733 .0260156
972.347 .0260163
972.961 .0260161
973.575 .0260149
974.188 .0260131
974.801 .0260099
975.414 .0260055
976.026 .0259999
976.638 .0259931
977.250 .0259854
977.861 .0259773
978.472 .0259690
979.083 .0259603
979.693 .0259509
980.303 .0259407
980.912 .0259292
981.521 .0259166
982.130 .0259023
982.738 .0258864
983.346 .0258698
983.954 .0258529
984.562 .0258365
985.169 .0258208
985.775 .0258064
986.382 .0257932
986.988 .0257808
987.594 .0257690
988.199 .0257572
988.804 .0257452
989.409 .0257340
990.013 .0257234
990.617 .0257144
991.221 .0257069
991.824 .0257021
992.427 .0257001
993.030 .0257010
993.632 .0257044
994.234 .0257101
994.836 .0257172
995.438 .0257257
996.039 .0257344
996.640 .0257435
997.240 .0257530
997.840 .0257627
998.440 .0257726
999.040 .0257827
999.639 .0257923
1000.238 .0258015
1000.836 .0258093
1001.435 .0258164
1002.033 .0258223
1002.630 .0258271
1003.228 .0258314
1003.825 .0258351
1004.422 .0258391
1005.018 .0258434
1005.614 .0258480
1006.210 .0258531
1006.806 .0258585
1007.401 .0258643
1007.996 .0258698
1008.591 .0258753
1009.186 .0258804
1009.780 .0258853
1010.374 .0258901
1010.967 .0258946
1011.561 .0258989
1012.154 .0259035
1012.746 .0259084
1013.339 .0259130
1013.931 .0259172
1014.523 .0259202
1015.115 .0259218
1015.706 .0259219
1016.298 .0259205
1016.888 .0259183
1017.479 .0259160
1018.069 .0259148
1018.660 .0259148
1019.250 .0259171
1019.839 .0259214
1020.429 .0259269
1021.018 .0259335
1021.607 .0259403
1022.195 .0259460
1022.784 .0259507
1023.372 .0259548
1023.960 .0259586
1024.547 .0259634
1025.135 .0259696
1025.722 .0259778
1026.309 .0259885
1026.896 .0260017
1027.483 .0260165
1028.069 .0260315
1028.655 .0260470
1029.241 .0260614
1029.827 .0260748
1030.412 .0260875
1030.997 .0260990
1031.582 .0261096
1032.167 .0261200
1032.752 .0261297
1033.336 .0261386
1033.921 .0261472
1034.505 .0261555
1035.089 .0261628
1035.672 .0261693
1036.256 .0261740
1036.839 .0261767
1037.422 .0261777
1038.005 .0261777
1038.588 .0261758
1039.171 .0261736
1039.753 .0261712
1040.335 .0261695
1040.918 .0261688
1041.500 .0261699
1042.081 .0261717
1042.663 .0261737
1043.244 .0261754
1043.826 .0261755
1044.407 .0261740
1044.988 .0261718
1045.569 .0261692
1046.150 .0261669
1046.730 .0261647
1047.311 .0261632
1047.891 .0261609
1048.471 .0261585
1049.052 .0261546
1049.632 .0261491
1050.211 .0261426
1050.791 .0261346
1051.371 .0261263
1051.950 .0261181
1052.530 .0261111
1053.109 .0261061
1053.688 .0261021
1054.268 .0260989
1054.847 .0260963
1055.426 .0260935
1056.005 .0260909
1056.583 .0260893
1057.162 .0260886
1057.741 .0260896
1058.319 .0260916
1058.898 .0260968
1059.476 .0261024
1060.055 .0261081
1060.633 .0261148
1061.211 .0261195
1061.790 .0261238
1062.368 .0261271
1062.946 .0261293
1063.524 .0261320
1064.102 .0261345
1064.680 .0261370
1065.258 .0261379
1065.836 .0261384
1066.414 .0261383
1066.992 .0261361
1067.570 .0261338
1068.148 .0261311
1068.726 .0261270
1069.304 .0261239
1069.882 .0261211
1070.460 .0261177
1071.038 .0261144
1071.616 .0261101
1072.194 .0261060
1072.772 .0261012
1073.350 .0260974
1073.928 .0260953
1074.506 .0260936
1075.084 .0260926
1075.662 .0260903
1076.240 .0260865
1076.819 .0260818
1077.397 .0260746
1077.976 .0260656
1078.554 .0260549
1079.133 .0260448
1079.711 .0260359
1080.290 .0260282
1080.869 .0260233
1081.448 .0260195
1082.027 .0260152
1082.606 .0260098
1083.185 .0260007
1083.764 .0259884
1084.343 .0259745
1084.923 .0259617
1085.502 .0259515
1086.082 .0259455
1086.662 .0259453
1087.242 .0259514
1087.822 .0259636
1088.402 .0259783
1088.983 .0259931
1089.563 .0260052
1090.144 .0260138
1090.725 .0260183
1091.306 .0260207
1091.887 .0260228
1092.469 .0260276
1093.050 .0260382
1093.632 .0260526
1094.214 .0260716
1094.796 .0260926
1095.379 .0261112
1095.961 .0261263
1096.544 .0261335
1097.127 .0261323
1097.710 .0261232
1098.294 .0261105
1098.877 .0260949
1099.461 .0260798
1100.046 .0260690
1100.630 .0260624
1101.215 .0260604
1101.800 .0260621
1102.385 .0260651
1102.970 .0260676
1103.556 .0260694
1104.142 .0260703
1104.728 .0260726
1105.315 .0260791
1105.902 .0260886
1106.489 .0261044
1107.077 .0261263
1107.664 .0261551
1108.253 .0261883
1108.841 .0262246
1109.430 .0262627
1110.019 .0263002
1110.609 .0263366
1111.198 .0263728
1111.789 .0264107
1112.379 .0264512
1112.970 .0264954
1113.561 .0265444
1114.153 .0265955
1114.745 .0266474
1115.338 .0266986
1115.931 .0267478
1116.524 .0267920
1117.117 .0268322
1117.712 .0268665
1118.306 .0268978
1118.901 .0269297
1119.496 .0269634
1120.092 .0270001
1120.689 .0270423
1121.285 .0270893
1121.882 .0271382
1122.480 .0271892
1123.078 .0272382
1123.677 .0272849
1124.276 .0273316
1124.875 .0273762
1125.476 .0274214
1126.076 .0274702
1126.677 .0275287
1127.279 .0275955
1127.881 .0276751
1128.484 .0277662
1129.087 .0278651
1129.691 .0279689
1130.295 .0280752
1130.900 .0281801
1131.505 .0282837
1132.111 .0283861
1132.718 .0284879
1133.325 .0285910
1133.933 .0287002
1134.541 .0288084
1135.150 .0289222
1135.760 .0290382
1136.370 .0291594
1136.981 .0292798
1137.592 .0293992
1138.204 .0295153
1138.817 .0296269
1139.431 .0297337
1140.045 .0298361
1140.660 .0299333
1141.275 .0300433
1141.891 .0301699
1142.508 .0301739
1143.126 .0303311
1143.744 .0304214
1144.363 .0308901
1144.983 .0312985
