Measurement Sequence started on: 15-12-46-377
Integration time: 28
Scans to Average: 2 
>>>>>Begin Spectral Data<<<<<
432.689 .0000100
433.621 .0000100
434.552 .0000100
435.482 .0000100
436.410 .0000100
437.337 .0000100
438.262 .0265953
439.187 .0564588
440.110 .0936087
441.031 .1355329
441.952 .1762943
442.871 .2084554
443.789 .2261773
444.705 .2274406
445.621 .2146751
446.535 .1932319
447.447 .1688935
448.359 .1316298
449.269 .1131524
450.178 .1015544
451.086 .0934490
451.993 .0872951
452.898 .0824374
453.803 .0784759
454.706 .0751607
455.608 .0722820
456.508 .0697339
457.408 .0675087
458.306 .0655147
459.204 .0637377
460.100 .0621468
460.995 .0607230
461.888 .0594565
462.781 .0583334
463.673 .0573059
464.563 .0563809
465.452 .0555232
466.340 .0547045
467.228 .0539336
468.114 .0532106
468.999 .0525411
469.882 .0519215
470.765 .0513570
471.647 .0508452
472.528 .0503748
473.407 .0499557
474.286 .0495765
475.163 .0492360
476.040 .0489334
476.915 .0486549
477.790 .0484019
478.663 .0481755
479.535 .0479755
480.407 .0478040
481.277 .0476562
482.147 .0475383
483.015 .0474448
483.883 .0473745
484.749 .0473280
485.615 .0473077
486.479 .0473101
487.343 .0473337
488.206 .0473657
489.067 .0474047
489.928 .0474431
490.788 .0474823
491.647 .0475255
492.505 .0475774
493.362 .0476460
494.218 .0477353
495.073 .0478549
495.928 .0480218
496.781 .0482218
497.634 .0484586
498.486 .0487196
499.337 .0490112
500.187 .0493156
501.036 .0496302
501.884 .0499698
502.731 .0503498
503.578 .0507700
504.424 .0512473
505.268 .0517689
506.113 .0523325
506.956 .0529346
507.798 .0535652
508.640 .0542137
509.480 .0548798
510.320 .0555609
511.160 .0562896
511.998 .0570716
512.836 .0579496
513.672 .0589228
514.508 .0600332
515.344 .0612994
516.178 .0627182
517.012 .0642950
517.845 .0660579
518.677 .0680216
519.508 .0702256
520.339 .0727257
521.169 .0755905
521.998 .0788777
522.826 .0826712
523.654 .0870475
524.481 .0920289
525.307 .0976085
526.133 .1037876
526.958 .1104780
527.782 .1176125
528.605 .1249610
529.428 .1323451
530.250 .1392958
531.072 .1455515
531.892 .1507163
532.712 .1545382
533.532 .1568906
534.350 .1576202
535.168 .1566720
535.986 .1541338
536.802 .1501764
537.618 .1450515
538.434 .1389501
539.249 .1322560
540.063 .1251606
540.876 .1179740
541.689 .1108860
542.501 .1041195
543.313 .0978906
544.124 .0922547
544.934 .0872088
545.744 .0826928
546.553 .0786830
547.361 .0751339
548.169 .0720213
548.976 .0692427
549.783 .0667658
550.589 .0645362
551.395 .0624902
552.200 .0606149
553.004 .0589129
553.808 .0573700
554.611 .0559857
555.414 .0547663
556.216 .0536950
557.018 .0527443
557.819 .0519021
558.619 .0511325
559.419 .0504250
560.218 .0497596
561.017 .0491252
561.815 .0485113
562.613 .0479195
563.410 .0473392
564.207 .0467638
565.003 .0461953
565.799 .0456326
566.594 .0450575
567.388 .0444859
568.182 .0439152
568.976 .0433500
569.769 .0427969
570.562 .0422634
571.354 .0417442
572.145 .0412463
572.936 .0407680
573.727 .0403038
574.517 .0398439
575.307 .0393934
576.096 .0389501
576.885 .0385172
577.673 .0380990
578.461 .0377034
579.248 .0373314
580.035 .0369923
580.821 .0366815
581.607 .0363954
582.392 .0361345
583.177 .0358957
583.962 .0356739
584.746 .0354695
585.529 .0352788
586.313 .0351017
587.095 .0349353
587.878 .0347824
588.660 .0346418
589.441 .0345120
590.222 .0343941
591.003 .0342883
591.783 .0341931
592.563 .0341067
593.342 .0340263
594.121 .0339496
594.899 .0338755
595.678 .0338023
596.455 .0337293
597.233 .0336571
598.009 .0335858
598.786 .0335161
599.562 .0334495
600.338 .0333874
601.113 .0333293
601.888 .0332736
602.663 .0332207
603.437 .0331695
604.211 .0331189
604.984 .0330678
605.757 .0330160
606.530 .0329644
607.302 .0329120
608.074 .0328607
608.845 .0328111
609.616 .0327635
610.387 .0327191
611.158 .0326777
611.928 .0326386
612.697 .0326018
613.467 .0325665
614.236 .0325326
615.004 .0324997
615.773 .0324682
616.541 .0324376
617.308 .0324081
618.076 .0323812
618.843 .0323565
619.609 .0323340
620.375 .0323142
621.141 .0322967
621.907 .0322804
622.672 .0322651
623.437 .0322503
624.202 .0322355
624.966 .0322209
625.730 .0322066
626.493 .0321914
627.257 .0321757
628.020 .0321596
628.782 .0321421
629.545 .0321225
630.307 .0321014
631.068 .0320777
631.830 .0320522
632.591 .0320240
633.352 .0319942
634.112 .0319623
634.872 .0319298
635.632 .0318967
636.392 .0318625
637.151 .0318284
637.910 .0317949
638.668 .0317610
639.427 .0317284
640.185 .0316968
640.943 .0316667
641.700 .0316385
642.457 .0316123
643.214 .0315869
643.971 .0315622
644.727 .0315380
645.483 .0315144
646.239 .0314907
646.994 .0314682
647.750 .0314461
648.505 .0314249
649.259 .0314051
650.014 .0313860
650.768 .0313680
651.521 .0313500
652.275 .0313317
653.028 .0313127
653.781 .0312933
654.534 .0312739
655.286 .0312547
656.039 .0312361
656.791 .0312183
657.542 .0312003
658.294 .0311820
659.045 .0311631
659.796 .0311435
660.546 .0311227
661.297 .0311004
662.047 .0310763
662.796 .0310507
663.546 .0310230
664.295 .0309933
665.044 .0309619
665.793 .0309294
666.542 .0308957
667.290 .0308607
668.038 .0308255
668.786 .0307909
669.533 .0307571
670.281 .0307243
671.028 .0306928
671.774 .0306633
672.521 .0306348
673.267 .0306078
674.013 .0305824
674.759 .0305587
675.505 .0305370
676.250 .0305165
676.995 .0304970
677.740 .0304781
678.484 .0304592
679.229 .0304395
679.973 .0304187
680.717 .0303969
681.460 .0303733
682.204 .0303487
682.947 .0303239
683.690 .0302992
684.433 .0302745
685.175 .0302502
685.917 .0302260
686.659 .0302020
687.401 .0301778
688.142 .0301528
688.884 .0301275
689.625 .0301022
690.365 .0300771
691.106 .0300524
691.846 .0300288
692.586 .0300065
693.326 .0299851
694.066 .0299651
694.805 .0299453
695.545 .0299249
696.284 .0299039
697.022 .0298820
697.761 .0298591
698.499 .0298352
699.237 .0298113
699.975 .0297875
700.713 .0297646
701.450 .0297434
702.187 .0297239
702.924 .0297062
703.661 .0296902
704.397 .0296755
705.133 .0296620
705.869 .0296497
706.605 .0296384
707.341 .0296279
708.076 .0296191
708.811 .0296112
709.546 .0296040
710.281 .0295974
711.015 .0295913
711.749 .0295852
712.483 .0295787
713.217 .0295711
713.950 .0295623
714.684 .0295523
715.417 .0295412
716.150 .0295291
716.882 .0295167
717.615 .0295038
718.347 .0294905
719.079 .0294771
719.811 .0294636
720.542 .0294501
721.273 .0294369
722.005 .0294239
722.735 .0294113
723.466 .0293988
724.196 .0293860
724.927 .0293724
725.656 .0293579
726.386 .0293427
727.116 .0293262
727.845 .0293089
728.574 .0292908
729.303 .0292722
730.031 .0292536
730.760 .0292352
731.488 .0292165
732.216 .0291978
732.944 .0291788
733.671 .0291593
734.398 .0291394
735.125 .0291196
735.852 .0291002
736.579 .0290819
737.305 .0290658
738.031 .0290517
738.757 .0290395
739.483 .0290294
740.208 .0290202
740.933 .0290113
741.658 .0290019
742.383 .0289912
743.108 .0289788
743.832 .0289651
744.556 .0289502
745.280 .0289344
746.004 .0289181
746.727 .0289014
747.450 .0288842
748.173 .0288660
748.896 .0288468
749.618 .0288259
750.340 .0288034
751.062 .0287797
751.784 .0287549
752.506 .0287294
753.227 .0287038
753.948 .0286786
754.669 .0286540
755.389 .0286301
756.110 .0286067
756.830 .0285836
757.550 .0285610
758.269 .0285388
758.989 .0285164
759.708 .0284940
760.427 .0284716
761.146 .0284487
761.864 .0284250
762.582 .0284005
763.300 .0283748
764.018 .0283483
764.736 .0283210
765.453 .0282935
766.170 .0282664
766.887 .0282402
767.603 .0282154
768.320 .0281924
769.036 .0281709
769.751 .0281509
770.467 .0281314
771.182 .0281127
771.897 .0280944
772.612 .0280760
773.327 .0280578
774.041 .0280403
774.755 .0280240
775.469 .0280090
776.183 .0279954
776.896 .0279831
777.609 .0279721
778.322 .0279618
779.035 .0279513
779.747 .0279410
780.459 .0279307
781.171 .0279203
781.882 .0279100
782.594 .0279005
783.305 .0278922
784.016 .0278853
784.726 .0278803
785.436 .0278771
786.147 .0278754
786.856 .0278751
787.566 .0278759
788.275 .0278777
788.984 .0278804
789.693 .0278839
790.401 .0278877
791.110 .0278919
791.818 .0278962
792.525 .0279000
793.233 .0279032
793.940 .0279059
794.647 .0279075
795.353 .0279078
796.060 .0279068
796.766 .0279045
797.472 .0279011
798.177 .0278973
798.883 .0278924
799.588 .0278870
800.292 .0278812
800.997 .0278747
801.701 .0278672
802.405 .0278597
803.109 .0278520
803.812 .0278447
804.515 .0278379
805.218 .0278318
805.921 .0278264
806.623 .0278222
807.325 .0278187
808.027 .0278154
808.728 .0278122
809.429 .0278086
810.130 .0278036
810.831 .0277983
811.531 .0277922
812.231 .0277857
812.931 .0277793
813.630 .0277732
814.330 .0277672
815.029 .0277616
815.727 .0277558
816.426 .0277496
817.124 .0277429
817.821 .0277355
818.519 .0277270
819.216 .0277180
819.913 .0277090
820.609 .0277001
821.306 .0276918
822.002 .0276846
822.697 .0276782
823.393 .0276727
824.088 .0276678
824.783 .0276632
825.477 .0276585
826.171 .0276540
826.865 .0276500
827.559 .0276463
828.252 .0276431
828.945 .0276408
829.638 .0276390
830.330 .0276377
831.023 .0276365
831.714 .0276352
832.406 .0276331
833.097 .0276301
833.788 .0276258
834.479 .0276202
835.169 .0276138
835.859 .0276067
836.548 .0275988
837.238 .0275906
837.927 .0275817
838.615 .0275714
839.304 .0275598
839.992 .0275472
840.680 .0275332
841.367 .0275181
842.054 .0275023
842.741 .0274863
843.428 .0274705
844.114 .0274550
844.800 .0274403
845.485 .0274259
846.170 .0274116
846.855 .0273965
847.540 .0273806
848.224 .0273638
848.908 .0273464
849.592 .0273280
850.275 .0273087
850.958 .0272888
851.641 .0272684
852.323 .0272466
853.005 .0272240
853.687 .0271997
854.368 .0271738
855.049 .0271461
855.730 .0271168
856.410 .0270858
857.090 .0270540
857.769 .0270212
858.449 .0269884
859.128 .0269554
859.806 .0269227
860.485 .0268904
861.163 .0268586
861.840 .0268276
862.518 .0267971
863.195 .0267667
863.871 .0267370
864.548 .0267074
865.224 .0266788
865.899 .0266509
866.574 .0266240
867.249 .0265987
867.924 .0265752
868.598 .0265532
869.272 .0265325
869.946 .0265130
870.619 .0264946
871.292 .0264764
871.964 .0264578
872.636 .0264387
873.308 .0264192
873.979 .0263995
874.651 .0263797
875.321 .0263603
875.992 .0263420
876.662 .0263242
877.331 .0263075
878.001 .0262916
878.670 .0262761
879.338 .0262610
880.007 .0262463
880.675 .0262320
881.342 .0262179
882.009 .0262042
882.676 .0261914
883.343 .0261796
884.009 .0261694
884.675 .0261600
885.340 .0261519
886.005 .0261452
886.670 .0261398
887.334 .0261352
887.998 .0261319
888.662 .0261296
889.325 .0261283
889.988 .0261274
890.650 .0261269
891.312 .0261266
891.974 .0261272
892.636 .0261284
893.297 .0261304
893.957 .0261332
894.618 .0261369
895.278 .0261408
895.937 .0261452
896.596 .0261499
897.255 .0261544
897.914 .0261584
898.572 .0261622
899.230 .0261653
899.887 .0261684
900.544 .0261716
901.201 .0261753
901.857 .0261794
902.513 .0261833
903.168 .0261867
903.823 .0261890
904.478 .0261902
905.132 .0261897
905.786 .0261871
906.440 .0261829
907.093 .0261776
907.746 .0261712
908.399 .0261642
909.051 .0261577
909.703 .0261512
910.354 .0261448
911.005 .0261382
911.656 .0261314
912.306 .0261242
912.956 .0261164
913.605 .0261084
914.254 .0261004
914.903 .0260930
915.551 .0260862
916.199 .0260808
916.847 .0260773
917.494 .0260758
918.141 .0260756
918.788 .0260770
919.434 .0260797
920.079 .0260828
920.725 .0260863
921.370 .0260897
922.014 .0260927
922.658 .0260949
923.302 .0260959
923.946 .0260961
924.589 .0260948
925.231 .0260925
925.873 .0260889
926.515 .0260845
927.157 .0260796
927.798 .0260742
928.439 .0260682
929.079 .0260621
929.719 .0260553
930.359 .0260478
930.998 .0260392
931.637 .0260299
932.275 .0260196
932.913 .0260089
933.551 .0259982
934.188 .0259883
934.825 .0259796
935.462 .0259729
936.098 .0259678
936.733 .0259645
937.369 .0259621
938.004 .0259602
938.638 .0259582
939.273 .0259557
939.907 .0259531
940.540 .0259502
941.173 .0259476
941.806 .0259459
942.438 .0259460
943.070 .0259479
943.702 .0259516
944.333 .0259565
944.964 .0259620
945.594 .0259671
946.224 .0259718
946.854 .0259752
947.483 .0259779
948.112 .0259797
948.741 .0259803
949.369 .0259800
949.996 .0259794
950.624 .0259776
951.251 .0259746
951.878 .0259706
952.504 .0259651
953.130 .0259576
953.755 .0259485
954.380 .0259383
955.005 .0259268
955.629 .0259144
956.253 .0259012
956.877 .0258872
957.500 .0258729
958.123 .0258587
958.746 .0258437
959.368 .0258287
959.990 .0258135
960.611 .0257980
961.232 .0257826
961.853 .0257673
962.473 .0257518
963.093 .0257361
963.712 .0257203
964.331 .0257042
964.950 .0256874
965.569 .0256705
966.187 .0256538
966.804 .0256375
967.422 .0256217
968.039 .0256067
968.655 .0255922
969.272 .0255786
969.887 .0255654
970.503 .0255524
971.118 .0255388
971.733 .0255247
972.347 .0255098
972.961 .0254937
973.575 .0254764
974.188 .0254579
974.801 .0254376
975.414 .0254158
976.026 .0253924
976.638 .0253669
977.250 .0253400
977.861 .0253125
978.472 .0252842
979.083 .0252553
979.693 .0252261
980.303 .0251964
980.912 .0251666
981.521 .0251367
982.130 .0251066
982.738 .0250768
983.346 .0250471
983.954 .0250176
984.562 .0249879
985.169 .0249583
985.775 .0249282
986.382 .0248978
986.988 .0248672
987.594 .0248366
988.199 .0248058
988.804 .0247753
989.409 .0247451
990.013 .0247161
990.617 .0246878
991.221 .0246603
991.824 .0246338
992.427 .0246085
993.030 .0245843
993.632 .0245622
994.234 .0245417
994.836 .0245232
995.438 .0245065
996.039 .0244916
996.640 .0244772
997.240 .0244637
997.840 .0244501
998.440 .0244359
999.040 .0244208
999.639 .0244055
1000.238 .0243889
1000.836 .0243722
1001.435 .0243551
1002.033 .0243378
1002.630 .0243205
1003.228 .0243033
1003.825 .0242863
1004.422 .0242710
1005.018 .0242570
1005.614 .0242456
1006.210 .0242360
1006.806 .0242295
1007.401 .0242247
1007.996 .0242210
1008.591 .0242182
1009.186 .0242154
1009.780 .0242123
1010.374 .0242091
1010.967 .0242057
1011.561 .0242033
1012.154 .0242016
1012.746 .0242004
1013.339 .0241998
1013.931 .0241989
1014.523 .0241966
1015.115 .0241924
1015.706 .0241865
1016.298 .0241794
1016.888 .0241712
1017.479 .0241635
1018.069 .0241570
1018.660 .0241525
1019.250 .0241507
1019.839 .0241504
1020.429 .0241513
1021.018 .0241531
1021.607 .0241540
1022.195 .0241534
1022.784 .0241520
1023.372 .0241503
1023.960 .0241493
1024.547 .0241499
1025.135 .0241529
1025.722 .0241578
1026.309 .0241648
1026.896 .0241731
1027.483 .0241818
1028.069 .0241902
1028.655 .0241984
1029.241 .0242051
1029.827 .0242117
1030.412 .0242187
1030.997 .0242265
1031.582 .0242357
1032.167 .0242466
1032.752 .0242594
1033.336 .0242727
1033.921 .0242861
1034.505 .0242993
1035.089 .0243114
1035.672 .0243236
1036.256 .0243345
1036.839 .0243448
1037.422 .0243558
1038.005 .0243684
1038.588 .0243821
1039.171 .0243965
1039.753 .0244125
1040.335 .0244291
1040.918 .0244452
1041.500 .0244609
1042.081 .0244753
1042.663 .0244891
1043.244 .0245024
1043.826 .0245151
1044.407 .0245265
1044.988 .0245393
1045.569 .0245510
1046.150 .0245624
1046.730 .0245740
1047.311 .0245852
1047.891 .0245953
1048.471 .0246043
1049.052 .0246133
1049.632 .0246207
1050.211 .0246283
1050.791 .0246362
1051.371 .0246443
1051.950 .0246551
1052.530 .0246670
1053.109 .0246804
1053.688 .0246952
1054.268 .0247120
1054.847 .0247295
1055.426 .0247483
1056.005 .0247689
1056.583 .0247900
1057.162 .0248112
1057.741 .0248316
1058.319 .0248515
1058.898 .0248703
1059.476 .0248879
1060.055 .0249044
1060.633 .0249201
1061.211 .0249353
1061.790 .0249503
1062.368 .0249655
1062.946 .0249803
1063.524 .0249957
1064.102 .0250109
1064.680 .0250247
1065.258 .0250366
1065.836 .0250475
1066.414 .0250572
1066.992 .0250662
1067.570 .0250758
1068.148 .0250845
1068.726 .0250945
1069.304 .0251058
1069.882 .0251170
1070.460 .0251285
1071.038 .0251401
1071.616 .0251509
1072.194 .0251604
1072.772 .0251691
1073.350 .0251771
1073.928 .0251852
1074.506 .0251949
1075.084 .0252067
1075.662 .0252203
1076.240 .0252365
1076.819 .0252543
1077.397 .0252724
1077.976 .0252914
1078.554 .0253104
1079.133 .0253304
1079.711 .0253511
1080.290 .0253726
1080.869 .0253949
1081.448 .0254176
1082.027 .0254407
1082.606 .0254633
1083.185 .0254851
1083.764 .0255061
1084.343 .0255259
1084.923 .0255439
1085.502 .0255603
1086.082 .0255766
1086.662 .0255930
1087.242 .0256108
1087.822 .0256303
1088.402 .0256503
1088.983 .0256708
1089.563 .0256915
1090.144 .0257118
1090.725 .0257316
1091.306 .0257491
1091.887 .0257643
1092.469 .0257791
1093.050 .0257933
1093.632 .0258072
1094.214 .0258222
1094.796 .0258405
1095.379 .0258625
1095.961 .0258860
1096.544 .0259106
1097.127 .0259357
1097.710 .0259619
1098.294 .0259881
1098.877 .0260129
1099.461 .0260385
1100.046 .0260645
1100.630 .0260915
1101.215 .0261212
1101.800 .0261523
1102.385 .0261868
1102.970 .0262220
1103.556 .0262557
1104.142 .0262856
1104.728 .0263115
1105.315 .0263322
1105.902 .0263481
1106.489 .0263614
1107.077 .0263746
1107.664 .0263887
1108.253 .0264086
1108.841 .0264331
1109.430 .0264641
1110.019 .0265012
1110.609 .0265415
1111.198 .0265812
1111.789 .0266245
1112.379 .0266666
1112.970 .0267093
1113.561 .0267533
1114.153 .0268001
1114.745 .0268480
1115.338 .0268974
1115.931 .0269464
1116.524 .0269937
1117.117 .0270409
1117.712 .0270867
1118.306 .0271258
1118.901 .0271658
1119.496 .0272012
1120.092 .0272338
1120.689 .0272646
1121.285 .0272966
1121.882 .0273281
1122.480 .0273614
1123.078 .0273970
1123.677 .0274360
1124.276 .0274809
1124.875 .0275323
1125.476 .0275878
1126.076 .0276526
1126.677 .0277228
1127.279 .0277932
1127.881 .0278616
1128.484 .0279284
1129.087 .0279919
1129.691 .0280536
1130.295 .0281146
1130.900 .0281798
1131.505 .0282522
1132.111 .0283299
1132.718 .0284118
1133.325 .0284977
1133.933 .0285848
1134.541 .0286676
1135.150 .0287431
1135.760 .0288104
1136.370 .0288747
1136.981 .0289391
1137.592 .0290056
1138.204 .0290824
1138.817 .0291679
1139.431 .0292575
1140.045 .0293538
1140.660 .0294516
1141.275 .0295602
1141.891 .0297029
1142.508 .0296864
1143.126 .0298678
1143.744 .0298797
1144.363 .0302943
1144.983 .0311955
