Measurement Sequence started on: 15-12-46-377
Integration time: 28
Scans to Average: 2 
>>>>>Begin Spectral Data<<<<<
432.689 .0000100
433.621 .0000100
434.552 .0000100
435.482 .0000100
436.410 .0000100
437.337 .0000100
438.262 .0269072
439.187 .0570798
440.110 .0945558
441.031 .1368197
441.952 .1778375
442.871 .2100999
443.789 .2277243
444.705 .2286972
445.621 .2154964
446.535 .1935209
447.447 .1686751
448.359 .1307708
449.269 .1119296
450.178 .1000921
451.086 .0917754
451.993 .0854559
452.898 .0804809
453.803 .0764253
454.706 .0730537
455.608 .0701604
456.508 .0676374
457.408 .0654213
458.306 .0634608
459.204 .0617058
460.100 .0601150
460.995 .0586816
461.888 .0573873
462.781 .0561984
463.673 .0551117
464.563 .0541210
465.452 .0532033
466.340 .0523520
467.228 .0515704
468.114 .0508422
468.999 .0501722
469.882 .0495455
470.765 .0489598
471.647 .0484090
472.528 .0479039
473.407 .0474443
474.286 .0470373
475.163 .0466980
476.040 .0464131
476.915 .0461699
477.790 .0459678
478.663 .0457910
479.535 .0456316
480.407 .0454860
481.277 .0453477
482.147 .0452186
483.015 .0451102
483.883 .0450254
484.749 .0449673
485.615 .0449419
486.479 .0449463
487.343 .0449718
488.206 .0450129
489.067 .0450606
489.928 .0450977
490.788 .0451380
491.647 .0451819
492.505 .0452295
493.362 .0452890
494.218 .0453660
495.073 .0454664
495.928 .0455984
496.781 .0457546
497.634 .0459350
498.486 .0461410
499.337 .0463715
500.187 .0466236
501.036 .0469034
501.884 .0472158
502.731 .0475582
503.578 .0479302
504.424 .0483358
505.268 .0487622
506.113 .0492070
506.956 .0496703
507.798 .0501642
508.640 .0506944
509.480 .0512620
510.320 .0518861
511.160 .0525855
511.998 .0533630
512.836 .0542338
513.672 .0552021
514.508 .0562761
515.344 .0574555
516.178 .0587428
517.012 .0601535
517.845 .0617217
518.677 .0634907
519.508 .0654942
520.339 .0678128
521.169 .0705462
521.998 .0736884
522.826 .0773228
523.654 .0815103
524.481 .0862263
525.307 .0914828
526.133 .0972619
526.958 .1034850
527.782 .1100782
528.605 .1168601
529.428 .1237129
530.250 .1302165
531.072 .1361751
531.892 .1412541
532.712 .1451621
533.532 .1477453
534.350 .1488094
535.168 .1482185
535.986 .1460820
536.802 .1425011
537.618 .1376920
538.434 .1318307
539.249 .1253238
540.063 .1183968
540.876 .1113514
541.689 .1044543
542.501 .0979168
543.313 .0918983
544.124 .0865138
544.934 .0817208
545.744 .0774973
546.553 .0738337
547.361 .0706577
548.169 .0679026
548.976 .0654778
549.783 .0633149
550.589 .0613594
551.395 .0595493
552.200 .0578763
553.004 .0563333
553.808 .0549049
554.611 .0535952
555.414 .0523986
556.216 .0513288
557.018 .0503830
557.819 .0495333
558.619 .0487516
559.419 .0480332
560.218 .0473566
561.017 .0467021
561.815 .0460575
562.613 .0454188
563.410 .0447873
564.207 .0441595
565.003 .0435412
565.799 .0429472
566.594 .0423776
567.388 .0418478
568.182 .0413535
568.976 .0408949
569.769 .0404607
570.562 .0400408
571.354 .0396283
572.145 .0392228
572.936 .0388133
573.727 .0383993
574.517 .0379839
575.307 .0375803
576.096 .0371892
576.885 .0368187
577.673 .0364698
578.461 .0361463
579.248 .0358460
580.035 .0355692
580.821 .0353069
581.607 .0350616
582.392 .0348287
583.177 .0346047
583.962 .0343881
584.746 .0341827
585.529 .0339861
586.313 .0338027
587.095 .0336334
587.878 .0334791
588.660 .0333393
589.441 .0332144
590.222 .0330998
591.003 .0329978
591.783 .0329036
592.563 .0328152
593.342 .0327303
594.121 .0326489
594.899 .0325698
595.678 .0324936
596.455 .0324211
597.233 .0323535
598.009 .0322903
598.786 .0322315
599.562 .0321756
600.338 .0321223
601.113 .0320697
601.888 .0320162
602.663 .0319618
603.437 .0319059
604.211 .0318483
604.984 .0317911
605.757 .0317361
606.530 .0316846
607.302 .0316371
608.074 .0315937
608.845 .0315547
609.616 .0315187
610.387 .0314846
611.158 .0314520
611.928 .0314207
612.697 .0313908
613.467 .0313623
614.236 .0313363
615.004 .0313132
615.773 .0312935
616.541 .0312768
617.308 .0312620
618.076 .0312489
618.843 .0312364
619.609 .0312235
620.375 .0312108
621.141 .0311976
621.907 .0311842
622.672 .0311702
623.437 .0311563
624.202 .0311418
624.966 .0311269
625.730 .0311111
626.493 .0310946
627.257 .0310766
628.020 .0310572
628.782 .0310363
629.545 .0310150
630.307 .0309928
631.068 .0309707
631.830 .0309483
632.591 .0309257
633.352 .0309028
634.112 .0308798
634.872 .0308567
635.632 .0308338
636.392 .0308110
637.151 .0307879
637.910 .0307654
638.668 .0307432
639.427 .0307202
640.185 .0306971
640.943 .0306738
641.700 .0306502
642.457 .0306257
643.214 .0306012
643.971 .0305761
644.727 .0305509
645.483 .0305255
646.239 .0304993
646.994 .0304730
647.750 .0304459
648.505 .0304188
649.259 .0303920
650.014 .0303659
650.768 .0303403
651.521 .0303147
652.275 .0302896
653.028 .0302644
653.781 .0302388
654.534 .0302127
655.286 .0301870
656.039 .0301611
656.791 .0301349
657.542 .0301081
658.294 .0300812
659.045 .0300548
659.796 .0300275
660.546 .0299998
661.297 .0299715
662.047 .0299426
662.796 .0299135
663.546 .0298839
664.295 .0298547
665.044 .0298254
665.793 .0297968
666.542 .0297684
667.290 .0297402
668.038 .0297133
668.786 .0296873
669.533 .0296619
670.281 .0296379
671.028 .0296143
671.774 .0295913
672.521 .0295697
673.267 .0295493
674.013 .0295300
674.759 .0295122
675.505 .0294953
676.250 .0294793
676.995 .0294641
677.740 .0294501
678.484 .0294362
679.229 .0294234
679.973 .0294109
680.717 .0293985
681.460 .0293863
682.204 .0293748
682.947 .0293639
683.690 .0293541
684.433 .0293446
685.175 .0293359
685.917 .0293274
686.659 .0293194
687.401 .0293113
688.142 .0293030
688.884 .0292947
689.625 .0292861
690.365 .0292774
691.106 .0292688
691.846 .0292605
692.586 .0292529
693.326 .0292452
694.066 .0292376
694.805 .0292296
695.545 .0292207
696.284 .0292111
697.022 .0292007
697.761 .0291895
698.499 .0291777
699.237 .0291657
699.975 .0291536
700.713 .0291417
701.450 .0291302
702.187 .0291190
702.924 .0291075
703.661 .0290956
704.397 .0290824
705.133 .0290683
705.869 .0290536
706.605 .0290384
707.341 .0290236
708.076 .0290096
708.811 .0289956
709.546 .0289824
710.281 .0289698
711.015 .0289570
711.749 .0289437
712.483 .0289295
713.217 .0289135
713.950 .0288965
714.684 .0288782
715.417 .0288590
716.150 .0288397
716.882 .0288212
717.615 .0288019
718.347 .0287825
719.079 .0287629
719.811 .0287418
720.542 .0287193
721.273 .0286956
722.005 .0286692
722.735 .0286413
723.466 .0286120
724.196 .0285817
724.927 .0285507
725.656 .0285203
726.386 .0284898
727.116 .0284598
727.845 .0284304
728.574 .0284005
729.303 .0283700
730.031 .0283399
730.760 .0283092
731.488 .0282784
732.216 .0282483
732.944 .0282197
733.671 .0281927
734.398 .0281683
735.125 .0281459
735.852 .0281253
736.579 .0281064
737.305 .0280887
738.031 .0280715
738.757 .0280550
739.483 .0280387
740.208 .0280226
740.933 .0280071
741.658 .0279921
742.383 .0279777
743.108 .0279635
743.832 .0279497
744.556 .0279360
745.280 .0279219
746.004 .0279078
746.727 .0278938
747.450 .0278803
748.173 .0278672
748.896 .0278545
749.618 .0278425
750.340 .0278313
751.062 .0278209
751.784 .0278114
752.506 .0278029
753.227 .0277955
753.948 .0277891
754.669 .0277835
755.389 .0277791
756.110 .0277752
756.830 .0277715
757.550 .0277677
758.269 .0277634
758.989 .0277580
759.708 .0277512
760.427 .0277435
761.146 .0277358
761.864 .0277280
762.582 .0277206
763.300 .0277137
764.018 .0277081
764.736 .0277033
765.453 .0276993
766.170 .0276958
766.887 .0276931
767.603 .0276911
768.320 .0276894
769.036 .0276881
769.751 .0276878
770.467 .0276883
771.182 .0276897
771.897 .0276918
772.612 .0276945
773.327 .0276973
774.041 .0277001
774.755 .0277026
775.469 .0277046
776.183 .0277062
776.896 .0277073
777.609 .0277079
778.322 .0277084
779.035 .0277086
779.747 .0277083
780.459 .0277081
781.171 .0277080
781.882 .0277077
782.594 .0277074
783.305 .0277074
784.016 .0277079
784.726 .0277094
785.436 .0277113
786.147 .0277131
786.856 .0277152
787.566 .0277170
788.275 .0277180
788.984 .0277184
789.693 .0277179
790.401 .0277164
791.110 .0277140
791.818 .0277107
792.525 .0277063
793.233 .0277010
793.940 .0276945
794.647 .0276869
795.353 .0276776
796.060 .0276669
796.766 .0276542
797.472 .0276398
798.177 .0276241
798.883 .0276069
799.588 .0275883
800.292 .0275693
800.997 .0275496
801.701 .0275298
802.405 .0275099
803.109 .0274902
803.812 .0274701
804.515 .0274500
805.218 .0274290
805.921 .0274071
806.623 .0273840
807.325 .0273599
808.027 .0273347
808.728 .0273090
809.429 .0272825
810.130 .0272556
810.831 .0272288
811.531 .0272014
812.231 .0271729
812.931 .0271435
813.630 .0271124
814.330 .0270800
815.029 .0270458
815.727 .0270110
816.426 .0269758
817.124 .0269412
817.821 .0269073
818.519 .0268748
819.216 .0268441
819.913 .0268146
820.609 .0267861
821.306 .0267586
822.002 .0267321
822.697 .0267066
823.393 .0266823
824.088 .0266597
824.783 .0266387
825.477 .0266197
826.171 .0266018
826.865 .0265854
827.559 .0265701
828.252 .0265551
828.945 .0265406
829.638 .0265266
830.330 .0265126
831.023 .0264987
831.714 .0264853
832.406 .0264725
833.097 .0264598
833.788 .0264472
834.479 .0264342
835.169 .0264210
835.859 .0264078
836.548 .0263942
837.238 .0263808
837.927 .0263681
838.615 .0263567
839.304 .0263466
839.992 .0263383
840.680 .0263319
841.367 .0263268
842.054 .0263230
842.741 .0263203
843.428 .0263183
844.114 .0263170
844.800 .0263165
845.485 .0263165
846.170 .0263168
846.855 .0263177
847.540 .0263191
848.224 .0263209
848.908 .0263230
849.592 .0263252
850.275 .0263269
850.958 .0263282
851.641 .0263293
852.323 .0263294
853.005 .0263289
853.687 .0263281
854.368 .0263267
855.049 .0263252
855.730 .0263240
856.410 .0263230
857.090 .0263225
857.769 .0263231
858.449 .0263243
859.128 .0263260
859.806 .0263289
860.485 .0263331
861.163 .0263387
861.840 .0263457
862.518 .0263538
863.195 .0263622
863.871 .0263713
864.548 .0263804
865.224 .0263889
865.899 .0263973
866.574 .0264059
867.249 .0264142
867.924 .0264227
868.598 .0264318
869.272 .0264413
869.946 .0264512
870.619 .0264615
871.292 .0264713
871.964 .0264807
872.636 .0264897
873.308 .0264982
873.979 .0265066
874.651 .0265151
875.321 .0265235
875.992 .0265317
876.662 .0265400
877.331 .0265479
878.001 .0265551
878.670 .0265614
879.338 .0265664
880.007 .0265705
880.675 .0265735
881.342 .0265756
882.009 .0265770
882.676 .0265781
883.343 .0265788
884.009 .0265788
884.675 .0265781
885.340 .0265765
886.005 .0265743
886.670 .0265718
887.334 .0265692
887.998 .0265671
888.662 .0265653
889.325 .0265639
889.988 .0265627
890.650 .0265617
891.312 .0265602
891.974 .0265585
892.636 .0265564
893.297 .0265540
893.957 .0265510
894.618 .0265479
895.278 .0265442
895.937 .0265404
896.596 .0265359
897.255 .0265304
897.914 .0265237
898.572 .0265159
899.230 .0265063
899.887 .0264952
900.544 .0264825
901.201 .0264682
901.857 .0264518
902.513 .0264341
903.168 .0264145
903.823 .0263931
904.478 .0263698
905.132 .0263444
905.786 .0263171
906.440 .0262882
907.093 .0262576
907.746 .0262259
908.399 .0261931
909.051 .0261600
909.703 .0261266
910.354 .0260932
911.005 .0260602
911.656 .0260277
912.306 .0259959
912.956 .0259647
913.605 .0259337
914.254 .0259034
914.903 .0258731
915.551 .0258428
916.199 .0258128
916.847 .0257824
917.494 .0257516
918.141 .0257206
918.788 .0256891
919.434 .0256578
920.079 .0256258
920.725 .0255936
921.370 .0255610
922.014 .0255279
922.658 .0254940
923.302 .0254591
923.946 .0254235
924.589 .0253869
925.231 .0253491
925.873 .0253108
926.515 .0252720
927.157 .0252331
927.798 .0251943
928.439 .0251557
929.079 .0251177
929.719 .0250802
930.359 .0250426
930.998 .0250055
931.637 .0249686
932.275 .0249321
932.913 .0248963
933.551 .0248610
934.188 .0248270
934.825 .0247942
935.462 .0247630
936.098 .0247331
936.733 .0247050
937.369 .0246784
938.004 .0246535
938.638 .0246300
939.273 .0246082
939.907 .0245873
940.540 .0245683
941.173 .0245507
941.806 .0245341
942.438 .0245189
943.070 .0245049
943.702 .0244912
944.333 .0244781
944.964 .0244647
945.594 .0244516
946.224 .0244382
946.854 .0244257
947.483 .0244137
948.112 .0244026
948.741 .0243928
949.369 .0243842
949.996 .0243768
950.624 .0243704
951.251 .0243643
951.878 .0243583
952.504 .0243521
953.130 .0243457
953.755 .0243385
954.380 .0243314
955.005 .0243244
955.629 .0243181
956.253 .0243124
956.877 .0243074
957.500 .0243034
958.123 .0242999
958.746 .0242967
959.368 .0242938
959.990 .0242912
960.611 .0242885
961.232 .0242863
961.853 .0242849
962.473 .0242843
963.093 .0242851
963.712 .0242872
964.331 .0242906
964.950 .0242958
965.569 .0243027
966.187 .0243110
966.804 .0243214
967.422 .0243341
968.039 .0243480
968.655 .0243629
969.272 .0243788
969.887 .0243945
970.503 .0244099
971.118 .0244248
971.733 .0244387
972.347 .0244516
972.961 .0244645
973.575 .0244769
974.188 .0244893
974.801 .0245016
975.414 .0245137
976.026 .0245252
976.638 .0245365
977.250 .0245466
977.861 .0245562
978.472 .0245655
979.083 .0245752
979.693 .0245844
980.303 .0245938
980.912 .0246032
981.521 .0246123
982.130 .0246210
982.738 .0246292
983.346 .0246365
983.954 .0246437
984.562 .0246505
985.169 .0246579
985.775 .0246655
986.382 .0246745
986.988 .0246841
987.594 .0246946
988.199 .0247052
988.804 .0247160
989.409 .0247263
990.013 .0247370
990.617 .0247483
991.221 .0247599
991.824 .0247729
992.427 .0247885
993.030 .0248065
993.632 .0248274
994.234 .0248506
994.836 .0248756
995.438 .0249011
996.039 .0249267
996.640 .0249506
997.240 .0249732
997.840 .0249946
998.440 .0250152
999.040 .0250346
999.639 .0250544
1000.238 .0250739
1000.836 .0250932
1001.435 .0251120
1002.033 .0251295
1002.630 .0251454
1003.228 .0251601
1003.825 .0251729
1004.422 .0251846
1005.018 .0251955
1005.614 .0252070
1006.210 .0252185
1006.806 .0252311
1007.401 .0252437
1007.996 .0252565
1008.591 .0252692
1009.186 .0252811
1009.780 .0252915
1010.374 .0253012
1010.967 .0253094
1011.561 .0253164
1012.154 .0253222
1012.746 .0253270
1013.339 .0253302
1013.931 .0253319
1014.523 .0253323
1015.115 .0253312
1015.706 .0253288
1016.298 .0253262
1016.888 .0253229
1017.479 .0253202
1018.069 .0253177
1018.660 .0253155
1019.250 .0253145
1019.839 .0253144
1020.429 .0253153
1021.018 .0253169
1021.607 .0253199
1022.195 .0253243
1022.784 .0253291
1023.372 .0253347
1023.960 .0253413
1024.547 .0253488
1025.135 .0253565
1025.722 .0253639
1026.309 .0253707
1026.896 .0253772
1027.483 .0253829
1028.069 .0253873
1028.655 .0253909
1029.241 .0253935
1029.827 .0253948
1030.412 .0253945
1030.997 .0253930
1031.582 .0253903
1032.167 .0253861
1032.752 .0253809
1033.336 .0253740
1033.921 .0253657
1034.505 .0253565
1035.089 .0253465
1035.672 .0253367
1036.256 .0253265
1036.839 .0253159
1037.422 .0253049
1038.005 .0252938
1038.588 .0252814
1039.171 .0252686
1039.753 .0252553
1040.335 .0252411
1040.918 .0252258
1041.500 .0252095
1042.081 .0251920
1042.663 .0251738
1043.244 .0251559
1043.826 .0251384
1044.407 .0251209
1044.988 .0251039
1045.569 .0250861
1046.150 .0250684
1046.730 .0250505
1047.311 .0250321
1047.891 .0250133
1048.471 .0249934
1049.052 .0249720
1049.632 .0249491
1050.211 .0249259
1050.791 .0249030
1051.371 .0248810
1051.950 .0248606
1052.530 .0248418
1053.109 .0248243
1053.688 .0248070
1054.268 .0247894
1054.847 .0247710
1055.426 .0247508
1056.005 .0247280
1056.583 .0247031
1057.162 .0246767
1057.741 .0246503
1058.319 .0246247
1058.898 .0246019
1059.476 .0245807
1060.055 .0245611
1060.633 .0245427
1061.211 .0245249
1061.790 .0245074
1062.368 .0244898
1062.946 .0244725
1063.524 .0244569
1064.102 .0244427
1064.680 .0244311
1065.258 .0244214
1065.836 .0244144
1066.414 .0244094
1066.992 .0244051
1067.570 .0243996
1068.148 .0243937
1068.726 .0243855
1069.304 .0243767
1069.882 .0243668
1070.460 .0243559
1071.038 .0243434
1071.616 .0243290
1072.194 .0243130
1072.772 .0242938
1073.350 .0242713
1073.928 .0242465
1074.506 .0242191
1075.084 .0241913
1075.662 .0241636
1076.240 .0241370
1076.819 .0241130
1077.397 .0240916
1077.976 .0240728
1078.554 .0240553
1079.133 .0240396
1079.711 .0240260
1080.290 .0240135
1080.869 .0240023
1081.448 .0239921
1082.027 .0239824
1082.606 .0239738
1083.185 .0239662
1083.764 .0239606
1084.343 .0239563
1084.923 .0239539
1085.502 .0239540
1086.082 .0239567
1086.662 .0239617
1087.242 .0239683
1087.822 .0239759
1088.402 .0239848
1088.983 .0239930
1089.563 .0239996
1090.144 .0240056
1090.725 .0240125
1091.306 .0240212
1091.887 .0240303
1092.469 .0240414
1093.050 .0240550
1093.632 .0240696
1094.214 .0240859
1094.796 .0241022
1095.379 .0241173
1095.961 .0241318
1096.544 .0241431
1097.127 .0241529
1097.710 .0241612
1098.294 .0241685
1098.877 .0241764
1099.461 .0241846
1100.046 .0241938
1100.630 .0242022
1101.215 .0242118
1101.800 .0242237
1102.385 .0242361
1102.970 .0242510
1103.556 .0242663
1104.142 .0242830
1104.728 .0243015
1105.315 .0243191
1105.902 .0243354
1106.489 .0243524
1107.077 .0243707
1107.664 .0243910
1108.253 .0244152
1108.841 .0244441
1109.430 .0244790
1110.019 .0245198
1110.609 .0245660
1111.198 .0246143
1111.789 .0246653
1112.379 .0247163
1112.970 .0247639
1113.561 .0248103
1114.153 .0248567
1114.745 .0249048
1115.338 .0249576
1115.931 .0250133
1116.524 .0250715
1117.117 .0251335
1117.712 .0251968
1118.306 .0252576
1118.901 .0253149
1119.496 .0253683
1120.092 .0254149
1120.689 .0254561
1121.285 .0254937
1121.882 .0255285
1122.480 .0255645
1123.078 .0256037
1123.677 .0256454
1124.276 .0256889
1124.875 .0257348
1125.476 .0257825
1126.076 .0258330
1126.677 .0258901
1127.279 .0259519
1127.881 .0260196
1128.484 .0260982
1129.087 .0261851
1129.691 .0262769
1130.295 .0263733
1130.900 .0264778
1131.505 .0265845
1132.111 .0266935
1132.718 .0268073
1133.325 .0269256
1133.933 .0270487
1134.541 .0271780
1135.150 .0273088
1135.760 .0274415
1136.370 .0275729
1136.981 .0276996
1137.592 .0278144
1138.204 .0279214
1138.817 .0280294
1139.431 .0281370
1140.045 .0282501
1140.660 .0283669
1141.275 .0284907
1141.891 .0286244
1142.508 .0288756
1143.126 .0290089
1143.744 .0289239
1144.363 .0291296
1144.983 .0293929
