Measurement Sequence started on: 15-12-46-377
Integration time: 28
Scans to Average: 2 
>>>>>Begin Spectral Data<<<<<
432.689 .0000100
433.621 .0000100
434.552 .0000100
435.482 .0000100
436.410 .0000100
437.337 .0000100
438.262 .0273045
439.187 .0578009
440.110 .0958049
441.031 .1386537
441.952 .1802425
442.871 .2130022
443.789 .2309868
444.705 .2321070
445.621 .2188610
446.535 .1966876
447.447 .1715528
448.359 .1331028
449.269 .1139863
450.178 .1017911
451.086 .0931622
451.993 .0865566
452.898 .0813053
453.803 .0769962
454.706 .0734421
455.608 .0704057
456.508 .0677823
457.408 .0655051
458.306 .0635145
459.204 .0617639
460.100 .0602139
460.995 .0588630
461.888 .0576654
462.781 .0565796
463.673 .0555950
464.563 .0546950
465.452 .0538611
466.340 .0530733
467.228 .0523317
468.114 .0516320
468.999 .0509917
469.882 .0503970
470.765 .0498503
471.647 .0493540
472.528 .0489008
473.407 .0484899
474.286 .0481131
475.163 .0477672
476.040 .0474495
476.915 .0471471
477.790 .0468712
478.663 .0466109
479.535 .0463683
480.407 .0461554
481.277 .0459665
482.147 .0458063
483.015 .0456745
483.883 .0455704
484.749 .0454968
485.615 .0454511
486.479 .0454322
487.343 .0454327
488.206 .0454537
489.067 .0454879
489.928 .0455292
490.788 .0455846
491.647 .0456597
492.505 .0457489
493.362 .0458641
494.218 .0460048
495.073 .0461753
495.928 .0463828
496.781 .0466155
497.634 .0468750
498.486 .0471623
499.337 .0474712
500.187 .0477953
501.036 .0481369
501.884 .0485022
502.731 .0488785
503.578 .0492815
504.424 .0497183
505.268 .0501775
506.113 .0506706
506.956 .0512053
507.798 .0517857
508.640 .0524173
509.480 .0530915
510.320 .0538257
511.160 .0546259
511.998 .0555003
512.836 .0564411
513.672 .0574528
514.508 .0585777
515.344 .0598232
516.178 .0612128
517.012 .0627859
517.845 .0645826
518.677 .0666337
519.508 .0689652
520.339 .0716137
521.169 .0746154
521.998 .0780011
522.826 .0818099
523.654 .0860616
524.481 .0907737
525.307 .0959841
526.133 .1016995
526.958 .1078488
527.782 .1143726
528.605 .1210792
529.428 .1278384
530.250 .1341677
531.072 .1398367
531.892 .1445113
532.712 .1479386
533.532 .1499595
534.350 .1504381
535.168 .1493056
535.986 .1467054
536.802 .1427533
537.618 .1377009
538.434 .1317177
539.249 .1252650
540.063 .1184910
540.876 .1116854
541.689 .1050781
542.501 .0988660
543.313 .0931657
544.124 .0880598
544.934 .0834905
545.744 .0794069
546.553 .0757390
547.361 .0724860
548.169 .0695875
548.976 .0670045
549.783 .0647019
550.589 .0626470
551.395 .0607850
552.200 .0591100
553.004 .0575897
553.808 .0561918
554.611 .0549305
555.414 .0537988
556.216 .0527637
557.018 .0518326
557.819 .0510137
558.619 .0502749
559.419 .0495923
560.218 .0489624
561.017 .0483490
561.815 .0477272
562.613 .0470922
563.410 .0464334
564.207 .0457573
565.003 .0450801
565.799 .0444047
566.594 .0437340
567.388 .0430968
568.182 .0424820
568.976 .0418825
569.769 .0413073
570.562 .0407508
571.354 .0402015
572.145 .0396610
572.936 .0391276
573.727 .0386045
574.517 .0381011
575.307 .0376251
576.096 .0371791
576.885 .0367638
577.673 .0363813
578.461 .0360312
579.248 .0357109
580.035 .0354152
580.821 .0351380
581.607 .0348826
582.392 .0346464
583.177 .0344288
583.962 .0342313
584.746 .0340539
585.529 .0338988
586.313 .0337641
587.095 .0336454
587.878 .0335396
588.660 .0334452
589.441 .0333597
590.222 .0332785
591.003 .0332030
591.783 .0331312
592.563 .0330622
593.342 .0329988
594.121 .0329390
594.899 .0328826
595.678 .0328297
596.455 .0327800
597.233 .0327320
598.009 .0326846
598.786 .0326367
599.562 .0325872
600.338 .0325364
601.113 .0324853
601.888 .0324339
602.663 .0323829
603.437 .0323331
604.211 .0322844
604.984 .0322369
605.757 .0321912
606.530 .0321456
607.302 .0321005
608.074 .0320552
608.845 .0320100
609.616 .0319645
610.387 .0319193
611.158 .0318764
611.928 .0318353
612.697 .0317972
613.467 .0317639
614.236 .0317339
615.004 .0317081
615.773 .0316857
616.541 .0316664
617.308 .0316494
618.076 .0316340
618.843 .0316198
619.609 .0316066
620.375 .0315953
621.141 .0315846
621.907 .0315746
622.672 .0315652
623.437 .0315549
624.202 .0315434
624.966 .0315309
625.730 .0315173
626.493 .0315017
627.257 .0314848
628.020 .0314668
628.782 .0314477
629.545 .0314270
630.307 .0314042
631.068 .0313802
631.830 .0313545
632.591 .0313263
633.352 .0312964
634.112 .0312658
634.872 .0312351
635.632 .0312050
636.392 .0311759
637.151 .0311479
637.910 .0311203
638.668 .0310927
639.427 .0310640
640.185 .0310342
640.943 .0310027
641.700 .0309701
642.457 .0309371
643.214 .0309051
643.971 .0308736
644.727 .0308437
645.483 .0308161
646.239 .0307901
646.994 .0307647
647.750 .0307394
648.505 .0307139
649.259 .0306884
650.014 .0306619
650.768 .0306353
651.521 .0306090
652.275 .0305835
653.028 .0305584
653.781 .0305340
654.534 .0305102
655.286 .0304867
656.039 .0304634
656.791 .0304403
657.542 .0304161
658.294 .0303913
659.045 .0303654
659.796 .0303391
660.546 .0303123
661.297 .0302850
662.047 .0302575
662.796 .0302298
663.546 .0302022
664.295 .0301744
665.044 .0301466
665.793 .0301197
666.542 .0300933
667.290 .0300674
668.038 .0300419
668.786 .0300171
669.533 .0299922
670.281 .0299678
671.028 .0299444
671.774 .0299211
672.521 .0298985
673.267 .0298773
674.013 .0298574
674.759 .0298386
675.505 .0298214
676.250 .0298047
676.995 .0297884
677.740 .0297725
678.484 .0297560
679.229 .0297389
679.973 .0297218
680.717 .0297045
681.460 .0296866
682.204 .0296690
682.947 .0296517
683.690 .0296346
684.433 .0296178
685.175 .0296009
685.917 .0295836
686.659 .0295659
687.401 .0295480
688.142 .0295299
688.884 .0295120
689.625 .0294934
690.365 .0294745
691.106 .0294555
691.846 .0294361
692.586 .0294167
693.326 .0293978
694.066 .0293791
694.805 .0293610
695.545 .0293430
696.284 .0293252
697.022 .0293077
697.761 .0292906
698.499 .0292729
699.237 .0292552
699.975 .0292376
700.713 .0292207
701.450 .0292049
702.187 .0291912
702.924 .0291791
703.661 .0291684
704.397 .0291590
705.133 .0291498
705.869 .0291404
706.605 .0291307
707.341 .0291200
708.076 .0291086
708.811 .0290962
709.546 .0290827
710.281 .0290689
711.015 .0290555
711.749 .0290418
712.483 .0290276
713.217 .0290130
713.950 .0289980
714.684 .0289818
715.417 .0289648
716.150 .0289472
716.882 .0289287
717.615 .0289097
718.347 .0288900
719.079 .0288701
719.811 .0288505
720.542 .0288314
721.273 .0288129
722.005 .0287954
722.735 .0287789
723.466 .0287630
724.196 .0287478
724.927 .0287331
725.656 .0287177
726.386 .0287019
727.116 .0286851
727.845 .0286678
728.574 .0286497
729.303 .0286314
730.031 .0286131
730.760 .0285952
731.488 .0285774
732.216 .0285600
732.944 .0285428
733.671 .0285264
734.398 .0285098
735.125 .0284936
735.852 .0284774
736.579 .0284615
737.305 .0284462
738.031 .0284319
738.757 .0284182
739.483 .0284056
740.208 .0283936
740.933 .0283822
741.658 .0283708
742.383 .0283595
743.108 .0283481
743.832 .0283363
744.556 .0283245
745.280 .0283126
746.004 .0283003
746.727 .0282879
747.450 .0282751
748.173 .0282612
748.896 .0282460
749.618 .0282290
750.340 .0282103
751.062 .0281899
751.784 .0281686
752.506 .0281466
753.227 .0281246
753.948 .0281032
754.669 .0280824
755.389 .0280621
756.110 .0280426
756.830 .0280230
757.550 .0280030
758.269 .0279825
758.989 .0279618
759.708 .0279405
760.427 .0279195
761.146 .0278988
761.864 .0278787
762.582 .0278589
763.300 .0278396
764.018 .0278201
764.736 .0278008
765.453 .0277811
766.170 .0277609
766.887 .0277405
767.603 .0277206
768.320 .0277008
769.036 .0276821
769.751 .0276642
770.467 .0276473
771.182 .0276304
771.897 .0276138
772.612 .0275973
773.327 .0275815
774.041 .0275660
774.755 .0275513
775.469 .0275377
776.183 .0275255
776.896 .0275142
777.609 .0275039
778.322 .0274946
779.035 .0274855
779.747 .0274762
780.459 .0274667
781.171 .0274569
781.882 .0274468
782.594 .0274368
783.305 .0274268
784.016 .0274174
784.726 .0274083
785.436 .0273992
786.147 .0273905
786.856 .0273823
787.566 .0273744
788.275 .0273671
788.984 .0273607
789.693 .0273551
790.401 .0273501
791.110 .0273459
791.818 .0273416
792.525 .0273371
793.233 .0273319
793.940 .0273259
794.647 .0273191
795.353 .0273122
796.060 .0273050
796.766 .0272982
797.472 .0272922
798.177 .0272865
798.883 .0272810
799.588 .0272754
800.292 .0272688
800.997 .0272610
801.701 .0272520
802.405 .0272421
803.109 .0272318
803.812 .0272217
804.515 .0272124
805.218 .0272041
805.921 .0271971
806.623 .0271904
807.325 .0271845
808.027 .0271787
808.728 .0271724
809.429 .0271653
810.130 .0271577
810.831 .0271496
811.531 .0271414
812.231 .0271333
812.931 .0271257
813.630 .0271187
814.330 .0271122
815.029 .0271056
815.727 .0270991
816.426 .0270923
817.124 .0270851
817.821 .0270772
818.519 .0270693
819.216 .0270616
819.913 .0270542
820.609 .0270476
821.306 .0270421
822.002 .0270379
822.697 .0270349
823.393 .0270331
824.088 .0270319
824.783 .0270313
825.477 .0270311
826.171 .0270309
826.865 .0270309
827.559 .0270312
828.252 .0270320
828.945 .0270334
829.638 .0270358
830.330 .0270384
831.023 .0270415
831.714 .0270449
832.406 .0270483
833.097 .0270513
833.788 .0270535
834.479 .0270544
835.169 .0270542
835.859 .0270528
836.548 .0270502
837.238 .0270464
837.927 .0270418
838.615 .0270365
839.304 .0270309
839.992 .0270249
840.680 .0270185
841.367 .0270119
842.054 .0270052
842.741 .0269977
843.428 .0269896
844.114 .0269807
844.800 .0269712
845.485 .0269608
846.170 .0269497
846.855 .0269379
847.540 .0269256
848.224 .0269130
848.908 .0269003
849.592 .0268873
850.275 .0268742
850.958 .0268607
851.641 .0268467
852.323 .0268314
853.005 .0268153
853.687 .0267974
854.368 .0267785
855.049 .0267586
855.730 .0267380
856.410 .0267167
857.090 .0266954
857.769 .0266741
858.449 .0266531
859.128 .0266318
859.806 .0266104
860.485 .0265883
861.163 .0265654
861.840 .0265412
862.518 .0265160
863.195 .0264900
863.871 .0264636
864.548 .0264369
865.224 .0264107
865.899 .0263849
866.574 .0263599
867.249 .0263355
867.924 .0263117
868.598 .0262885
869.272 .0262657
869.946 .0262433
870.619 .0262215
871.292 .0262001
871.964 .0261791
872.636 .0261586
873.308 .0261390
873.979 .0261200
874.651 .0261012
875.321 .0260832
875.992 .0260662
876.662 .0260503
877.331 .0260354
878.001 .0260211
878.670 .0260076
879.338 .0259945
880.007 .0259817
880.675 .0259688
881.342 .0259560
882.009 .0259432
882.676 .0259301
883.343 .0259168
884.009 .0259037
884.675 .0258904
885.340 .0258774
886.005 .0258650
886.670 .0258529
887.334 .0258413
887.998 .0258305
888.662 .0258207
889.325 .0258117
889.988 .0258033
890.650 .0257953
891.312 .0257874
891.974 .0257798
892.636 .0257725
893.297 .0257652
893.957 .0257587
894.618 .0257529
895.278 .0257481
895.937 .0257443
896.596 .0257417
897.255 .0257396
897.914 .0257380
898.572 .0257357
899.230 .0257319
899.887 .0257260
900.544 .0257182
901.201 .0257082
901.857 .0256964
902.513 .0256833
903.168 .0256694
903.823 .0256545
904.478 .0256396
905.132 .0256239
905.786 .0256078
906.440 .0255906
907.093 .0255725
907.746 .0255532
908.399 .0255330
909.051 .0255120
909.703 .0254908
910.354 .0254701
911.005 .0254504
911.656 .0254313
912.306 .0254134
912.956 .0253967
913.605 .0253812
914.254 .0253660
914.903 .0253516
915.551 .0253376
916.199 .0253245
916.847 .0253121
917.494 .0253004
918.141 .0252898
918.788 .0252803
919.434 .0252722
920.079 .0252648
920.725 .0252579
921.370 .0252513
922.014 .0252445
922.658 .0252376
923.302 .0252302
923.946 .0252224
924.589 .0252142
925.231 .0252056
925.873 .0251968
926.515 .0251878
927.157 .0251788
927.798 .0251695
928.439 .0251601
929.079 .0251505
929.719 .0251405
930.359 .0251299
930.998 .0251192
931.637 .0251085
932.275 .0250978
932.913 .0250875
933.551 .0250778
934.188 .0250691
934.825 .0250616
935.462 .0250549
936.098 .0250493
936.733 .0250446
937.369 .0250410
938.004 .0250383
938.638 .0250365
939.273 .0250359
939.907 .0250363
940.540 .0250381
941.173 .0250410
941.806 .0250456
942.438 .0250515
943.070 .0250583
943.702 .0250658
944.333 .0250734
944.964 .0250808
945.594 .0250880
946.224 .0250948
946.854 .0251011
947.483 .0251075
948.112 .0251139
948.741 .0251201
949.369 .0251265
949.996 .0251326
950.624 .0251382
951.251 .0251429
951.878 .0251466
952.504 .0251487
953.130 .0251498
953.755 .0251502
954.380 .0251496
955.005 .0251485
955.629 .0251468
956.253 .0251441
956.877 .0251411
957.500 .0251380
958.123 .0251345
958.746 .0251307
959.368 .0251271
959.990 .0251243
960.611 .0251220
961.232 .0251206
961.853 .0251202
962.473 .0251206
963.093 .0251215
963.712 .0251222
964.331 .0251228
964.950 .0251235
965.569 .0251246
966.187 .0251262
966.804 .0251285
967.422 .0251325
968.039 .0251376
968.655 .0251438
969.272 .0251509
969.887 .0251578
970.503 .0251631
971.118 .0251671
971.733 .0251690
972.347 .0251691
972.961 .0251676
973.575 .0251653
974.188 .0251622
974.801 .0251591
975.414 .0251552
976.026 .0251507
976.638 .0251452
977.250 .0251386
977.861 .0251303
978.472 .0251205
979.083 .0251092
979.693 .0250962
980.303 .0250824
980.912 .0250682
981.521 .0250536
982.130 .0250392
982.738 .0250251
983.346 .0250119
983.954 .0249990
984.562 .0249870
985.169 .0249753
985.775 .0249645
986.382 .0249541
986.988 .0249440
987.594 .0249345
988.199 .0249251
988.804 .0249161
989.409 .0249076
990.013 .0248995
990.617 .0248913
991.221 .0248829
991.824 .0248744
992.427 .0248655
993.030 .0248564
993.632 .0248469
994.234 .0248376
994.836 .0248284
995.438 .0248191
996.039 .0248096
996.640 .0247999
997.240 .0247904
997.840 .0247808
998.440 .0247718
999.040 .0247631
999.639 .0247550
1000.238 .0247481
1000.836 .0247423
1001.435 .0247378
1002.033 .0247339
1002.630 .0247301
1003.228 .0247264
1003.825 .0247222
1004.422 .0247172
1005.018 .0247115
1005.614 .0247057
1006.210 .0247000
1006.806 .0246946
1007.401 .0246889
1007.996 .0246831
1008.591 .0246770
1009.186 .0246704
1009.780 .0246632
1010.374 .0246550
1010.967 .0246460
1011.561 .0246361
1012.154 .0246263
1012.746 .0246168
1013.339 .0246079
1013.931 .0245998
1014.523 .0245923
1015.115 .0245858
1015.706 .0245801
1016.298 .0245743
1016.888 .0245690
1017.479 .0245643
1018.069 .0245594
1018.660 .0245537
1019.250 .0245477
1019.839 .0245406
1020.429 .0245336
1021.018 .0245268
1021.607 .0245205
1022.195 .0245147
1022.784 .0245107
1023.372 .0245077
1023.960 .0245051
1024.547 .0245035
1025.135 .0245014
1025.722 .0244985
1026.309 .0244957
1026.896 .0244924
1027.483 .0244893
1028.069 .0244869
1028.655 .0244861
1029.241 .0244864
1029.827 .0244885
1030.412 .0244910
1030.997 .0244935
1031.582 .0244955
1032.167 .0244965
1032.752 .0244957
1033.336 .0244926
1033.921 .0244883
1034.505 .0244824
1035.089 .0244753
1035.672 .0244671
1036.256 .0244570
1036.839 .0244464
1037.422 .0244342
1038.005 .0244209
1038.588 .0244059
1039.171 .0243901
1039.753 .0243735
1040.335 .0243558
1040.918 .0243382
1041.500 .0243210
1042.081 .0243044
1042.663 .0242880
1043.244 .0242724
1043.826 .0242580
1044.407 .0242441
1044.988 .0242309
1045.569 .0242182
1046.150 .0242068
1046.730 .0241958
1047.311 .0241859
1047.891 .0241773
1048.471 .0241703
1049.052 .0241650
1049.632 .0241610
1050.211 .0241588
1050.791 .0241576
1051.371 .0241571
1051.950 .0241570
1052.530 .0241566
1053.109 .0241561
1053.688 .0241544
1054.268 .0241518
1054.847 .0241493
1055.426 .0241465
1056.005 .0241434
1056.583 .0241406
1057.162 .0241386
1057.741 .0241362
1058.319 .0241337
1058.898 .0241302
1059.476 .0241250
1060.055 .0241170
1060.633 .0241072
1061.211 .0240943
1061.790 .0240799
1062.368 .0240650
1062.946 .0240502
1063.524 .0240364
1064.102 .0240255
1064.680 .0240166
1065.258 .0240110
1065.836 .0240094
1066.414 .0240102
1066.992 .0240116
1067.570 .0240147
1068.148 .0240173
1068.726 .0240184
1069.304 .0240187
1069.882 .0240192
1070.460 .0240191
1071.038 .0240207
1071.616 .0240236
1072.194 .0240287
1072.772 .0240371
1073.350 .0240473
1073.928 .0240561
1074.506 .0240636
1075.084 .0240683
1075.662 .0240681
1076.240 .0240638
1076.819 .0240571
1077.397 .0240474
1077.976 .0240387
1078.554 .0240316
1079.133 .0240268
1079.711 .0240250
1080.290 .0240262
1080.869 .0240283
1081.448 .0240313
1082.027 .0240339
1082.606 .0240356
1083.185 .0240382
1083.764 .0240443
1084.343 .0240522
1084.923 .0240635
1085.502 .0240787
1086.082 .0240969
1086.662 .0241176
1087.242 .0241394
1087.822 .0241602
1088.402 .0241812
1088.983 .0242015
1089.563 .0242190
1090.144 .0242342
1090.725 .0242486
1091.306 .0242600
1091.887 .0242680
1092.469 .0242746
1093.050 .0242793
1093.632 .0242835
1094.214 .0242906
1094.796 .0243014
1095.379 .0243154
1095.961 .0243342
1096.544 .0243566
1097.127 .0243816
1097.710 .0244090
1098.294 .0244377
1098.877 .0244648
1099.461 .0244942
1100.046 .0245250
1100.630 .0245558
1101.215 .0245888
1101.800 .0246257
1102.385 .0246615
1102.970 .0246977
1103.556 .0247332
1104.142 .0247676
1104.728 .0247991
1105.315 .0248297
1105.902 .0248591
1106.489 .0248900
1107.077 .0249244
1107.664 .0249622
1108.253 .0250034
1108.841 .0250512
1109.430 .0250998
1110.019 .0251486
1110.609 .0251961
1111.198 .0252411
1111.789 .0252834
1112.379 .0253237
1112.970 .0253619
1113.561 .0254002
1114.153 .0254384
1114.745 .0254776
1115.338 .0255180
1115.931 .0255578
1116.524 .0255972
1117.117 .0256346
1117.712 .0256726
1118.306 .0257098
1118.901 .0257499
1119.496 .0257937
1120.092 .0258423
1120.689 .0258975
1121.285 .0259583
1121.882 .0260225
1122.480 .0260929
1123.078 .0261678
1123.677 .0262445
1124.276 .0263220
1124.875 .0263996
1125.476 .0264733
1126.076 .0265441
1126.677 .0266083
1127.279 .0266676
1127.881 .0267208
1128.484 .0267701
1129.087 .0268127
1129.691 .0268534
1130.295 .0268954
1130.900 .0269379
1131.505 .0269839
1132.111 .0270327
1132.718 .0270868
1133.325 .0271434
1133.933 .0272038
1134.541 .0272691
1135.150 .0273445
1135.760 .0274347
1136.370 .0275406
1136.981 .0276659
1137.592 .0278084
1138.204 .0279697
1138.817 .0281507
1139.431 .0283437
1140.045 .0285607
1140.660 .0287938
1141.275 .0290581
1141.891 .0293295
1142.508 .0294466
1143.126 .0300074
1143.744 .0302648
1144.363 .0308736
1144.983 .0306908
