Measurement Sequence started on: 15-12-46-377
Integration time: 28
Scans to Average: 2 
>>>>>Begin Spectral Data<<<<<
432.689 .0000100
433.621 .0000100
434.552 .0000100
435.482 .0000100
436.410 .0000100
437.337 .0000100
438.262 .0274608
439.187 .0582631
440.110 .0965317
441.031 .1397125
441.952 .1817295
442.871 .2149065
443.789 .2333013
444.705 .2348260
445.621 .2220181
446.535 .2003137
447.447 .1756628
448.359 .1376301
449.269 .1189223
450.178 .1072010
451.086 .0989271
451.993 .0925361
452.898 .0874466
453.803 .0832349
454.706 .0797169
455.608 .0766833
456.508 .0740531
457.408 .0717358
458.306 .0696502
459.204 .0677670
460.100 .0660501
460.995 .0644778
461.888 .0630292
462.781 .0616932
463.673 .0604412
464.563 .0592891
465.452 .0582010
466.340 .0571682
467.228 .0562123
468.114 .0553188
468.999 .0545011
469.882 .0537513
470.765 .0530645
471.647 .0524477
472.528 .0518896
473.407 .0513945
474.286 .0509453
475.163 .0505481
476.040 .0502029
476.915 .0499013
477.790 .0496469
478.663 .0494403
479.535 .0492764
480.407 .0491600
481.277 .0490815
482.147 .0490304
483.015 .0490036
483.883 .0489860
484.749 .0489775
485.615 .0489826
486.479 .0489948
487.343 .0490221
488.206 .0490615
489.067 .0491186
489.928 .0491849
490.788 .0492562
491.647 .0493353
492.505 .0494142
493.362 .0494950
494.218 .0495713
495.073 .0496484
495.928 .0497346
496.781 .0498252
497.634 .0499373
498.486 .0500740
499.337 .0502370
500.187 .0504319
501.036 .0506663
501.884 .0509428
502.731 .0512738
503.578 .0516549
504.424 .0520832
505.268 .0525624
506.113 .0530897
506.956 .0536618
507.798 .0542874
508.640 .0549750
509.480 .0557287
510.320 .0565605
511.160 .0574994
511.998 .0585373
512.836 .0596953
513.672 .0609890
514.508 .0624207
515.344 .0639907
516.178 .0657114
517.012 .0675919
517.845 .0696647
518.677 .0719738
519.508 .0745287
520.339 .0773733
521.169 .0805550
521.998 .0840927
522.826 .0880443
523.654 .0924220
524.481 .0972498
525.307 .1025795
526.133 .1084115
526.958 .1146535
527.782 .1212600
528.605 .1280922
529.428 .1350534
530.250 .1416431
531.072 .1475944
531.892 .1525279
532.712 .1561982
533.532 .1584427
534.350 .1590687
535.168 .1580417
535.986 .1554913
536.802 .1515241
537.618 .1464017
538.434 .1403001
539.249 .1336573
540.063 .1266480
540.876 .1195659
541.689 .1125857
542.501 .1058807
543.313 .0996304
544.124 .0939321
544.934 .0887898
545.744 .0841669
546.553 .0800208
547.361 .0763512
548.169 .0731630
548.976 .0703840
549.783 .0679536
550.589 .0658558
551.395 .0639979
552.200 .0623309
553.004 .0608041
553.808 .0593744
554.611 .0580587
555.414 .0568530
556.216 .0557508
557.018 .0547541
557.819 .0538586
558.619 .0530472
559.419 .0523029
560.218 .0516132
561.017 .0509455
561.815 .0502743
562.613 .0495929
563.410 .0488898
564.207 .0481794
565.003 .0474727
565.799 .0467815
566.594 .0461110
567.388 .0454754
568.182 .0448684
568.976 .0442865
569.769 .0437302
570.562 .0431951
571.354 .0426787
572.145 .0421834
572.936 .0417024
573.727 .0412350
574.517 .0407855
575.307 .0403503
576.096 .0399303
576.885 .0395269
577.673 .0391404
578.461 .0387754
579.248 .0384316
580.035 .0381094
580.821 .0378060
581.607 .0375207
582.392 .0372501
583.177 .0369929
583.962 .0367478
584.746 .0365164
585.529 .0362972
586.313 .0360957
587.095 .0359109
587.878 .0357426
588.660 .0355914
589.441 .0354551
590.222 .0353313
591.003 .0352179
591.783 .0351083
592.563 .0350027
593.342 .0349022
594.121 .0348062
594.899 .0347154
595.678 .0346323
596.455 .0345582
597.233 .0344911
598.009 .0344298
598.786 .0343720
599.562 .0343157
600.338 .0342602
601.113 .0342042
601.888 .0341468
602.663 .0340902
603.437 .0340355
604.211 .0339827
604.984 .0339340
605.757 .0338899
606.530 .0338479
607.302 .0338091
608.074 .0337732
608.845 .0337391
609.616 .0337063
610.387 .0336759
611.158 .0336477
611.928 .0336211
612.697 .0335956
613.467 .0335707
614.236 .0335463
615.004 .0335238
615.773 .0335011
616.541 .0334792
617.308 .0334590
618.076 .0334403
618.843 .0334223
619.609 .0334057
620.375 .0333894
621.141 .0333719
621.907 .0333525
622.672 .0333308
623.437 .0333059
624.202 .0332790
624.966 .0332509
625.730 .0332234
626.493 .0331971
627.257 .0331727
628.020 .0331498
628.782 .0331288
629.545 .0331084
630.307 .0330871
631.068 .0330643
631.830 .0330401
632.591 .0330132
633.352 .0329839
634.112 .0329535
634.872 .0329222
635.632 .0328903
636.392 .0328587
637.151 .0328272
637.910 .0327961
638.668 .0327646
639.427 .0327329
640.185 .0327000
640.943 .0326661
641.700 .0326309
642.457 .0325939
643.214 .0325567
643.971 .0325190
644.727 .0324820
645.483 .0324473
646.239 .0324157
646.994 .0323869
647.750 .0323602
648.505 .0323360
649.259 .0323131
650.014 .0322898
650.768 .0322664
651.521 .0322418
652.275 .0322164
653.028 .0321905
653.781 .0321636
654.534 .0321369
655.286 .0321106
656.039 .0320842
656.791 .0320571
657.542 .0320287
658.294 .0319984
659.045 .0319659
659.796 .0319315
660.546 .0318960
661.297 .0318596
662.047 .0318235
662.796 .0317882
663.546 .0317546
664.295 .0317229
665.044 .0316934
665.793 .0316657
666.542 .0316399
667.290 .0316156
668.038 .0315929
668.786 .0315712
669.533 .0315509
670.281 .0315316
671.028 .0315137
671.774 .0314959
672.521 .0314789
673.267 .0314618
674.013 .0314450
674.759 .0314276
675.505 .0314099
676.250 .0313911
676.995 .0313717
677.740 .0313514
678.484 .0313301
679.229 .0313079
679.973 .0312850
680.717 .0312613
681.460 .0312382
682.204 .0312152
682.947 .0311930
683.690 .0311715
684.433 .0311514
685.175 .0311320
685.917 .0311137
686.659 .0310965
687.401 .0310803
688.142 .0310651
688.884 .0310499
689.625 .0310349
690.365 .0310203
691.106 .0310057
691.846 .0309909
692.586 .0309763
693.326 .0309613
694.066 .0309457
694.805 .0309299
695.545 .0309136
696.284 .0308974
697.022 .0308808
697.761 .0308640
698.499 .0308469
699.237 .0308290
699.975 .0308114
700.713 .0307938
701.450 .0307768
702.187 .0307603
702.924 .0307438
703.661 .0307274
704.397 .0307113
705.133 .0306954
705.869 .0306795
706.605 .0306638
707.341 .0306485
708.076 .0306330
708.811 .0306171
709.546 .0306014
710.281 .0305851
711.015 .0305691
711.749 .0305529
712.483 .0305362
713.217 .0305191
713.950 .0305020
714.684 .0304849
715.417 .0304680
716.150 .0304516
716.882 .0304355
717.615 .0304189
718.347 .0304019
719.079 .0303839
719.811 .0303649
720.542 .0303453
721.273 .0303248
722.005 .0303035
722.735 .0302818
723.466 .0302597
724.196 .0302374
724.927 .0302148
725.656 .0301917
726.386 .0301679
727.116 .0301428
727.845 .0301170
728.574 .0300908
729.303 .0300651
730.031 .0300403
730.760 .0300168
731.488 .0299950
732.216 .0299748
732.944 .0299564
733.671 .0299401
734.398 .0299251
735.125 .0299114
735.852 .0298992
736.579 .0298878
737.305 .0298774
738.031 .0298681
738.757 .0298593
739.483 .0298509
740.208 .0298422
740.933 .0298328
741.658 .0298223
742.383 .0298109
743.108 .0297988
743.832 .0297858
744.556 .0297730
745.280 .0297598
746.004 .0297463
746.727 .0297328
747.450 .0297190
748.173 .0297040
748.896 .0296886
749.618 .0296720
750.340 .0296549
751.062 .0296379
751.784 .0296216
752.506 .0296064
753.227 .0295928
753.948 .0295806
754.669 .0295695
755.389 .0295591
756.110 .0295491
756.830 .0295383
757.550 .0295267
758.269 .0295138
758.989 .0294992
759.708 .0294833
760.427 .0294665
761.146 .0294489
761.864 .0294313
762.582 .0294141
763.300 .0293975
764.018 .0293816
764.736 .0293664
765.453 .0293520
766.170 .0293379
766.887 .0293235
767.603 .0293088
768.320 .0292936
769.036 .0292784
769.751 .0292633
770.467 .0292484
771.182 .0292344
771.897 .0292216
772.612 .0292101
773.327 .0291995
774.041 .0291898
774.755 .0291801
775.469 .0291702
776.183 .0291603
776.896 .0291500
777.609 .0291389
778.322 .0291283
779.035 .0291179
779.747 .0291084
780.459 .0291003
781.171 .0290930
781.882 .0290868
782.594 .0290821
783.305 .0290783
784.016 .0290751
784.726 .0290725
785.436 .0290708
786.147 .0290691
786.856 .0290676
787.566 .0290659
788.275 .0290635
788.984 .0290610
789.693 .0290583
790.401 .0290544
791.110 .0290497
791.818 .0290440
792.525 .0290371
793.233 .0290292
793.940 .0290203
794.647 .0290102
795.353 .0289992
796.060 .0289879
796.766 .0289761
797.472 .0289639
798.177 .0289518
798.883 .0289398
799.588 .0289277
800.292 .0289160
800.997 .0289043
801.701 .0288924
802.405 .0288810
803.109 .0288702
803.812 .0288597
804.515 .0288494
805.218 .0288389
805.921 .0288286
806.623 .0288175
807.325 .0288057
808.027 .0287930
808.728 .0287792
809.429 .0287646
810.130 .0287488
810.831 .0287322
811.531 .0287152
812.231 .0286972
812.931 .0286788
813.630 .0286596
814.330 .0286398
815.029 .0286197
815.727 .0285992
816.426 .0285790
817.124 .0285598
817.821 .0285412
818.519 .0285239
819.216 .0285079
819.913 .0284936
820.609 .0284806
821.306 .0284694
822.002 .0284603
822.697 .0284532
823.393 .0284480
824.088 .0284452
824.783 .0284438
825.477 .0284437
826.171 .0284442
826.865 .0284449
827.559 .0284452
828.252 .0284447
828.945 .0284430
829.638 .0284401
830.330 .0284365
831.023 .0284323
831.714 .0284273
832.406 .0284220
833.097 .0284158
833.788 .0284084
834.479 .0283995
835.169 .0283889
835.859 .0283766
836.548 .0283629
837.238 .0283484
837.927 .0283330
838.615 .0283175
839.304 .0283025
839.992 .0282884
840.680 .0282757
841.367 .0282642
842.054 .0282539
842.741 .0282445
843.428 .0282355
844.114 .0282269
844.800 .0282185
845.485 .0282100
846.170 .0282012
846.855 .0281920
847.540 .0281822
848.224 .0281719
848.908 .0281608
849.592 .0281495
850.275 .0281380
850.958 .0281261
851.641 .0281140
852.323 .0281016
853.005 .0280893
853.687 .0280768
854.368 .0280642
855.049 .0280518
855.730 .0280394
856.410 .0280266
857.090 .0280137
857.769 .0280011
858.449 .0279889
859.128 .0279774
859.806 .0279663
860.485 .0279562
861.163 .0279467
861.840 .0279375
862.518 .0279287
863.195 .0279200
863.871 .0279113
864.548 .0279018
865.224 .0278916
865.899 .0278806
866.574 .0278687
867.249 .0278560
867.924 .0278430
868.598 .0278296
869.272 .0278159
869.946 .0278023
870.619 .0277890
871.292 .0277766
871.964 .0277649
872.636 .0277538
873.308 .0277434
873.979 .0277331
874.651 .0277229
875.321 .0277120
875.992 .0277009
876.662 .0276896
877.331 .0276784
878.001 .0276674
878.670 .0276568
879.338 .0276472
880.007 .0276387
880.675 .0276312
881.342 .0276245
882.009 .0276179
882.676 .0276115
883.343 .0276051
884.009 .0275986
884.675 .0275922
885.340 .0275861
886.005 .0275799
886.670 .0275744
887.334 .0275695
887.998 .0275650
888.662 .0275609
889.325 .0275569
889.988 .0275529
890.650 .0275484
891.312 .0275430
891.974 .0275370
892.636 .0275307
893.297 .0275244
893.957 .0275175
894.618 .0275100
895.278 .0275025
895.937 .0274947
896.596 .0274867
897.255 .0274787
897.914 .0274704
898.572 .0274624
899.230 .0274544
899.887 .0274468
900.544 .0274398
901.201 .0274332
901.857 .0274268
902.513 .0274204
903.168 .0274132
903.823 .0274049
904.478 .0273951
905.132 .0273841
905.786 .0273714
906.440 .0273573
907.093 .0273416
907.746 .0273251
908.399 .0273081
909.051 .0272908
909.703 .0272728
910.354 .0272544
911.005 .0272350
911.656 .0272145
912.306 .0271926
912.956 .0271701
913.605 .0271472
914.254 .0271250
914.903 .0271035
915.551 .0270834
916.199 .0270648
916.847 .0270481
917.494 .0270327
918.141 .0270184
918.788 .0270042
919.434 .0269901
920.079 .0269757
920.725 .0269611
921.370 .0269460
922.014 .0269309
922.658 .0269158
923.302 .0269008
923.946 .0268854
924.589 .0268695
925.231 .0268524
925.873 .0268342
926.515 .0268144
927.157 .0267932
927.798 .0267702
928.439 .0267461
929.079 .0267212
929.719 .0266961
930.359 .0266709
930.998 .0266464
931.637 .0266221
932.275 .0265986
932.913 .0265753
933.551 .0265525
934.188 .0265302
934.825 .0265090
935.462 .0264887
936.098 .0264700
936.733 .0264528
937.369 .0264377
938.004 .0264243
938.638 .0264131
939.273 .0264032
939.907 .0263949
940.540 .0263874
941.173 .0263807
941.806 .0263744
942.438 .0263691
943.070 .0263642
943.702 .0263600
944.333 .0263560
944.964 .0263522
945.594 .0263479
946.224 .0263429
946.854 .0263372
947.483 .0263308
948.112 .0263237
948.741 .0263161
949.369 .0263081
949.996 .0263002
950.624 .0262922
951.251 .0262844
951.878 .0262768
952.504 .0262687
953.130 .0262598
953.755 .0262498
954.380 .0262389
955.005 .0262274
955.629 .0262152
956.253 .0262029
956.877 .0261914
957.500 .0261806
958.123 .0261704
958.746 .0261606
959.368 .0261514
959.990 .0261421
960.611 .0261326
961.232 .0261229
961.853 .0261132
962.473 .0261038
963.093 .0260954
963.712 .0260884
964.331 .0260825
964.950 .0260778
965.569 .0260740
966.187 .0260709
966.804 .0260685
967.422 .0260664
968.039 .0260647
968.655 .0260636
969.272 .0260632
969.887 .0260627
970.503 .0260626
971.118 .0260634
971.733 .0260643
972.347 .0260652
972.961 .0260658
973.575 .0260662
974.188 .0260654
974.801 .0260632
975.414 .0260595
976.026 .0260539
976.638 .0260471
977.250 .0260391
977.861 .0260306
978.472 .0260222
979.083 .0260141
979.693 .0260060
980.303 .0259980
980.912 .0259892
981.521 .0259792
982.130 .0259674
982.738 .0259543
983.346 .0259399
983.954 .0259249
984.562 .0259104
985.169 .0258972
985.775 .0258852
986.382 .0258752
986.988 .0258663
987.594 .0258584
988.199 .0258503
988.804 .0258421
989.409 .0258333
990.013 .0258239
990.617 .0258144
991.221 .0258052
991.824 .0257966
992.427 .0257901
993.030 .0257849
993.632 .0257817
994.234 .0257805
994.836 .0257806
995.438 .0257815
996.039 .0257833
996.640 .0257857
997.240 .0257889
997.840 .0257925
998.440 .0257970
999.040 .0258011
999.639 .0258059
1000.238 .0258109
1000.836 .0258162
1001.435 .0258222
1002.033 .0258287
1002.630 .0258358
1003.228 .0258435
1003.825 .0258517
1004.422 .0258598
1005.018 .0258677
1005.614 .0258756
1006.210 .0258826
1006.806 .0258884
1007.401 .0258927
1007.996 .0258956
1008.591 .0258976
1009.186 .0258993
1009.780 .0259003
1010.374 .0259008
1010.967 .0259010
1011.561 .0259009
1012.154 .0258999
1012.746 .0258980
1013.339 .0258958
1013.931 .0258924
1014.523 .0258884
1015.115 .0258836
1015.706 .0258788
1016.298 .0258743
1016.888 .0258712
1017.479 .0258695
1018.069 .0258695
1018.660 .0258717
1019.250 .0258759
1019.839 .0258817
1020.429 .0258892
1021.018 .0258982
1021.607 .0259083
1022.195 .0259191
1022.784 .0259303
1023.372 .0259414
1023.960 .0259528
1024.547 .0259634
1025.135 .0259746
1025.722 .0259855
1026.309 .0259972
1026.896 .0260099
1027.483 .0260235
1028.069 .0260382
1028.655 .0260529
1029.241 .0260677
1029.827 .0260823
1030.412 .0260962
1030.997 .0261093
1031.582 .0261211
1032.167 .0261316
1032.752 .0261410
1033.336 .0261486
1033.921 .0261550
1034.505 .0261610
1035.089 .0261657
1035.672 .0261696
1036.256 .0261726
1036.839 .0261738
1037.422 .0261738
1038.005 .0261725
1038.588 .0261698
1039.171 .0261650
1039.753 .0261580
1040.335 .0261484
1040.918 .0261372
1041.500 .0261249
1042.081 .0261119
1042.663 .0260985
1043.244 .0260867
1043.826 .0260751
1044.407 .0260636
1044.988 .0260533
1045.569 .0260439
1046.150 .0260350
1046.730 .0260271
1047.311 .0260195
1047.891 .0260123
1048.471 .0260058
1049.052 .0260002
1049.632 .0259959
1050.211 .0259933
1050.791 .0259911
1051.371 .0259886
1051.950 .0259859
1052.530 .0259831
1053.109 .0259792
1053.688 .0259754
1054.268 .0259723
1054.847 .0259695
1055.426 .0259667
1056.005 .0259643
1056.583 .0259630
1057.162 .0259621
1057.741 .0259611
1058.319 .0259599
1058.898 .0259580
1059.476 .0259562
1060.055 .0259546
1060.633 .0259536
1061.211 .0259528
1061.790 .0259532
1062.368 .0259536
1062.946 .0259539
1063.524 .0259551
1064.102 .0259559
1064.680 .0259565
1065.258 .0259566
1065.836 .0259556
1066.414 .0259526
1066.992 .0259491
1067.570 .0259444
1068.148 .0259375
1068.726 .0259301
1069.304 .0259210
1069.882 .0259109
1070.460 .0259007
1071.038 .0258914
1071.616 .0258830
1072.194 .0258763
1072.772 .0258718
1073.350 .0258674
1073.928 .0258653
1074.506 .0258637
1075.084 .0258623
1075.662 .0258615
1076.240 .0258609
1076.819 .0258594
1077.397 .0258579
1077.976 .0258585
1078.554 .0258604
1079.133 .0258648
1079.711 .0258713
1080.290 .0258795
1080.869 .0258899
1081.448 .0259008
1082.027 .0259116
1082.606 .0259210
1083.185 .0259307
1083.764 .0259383
1084.343 .0259437
1084.923 .0259479
1085.502 .0259516
1086.082 .0259553
1086.662 .0259600
1087.242 .0259655
1087.822 .0259728
1088.402 .0259821
1088.983 .0259923
1089.563 .0260023
1090.144 .0260111
1090.725 .0260176
1091.306 .0260208
1091.887 .0260205
1092.469 .0260189
1093.050 .0260141
1093.632 .0260093
1094.214 .0260048
1094.796 .0260014
1095.379 .0259986
1095.961 .0259949
1096.544 .0259906
1097.127 .0259848
1097.710 .0259752
1098.294 .0259636
1098.877 .0259511
1099.461 .0259389
1100.046 .0259303
1100.630 .0259259
1101.215 .0259280
1101.800 .0259368
1102.385 .0259509
1102.970 .0259692
1103.556 .0259906
1104.142 .0260152
1104.728 .0260420
1105.315 .0260697
1105.902 .0261023
1106.489 .0261377
1107.077 .0261760
1107.664 .0262177
1108.253 .0262600
1108.841 .0263002
1109.430 .0263398
1110.019 .0263737
1110.609 .0264030
1111.198 .0264273
1111.789 .0264511
1112.379 .0264717
1112.970 .0264918
1113.561 .0265139
1114.153 .0265371
1114.745 .0265608
1115.338 .0265876
1115.931 .0266115
1116.524 .0266373
1117.117 .0266639
1117.712 .0266924
1118.306 .0267229
1118.901 .0267604
1119.496 .0268008
1120.092 .0268478
1120.689 .0269025
1121.285 .0269638
1121.882 .0270267
1122.480 .0270947
1123.078 .0271668
1123.677 .0272398
1124.276 .0273152
1124.875 .0273927
1125.476 .0274704
1126.076 .0275511
1126.677 .0276279
1127.279 .0277009
1127.881 .0277723
1128.484 .0278425
1129.087 .0279105
1129.691 .0279802
1130.295 .0280528
1130.900 .0281257
1131.505 .0282010
1132.111 .0282791
1132.718 .0283565
1133.325 .0284324
1133.933 .0285048
1134.541 .0285713
1135.150 .0286373
1135.760 .0287031
1136.370 .0287706
1136.981 .0288464
1137.592 .0289307
1138.204 .0290201
1138.817 .0291118
1139.431 .0292109
1140.045 .0293109
1140.660 .0294150
1141.275 .0295344
1141.891 .0296532
1142.508 .0297462
1143.126 .0297945
1143.744 .0300040
1144.363 .0304762
1144.983 .0303439
