Measurement Sequence started on: 15-12-46-377
Integration time: 28
Scans to Average: 2 
>>>>>Begin Spectral Data<<<<<
432.689 .0000100
433.621 .0000100
434.552 .0000100
435.482 .0000100
436.410 .0000100
437.337 .0000100
438.262 .0267624
439.187 .0568005
440.110 .0940611
441.031 .1360693
441.952 .1768601
442.871 .2089449
443.789 .2264634
444.705 .2274667
445.621 .2143912
446.535 .1925984
447.447 .1679476
448.359 .1302924
449.269 .1115441
450.178 .0997369
451.086 .0913694
451.993 .0849452
452.898 .0798655
453.803 .0757583
454.706 .0723524
455.608 .0695132
456.508 .0671209
457.408 .0650814
458.306 .0633112
459.204 .0617517
460.100 .0603512
460.995 .0590827
461.888 .0579108
462.781 .0568273
463.673 .0558043
464.563 .0548612
465.452 .0539616
466.340 .0531029
467.228 .0522889
468.114 .0515147
468.999 .0507756
469.882 .0500818
470.765 .0494240
471.647 .0488092
472.528 .0482447
473.407 .0477438
474.286 .0473006
475.163 .0469173
476.040 .0465919
476.915 .0463226
477.790 .0461002
478.663 .0459301
479.535 .0457912
480.407 .0456918
481.277 .0456268
482.147 .0455894
483.015 .0455729
483.883 .0455788
484.749 .0456021
485.615 .0456395
486.479 .0456918
487.343 .0457550
488.206 .0458185
489.067 .0458949
489.928 .0459722
490.788 .0460558
491.647 .0461419
492.505 .0462320
493.362 .0463211
494.218 .0464190
495.073 .0465270
495.928 .0466544
496.781 .0468092
497.634 .0470043
498.486 .0472367
499.337 .0475113
500.187 .0478192
501.036 .0481562
501.884 .0485135
502.731 .0488930
503.578 .0492837
504.424 .0496951
505.268 .0501186
506.113 .0505748
506.956 .0510691
507.798 .0516127
508.640 .0522089
509.480 .0528683
510.320 .0535943
511.160 .0543871
511.998 .0552514
512.836 .0561924
513.672 .0572233
514.508 .0583745
515.344 .0596268
516.178 .0610379
517.012 .0626463
517.845 .0644780
518.677 .0665737
519.508 .0689868
520.339 .0717745
521.169 .0749565
521.998 .0785539
522.826 .0826302
523.654 .0871936
524.481 .0922484
525.307 .0978695
526.133 .1039790
526.958 .1106127
527.782 .1176526
528.605 .1249365
529.428 .1323989
530.250 .1395163
531.072 .1460180
531.892 .1514915
532.712 .1556878
533.532 .1583497
534.350 .1591653
535.168 .1581749
535.986 .1554399
536.802 .1511665
537.618 .1456376
538.434 .1390654
539.249 .1319940
540.063 .1246634
540.876 .1173429
541.689 .1102341
542.501 .1035794
543.313 .0975178
544.124 .0920574
544.934 .0871279
545.744 .0827059
546.553 .0787329
547.361 .0751788
548.169 .0720176
548.976 .0691422
549.783 .0665617
550.589 .0642370
551.395 .0621279
552.200 .0602439
553.004 .0585491
553.808 .0570404
554.611 .0557046
555.414 .0545178
556.216 .0534490
557.018 .0524804
557.819 .0516140
558.619 .0508157
559.419 .0500694
560.218 .0493537
561.017 .0486569
561.815 .0479836
562.613 .0473216
563.410 .0466649
564.207 .0460220
565.003 .0453963
565.799 .0447773
566.594 .0441614
567.388 .0435630
568.182 .0429777
568.976 .0424080
569.769 .0418531
570.562 .0413126
571.354 .0407798
572.145 .0402655
572.936 .0397634
573.727 .0392760
574.517 .0388070
575.307 .0383516
576.096 .0379218
576.885 .0375187
577.673 .0371384
578.461 .0367829
579.248 .0364530
580.035 .0361495
580.821 .0358603
581.607 .0355870
582.392 .0353289
583.177 .0350872
583.962 .0348636
584.746 .0346576
585.529 .0344713
586.313 .0343076
587.095 .0341635
587.878 .0340372
588.660 .0339253
589.441 .0338246
590.222 .0337309
591.003 .0336464
591.783 .0335658
592.563 .0334897
593.342 .0334185
594.121 .0333527
594.899 .0332917
595.678 .0332346
596.455 .0331806
597.233 .0331281
598.009 .0330768
598.786 .0330259
599.562 .0329729
600.338 .0329197
601.113 .0328648
601.888 .0328098
602.663 .0327559
603.437 .0327044
604.211 .0326538
604.984 .0326067
605.757 .0325623
606.530 .0325197
607.302 .0324796
608.074 .0324416
608.845 .0324047
609.616 .0323701
610.387 .0323371
611.158 .0323063
611.928 .0322768
612.697 .0322504
613.467 .0322254
614.236 .0322027
615.004 .0321817
615.773 .0321617
616.541 .0321420
617.308 .0321242
618.076 .0321066
618.843 .0320892
619.609 .0320720
620.375 .0320544
621.141 .0320357
621.907 .0320165
622.672 .0319956
623.437 .0319733
624.202 .0319490
624.966 .0319237
625.730 .0318964
626.493 .0318672
627.257 .0318366
628.020 .0318040
628.782 .0317696
629.545 .0317332
630.307 .0316948
631.068 .0316559
631.830 .0316171
632.591 .0315789
633.352 .0315419
634.112 .0315063
634.872 .0314723
635.632 .0314395
636.392 .0314071
637.151 .0313751
637.910 .0313433
638.668 .0313112
639.427 .0312794
640.185 .0312481
640.943 .0312181
641.700 .0311894
642.457 .0311625
643.214 .0311371
643.971 .0311118
644.727 .0310871
645.483 .0310623
646.239 .0310367
646.994 .0310113
647.750 .0309860
648.505 .0309612
649.259 .0309384
650.014 .0309174
650.768 .0308979
651.521 .0308809
652.275 .0308664
653.028 .0308536
653.781 .0308411
654.534 .0308291
655.286 .0308162
656.039 .0308018
656.791 .0307862
657.542 .0307680
658.294 .0307483
659.045 .0307282
659.796 .0307063
660.546 .0306839
661.297 .0306615
662.047 .0306390
662.796 .0306163
663.546 .0305935
664.295 .0305704
665.044 .0305460
665.793 .0305216
666.542 .0304974
667.290 .0304734
668.038 .0304504
668.786 .0304279
669.533 .0304060
670.281 .0303857
671.028 .0303661
671.774 .0303466
672.521 .0303278
673.267 .0303090
674.013 .0302897
674.759 .0302701
675.505 .0302505
676.250 .0302306
676.995 .0302105
677.740 .0301906
678.484 .0301695
679.229 .0301481
679.973 .0301265
680.717 .0301041
681.460 .0300821
682.204 .0300605
682.947 .0300389
683.690 .0300179
684.433 .0299977
685.175 .0299784
685.917 .0299595
686.659 .0299416
687.401 .0299241
688.142 .0299069
688.884 .0298900
689.625 .0298737
690.365 .0298570
691.106 .0298408
691.846 .0298248
692.586 .0298089
693.326 .0297930
694.066 .0297770
694.805 .0297609
695.545 .0297443
696.284 .0297267
697.022 .0297082
697.761 .0296878
698.499 .0296670
699.237 .0296453
699.975 .0296227
700.713 .0296002
701.450 .0295777
702.187 .0295555
702.924 .0295342
703.661 .0295135
704.397 .0294936
705.133 .0294741
705.869 .0294553
706.605 .0294368
707.341 .0294185
708.076 .0294006
708.811 .0293831
709.546 .0293661
710.281 .0293497
711.015 .0293332
711.749 .0293170
712.483 .0293012
713.217 .0292853
713.950 .0292693
714.684 .0292530
715.417 .0292365
716.150 .0292204
716.882 .0292040
717.615 .0291878
718.347 .0291716
719.079 .0291555
719.811 .0291392
720.542 .0291225
721.273 .0291058
722.005 .0290888
722.735 .0290720
723.466 .0290553
724.196 .0290385
724.927 .0290217
725.656 .0290046
726.386 .0289871
727.116 .0289691
727.845 .0289504
728.574 .0289309
729.303 .0289110
730.031 .0288915
730.760 .0288725
731.488 .0288545
732.216 .0288380
732.944 .0288232
733.671 .0288097
734.398 .0287970
735.125 .0287851
735.852 .0287740
736.579 .0287630
737.305 .0287522
738.031 .0287415
738.757 .0287315
739.483 .0287222
740.208 .0287137
740.933 .0287057
741.658 .0286982
742.383 .0286904
743.108 .0286821
743.832 .0286731
744.556 .0286635
745.280 .0286529
746.004 .0286417
746.727 .0286300
747.450 .0286182
748.173 .0286059
748.896 .0285941
749.618 .0285821
750.340 .0285704
751.062 .0285582
751.784 .0285455
752.506 .0285320
753.227 .0285181
753.948 .0285036
754.669 .0284891
755.389 .0284747
756.110 .0284610
756.830 .0284473
757.550 .0284343
758.269 .0284217
758.989 .0284092
759.708 .0283965
760.427 .0283836
761.146 .0283701
761.864 .0283566
762.582 .0283429
763.300 .0283296
764.018 .0283170
764.736 .0283054
765.453 .0282950
766.170 .0282854
766.887 .0282763
767.603 .0282672
768.320 .0282573
769.036 .0282465
769.751 .0282346
770.467 .0282213
771.182 .0282071
771.897 .0281921
772.612 .0281767
773.327 .0281614
774.041 .0281465
774.755 .0281322
775.469 .0281184
776.183 .0281052
776.896 .0280918
777.609 .0280780
778.322 .0280638
779.035 .0280493
779.747 .0280344
780.459 .0280199
781.171 .0280061
781.882 .0279933
782.594 .0279825
783.305 .0279736
784.016 .0279661
784.726 .0279601
785.436 .0279551
786.147 .0279504
786.856 .0279452
787.566 .0279401
788.275 .0279346
788.984 .0279293
789.693 .0279245
790.401 .0279201
791.110 .0279161
791.818 .0279127
792.525 .0279093
793.233 .0279055
793.940 .0279016
794.647 .0278970
795.353 .0278919
796.060 .0278862
796.766 .0278799
797.472 .0278725
798.177 .0278642
798.883 .0278553
799.588 .0278451
800.292 .0278341
800.997 .0278225
801.701 .0278101
802.405 .0277977
803.109 .0277853
803.812 .0277733
804.515 .0277612
805.218 .0277488
805.921 .0277358
806.623 .0277220
807.325 .0277071
808.027 .0276918
808.728 .0276762
809.429 .0276611
810.130 .0276467
810.831 .0276334
811.531 .0276210
812.231 .0276096
812.931 .0275985
813.630 .0275871
814.330 .0275751
815.029 .0275625
815.727 .0275491
816.426 .0275358
817.124 .0275229
817.821 .0275106
818.519 .0274993
819.216 .0274894
819.913 .0274807
820.609 .0274730
821.306 .0274662
822.002 .0274600
822.697 .0274541
823.393 .0274488
824.088 .0274439
824.783 .0274394
825.477 .0274353
826.171 .0274312
826.865 .0274271
827.559 .0274233
828.252 .0274195
828.945 .0274155
829.638 .0274122
830.330 .0274097
831.023 .0274073
831.714 .0274054
832.406 .0274036
833.097 .0274015
833.788 .0273990
834.479 .0273956
835.169 .0273915
835.859 .0273875
836.548 .0273835
837.238 .0273799
837.927 .0273769
838.615 .0273748
839.304 .0273731
839.992 .0273715
840.680 .0273695
841.367 .0273660
842.054 .0273612
842.741 .0273553
843.428 .0273483
844.114 .0273410
844.800 .0273335
845.485 .0273261
846.170 .0273189
846.855 .0273110
847.540 .0273019
848.224 .0272917
848.908 .0272801
849.592 .0272668
850.275 .0272522
850.958 .0272367
851.641 .0272210
852.323 .0272055
853.005 .0271905
853.687 .0271755
854.368 .0271607
855.049 .0271456
855.730 .0271298
856.410 .0271132
857.090 .0270962
857.769 .0270789
858.449 .0270619
859.128 .0270446
859.806 .0270273
860.485 .0270101
861.163 .0269929
861.840 .0269754
862.518 .0269573
863.195 .0269383
863.871 .0269188
864.548 .0268987
865.224 .0268787
865.899 .0268586
866.574 .0268387
867.249 .0268191
867.924 .0267998
868.598 .0267805
869.272 .0267611
869.946 .0267420
870.619 .0267234
871.292 .0267054
871.964 .0266880
872.636 .0266713
873.308 .0266555
873.979 .0266404
874.651 .0266259
875.321 .0266118
875.992 .0265981
876.662 .0265851
877.331 .0265724
878.001 .0265602
878.670 .0265485
879.338 .0265369
880.007 .0265251
880.675 .0265134
881.342 .0265016
882.009 .0264899
882.676 .0264787
883.343 .0264683
884.009 .0264589
884.675 .0264509
885.340 .0264444
886.005 .0264389
886.670 .0264345
887.334 .0264311
887.998 .0264278
888.662 .0264250
889.325 .0264229
889.988 .0264213
890.650 .0264208
891.312 .0264211
891.974 .0264222
892.636 .0264237
893.297 .0264255
893.957 .0264272
894.618 .0264280
895.278 .0264283
895.937 .0264275
896.596 .0264258
897.255 .0264242
897.914 .0264223
898.572 .0264203
899.230 .0264185
899.887 .0264168
900.544 .0264144
901.201 .0264116
901.857 .0264084
902.513 .0264044
903.168 .0263998
903.823 .0263945
904.478 .0263883
905.132 .0263812
905.786 .0263734
906.440 .0263644
907.093 .0263543
907.746 .0263431
908.399 .0263301
909.051 .0263155
909.703 .0262998
910.354 .0262823
911.005 .0262639
911.656 .0262446
912.306 .0262249
912.956 .0262049
913.605 .0261856
914.254 .0261672
914.903 .0261500
915.551 .0261342
916.199 .0261201
916.847 .0261075
917.494 .0260967
918.141 .0260872
918.788 .0260792
919.434 .0260726
920.079 .0260672
920.725 .0260623
921.370 .0260583
922.014 .0260543
922.658 .0260504
923.302 .0260457
923.946 .0260399
924.589 .0260325
925.231 .0260231
925.873 .0260121
926.515 .0259991
927.157 .0259850
927.798 .0259699
928.439 .0259539
929.079 .0259381
929.719 .0259218
930.359 .0259057
930.998 .0258896
931.637 .0258737
932.275 .0258579
932.913 .0258423
933.551 .0258271
934.188 .0258121
934.825 .0257982
935.462 .0257851
936.098 .0257734
936.733 .0257633
937.369 .0257547
938.004 .0257474
938.638 .0257416
939.273 .0257368
939.907 .0257325
940.540 .0257290
941.173 .0257256
941.806 .0257225
942.438 .0257203
943.070 .0257191
943.702 .0257192
944.333 .0257199
944.964 .0257216
945.594 .0257234
946.224 .0257249
946.854 .0257259
947.483 .0257259
948.112 .0257254
948.741 .0257242
949.369 .0257224
949.996 .0257205
950.624 .0257185
951.251 .0257168
951.878 .0257149
952.504 .0257126
953.130 .0257091
953.755 .0257043
954.380 .0256981
955.005 .0256913
955.629 .0256840
956.253 .0256766
956.877 .0256704
957.500 .0256653
958.123 .0256615
958.746 .0256585
959.368 .0256556
959.990 .0256525
960.611 .0256483
961.232 .0256422
961.853 .0256340
962.473 .0256244
963.093 .0256139
963.712 .0256029
964.331 .0255916
964.950 .0255805
965.569 .0255696
966.187 .0255594
966.804 .0255495
967.422 .0255397
968.039 .0255302
968.655 .0255204
969.272 .0255108
969.887 .0255011
970.503 .0254916
971.118 .0254829
971.733 .0254753
972.347 .0254683
972.961 .0254622
973.575 .0254567
974.188 .0254510
974.801 .0254451
975.414 .0254381
976.026 .0254296
976.638 .0254197
977.250 .0254081
977.861 .0253953
978.472 .0253813
979.083 .0253666
979.693 .0253506
980.303 .0253335
980.912 .0253154
981.521 .0252959
982.130 .0252754
982.738 .0252543
983.346 .0252327
983.954 .0252114
984.562 .0251907
985.169 .0251705
985.775 .0251514
986.382 .0251336
986.988 .0251163
987.594 .0250999
988.199 .0250837
988.804 .0250679
989.409 .0250525
990.013 .0250371
990.617 .0250222
991.221 .0250075
991.824 .0249934
992.427 .0249801
993.030 .0249680
993.632 .0249575
994.234 .0249481
994.836 .0249405
995.438 .0249342
996.039 .0249285
996.640 .0249231
997.240 .0249173
997.840 .0249114
998.440 .0249051
999.040 .0248980
999.639 .0248905
1000.238 .0248829
1000.836 .0248752
1001.435 .0248672
1002.033 .0248585
1002.630 .0248488
1003.228 .0248380
1003.825 .0248255
1004.422 .0248117
1005.018 .0247971
1005.614 .0247826
1006.210 .0247687
1006.806 .0247555
1007.401 .0247437
1007.996 .0247331
1008.591 .0247239
1009.186 .0247161
1009.780 .0247090
1010.374 .0247027
1010.967 .0246967
1011.561 .0246906
1012.154 .0246842
1012.746 .0246773
1013.339 .0246702
1013.931 .0246630
1014.523 .0246557
1015.115 .0246483
1015.706 .0246405
1016.298 .0246328
1016.888 .0246254
1017.479 .0246180
1018.069 .0246104
1018.660 .0246024
1019.250 .0245943
1019.839 .0245865
1020.429 .0245792
1021.018 .0245735
1021.607 .0245694
1022.195 .0245675
1022.784 .0245675
1023.372 .0245697
1023.960 .0245738
1024.547 .0245793
1025.135 .0245855
1025.722 .0245917
1026.309 .0245975
1026.896 .0246033
1027.483 .0246084
1028.069 .0246130
1028.655 .0246179
1029.241 .0246230
1029.827 .0246283
1030.412 .0246341
1030.997 .0246409
1031.582 .0246485
1032.167 .0246577
1032.752 .0246681
1033.336 .0246792
1033.921 .0246915
1034.505 .0247046
1035.089 .0247173
1035.672 .0247302
1036.256 .0247426
1036.839 .0247542
1037.422 .0247647
1038.005 .0247752
1038.588 .0247846
1039.171 .0247934
1039.753 .0248018
1040.335 .0248098
1040.918 .0248168
1041.500 .0248231
1042.081 .0248283
1042.663 .0248328
1043.244 .0248368
1043.826 .0248397
1044.407 .0248406
1044.988 .0248409
1045.569 .0248404
1046.150 .0248395
1046.730 .0248383
1047.311 .0248385
1047.891 .0248402
1048.471 .0248440
1049.052 .0248497
1049.632 .0248572
1050.211 .0248660
1050.791 .0248753
1051.371 .0248844
1051.950 .0248935
1052.530 .0249024
1053.109 .0249109
1053.688 .0249197
1054.268 .0249300
1054.847 .0249415
1055.426 .0249542
1056.005 .0249672
1056.583 .0249808
1057.162 .0249942
1057.741 .0250061
1058.319 .0250163
1058.898 .0250252
1059.476 .0250335
1060.055 .0250414
1060.633 .0250489
1061.211 .0250580
1061.790 .0250679
1062.368 .0250787
1062.946 .0250897
1063.524 .0251003
1064.102 .0251104
1064.680 .0251191
1065.258 .0251271
1065.836 .0251343
1066.414 .0251404
1066.992 .0251467
1067.570 .0251538
1068.148 .0251612
1068.726 .0251688
1069.304 .0251758
1069.882 .0251826
1070.460 .0251888
1071.038 .0251946
1071.616 .0251999
1072.194 .0252064
1072.772 .0252144
1073.350 .0252235
1073.928 .0252341
1074.506 .0252472
1075.084 .0252612
1075.662 .0252756
1076.240 .0252913
1076.819 .0253069
1077.397 .0253215
1077.976 .0253357
1078.554 .0253498
1079.133 .0253641
1079.711 .0253789
1080.290 .0253932
1080.869 .0254073
1081.448 .0254204
1082.027 .0254339
1082.606 .0254460
1083.185 .0254589
1083.764 .0254723
1084.343 .0254874
1084.923 .0255029
1085.502 .0255205
1086.082 .0255380
1086.662 .0255561
1087.242 .0255730
1087.822 .0255902
1088.402 .0256052
1088.983 .0256199
1089.563 .0256331
1090.144 .0256462
1090.725 .0256577
1091.306 .0256694
1091.887 .0256774
1092.469 .0256848
1093.050 .0256904
1093.632 .0256953
1094.214 .0256968
1094.796 .0256978
1095.379 .0256991
1095.961 .0257020
1096.544 .0257056
1097.127 .0257125
1097.710 .0257223
1098.294 .0257387
1098.877 .0257586
1099.461 .0257839
1100.046 .0258129
1100.630 .0258462
1101.215 .0258816
1101.800 .0259190
1102.385 .0259555
1102.970 .0259916
1103.556 .0260255
1104.142 .0260589
1104.728 .0260920
1105.315 .0261234
1105.902 .0261517
1106.489 .0261792
1107.077 .0262037
1107.664 .0262256
1108.253 .0262412
1108.841 .0262545
1109.430 .0262646
1110.019 .0262729
1110.609 .0262801
1111.198 .0262865
1111.789 .0262957
1112.379 .0263090
1112.970 .0263257
1113.561 .0263462
1114.153 .0263706
1114.745 .0263978
1115.338 .0264267
1115.931 .0264574
1116.524 .0264887
1117.117 .0265203
1117.712 .0265513
1118.306 .0265823
1118.901 .0266135
1119.496 .0266400
1120.092 .0266674
1120.689 .0266941
1121.285 .0267241
1121.882 .0267540
1122.480 .0267886
1123.078 .0268299
1123.677 .0268792
1124.276 .0269347
1124.875 .0269996
1125.476 .0270704
1126.076 .0271507
1126.677 .0272343
1127.279 .0273233
1127.881 .0274155
1128.484 .0275117
1129.087 .0276057
1129.691 .0277069
1130.295 .0278102
1130.900 .0279216
1131.505 .0280342
1132.111 .0281526
1132.718 .0282720
1133.325 .0283901
1133.933 .0285032
1134.541 .0286142
1135.150 .0287180
1135.760 .0288161
1136.370 .0289042
1136.981 .0289957
1137.592 .0290861
1138.204 .0291847
1138.817 .0292895
1139.431 .0293999
1140.045 .0295110
1140.660 .0296169
1141.275 .0297076
1141.891 .0298117
1142.508 .0299726
1143.126 .0299713
1143.744 .0299163
1144.363 .0298533
1144.983 .0306376
