Measurement Sequence started on: 15-12-46-377
Integration time: 28
Scans to Average: 2 
>>>>>Begin Spectral Data<<<<<
432.689 .0000100
433.621 .0000100
434.552 .0000100
435.482 .0000100
436.410 .0000100
437.337 .0000100
438.262 .0276182
439.187 .0583718
440.110 .0966724
441.031 .1398865
441.952 .1818531
442.871 .2148844
443.789 .2330174
444.705 .2341706
445.621 .2208768
446.535 .1986288
447.447 .1734051
448.359 .1347209
449.269 .1156363
450.178 .1034841
451.086 .0948572
451.993 .0882399
452.898 .0829844
453.803 .0786508
454.706 .0750454
455.608 .0719392
456.508 .0692396
457.408 .0669040
458.306 .0648503
459.204 .0630332
460.100 .0614201
460.995 .0599918
461.888 .0587081
462.781 .0575448
463.673 .0564777
464.563 .0554978
465.452 .0545952
466.340 .0537532
467.228 .0529731
468.114 .0522563
468.999 .0515952
469.882 .0509803
470.765 .0504186
471.647 .0499059
472.528 .0494356
473.407 .0490063
474.286 .0486236
475.163 .0482841
476.040 .0479852
476.915 .0477261
477.790 .0475028
478.663 .0473182
479.535 .0471574
480.407 .0470218
481.277 .0469041
482.147 .0468050
483.015 .0467204
483.883 .0466547
484.749 .0466040
485.615 .0465663
486.479 .0465383
487.343 .0465232
488.206 .0465133
489.067 .0465032
489.928 .0464916
490.788 .0464872
491.647 .0464839
492.505 .0464879
493.362 .0465009
494.218 .0465337
495.073 .0465918
495.928 .0466847
496.781 .0468040
497.634 .0469587
498.486 .0471472
499.337 .0473750
500.187 .0476344
501.036 .0479253
501.884 .0482445
502.731 .0485996
503.578 .0489848
504.424 .0493997
505.268 .0498394
506.113 .0503202
506.956 .0508438
507.798 .0514162
508.640 .0520399
509.480 .0527172
510.320 .0534611
511.160 .0542831
511.998 .0551726
512.836 .0561450
513.672 .0571973
514.508 .0583505
515.344 .0596226
516.178 .0610270
517.012 .0625894
517.845 .0643633
518.677 .0663815
519.508 .0686475
520.339 .0712048
521.169 .0740946
521.998 .0773173
522.826 .0809253
523.654 .0849573
524.481 .0894237
525.307 .0944075
526.133 .0999553
526.958 .1060337
527.782 .1126066
528.605 .1194525
529.428 .1264836
530.250 .1332167
531.072 .1393972
531.892 .1446434
532.712 .1487065
533.532 .1514052
534.350 .1525479
535.168 .1520451
535.986 .1499996
536.802 .1465329
537.618 .1418841
538.434 .1361700
539.249 .1298674
540.063 .1231702
540.876 .1163759
541.689 .1096958
542.501 .1033759
543.313 .0975273
544.124 .0922298
544.934 .0874176
545.744 .0830618
546.553 .0791350
547.361 .0756183
548.169 .0724589
548.976 .0696192
549.783 .0670798
550.589 .0648089
551.395 .0627294
552.200 .0608652
553.004 .0591628
553.808 .0576089
554.611 .0561975
555.414 .0549200
556.216 .0537416
557.018 .0526948
557.819 .0517517
558.619 .0508898
559.419 .0500935
560.218 .0493633
561.017 .0486635
561.815 .0479946
562.613 .0473494
563.410 .0467159
564.207 .0460977
565.003 .0455122
565.799 .0449447
566.594 .0443960
567.388 .0438694
568.182 .0433545
568.976 .0428397
569.769 .0423370
570.562 .0418293
571.354 .0413211
572.145 .0408171
572.936 .0403148
573.727 .0398152
574.517 .0393285
575.307 .0388595
576.096 .0384023
576.885 .0379622
577.673 .0375434
578.461 .0371419
579.248 .0367651
580.035 .0364083
580.821 .0360719
581.607 .0357600
582.392 .0354715
583.177 .0352057
583.962 .0349632
584.746 .0347472
585.529 .0345509
586.313 .0343738
587.095 .0342104
587.878 .0340584
588.660 .0339184
589.441 .0337899
590.222 .0336711
591.003 .0335633
591.783 .0334649
592.563 .0333754
593.342 .0332948
594.121 .0332220
594.899 .0331563
595.678 .0330960
596.455 .0330401
597.233 .0329867
598.009 .0329332
598.786 .0328804
599.562 .0328267
600.338 .0327729
601.113 .0327191
601.888 .0326646
602.663 .0326107
603.437 .0325568
604.211 .0325030
604.984 .0324508
605.757 .0324005
606.530 .0323523
607.302 .0323063
608.074 .0322618
608.845 .0322201
609.616 .0321803
610.387 .0321441
611.158 .0321109
611.928 .0320817
612.697 .0320568
613.467 .0320355
614.236 .0320171
615.004 .0320011
615.773 .0319859
616.541 .0319720
617.308 .0319577
618.076 .0319437
618.843 .0319283
619.609 .0319125
620.375 .0318961
621.141 .0318792
621.907 .0318612
622.672 .0318426
623.437 .0318223
624.202 .0318010
624.966 .0317789
625.730 .0317554
626.493 .0317312
627.257 .0317074
628.020 .0316842
628.782 .0316610
629.545 .0316375
630.307 .0316142
631.068 .0315901
631.830 .0315661
632.591 .0315409
633.352 .0315143
634.112 .0314873
634.872 .0314599
635.632 .0314314
636.392 .0314022
637.151 .0313722
637.910 .0313410
638.668 .0313094
639.427 .0312775
640.185 .0312450
640.943 .0312136
641.700 .0311840
642.457 .0311565
643.214 .0311307
643.971 .0311069
644.727 .0310846
645.483 .0310645
646.239 .0310462
646.994 .0310285
647.750 .0310115
648.505 .0309958
649.259 .0309809
650.014 .0309668
650.768 .0309530
651.521 .0309390
652.275 .0309245
653.028 .0309091
653.781 .0308913
654.534 .0308712
655.286 .0308494
656.039 .0308259
656.791 .0308007
657.542 .0307743
658.294 .0307471
659.045 .0307199
659.796 .0306935
660.546 .0306671
661.297 .0306404
662.047 .0306131
662.796 .0305844
663.546 .0305541
664.295 .0305227
665.044 .0304906
665.793 .0304587
666.542 .0304280
667.290 .0303995
668.038 .0303729
668.786 .0303488
669.533 .0303259
670.281 .0303042
671.028 .0302825
671.774 .0302596
672.521 .0302355
673.267 .0302105
674.013 .0301860
674.759 .0301625
675.505 .0301408
676.250 .0301221
676.995 .0301058
677.740 .0300916
678.484 .0300783
679.229 .0300649
679.973 .0300504
680.717 .0300346
681.460 .0300173
682.204 .0299989
682.947 .0299803
683.690 .0299621
684.433 .0299450
685.175 .0299292
685.917 .0299146
686.659 .0298998
687.401 .0298849
688.142 .0298698
688.884 .0298537
689.625 .0298371
690.365 .0298200
691.106 .0298031
691.846 .0297861
692.586 .0297688
693.326 .0297512
694.066 .0297332
694.805 .0297150
695.545 .0296959
696.284 .0296757
697.022 .0296552
697.761 .0296345
698.499 .0296136
699.237 .0295928
699.975 .0295722
700.713 .0295516
701.450 .0295309
702.187 .0295098
702.924 .0294889
703.661 .0294683
704.397 .0294489
705.133 .0294312
705.869 .0294154
706.605 .0294010
707.341 .0293881
708.076 .0293757
708.811 .0293640
709.546 .0293517
710.281 .0293384
711.015 .0293237
711.749 .0293081
712.483 .0292913
713.217 .0292736
713.950 .0292556
714.684 .0292371
715.417 .0292177
716.150 .0291974
716.882 .0291756
717.615 .0291527
718.347 .0291286
719.079 .0291039
719.811 .0290785
720.542 .0290539
721.273 .0290295
722.005 .0290062
722.735 .0289844
723.466 .0289642
724.196 .0289448
724.927 .0289262
725.656 .0289078
726.386 .0288897
727.116 .0288713
727.845 .0288536
728.574 .0288361
729.303 .0288201
730.031 .0288053
730.760 .0287922
731.488 .0287801
732.216 .0287696
732.944 .0287593
733.671 .0287492
734.398 .0287385
735.125 .0287266
735.852 .0287139
736.579 .0287011
737.305 .0286882
738.031 .0286764
738.757 .0286654
739.483 .0286558
740.208 .0286466
740.933 .0286378
741.658 .0286284
742.383 .0286182
743.108 .0286071
743.832 .0285948
744.556 .0285811
745.280 .0285672
746.004 .0285527
746.727 .0285383
747.450 .0285241
748.173 .0285099
748.896 .0284955
749.618 .0284812
750.340 .0284665
751.062 .0284516
751.784 .0284362
752.506 .0284207
753.227 .0284050
753.948 .0283889
754.669 .0283729
755.389 .0283561
756.110 .0283398
756.830 .0283234
757.550 .0283071
758.269 .0282909
758.989 .0282747
759.708 .0282592
760.427 .0282433
761.146 .0282273
761.864 .0282117
762.582 .0281955
763.300 .0281793
764.018 .0281631
764.736 .0281467
765.453 .0281304
766.170 .0281147
766.887 .0280996
767.603 .0280850
768.320 .0280711
769.036 .0280580
769.751 .0280458
770.467 .0280345
771.182 .0280238
771.897 .0280128
772.612 .0280026
773.327 .0279922
774.041 .0279812
774.755 .0279700
775.469 .0279588
776.183 .0279478
776.896 .0279372
777.609 .0279271
778.322 .0279176
779.035 .0279081
779.747 .0278989
780.459 .0278892
781.171 .0278790
781.882 .0278682
782.594 .0278569
783.305 .0278454
784.016 .0278345
784.726 .0278239
785.436 .0278143
786.147 .0278059
786.856 .0277982
787.566 .0277910
788.275 .0277842
788.984 .0277773
789.693 .0277701
790.401 .0277628
791.110 .0277555
791.818 .0277478
792.525 .0277400
793.233 .0277318
793.940 .0277228
794.647 .0277132
795.353 .0277030
796.060 .0276924
796.766 .0276816
797.472 .0276708
798.177 .0276599
798.883 .0276495
799.588 .0276392
800.292 .0276291
800.997 .0276186
801.701 .0276081
802.405 .0275970
803.109 .0275854
803.812 .0275738
804.515 .0275627
805.218 .0275521
805.921 .0275425
806.623 .0275334
807.325 .0275252
808.027 .0275171
808.728 .0275089
809.429 .0274997
810.130 .0274896
810.831 .0274784
811.531 .0274658
812.231 .0274520
812.931 .0274377
813.630 .0274227
814.330 .0274077
815.029 .0273925
815.727 .0273775
816.426 .0273624
817.124 .0273477
817.821 .0273330
818.519 .0273186
819.216 .0273048
819.913 .0272916
820.609 .0272789
821.306 .0272672
822.002 .0272563
822.697 .0272464
823.393 .0272373
824.088 .0272291
824.783 .0272215
825.477 .0272152
826.171 .0272096
826.865 .0272051
827.559 .0272017
828.252 .0271994
828.945 .0271978
829.638 .0271967
830.330 .0271964
831.023 .0271965
831.714 .0271966
832.406 .0271970
833.097 .0271968
833.788 .0271965
834.479 .0271956
835.169 .0271947
835.859 .0271940
836.548 .0271934
837.238 .0271929
837.927 .0271922
838.615 .0271913
839.304 .0271899
839.992 .0271876
840.680 .0271846
841.367 .0271805
842.054 .0271754
842.741 .0271695
843.428 .0271632
844.114 .0271568
844.800 .0271510
845.485 .0271451
846.170 .0271392
846.855 .0271328
847.540 .0271257
848.224 .0271178
848.908 .0271089
849.592 .0270995
850.275 .0270895
850.958 .0270788
851.641 .0270678
852.323 .0270562
853.005 .0270444
853.687 .0270317
854.368 .0270180
855.049 .0270031
855.730 .0269872
856.410 .0269703
857.090 .0269527
857.769 .0269348
858.449 .0269169
859.128 .0268989
859.806 .0268807
860.485 .0268622
861.163 .0268437
861.840 .0268249
862.518 .0268065
863.195 .0267883
863.871 .0267710
864.548 .0267548
865.224 .0267399
865.899 .0267267
866.574 .0267146
867.249 .0267032
867.924 .0266926
868.598 .0266825
869.272 .0266725
869.946 .0266627
870.619 .0266532
871.292 .0266443
871.964 .0266359
872.636 .0266277
873.308 .0266201
873.979 .0266131
874.651 .0266061
875.321 .0265986
875.992 .0265905
876.662 .0265819
877.331 .0265726
878.001 .0265633
878.670 .0265539
879.338 .0265443
880.007 .0265355
880.675 .0265269
881.342 .0265184
882.009 .0265100
882.676 .0265014
883.343 .0264924
884.009 .0264826
884.675 .0264720
885.340 .0264603
886.005 .0264486
886.670 .0264371
887.334 .0264258
887.998 .0264149
888.662 .0264053
889.325 .0263962
889.988 .0263879
890.650 .0263803
891.312 .0263732
891.974 .0263668
892.636 .0263614
893.297 .0263565
893.957 .0263526
894.618 .0263496
895.278 .0263478
895.937 .0263468
896.596 .0263463
897.255 .0263458
897.914 .0263448
898.572 .0263433
899.230 .0263409
899.887 .0263367
900.544 .0263317
901.201 .0263257
901.857 .0263186
902.513 .0263103
903.168 .0263010
903.823 .0262906
904.478 .0262791
905.132 .0262656
905.786 .0262507
906.440 .0262338
907.093 .0262154
907.746 .0261953
908.399 .0261745
909.051 .0261532
909.703 .0261312
910.354 .0261088
911.005 .0260862
911.656 .0260632
912.306 .0260402
912.956 .0260167
913.605 .0259933
914.254 .0259700
914.903 .0259469
915.551 .0259243
916.199 .0259028
916.847 .0258826
917.494 .0258638
918.141 .0258461
918.788 .0258301
919.434 .0258151
920.079 .0258013
920.725 .0257887
921.370 .0257767
922.014 .0257651
922.658 .0257534
923.302 .0257412
923.946 .0257286
924.589 .0257150
925.231 .0257004
925.873 .0256844
926.515 .0256675
927.157 .0256496
927.798 .0256305
928.439 .0256106
929.079 .0255896
929.719 .0255677
930.359 .0255447
930.998 .0255206
931.637 .0254959
932.275 .0254714
932.913 .0254470
933.551 .0254231
934.188 .0254003
934.825 .0253790
935.462 .0253592
936.098 .0253411
936.733 .0253249
937.369 .0253102
938.004 .0252972
938.638 .0252857
939.273 .0252751
939.907 .0252658
940.540 .0252572
941.173 .0252493
941.806 .0252423
942.438 .0252360
943.070 .0252299
943.702 .0252241
944.333 .0252184
944.964 .0252120
945.594 .0252048
946.224 .0251969
946.854 .0251882
947.483 .0251791
948.112 .0251699
948.741 .0251607
949.369 .0251521
949.996 .0251444
950.624 .0251373
951.251 .0251307
951.878 .0251242
952.504 .0251174
953.130 .0251100
953.755 .0251016
954.380 .0250923
955.005 .0250824
955.629 .0250723
956.253 .0250624
956.877 .0250530
957.500 .0250444
958.123 .0250365
958.746 .0250291
959.368 .0250215
959.990 .0250131
960.611 .0250038
961.232 .0249938
961.853 .0249831
962.473 .0249725
963.093 .0249622
963.712 .0249529
964.331 .0249446
964.950 .0249374
965.569 .0249310
966.187 .0249255
966.804 .0249207
967.422 .0249161
968.039 .0249116
968.655 .0249074
969.272 .0249036
969.887 .0249003
970.503 .0248974
971.118 .0248950
971.733 .0248929
972.347 .0248906
972.961 .0248879
973.575 .0248848
974.188 .0248812
974.801 .0248770
975.414 .0248722
976.026 .0248669
976.638 .0248615
977.250 .0248557
977.861 .0248495
978.472 .0248431
979.083 .0248365
979.693 .0248290
980.303 .0248209
980.912 .0248129
981.521 .0248048
982.130 .0247969
982.738 .0247896
983.346 .0247833
983.954 .0247777
984.562 .0247726
985.169 .0247674
985.775 .0247621
986.382 .0247565
986.988 .0247498
987.594 .0247424
988.199 .0247348
988.804 .0247273
989.409 .0247202
990.013 .0247139
990.617 .0247085
991.221 .0247040
991.824 .0247002
992.427 .0246969
993.030 .0246938
993.632 .0246908
994.234 .0246880
994.836 .0246864
995.438 .0246862
996.039 .0246875
996.640 .0246906
997.240 .0246957
997.840 .0247028
998.440 .0247111
999.040 .0247194
999.639 .0247277
1000.238 .0247352
1000.836 .0247409
1001.435 .0247448
1002.033 .0247476
1002.630 .0247494
1003.228 .0247515
1003.825 .0247538
1004.422 .0247569
1005.018 .0247601
1005.614 .0247642
1006.210 .0247687
1006.806 .0247731
1007.401 .0247771
1007.996 .0247797
1008.591 .0247821
1009.186 .0247848
1009.780 .0247875
1010.374 .0247913
1010.967 .0247961
1011.561 .0248026
1012.154 .0248090
1012.746 .0248157
1013.339 .0248217
1013.931 .0248264
1014.523 .0248299
1015.115 .0248313
1015.706 .0248310
1016.298 .0248298
1016.888 .0248287
1017.479 .0248283
1018.069 .0248291
1018.660 .0248315
1019.250 .0248350
1019.839 .0248398
1020.429 .0248456
1021.018 .0248522
1021.607 .0248588
1022.195 .0248656
1022.784 .0248726
1023.372 .0248796
1023.960 .0248875
1024.547 .0248961
1025.135 .0249065
1025.722 .0249182
1026.309 .0249312
1026.896 .0249450
1027.483 .0249587
1028.069 .0249729
1028.655 .0249857
1029.241 .0249972
1029.827 .0250073
1030.412 .0250156
1030.997 .0250234
1031.582 .0250309
1032.167 .0250392
1032.752 .0250474
1033.336 .0250562
1033.921 .0250654
1034.505 .0250736
1035.089 .0250812
1035.672 .0250872
1036.256 .0250914
1036.839 .0250941
1037.422 .0250949
1038.005 .0250943
1038.588 .0250933
1039.171 .0250923
1039.753 .0250914
1040.335 .0250913
1040.918 .0250921
1041.500 .0250932
1042.081 .0250945
1042.663 .0250967
1043.244 .0250988
1043.826 .0251001
1044.407 .0251011
1044.988 .0251014
1045.569 .0251015
1046.150 .0251011
1046.730 .0251001
1047.311 .0250999
1047.891 .0251005
1048.471 .0251010
1049.052 .0251022
1049.632 .0251035
1050.211 .0251051
1050.791 .0251055
1051.371 .0251048
1051.950 .0251035
1052.530 .0251015
1053.109 .0250994
1053.688 .0250979
1054.268 .0250981
1054.847 .0251003
1055.426 .0251047
1056.005 .0251113
1056.583 .0251188
1057.162 .0251261
1057.741 .0251325
1058.319 .0251383
1058.898 .0251426
1059.476 .0251462
1060.055 .0251489
1060.633 .0251523
1061.211 .0251565
1061.790 .0251610
1062.368 .0251665
1062.946 .0251726
1063.524 .0251792
1064.102 .0251852
1064.680 .0251898
1065.258 .0251931
1065.836 .0251954
1066.414 .0251968
1066.992 .0251979
1067.570 .0251991
1068.148 .0251997
1068.726 .0251992
1069.304 .0251973
1069.882 .0251936
1070.460 .0251864
1071.038 .0251760
1071.616 .0251634
1072.194 .0251479
1072.772 .0251311
1073.350 .0251145
1073.928 .0250990
1074.506 .0250846
1075.084 .0250722
1075.662 .0250610
1076.240 .0250518
1076.819 .0250438
1077.397 .0250369
1077.976 .0250309
1078.554 .0250266
1079.133 .0250247
1079.711 .0250246
1080.290 .0250271
1080.869 .0250328
1081.448 .0250402
1082.027 .0250490
1082.606 .0250584
1083.185 .0250682
1083.764 .0250771
1084.343 .0250855
1084.923 .0250922
1085.502 .0250969
1086.082 .0251005
1086.662 .0251042
1087.242 .0251088
1087.822 .0251164
1088.402 .0251280
1088.983 .0251438
1089.563 .0251639
1090.144 .0251875
1090.725 .0252122
1091.306 .0252378
1091.887 .0252626
1092.469 .0252864
1093.050 .0253077
1093.632 .0253280
1094.214 .0253479
1094.796 .0253693
1095.379 .0253932
1095.961 .0254199
1096.544 .0254474
1097.127 .0254745
1097.710 .0254991
1098.294 .0255215
1098.877 .0255397
1099.461 .0255557
1100.046 .0255691
1100.630 .0255826
1101.215 .0255972
1101.800 .0256158
1102.385 .0256383
1102.970 .0256657
1103.556 .0256953
1104.142 .0257251
1104.728 .0257536
1105.315 .0257800
1105.902 .0258020
1106.489 .0258233
1107.077 .0258428
1107.664 .0258632
1108.253 .0258830
1108.841 .0259050
1109.430 .0259267
1110.019 .0259485
1110.609 .0259688
1111.198 .0259844
1111.789 .0259959
1112.379 .0260017
1112.970 .0260012
1113.561 .0259994
1114.153 .0259975
1114.745 .0259959
1115.338 .0259978
1115.931 .0260063
1116.524 .0260177
1117.117 .0260331
1117.712 .0260520
1118.306 .0260725
1118.901 .0260924
1119.496 .0261098
1120.092 .0261277
1120.689 .0261456
1121.285 .0261677
1121.882 .0261917
1122.480 .0262210
1123.078 .0262600
1123.677 .0263054
1124.276 .0263570
1124.875 .0264165
1125.476 .0264813
1126.076 .0265518
1126.677 .0266258
1127.279 .0267026
1127.881 .0267817
1128.484 .0268646
1129.087 .0269474
1129.691 .0270312
1130.295 .0271138
1130.900 .0271976
1131.505 .0272801
1132.111 .0273642
1132.718 .0274466
1133.325 .0275273
1133.933 .0276107
1134.541 .0276954
1135.150 .0277840
1135.760 .0278811
1136.370 .0279809
1136.981 .0280884
1137.592 .0281997
1138.204 .0283114
1138.817 .0284339
1139.431 .0285668
1140.045 .0287108
1140.660 .0288772
1141.275 .0290740
1141.891 .0292629
1142.508 .0294814
1143.126 .0296577
1143.744 .0301125
1144.363 .0305694
1144.983 .0298379
