Measurement Sequence started on: 15-12-46-377
Integration time: 28
Scans to Average: 2 
>>>>>Begin Spectral Data<<<<<
432.689 .0000100
433.621 .0000100
434.552 .0000100
435.482 .0000100
436.410 .0000100
437.337 .0000100
438.262 .0275172
439.187 .0583766
440.110 .0968417
441.031 .1402318
441.952 .1823885
442.871 .2156389
443.789 .2339110
444.705 .2351615
445.621 .2218729
446.535 .1995926
447.447 .1743325
448.359 .1357130
449.269 .1165843
450.178 .1045349
451.086 .0961328
451.993 .0897630
452.898 .0847116
453.803 .0805839
454.706 .0771064
455.608 .0741317
456.508 .0715357
457.408 .0692906
458.306 .0673068
459.204 .0655452
460.100 .0639565
460.995 .0625214
461.888 .0611950
462.781 .0599728
463.673 .0588276
464.563 .0577680
465.452 .0567759
466.340 .0558485
467.228 .0549964
468.114 .0542130
468.999 .0534888
469.882 .0528156
470.765 .0521907
471.647 .0516174
472.528 .0510777
473.407 .0505769
474.286 .0501129
475.163 .0496887
476.040 .0493113
476.915 .0489790
477.790 .0486830
478.663 .0484288
479.535 .0482075
480.407 .0480163
481.277 .0478459
482.147 .0476979
483.015 .0475741
483.883 .0474782
484.749 .0474090
485.615 .0473616
486.479 .0473381
487.343 .0473478
488.206 .0473807
489.067 .0474305
489.928 .0474937
490.788 .0475662
491.647 .0476449
492.505 .0477335
493.362 .0478237
494.218 .0479242
495.073 .0480305
495.928 .0481589
496.781 .0482981
497.634 .0484636
498.486 .0486576
499.337 .0488764
500.187 .0491245
501.036 .0493889
501.884 .0496670
502.731 .0499600
503.578 .0502740
504.424 .0506082
505.268 .0509597
506.113 .0513514
506.956 .0517777
507.798 .0522648
508.640 .0528134
509.480 .0534431
510.320 .0541579
511.160 .0549639
511.998 .0558469
512.836 .0568027
513.672 .0578497
514.508 .0589935
515.344 .0602559
516.178 .0616728
517.012 .0632748
517.845 .0651096
518.677 .0672447
519.508 .0696841
520.339 .0724631
521.169 .0756514
521.998 .0792426
522.826 .0832712
523.654 .0877444
524.481 .0926552
525.307 .0980827
526.133 .1040354
526.958 .1104872
527.782 .1173933
528.605 .1246614
529.428 .1321641
530.250 .1393791
531.072 .1461138
531.892 .1519224
532.712 .1564203
533.532 .1594860
534.350 .1607877
535.168 .1602100
535.986 .1578058
536.802 .1537215
537.618 .1482681
538.434 .1416418
539.249 .1343512
540.063 .1266262
540.876 .1188780
541.689 .1114152
542.501 .1043326
543.313 .0978764
544.124 .0921214
544.934 .0869974
545.744 .0824002
546.553 .0782720
547.361 .0746151
548.169 .0713959
548.976 .0685447
549.783 .0660390
550.589 .0638423
551.395 .0618906
552.200 .0601672
553.004 .0586318
553.808 .0572539
554.611 .0560256
555.414 .0549195
556.216 .0539382
557.018 .0530611
557.819 .0522730
558.619 .0515532
559.419 .0508841
560.218 .0502653
561.017 .0496538
561.815 .0490307
562.613 .0483955
563.410 .0477408
564.207 .0470750
565.003 .0464109
565.799 .0457546
566.594 .0451055
567.388 .0444799
568.182 .0438688
568.976 .0432656
569.769 .0426709
570.562 .0420808
571.354 .0414917
572.145 .0409104
572.936 .0403462
573.727 .0397993
574.517 .0392784
575.307 .0387935
576.096 .0383412
576.885 .0379235
577.673 .0375394
578.461 .0371864
579.248 .0368637
580.035 .0365694
580.821 .0362971
581.607 .0360394
582.392 .0357988
583.177 .0355718
583.962 .0353562
584.746 .0351551
585.529 .0349653
586.313 .0347856
587.095 .0346177
587.878 .0344619
588.660 .0343206
589.441 .0341934
590.222 .0340796
591.003 .0339773
591.783 .0338840
592.563 .0337965
593.342 .0337135
594.121 .0336338
594.899 .0335577
595.678 .0334840
596.455 .0334138
597.233 .0333488
598.009 .0332885
598.786 .0332330
599.562 .0331827
600.338 .0331353
601.113 .0330905
601.888 .0330459
602.663 .0330010
603.437 .0329565
604.211 .0329120
604.984 .0328671
605.757 .0328217
606.530 .0327763
607.302 .0327315
608.074 .0326881
608.845 .0326471
609.616 .0326087
610.387 .0325725
611.158 .0325385
611.928 .0325060
612.697 .0324742
613.467 .0324435
614.236 .0324128
615.004 .0323829
615.773 .0323541
616.541 .0323260
617.308 .0323000
618.076 .0322763
618.843 .0322550
619.609 .0322367
620.375 .0322204
621.141 .0322060
621.907 .0321923
622.672 .0321791
623.437 .0321657
624.202 .0321520
624.966 .0321379
625.730 .0321225
626.493 .0321061
627.257 .0320889
628.020 .0320700
628.782 .0320497
629.545 .0320277
630.307 .0320037
631.068 .0319780
631.830 .0319507
632.591 .0319203
633.352 .0318878
634.112 .0318533
634.872 .0318169
635.632 .0317795
636.392 .0317410
637.151 .0317019
637.910 .0316629
638.668 .0316250
639.427 .0315881
640.185 .0315522
640.943 .0315181
641.700 .0314852
642.457 .0314537
643.214 .0314233
643.971 .0313929
644.727 .0313643
645.483 .0313373
646.239 .0313114
646.994 .0312867
647.750 .0312635
648.505 .0312415
649.259 .0312212
650.014 .0312010
650.768 .0311809
651.521 .0311600
652.275 .0311383
653.028 .0311153
653.781 .0310910
654.534 .0310667
655.286 .0310423
656.039 .0310184
656.791 .0309959
657.542 .0309731
658.294 .0309509
659.045 .0309286
659.796 .0309054
660.546 .0308808
661.297 .0308547
662.047 .0308277
662.796 .0308001
663.546 .0307728
664.295 .0307471
665.044 .0307227
665.793 .0307006
666.542 .0306805
667.290 .0306608
668.038 .0306419
668.786 .0306227
669.533 .0306019
670.281 .0305803
671.028 .0305582
671.774 .0305355
672.521 .0305134
673.267 .0304926
674.013 .0304728
674.759 .0304536
675.505 .0304353
676.250 .0304169
676.995 .0303978
677.740 .0303777
678.484 .0303556
679.229 .0303323
679.973 .0303093
680.717 .0302858
681.460 .0302624
682.204 .0302405
682.947 .0302195
683.690 .0301990
684.433 .0301791
685.175 .0301595
685.917 .0301400
686.659 .0301209
687.401 .0301022
688.142 .0300842
688.884 .0300674
689.625 .0300517
690.365 .0300367
691.106 .0300218
691.846 .0300067
692.586 .0299899
693.326 .0299719
694.066 .0299528
694.805 .0299321
695.545 .0299104
696.284 .0298878
697.022 .0298651
697.761 .0298418
698.499 .0298178
699.237 .0297932
699.975 .0297676
700.713 .0297420
701.450 .0297162
702.187 .0296908
702.924 .0296665
703.661 .0296437
704.397 .0296226
705.133 .0296027
705.869 .0295842
706.605 .0295663
707.341 .0295490
708.076 .0295317
708.811 .0295142
709.546 .0294969
710.281 .0294794
711.015 .0294627
711.749 .0294458
712.483 .0294290
713.217 .0294116
713.950 .0293934
714.684 .0293740
715.417 .0293536
716.150 .0293324
716.882 .0293103
717.615 .0292879
718.347 .0292655
719.079 .0292432
719.811 .0292217
720.542 .0292007
721.273 .0291803
722.005 .0291601
722.735 .0291408
723.466 .0291219
724.196 .0291041
724.927 .0290875
725.656 .0290716
726.386 .0290562
727.116 .0290412
727.845 .0290261
728.574 .0290106
729.303 .0289951
730.031 .0289800
730.760 .0289650
731.488 .0289506
732.216 .0289368
732.944 .0289241
733.671 .0289127
734.398 .0289022
735.125 .0288920
735.852 .0288824
736.579 .0288728
737.305 .0288631
738.031 .0288536
738.757 .0288448
739.483 .0288361
740.208 .0288276
740.933 .0288193
741.658 .0288108
742.383 .0288022
743.108 .0287932
743.832 .0287839
744.556 .0287742
745.280 .0287640
746.004 .0287530
746.727 .0287415
747.450 .0287304
748.173 .0287187
748.896 .0287067
749.618 .0286942
750.340 .0286812
751.062 .0286677
751.784 .0286540
752.506 .0286405
753.227 .0286274
753.948 .0286149
754.669 .0286028
755.389 .0285911
756.110 .0285798
756.830 .0285684
757.550 .0285568
758.269 .0285446
758.989 .0285317
759.708 .0285172
760.427 .0285020
761.146 .0284861
761.864 .0284697
762.582 .0284528
763.300 .0284356
764.018 .0284185
764.736 .0284014
765.453 .0283842
766.170 .0283671
766.887 .0283494
767.603 .0283322
768.320 .0283145
769.036 .0282970
769.751 .0282802
770.467 .0282644
771.182 .0282495
771.897 .0282359
772.612 .0282228
773.327 .0282104
774.041 .0281983
774.755 .0281863
775.469 .0281744
776.183 .0281627
776.896 .0281516
777.609 .0281415
778.322 .0281322
779.035 .0281238
779.747 .0281157
780.459 .0281087
781.171 .0281019
781.882 .0280946
782.594 .0280872
783.305 .0280795
784.016 .0280720
784.726 .0280647
785.436 .0280572
786.147 .0280503
786.856 .0280440
787.566 .0280379
788.275 .0280314
788.984 .0280248
789.693 .0280181
790.401 .0280107
791.110 .0280030
791.818 .0279950
792.525 .0279867
793.233 .0279783
793.940 .0279703
794.647 .0279625
795.353 .0279552
796.060 .0279477
796.766 .0279397
797.472 .0279311
798.177 .0279212
798.883 .0279100
799.588 .0278976
800.292 .0278843
800.997 .0278700
801.701 .0278539
802.405 .0278369
803.109 .0278189
803.812 .0277998
804.515 .0277793
805.218 .0277576
805.921 .0277346
806.623 .0277102
807.325 .0276850
808.027 .0276597
808.728 .0276350
809.429 .0276113
810.130 .0275888
810.831 .0275676
811.531 .0275478
812.231 .0275289
812.931 .0275101
813.630 .0274924
814.330 .0274751
815.029 .0274585
815.727 .0274428
816.426 .0274283
817.124 .0274153
817.821 .0274035
818.519 .0273928
819.216 .0273827
819.913 .0273721
820.609 .0273612
821.306 .0273491
822.002 .0273369
822.697 .0273247
823.393 .0273129
824.088 .0273020
824.783 .0272921
825.477 .0272827
826.171 .0272738
826.865 .0272653
827.559 .0272570
828.252 .0272489
828.945 .0272403
829.638 .0272316
830.330 .0272230
831.023 .0272148
831.714 .0272074
832.406 .0272009
833.097 .0271951
833.788 .0271892
834.479 .0271835
835.169 .0271776
835.859 .0271718
836.548 .0271661
837.238 .0271605
837.927 .0271549
838.615 .0271494
839.304 .0271438
839.992 .0271384
840.680 .0271335
841.367 .0271290
842.054 .0271245
842.741 .0271203
843.428 .0271159
844.114 .0271117
844.800 .0271075
845.485 .0271026
846.170 .0270966
846.855 .0270893
847.540 .0270804
848.224 .0270703
848.908 .0270598
849.592 .0270487
850.275 .0270375
850.958 .0270262
851.641 .0270150
852.323 .0270033
853.005 .0269916
853.687 .0269791
854.368 .0269658
855.049 .0269517
855.730 .0269368
856.410 .0269210
857.090 .0269052
857.769 .0268894
858.449 .0268738
859.128 .0268586
859.806 .0268436
860.485 .0268286
861.163 .0268142
861.840 .0267999
862.518 .0267859
863.195 .0267719
863.871 .0267582
864.548 .0267445
865.224 .0267314
865.899 .0267191
866.574 .0267076
867.249 .0266975
867.924 .0266888
868.598 .0266814
869.272 .0266753
869.946 .0266702
870.619 .0266659
871.292 .0266621
871.964 .0266583
872.636 .0266545
873.308 .0266509
873.979 .0266473
874.651 .0266439
875.321 .0266409
875.992 .0266385
876.662 .0266366
877.331 .0266351
878.001 .0266340
878.670 .0266325
879.338 .0266308
880.007 .0266289
880.675 .0266267
881.342 .0266246
882.009 .0266227
882.676 .0266210
883.343 .0266197
884.009 .0266182
884.675 .0266164
885.340 .0266142
886.005 .0266116
886.670 .0266083
887.334 .0266044
887.998 .0266004
888.662 .0265961
889.325 .0265925
889.988 .0265897
890.650 .0265877
891.312 .0265868
891.974 .0265867
892.636 .0265871
893.297 .0265882
893.957 .0265898
894.618 .0265916
895.278 .0265938
895.937 .0265965
896.596 .0265994
897.255 .0266025
897.914 .0266058
898.572 .0266089
899.230 .0266115
899.887 .0266133
900.544 .0266135
901.201 .0266122
901.857 .0266094
902.513 .0266048
903.168 .0265988
903.823 .0265913
904.478 .0265823
905.132 .0265721
905.786 .0265606
906.440 .0265480
907.093 .0265340
907.746 .0265190
908.399 .0265037
909.051 .0264878
909.703 .0264716
910.354 .0264553
911.005 .0264393
911.656 .0264235
912.306 .0264075
912.956 .0263914
913.605 .0263750
914.254 .0263585
914.903 .0263418
915.551 .0263245
916.199 .0263074
916.847 .0262906
917.494 .0262738
918.141 .0262572
918.788 .0262405
919.434 .0262233
920.079 .0262053
920.725 .0261864
921.370 .0261663
922.014 .0261448
922.658 .0261222
923.302 .0260988
923.946 .0260745
924.589 .0260498
925.231 .0260241
925.873 .0259980
926.515 .0259715
927.157 .0259445
927.798 .0259168
928.439 .0258883
929.079 .0258596
929.719 .0258308
930.359 .0258020
930.998 .0257740
931.637 .0257465
932.275 .0257200
932.913 .0256943
933.551 .0256694
934.188 .0256449
934.825 .0256214
935.462 .0255987
936.098 .0255769
936.733 .0255562
937.369 .0255371
938.004 .0255196
938.638 .0255039
939.273 .0254901
939.907 .0254776
940.540 .0254666
941.173 .0254570
941.806 .0254485
942.438 .0254412
943.070 .0254346
943.702 .0254288
944.333 .0254232
944.964 .0254175
945.594 .0254116
946.224 .0254047
946.854 .0253975
947.483 .0253896
948.112 .0253811
948.741 .0253716
949.369 .0253614
949.996 .0253507
950.624 .0253394
951.251 .0253275
951.878 .0253152
952.504 .0253019
953.130 .0252884
953.755 .0252743
954.380 .0252598
955.005 .0252455
955.629 .0252315
956.253 .0252175
956.877 .0252043
957.500 .0251917
958.123 .0251803
958.746 .0251697
959.368 .0251602
959.990 .0251515
960.611 .0251434
961.232 .0251360
961.853 .0251290
962.473 .0251220
963.093 .0251150
963.712 .0251076
964.331 .0250994
964.950 .0250904
965.569 .0250808
966.187 .0250714
966.804 .0250625
967.422 .0250539
968.039 .0250456
968.655 .0250376
969.272 .0250295
969.887 .0250207
970.503 .0250109
971.118 .0250000
971.733 .0249878
972.347 .0249740
972.961 .0249591
973.575 .0249435
974.188 .0249270
974.801 .0249103
975.414 .0248933
976.026 .0248755
976.638 .0248571
977.250 .0248381
977.861 .0248190
978.472 .0248000
979.083 .0247813
979.693 .0247628
980.303 .0247447
980.912 .0247277
981.521 .0247112
982.130 .0246954
982.738 .0246808
983.346 .0246670
983.954 .0246543
984.562 .0246426
985.169 .0246314
985.775 .0246214
986.382 .0246122
986.988 .0246037
987.594 .0245952
988.199 .0245861
988.804 .0245766
989.409 .0245661
990.013 .0245546
990.617 .0245426
991.221 .0245299
991.824 .0245177
992.427 .0245061
993.030 .0244958
993.632 .0244875
994.234 .0244807
994.836 .0244758
995.438 .0244725
996.039 .0244701
996.640 .0244682
997.240 .0244663
997.840 .0244653
998.440 .0244647
999.040 .0244640
999.639 .0244643
1000.238 .0244654
1000.836 .0244675
1001.435 .0244699
1002.033 .0244723
1002.630 .0244751
1003.228 .0244777
1003.825 .0244802
1004.422 .0244826
1005.018 .0244854
1005.614 .0244888
1006.210 .0244926
1006.806 .0244976
1007.401 .0245028
1007.996 .0245078
1008.591 .0245129
1009.186 .0245181
1009.780 .0245229
1010.374 .0245270
1010.967 .0245313
1011.561 .0245357
1012.154 .0245402
1012.746 .0245446
1013.339 .0245478
1013.931 .0245505
1014.523 .0245526
1015.115 .0245532
1015.706 .0245534
1016.298 .0245542
1016.888 .0245558
1017.479 .0245589
1018.069 .0245644
1018.660 .0245720
1019.250 .0245816
1019.839 .0245932
1020.429 .0246061
1021.018 .0246198
1021.607 .0246343
1022.195 .0246496
1022.784 .0246655
1023.372 .0246829
1023.960 .0247011
1024.547 .0247205
1025.135 .0247405
1025.722 .0247608
1026.309 .0247806
1026.896 .0247996
1027.483 .0248181
1028.069 .0248354
1028.655 .0248517
1029.241 .0248677
1029.827 .0248835
1030.412 .0248998
1030.997 .0249168
1031.582 .0249343
1032.167 .0249514
1032.752 .0249684
1033.336 .0249841
1033.921 .0249980
1034.505 .0250103
1035.089 .0250216
1035.672 .0250316
1036.256 .0250415
1036.839 .0250513
1037.422 .0250620
1038.005 .0250737
1038.588 .0250864
1039.171 .0250988
1039.753 .0251109
1040.335 .0251215
1040.918 .0251302
1041.500 .0251375
1042.081 .0251439
1042.663 .0251500
1043.244 .0251575
1043.826 .0251661
1044.407 .0251772
1044.988 .0251896
1045.569 .0252034
1046.150 .0252167
1046.730 .0252295
1047.311 .0252408
1047.891 .0252499
1048.471 .0252577
1049.052 .0252644
1049.632 .0252705
1050.211 .0252780
1050.791 .0252854
1051.371 .0252934
1051.950 .0253019
1052.530 .0253105
1053.109 .0253178
1053.688 .0253240
1054.268 .0253281
1054.847 .0253309
1055.426 .0253323
1056.005 .0253337
1056.583 .0253347
1057.162 .0253355
1057.741 .0253373
1058.319 .0253398
1058.898 .0253432
1059.476 .0253470
1060.055 .0253506
1060.633 .0253552
1061.211 .0253580
1061.790 .0253610
1062.368 .0253627
1062.946 .0253639
1063.524 .0253655
1064.102 .0253672
1064.680 .0253691
1065.258 .0253722
1065.836 .0253754
1066.414 .0253795
1066.992 .0253829
1067.570 .0253872
1068.148 .0253886
1068.726 .0253892
1069.304 .0253894
1069.882 .0253886
1070.460 .0253872
1071.038 .0253869
1071.616 .0253872
1072.194 .0253885
1072.772 .0253913
1073.350 .0253951
1073.928 .0253989
1074.506 .0254041
1075.084 .0254087
1075.662 .0254137
1076.240 .0254193
1076.819 .0254265
1077.397 .0254337
1077.976 .0254440
1078.554 .0254566
1079.133 .0254694
1079.711 .0254836
1080.290 .0254982
1080.869 .0255121
1081.448 .0255248
1082.027 .0255362
1082.606 .0255465
1083.185 .0255560
1083.764 .0255665
1084.343 .0255760
1084.923 .0255854
1085.502 .0255943
1086.082 .0256013
1086.662 .0256064
1087.242 .0256083
1087.822 .0256073
1088.402 .0256031
1088.983 .0255977
1089.563 .0255914
1090.144 .0255858
1090.725 .0255823
1091.306 .0255803
1091.887 .0255805
1092.469 .0255828
1093.050 .0255862
1093.632 .0255899
1094.214 .0255946
1094.796 .0256009
1095.379 .0256081
1095.961 .0256174
1096.544 .0256297
1097.127 .0256467
1097.710 .0256681
1098.294 .0256923
1098.877 .0257194
1099.461 .0257486
1100.046 .0257786
1100.630 .0258081
1101.215 .0258380
1101.800 .0258682
1102.385 .0258971
1102.970 .0259241
1103.556 .0259509
1104.142 .0259767
1104.728 .0260019
1105.315 .0260247
1105.902 .0260464
1106.489 .0260676
1107.077 .0260891
1107.664 .0261118
1108.253 .0261378
1108.841 .0261680
1109.430 .0262022
1110.019 .0262387
1110.609 .0262770
1111.198 .0263171
1111.789 .0263558
1112.379 .0263928
1112.970 .0264275
1113.561 .0264593
1114.153 .0264903
1114.745 .0265217
1115.338 .0265574
1115.931 .0265965
1116.524 .0266377
1117.117 .0266803
1117.712 .0267205
1118.306 .0267588
1118.901 .0267917
1119.496 .0268166
1120.092 .0268370
1120.689 .0268537
1121.285 .0268665
1121.882 .0268802
1122.480 .0268993
1123.078 .0269249
1123.677 .0269580
1124.276 .0269990
1124.875 .0270440
1125.476 .0270911
1126.076 .0271410
1126.677 .0271882
1127.279 .0272312
1127.881 .0272704
1128.484 .0273057
1129.087 .0273413
1129.691 .0273828
1130.295 .0274275
1130.900 .0274797
1131.505 .0275397
1132.111 .0276052
1132.718 .0276715
1133.325 .0277394
1133.933 .0278043
1134.541 .0278664
1135.150 .0279249
1135.760 .0279815
1136.370 .0280395
1136.981 .0281087
1137.592 .0281844
1138.204 .0282753
1138.817 .0283745
1139.431 .0284854
1140.045 .0286091
1140.660 .0287407
1141.275 .0288842
1141.891 .0290594
1142.508 .0291050
1143.126 .0293953
1143.744 .0294355
1144.363 .0297635
1144.983 .0305985
