Measurement Sequence started on: 15-12-46-377
Integration time: 28
Scans to Average: 2 
>>>>>Begin Spectral Data<<<<<
432.689 .0000100
433.621 .0000100
434.552 .0000100
435.482 .0000100
436.410 .0000100
437.337 .0000100
438.262 .0264642
439.187 .0560963
440.110 .0928474
441.031 .1343319
441.952 .1745689
442.871 .2062308
443.789 .2235453
444.705 .2245596
445.621 .2116978
446.535 .1902689
447.447 .1660475
448.359 .1289704
449.269 .1106262
450.178 .0990925
451.086 .0908831
451.993 .0845916
452.898 .0795568
453.803 .0754196
454.706 .0719649
455.608 .0690281
456.508 .0664953
457.408 .0643125
458.306 .0624168
459.204 .0607385
460.100 .0592359
460.995 .0578864
461.888 .0566512
462.781 .0555043
463.673 .0544407
464.563 .0534641
465.452 .0525570
466.340 .0517055
467.228 .0509021
468.114 .0501405
468.999 .0494301
469.882 .0487654
470.765 .0481384
471.647 .0475753
472.528 .0470741
473.407 .0466331
474.286 .0462516
475.163 .0459243
476.040 .0456383
476.915 .0453842
477.790 .0451571
478.663 .0449449
479.535 .0447521
480.407 .0445874
481.277 .0444531
482.147 .0443583
483.015 .0443028
483.883 .0442780
484.749 .0442743
485.615 .0442907
486.479 .0443082
487.343 .0443229
488.206 .0443316
489.067 .0443353
489.928 .0443330
490.788 .0443312
491.647 .0443477
492.505 .0443828
493.362 .0444509
494.218 .0445499
495.073 .0446757
495.928 .0448402
496.781 .0450262
497.634 .0452476
498.486 .0454989
499.337 .0457887
500.187 .0461082
501.036 .0464558
501.884 .0468389
502.731 .0472523
503.578 .0477028
504.424 .0481948
505.268 .0487194
506.113 .0492719
506.956 .0498509
507.798 .0504690
508.640 .0511217
509.480 .0518178
510.320 .0525509
511.160 .0533419
511.998 .0541830
512.836 .0550802
513.672 .0560371
514.508 .0570860
515.344 .0582355
516.178 .0595112
517.012 .0609458
517.845 .0625938
518.677 .0645069
519.508 .0667216
520.339 .0692601
521.169 .0721809
521.998 .0754330
522.826 .0790752
523.654 .0831187
524.481 .0875698
525.307 .0924790
526.133 .0977782
526.958 .1035019
527.782 .1095796
528.605 .1158827
529.428 .1223336
530.250 .1284728
531.072 .1340917
531.892 .1387455
532.712 .1421328
533.532 .1441073
534.350 .1444755
535.168 .1432200
535.986 .1404126
536.802 .1362650
537.618 .1310565
538.434 .1250308
539.249 .1186374
540.063 .1120805
540.876 .1056455
541.689 .0995051
542.501 .0937764
543.313 .0885633
544.124 .0839398
544.934 .0798093
545.744 .0761225
546.553 .0728241
547.361 .0698605
548.169 .0672324
548.976 .0648818
549.783 .0628049
550.589 .0609699
551.395 .0593265
552.200 .0578586
553.004 .0565128
553.808 .0552663
554.611 .0541012
555.414 .0530054
556.216 .0519636
557.018 .0509820
557.819 .0500568
558.619 .0491722
559.419 .0483346
560.218 .0475346
561.017 .0467781
561.815 .0460572
562.613 .0453670
563.410 .0447108
564.207 .0440824
565.003 .0434933
565.799 .0429205
566.594 .0423708
567.388 .0418468
568.182 .0413381
568.976 .0408446
569.769 .0403580
570.562 .0398782
571.354 .0394069
572.145 .0389442
572.936 .0384904
573.727 .0380464
574.517 .0376167
575.307 .0371965
576.096 .0367897
576.885 .0363992
577.673 .0360241
578.461 .0356670
579.248 .0353319
580.035 .0350165
580.821 .0347226
581.607 .0344504
582.392 .0341958
583.177 .0339621
583.962 .0337459
584.746 .0335457
585.529 .0333613
586.313 .0331921
587.095 .0330381
587.878 .0328991
588.660 .0327743
589.441 .0326634
590.222 .0325642
591.003 .0324793
591.783 .0324040
592.563 .0323370
593.342 .0322754
594.121 .0322155
594.899 .0321568
595.678 .0320989
596.455 .0320410
597.233 .0319851
598.009 .0319318
598.786 .0318816
599.562 .0318351
600.338 .0317922
601.113 .0317529
601.888 .0317157
602.663 .0316800
603.437 .0316448
604.211 .0316079
604.984 .0315698
605.757 .0315305
606.530 .0314912
607.302 .0314526
608.074 .0314143
608.845 .0313772
609.616 .0313417
610.387 .0313080
611.158 .0312767
611.928 .0312481
612.697 .0312213
613.467 .0311966
614.236 .0311733
615.004 .0311518
615.773 .0311316
616.541 .0311120
617.308 .0310939
618.076 .0310767
618.843 .0310606
619.609 .0310453
620.375 .0310315
621.141 .0310200
621.907 .0310098
622.672 .0310005
623.437 .0309919
624.202 .0309824
624.966 .0309721
625.730 .0309597
626.493 .0309443
627.257 .0309265
628.020 .0309060
628.782 .0308828
629.545 .0308587
630.307 .0308341
631.068 .0308097
631.830 .0307857
632.591 .0307618
633.352 .0307373
634.112 .0307117
634.872 .0306851
635.632 .0306563
636.392 .0306251
637.151 .0305932
637.910 .0305598
638.668 .0305268
639.427 .0304955
640.185 .0304657
640.943 .0304379
641.700 .0304125
642.457 .0303887
643.214 .0303658
643.971 .0303433
644.727 .0303208
645.483 .0302980
646.239 .0302758
646.994 .0302539
647.750 .0302322
648.505 .0302127
649.259 .0301956
650.014 .0301799
650.768 .0301658
651.521 .0301533
652.275 .0301415
653.028 .0301302
653.781 .0301189
654.534 .0301069
655.286 .0300937
656.039 .0300793
656.791 .0300624
657.542 .0300435
658.294 .0300231
659.045 .0300018
659.796 .0299805
660.546 .0299601
661.297 .0299400
662.047 .0299205
662.796 .0299009
663.546 .0298810
664.295 .0298594
665.044 .0298363
665.793 .0298111
666.542 .0297849
667.290 .0297586
668.038 .0297333
668.786 .0297093
669.533 .0296880
670.281 .0296687
671.028 .0296512
671.774 .0296347
672.521 .0296189
673.267 .0296025
674.013 .0295863
674.759 .0295692
675.505 .0295523
676.250 .0295356
676.995 .0295201
677.740 .0295053
678.484 .0294922
679.229 .0294805
679.973 .0294691
680.717 .0294580
681.460 .0294468
682.204 .0294348
682.947 .0294225
683.690 .0294094
684.433 .0293956
685.175 .0293814
685.917 .0293682
686.659 .0293551
687.401 .0293431
688.142 .0293325
688.884 .0293228
689.625 .0293136
690.365 .0293042
691.106 .0292937
691.846 .0292817
692.586 .0292682
693.326 .0292534
694.066 .0292375
694.805 .0292223
695.545 .0292075
696.284 .0291939
697.022 .0291817
697.761 .0291701
698.499 .0291581
699.237 .0291460
699.975 .0291328
700.713 .0291181
701.450 .0291024
702.187 .0290861
702.924 .0290699
703.661 .0290548
704.397 .0290405
705.133 .0290274
705.869 .0290149
706.605 .0290033
707.341 .0289912
708.076 .0289791
708.811 .0289667
709.546 .0289535
710.281 .0289396
711.015 .0289249
711.749 .0289095
712.483 .0288937
713.217 .0288775
713.950 .0288611
714.684 .0288444
715.417 .0288276
716.150 .0288105
716.882 .0287931
717.615 .0287755
718.347 .0287576
719.079 .0287391
719.811 .0287200
720.542 .0287003
721.273 .0286803
722.005 .0286604
722.735 .0286409
723.466 .0286221
724.196 .0286039
724.927 .0285858
725.656 .0285677
726.386 .0285493
727.116 .0285307
727.845 .0285119
728.574 .0284925
729.303 .0284734
730.031 .0284547
730.760 .0284365
731.488 .0284195
732.216 .0284038
732.944 .0283895
733.671 .0283765
734.398 .0283645
735.125 .0283535
735.852 .0283431
736.579 .0283331
737.305 .0283234
738.031 .0283138
738.757 .0283043
739.483 .0282946
740.208 .0282846
740.933 .0282748
741.658 .0282652
742.383 .0282557
743.108 .0282459
743.832 .0282359
744.556 .0282255
745.280 .0282145
746.004 .0282029
746.727 .0281907
747.450 .0281783
748.173 .0281658
748.896 .0281536
749.618 .0281422
750.340 .0281316
751.062 .0281218
751.784 .0281123
752.506 .0281030
753.227 .0280935
753.948 .0280832
754.669 .0280722
755.389 .0280607
756.110 .0280482
756.830 .0280351
757.550 .0280211
758.269 .0280066
758.989 .0279920
759.708 .0279767
760.427 .0279606
761.146 .0279438
761.864 .0279267
762.582 .0279093
763.300 .0278923
764.018 .0278764
764.736 .0278611
765.453 .0278474
766.170 .0278351
766.887 .0278235
767.603 .0278125
768.320 .0278018
769.036 .0277905
769.751 .0277790
770.467 .0277663
771.182 .0277530
771.897 .0277396
772.612 .0277266
773.327 .0277139
774.041 .0277018
774.755 .0276903
775.469 .0276794
776.183 .0276689
776.896 .0276594
777.609 .0276505
778.322 .0276428
779.035 .0276363
779.747 .0276316
780.459 .0276286
781.171 .0276278
781.882 .0276283
782.594 .0276304
783.305 .0276332
784.016 .0276362
784.726 .0276389
785.436 .0276412
786.147 .0276425
786.856 .0276430
787.566 .0276420
788.275 .0276396
788.984 .0276356
789.693 .0276302
790.401 .0276232
791.110 .0276152
791.818 .0276067
792.525 .0275975
793.233 .0275881
793.940 .0275785
794.647 .0275687
795.353 .0275584
796.060 .0275478
796.766 .0275365
797.472 .0275249
798.177 .0275133
798.883 .0275015
799.588 .0274900
800.292 .0274792
800.997 .0274688
801.701 .0274584
802.405 .0274470
803.109 .0274341
803.812 .0274192
804.515 .0274025
805.218 .0273837
805.921 .0273637
806.623 .0273428
807.325 .0273219
808.027 .0273014
808.728 .0272816
809.429 .0272626
810.130 .0272442
810.831 .0272260
811.531 .0272074
812.231 .0271885
812.931 .0271693
813.630 .0271497
814.330 .0271307
815.029 .0271123
815.727 .0270948
816.426 .0270785
817.124 .0270636
817.821 .0270496
818.519 .0270370
819.216 .0270251
819.913 .0270139
820.609 .0270033
821.306 .0269933
822.002 .0269837
822.697 .0269750
823.393 .0269674
824.088 .0269605
824.783 .0269539
825.477 .0269479
826.171 .0269420
826.865 .0269365
827.559 .0269315
828.252 .0269268
828.945 .0269229
829.638 .0269197
830.330 .0269169
831.023 .0269144
831.714 .0269124
832.406 .0269104
833.097 .0269077
833.788 .0269043
834.479 .0269001
835.169 .0268955
835.859 .0268911
836.548 .0268870
837.238 .0268835
837.927 .0268804
838.615 .0268774
839.304 .0268744
839.992 .0268711
840.680 .0268672
841.367 .0268623
842.054 .0268565
842.741 .0268500
843.428 .0268431
844.114 .0268362
844.800 .0268295
845.485 .0268230
846.170 .0268162
846.855 .0268082
847.540 .0267986
848.224 .0267875
848.908 .0267748
849.592 .0267611
850.275 .0267468
850.958 .0267324
851.641 .0267181
852.323 .0267043
853.005 .0266909
853.687 .0266779
854.368 .0266649
855.049 .0266514
855.730 .0266373
856.410 .0266223
857.090 .0266067
857.769 .0265906
858.449 .0265742
859.128 .0265576
859.806 .0265406
860.485 .0265238
861.163 .0265070
861.840 .0264901
862.518 .0264733
863.195 .0264567
863.871 .0264399
864.548 .0264226
865.224 .0264052
865.899 .0263877
866.574 .0263699
867.249 .0263523
867.924 .0263349
868.598 .0263185
869.272 .0263032
869.946 .0262894
870.619 .0262772
871.292 .0262671
871.964 .0262585
872.636 .0262511
873.308 .0262447
873.979 .0262388
874.651 .0262326
875.321 .0262262
875.992 .0262196
876.662 .0262130
877.331 .0262063
878.001 .0262004
878.670 .0261951
879.338 .0261910
880.007 .0261878
880.675 .0261853
881.342 .0261837
882.009 .0261823
882.676 .0261810
883.343 .0261797
884.009 .0261785
884.675 .0261775
885.340 .0261761
886.005 .0261750
886.670 .0261741
887.334 .0261737
887.998 .0261733
888.662 .0261726
889.325 .0261719
889.988 .0261710
890.650 .0261697
891.312 .0261681
891.974 .0261664
892.636 .0261647
893.297 .0261629
893.957 .0261608
894.618 .0261583
895.278 .0261554
895.937 .0261523
896.596 .0261488
897.255 .0261448
897.914 .0261405
898.572 .0261358
899.230 .0261310
899.887 .0261261
900.544 .0261205
901.201 .0261140
901.857 .0261066
902.513 .0260979
903.168 .0260878
903.823 .0260764
904.478 .0260642
905.132 .0260515
905.786 .0260384
906.440 .0260250
907.093 .0260116
907.746 .0259984
908.399 .0259854
909.051 .0259718
909.703 .0259582
910.354 .0259439
911.005 .0259293
911.656 .0259139
912.306 .0258987
912.956 .0258835
913.605 .0258682
914.254 .0258529
914.903 .0258376
915.551 .0258219
916.199 .0258057
916.847 .0257883
917.494 .0257703
918.141 .0257513
918.788 .0257320
919.434 .0257125
920.079 .0256937
920.725 .0256754
921.370 .0256579
922.014 .0256412
922.658 .0256248
923.302 .0256084
923.946 .0255915
924.589 .0255740
925.231 .0255559
925.873 .0255375
926.515 .0255187
927.157 .0255006
927.798 .0254834
928.439 .0254668
929.079 .0254506
929.719 .0254348
930.359 .0254187
930.998 .0254023
931.637 .0253851
932.275 .0253673
932.913 .0253491
933.551 .0253312
934.188 .0253132
934.825 .0252959
935.462 .0252794
936.098 .0252637
936.733 .0252486
937.369 .0252341
938.004 .0252198
938.638 .0252059
939.273 .0251921
939.907 .0251788
940.540 .0251658
941.173 .0251539
941.806 .0251430
942.438 .0251336
943.070 .0251255
943.702 .0251186
944.333 .0251122
944.964 .0251058
945.594 .0250991
946.224 .0250912
946.854 .0250822
947.483 .0250722
948.112 .0250613
948.741 .0250501
949.369 .0250388
949.996 .0250277
950.624 .0250170
951.251 .0250066
951.878 .0249964
952.504 .0249860
953.130 .0249759
953.755 .0249659
954.380 .0249562
955.005 .0249470
955.629 .0249387
956.253 .0249311
956.877 .0249246
957.500 .0249192
958.123 .0249147
958.746 .0249108
959.368 .0249072
959.990 .0249035
960.611 .0248993
961.232 .0248947
961.853 .0248895
962.473 .0248834
963.093 .0248771
963.712 .0248698
964.331 .0248616
964.950 .0248532
965.569 .0248449
966.187 .0248370
966.804 .0248301
967.422 .0248247
968.039 .0248205
968.655 .0248181
969.272 .0248170
969.887 .0248166
970.503 .0248169
971.118 .0248178
971.733 .0248189
972.347 .0248203
972.961 .0248217
973.575 .0248229
974.188 .0248238
974.801 .0248243
975.414 .0248234
976.026 .0248209
976.638 .0248167
977.250 .0248106
977.861 .0248023
978.472 .0247924
979.083 .0247810
979.693 .0247683
980.303 .0247544
980.912 .0247399
981.521 .0247241
982.130 .0247077
982.738 .0246909
983.346 .0246739
983.954 .0246561
984.562 .0246383
985.169 .0246202
985.775 .0246018
986.382 .0245838
986.988 .0245662
987.594 .0245495
988.199 .0245347
988.804 .0245218
989.409 .0245105
990.013 .0245013
990.617 .0244939
991.221 .0244877
991.824 .0244833
992.427 .0244801
993.030 .0244781
993.632 .0244777
994.234 .0244793
994.836 .0244827
995.438 .0244884
996.039 .0244957
996.640 .0245040
997.240 .0245131
997.840 .0245223
998.440 .0245308
999.040 .0245393
999.639 .0245478
1000.238 .0245563
1000.836 .0245650
1001.435 .0245733
1002.033 .0245808
1002.630 .0245874
1003.228 .0245919
1003.825 .0245942
1004.422 .0245949
1005.018 .0245942
1005.614 .0245926
1006.210 .0245913
1006.806 .0245909
1007.401 .0245918
1007.996 .0245937
1008.591 .0245961
1009.186 .0245983
1009.780 .0245999
1010.374 .0246003
1010.967 .0246000
1011.561 .0245996
1012.154 .0245997
1012.746 .0246007
1013.339 .0246030
1013.931 .0246064
1014.523 .0246106
1015.115 .0246147
1015.706 .0246182
1016.298 .0246205
1016.888 .0246216
1017.479 .0246215
1018.069 .0246206
1018.660 .0246196
1019.250 .0246188
1019.839 .0246184
1020.429 .0246189
1021.018 .0246203
1021.607 .0246225
1022.195 .0246258
1022.784 .0246304
1023.372 .0246367
1023.960 .0246452
1024.547 .0246560
1025.135 .0246690
1025.722 .0246845
1026.309 .0247021
1026.896 .0247210
1027.483 .0247403
1028.069 .0247601
1028.655 .0247794
1029.241 .0247986
1029.827 .0248171
1030.412 .0248347
1030.997 .0248515
1031.582 .0248672
1032.167 .0248811
1032.752 .0248931
1033.336 .0249030
1033.921 .0249108
1034.505 .0249158
1035.089 .0249190
1035.672 .0249196
1036.256 .0249181
1036.839 .0249155
1037.422 .0249116
1038.005 .0249073
1038.588 .0249035
1039.171 .0249001
1039.753 .0248984
1040.335 .0248985
1040.918 .0249001
1041.500 .0249030
1042.081 .0249069
1042.663 .0249117
1043.244 .0249168
1043.826 .0249212
1044.407 .0249254
1044.988 .0249289
1045.569 .0249325
1046.150 .0249358
1046.730 .0249390
1047.311 .0249417
1047.891 .0249443
1048.471 .0249468
1049.052 .0249478
1049.632 .0249475
1050.211 .0249465
1050.791 .0249445
1051.371 .0249422
1051.950 .0249394
1052.530 .0249366
1053.109 .0249337
1053.688 .0249313
1054.268 .0249288
1054.847 .0249256
1055.426 .0249224
1056.005 .0249186
1056.583 .0249153
1057.162 .0249130
1057.741 .0249111
1058.319 .0249092
1058.898 .0249081
1059.476 .0249070
1060.055 .0249045
1060.633 .0249010
1061.211 .0248961
1061.790 .0248913
1062.368 .0248869
1062.946 .0248831
1063.524 .0248811
1064.102 .0248815
1064.680 .0248841
1065.258 .0248874
1065.836 .0248913
1066.414 .0248949
1066.992 .0248973
1067.570 .0248995
1068.148 .0249003
1068.726 .0249008
1069.304 .0249011
1069.882 .0249012
1070.460 .0249009
1071.038 .0248984
1071.616 .0248935
1072.194 .0248854
1072.772 .0248732
1073.350 .0248580
1073.928 .0248407
1074.506 .0248238
1075.084 .0248080
1075.662 .0247943
1076.240 .0247837
1076.819 .0247757
1077.397 .0247694
1077.976 .0247639
1078.554 .0247589
1079.133 .0247548
1079.711 .0247511
1080.290 .0247485
1080.869 .0247488
1081.448 .0247519
1082.027 .0247576
1082.606 .0247664
1083.185 .0247770
1083.764 .0247883
1084.343 .0247993
1084.923 .0248095
1085.502 .0248197
1086.082 .0248277
1086.662 .0248356
1087.242 .0248429
1087.822 .0248516
1088.402 .0248614
1088.983 .0248718
1089.563 .0248829
1090.144 .0248943
1090.725 .0249048
1091.306 .0249146
1091.887 .0249237
1092.469 .0249349
1093.050 .0249475
1093.632 .0249636
1094.214 .0249837
1094.796 .0250087
1095.379 .0250370
1095.961 .0250704
1096.544 .0251053
1097.127 .0251416
1097.710 .0251756
1098.294 .0252066
1098.877 .0252334
1099.461 .0252576
1100.046 .0252780
1100.630 .0252962
1101.215 .0253134
1101.800 .0253307
1102.385 .0253454
1102.970 .0253594
1103.556 .0253691
1104.142 .0253752
1104.728 .0253769
1105.315 .0253736
1105.902 .0253663
1106.489 .0253588
1107.077 .0253532
1107.664 .0253525
1108.253 .0253593
1108.841 .0253746
1109.430 .0253960
1110.019 .0254236
1110.609 .0254552
1111.198 .0254857
1111.789 .0255154
1112.379 .0255413
1112.970 .0255615
1113.561 .0255802
1114.153 .0255968
1114.745 .0256161
1115.338 .0256402
1115.931 .0256700
1116.524 .0257044
1117.117 .0257423
1117.712 .0257825
1118.306 .0258199
1118.901 .0258546
1119.496 .0258864
1120.092 .0259124
1120.689 .0259385
1121.285 .0259667
1121.882 .0260022
1122.480 .0260466
1123.078 .0261029
1123.677 .0261671
1124.276 .0262392
1124.875 .0263159
1125.476 .0263945
1126.076 .0264706
1126.677 .0265431
1127.279 .0266098
1127.881 .0266722
1128.484 .0267327
1129.087 .0267933
1129.691 .0268556
1130.295 .0269250
1130.900 .0269996
1131.505 .0270797
1132.111 .0271629
1132.718 .0272526
1133.325 .0273473
1133.933 .0274474
1134.541 .0275497
1135.150 .0276524
1135.760 .0277529
1136.370 .0278502
1136.981 .0279476
1137.592 .0280433
1138.204 .0281391
1138.817 .0282429
1139.431 .0283529
1140.045 .0284695
1140.660 .0285871
1141.275 .0287015
1141.891 .0288203
1142.508 .0290603
1143.126 .0291067
1143.744 .0290537
1144.363 .0290278
1144.983 .0294326
