Measurement Sequence started on: 15-12-46-377
Integration time: 28
Scans to Average: 2 
>>>>>Begin Spectral Data<<<<<
432.689 .0000100
433.621 .0000100
434.552 .0000100
435.482 .0000100
436.410 .0000100
437.337 .0000100
438.262 .0270199
439.187 .0572221
440.110 .0948161
441.031 .1371846
441.952 .1783779
442.871 .2108471
443.789 .2287184
444.705 .2299123
445.621 .2169113
446.535 .1950950
447.447 .1703092
448.359 .1323097
449.269 .1133764
450.178 .1012753
451.086 .0926806
451.993 .0860311
452.898 .0807661
453.803 .0764912
454.706 .0730201
455.608 .0700931
456.508 .0675792
457.408 .0654219
458.306 .0635055
459.204 .0617879
460.100 .0602215
460.995 .0588003
461.888 .0575049
462.781 .0563357
463.673 .0552742
464.563 .0543248
465.452 .0534645
466.340 .0526672
467.228 .0519114
468.114 .0511893
468.999 .0504882
469.882 .0498031
470.765 .0491458
471.647 .0485392
472.528 .0479720
473.407 .0474640
474.286 .0470128
475.163 .0466155
476.040 .0462621
476.915 .0459437
477.790 .0456511
478.663 .0453864
479.535 .0451415
480.407 .0449201
481.277 .0447203
482.147 .0445555
483.015 .0444215
483.883 .0443186
484.749 .0442457
485.615 .0442017
486.479 .0441747
487.343 .0441688
488.206 .0441717
489.067 .0441802
489.928 .0441947
490.788 .0442145
491.647 .0442418
492.505 .0442771
493.362 .0443210
494.218 .0443820
495.073 .0444601
495.928 .0445657
496.781 .0446915
497.634 .0448451
498.486 .0450334
499.337 .0452520
500.187 .0455017
501.036 .0457850
501.884 .0461018
502.731 .0464639
503.578 .0468632
504.424 .0473113
505.268 .0478060
506.113 .0483497
506.956 .0489358
507.798 .0495708
508.640 .0502523
509.480 .0509955
510.320 .0517993
511.160 .0526792
511.998 .0536347
512.836 .0546735
513.672 .0558047
514.508 .0570298
515.344 .0583614
516.178 .0598243
517.012 .0614424
517.845 .0632913
518.677 .0653561
519.508 .0676873
520.339 .0703316
521.169 .0733683
521.998 .0767891
522.826 .0806432
523.654 .0849874
524.481 .0898106
525.307 .0951684
526.133 .1010247
526.958 .1073505
527.782 .1140773
528.605 .1210890
529.428 .1282744
530.250 .1351655
531.072 .1415463
531.892 .1469581
532.712 .1512081
533.532 .1540527
534.350 .1552256
535.168 .1546055
535.986 .1522783
536.802 .1484078
537.618 .1431823
538.434 .1368549
539.249 .1299086
540.063 .1226218
540.876 .1153470
541.689 .1082317
542.501 .1015413
543.313 .0954332
544.124 .0899692
544.934 .0850099
545.744 .0805283
546.553 .0764524
547.361 .0727765
548.169 .0694910
548.976 .0665517
549.783 .0639643
550.589 .0617028
551.395 .0597240
552.200 .0579969
553.004 .0564635
553.808 .0550833
554.611 .0538118
555.414 .0526419
556.216 .0515359
557.018 .0505023
557.819 .0495357
558.619 .0486351
559.419 .0477986
560.218 .0470283
561.017 .0462996
561.815 .0456177
562.613 .0449693
563.410 .0443445
564.207 .0437373
565.003 .0431410
565.799 .0425532
566.594 .0419707
567.388 .0414089
568.182 .0408645
568.976 .0403423
569.769 .0398548
570.562 .0393940
571.354 .0389641
572.145 .0385629
572.936 .0381881
573.727 .0378374
574.517 .0374999
575.307 .0371682
576.096 .0368358
576.885 .0365085
577.673 .0361861
578.461 .0358683
579.248 .0355629
580.035 .0352704
580.821 .0349895
581.607 .0347210
582.392 .0344649
583.177 .0342239
583.962 .0339979
584.746 .0337879
585.529 .0335915
586.313 .0334094
587.095 .0332415
587.878 .0330883
588.660 .0329488
589.441 .0328213
590.222 .0327050
591.003 .0325989
591.783 .0325025
592.563 .0324140
593.342 .0323337
594.121 .0322595
594.899 .0321928
595.678 .0321313
596.455 .0320732
597.233 .0320186
598.009 .0319647
598.786 .0319114
599.562 .0318578
600.338 .0318041
601.113 .0317507
601.888 .0316980
602.663 .0316476
603.437 .0315990
604.211 .0315521
604.984 .0315073
605.757 .0314638
606.530 .0314214
607.302 .0313799
608.074 .0313392
608.845 .0313001
609.616 .0312627
610.387 .0312282
611.158 .0311970
611.928 .0311693
612.697 .0311456
613.467 .0311250
614.236 .0311073
615.004 .0310925
615.773 .0310800
616.541 .0310697
617.308 .0310619
618.076 .0310573
618.843 .0310552
619.609 .0310565
620.375 .0310597
621.141 .0310643
621.907 .0310691
622.672 .0310735
623.437 .0310756
624.202 .0310755
624.966 .0310735
625.730 .0310691
626.493 .0310623
627.257 .0310538
628.020 .0310430
628.782 .0310301
629.545 .0310139
630.307 .0309948
631.068 .0309718
631.830 .0309456
632.591 .0309154
633.352 .0308827
634.112 .0308483
634.872 .0308132
635.632 .0307782
636.392 .0307437
637.151 .0307104
637.910 .0306774
638.668 .0306448
639.427 .0306128
640.185 .0305816
640.943 .0305512
641.700 .0305209
642.457 .0304920
643.214 .0304637
643.971 .0304360
644.727 .0304089
645.483 .0303827
646.239 .0303569
646.994 .0303302
647.750 .0303039
648.505 .0302769
649.259 .0302500
650.014 .0302233
650.768 .0301963
651.521 .0301700
652.275 .0301442
653.028 .0301175
653.781 .0300903
654.534 .0300637
655.286 .0300366
656.039 .0300087
656.791 .0299801
657.542 .0299500
658.294 .0299188
659.045 .0298873
659.796 .0298560
660.546 .0298242
661.297 .0297931
662.047 .0297624
662.796 .0297318
663.546 .0297028
664.295 .0296745
665.044 .0296475
665.793 .0296230
666.542 .0296006
667.290 .0295792
668.038 .0295595
668.786 .0295421
669.533 .0295261
670.281 .0295114
671.028 .0294983
671.774 .0294860
672.521 .0294756
673.267 .0294669
674.013 .0294595
674.759 .0294534
675.505 .0294486
676.250 .0294436
676.995 .0294388
677.740 .0294337
678.484 .0294278
679.229 .0294214
679.973 .0294155
680.717 .0294100
681.460 .0294048
682.204 .0294003
682.947 .0293971
683.690 .0293941
684.433 .0293916
685.175 .0293885
685.917 .0293849
686.659 .0293810
687.401 .0293770
688.142 .0293726
688.884 .0293681
689.625 .0293638
690.365 .0293591
691.106 .0293533
691.846 .0293459
692.586 .0293367
693.326 .0293253
694.066 .0293123
694.805 .0292979
695.545 .0292825
696.284 .0292670
697.022 .0292514
697.761 .0292357
698.499 .0292198
699.237 .0292033
699.975 .0291856
700.713 .0291665
701.450 .0291467
702.187 .0291253
702.924 .0291034
703.661 .0290817
704.397 .0290609
705.133 .0290407
705.869 .0290214
706.605 .0290030
707.341 .0289847
708.076 .0289666
708.811 .0289477
709.546 .0289273
710.281 .0289064
711.015 .0288843
711.749 .0288603
712.483 .0288357
713.217 .0288110
713.950 .0287853
714.684 .0287593
715.417 .0287328
716.150 .0287056
716.882 .0286783
717.615 .0286511
718.347 .0286232
719.079 .0285950
719.811 .0285669
720.542 .0285379
721.273 .0285087
722.005 .0284795
722.735 .0284498
723.466 .0284201
724.196 .0283908
724.927 .0283615
725.656 .0283322
726.386 .0283037
727.116 .0282755
727.845 .0282477
728.574 .0282201
729.303 .0281926
730.031 .0281655
730.760 .0281395
731.488 .0281143
732.216 .0280904
732.944 .0280689
733.671 .0280497
734.398 .0280331
735.125 .0280189
735.852 .0280070
736.579 .0279970
737.305 .0279887
738.031 .0279818
738.757 .0279753
739.483 .0279695
740.208 .0279644
740.933 .0279597
741.658 .0279555
742.383 .0279510
743.108 .0279466
743.832 .0279422
744.556 .0279379
745.280 .0279330
746.004 .0279273
746.727 .0279213
747.450 .0279150
748.173 .0279083
748.896 .0279020
749.618 .0278960
750.340 .0278904
751.062 .0278860
751.784 .0278827
752.506 .0278802
753.227 .0278791
753.948 .0278786
754.669 .0278788
755.389 .0278792
756.110 .0278794
756.830 .0278795
757.550 .0278802
758.269 .0278813
758.989 .0278821
759.708 .0278828
760.427 .0278831
761.146 .0278827
761.864 .0278818
762.582 .0278800
763.300 .0278773
764.018 .0278740
764.736 .0278701
765.453 .0278659
766.170 .0278616
766.887 .0278576
767.603 .0278535
768.320 .0278497
769.036 .0278452
769.751 .0278398
770.467 .0278339
771.182 .0278278
771.897 .0278217
772.612 .0278158
773.327 .0278104
774.041 .0278057
774.755 .0278018
775.469 .0277987
776.183 .0277964
776.896 .0277949
777.609 .0277933
778.322 .0277916
779.035 .0277893
779.747 .0277869
780.459 .0277840
781.171 .0277809
781.882 .0277770
782.594 .0277721
783.305 .0277659
784.016 .0277585
784.726 .0277503
785.436 .0277410
786.147 .0277306
786.856 .0277190
787.566 .0277065
788.275 .0276929
788.984 .0276783
789.693 .0276627
790.401 .0276460
791.110 .0276278
791.818 .0276079
792.525 .0275868
793.233 .0275648
793.940 .0275420
794.647 .0275190
795.353 .0274960
796.060 .0274728
796.766 .0274494
797.472 .0274257
798.177 .0274016
798.883 .0273773
799.588 .0273521
800.292 .0273264
800.997 .0272999
801.701 .0272729
802.405 .0272458
803.109 .0272186
803.812 .0271916
804.515 .0271646
805.218 .0271373
805.921 .0271103
806.623 .0270833
807.325 .0270563
808.027 .0270290
808.728 .0270015
809.429 .0269733
810.130 .0269444
810.831 .0269145
811.531 .0268841
812.231 .0268530
812.931 .0268212
813.630 .0267894
814.330 .0267575
815.029 .0267265
815.727 .0266965
816.426 .0266676
817.124 .0266398
817.821 .0266125
818.519 .0265859
819.216 .0265601
819.913 .0265354
820.609 .0265120
821.306 .0264899
822.002 .0264703
822.697 .0264530
823.393 .0264380
824.088 .0264251
824.783 .0264143
825.477 .0264051
826.171 .0263976
826.865 .0263910
827.559 .0263859
828.252 .0263820
828.945 .0263798
829.638 .0263787
830.330 .0263787
831.023 .0263793
831.714 .0263804
832.406 .0263815
833.097 .0263828
833.788 .0263837
834.479 .0263846
835.169 .0263858
835.859 .0263879
836.548 .0263905
837.238 .0263938
837.927 .0263972
838.615 .0264018
839.304 .0264069
839.992 .0264128
840.680 .0264188
841.367 .0264259
842.054 .0264333
842.741 .0264414
843.428 .0264498
844.114 .0264588
844.800 .0264680
845.485 .0264774
846.170 .0264859
846.855 .0264941
847.540 .0265019
848.224 .0265096
848.908 .0265171
849.592 .0265247
850.275 .0265317
850.958 .0265380
851.641 .0265433
852.323 .0265482
853.005 .0265522
853.687 .0265558
854.368 .0265589
855.049 .0265617
855.730 .0265647
856.410 .0265676
857.090 .0265708
857.769 .0265743
858.449 .0265782
859.128 .0265819
859.806 .0265855
860.485 .0265891
861.163 .0265928
861.840 .0265962
862.518 .0265994
863.195 .0266022
863.871 .0266044
864.548 .0266054
865.224 .0266061
865.899 .0266061
866.574 .0266060
867.249 .0266057
867.924 .0266053
868.598 .0266042
869.272 .0266028
869.946 .0266003
870.619 .0265966
871.292 .0265915
871.964 .0265851
872.636 .0265771
873.308 .0265685
873.979 .0265597
874.651 .0265507
875.321 .0265421
875.992 .0265344
876.662 .0265270
877.331 .0265197
878.001 .0265126
878.670 .0265055
879.338 .0264982
880.007 .0264909
880.675 .0264840
881.342 .0264771
882.009 .0264710
882.676 .0264651
883.343 .0264598
884.009 .0264550
884.675 .0264501
885.340 .0264447
886.005 .0264386
886.670 .0264317
887.334 .0264235
887.998 .0264140
888.662 .0264038
889.325 .0263923
889.988 .0263799
890.650 .0263667
891.312 .0263529
891.974 .0263383
892.636 .0263236
893.297 .0263084
893.957 .0262933
894.618 .0262773
895.278 .0262607
895.937 .0262435
896.596 .0262259
897.255 .0262073
897.914 .0261875
898.572 .0261668
899.230 .0261456
899.887 .0261234
900.544 .0261007
901.201 .0260774
901.857 .0260541
902.513 .0260307
903.168 .0260071
903.823 .0259830
904.478 .0259581
905.132 .0259321
905.786 .0259050
906.440 .0258763
907.093 .0258458
907.746 .0258137
908.399 .0257808
909.051 .0257472
909.703 .0257137
910.354 .0256798
911.005 .0256461
911.656 .0256123
912.306 .0255775
912.956 .0255415
913.605 .0255045
914.254 .0254666
914.903 .0254282
915.551 .0253902
916.199 .0253533
916.847 .0253178
917.494 .0252847
918.141 .0252537
918.788 .0252243
919.434 .0251966
920.079 .0251697
920.725 .0251427
921.370 .0251159
922.014 .0250891
922.658 .0250618
923.302 .0250348
923.946 .0250085
924.589 .0249819
925.231 .0249554
925.873 .0249285
926.515 .0249005
927.157 .0248713
927.798 .0248410
928.439 .0248090
929.079 .0247761
929.719 .0247431
930.359 .0247101
930.998 .0246778
931.637 .0246474
932.275 .0246185
932.913 .0245913
933.551 .0245660
934.188 .0245424
934.825 .0245202
935.462 .0245000
936.098 .0244817
936.733 .0244654
937.369 .0244514
938.004 .0244395
938.638 .0244294
939.273 .0244216
939.907 .0244158
940.540 .0244112
941.173 .0244079
941.806 .0244061
942.438 .0244047
943.070 .0244040
943.702 .0244042
944.333 .0244051
944.964 .0244064
945.594 .0244079
946.224 .0244092
946.854 .0244106
947.483 .0244123
948.112 .0244139
948.741 .0244157
949.369 .0244184
949.996 .0244215
950.624 .0244250
951.251 .0244290
951.878 .0244336
952.504 .0244384
953.130 .0244430
953.755 .0244475
954.380 .0244516
955.005 .0244552
955.629 .0244587
956.253 .0244627
956.877 .0244673
957.500 .0244727
958.123 .0244789
958.746 .0244861
959.368 .0244940
959.990 .0245020
960.611 .0245099
961.232 .0245175
961.853 .0245250
962.473 .0245318
963.093 .0245382
963.712 .0245453
964.331 .0245530
964.950 .0245617
965.569 .0245721
966.187 .0245840
966.804 .0245977
967.422 .0246129
968.039 .0246293
968.655 .0246465
969.272 .0246644
969.887 .0246823
970.503 .0247001
971.118 .0247178
971.733 .0247355
972.347 .0247533
972.961 .0247719
973.575 .0247909
974.188 .0248104
974.801 .0248298
975.414 .0248486
976.026 .0248665
976.638 .0248829
977.250 .0248973
977.861 .0249098
978.472 .0249202
979.083 .0249287
979.693 .0249352
980.303 .0249402
980.912 .0249442
981.521 .0249473
982.130 .0249498
982.738 .0249515
983.346 .0249529
983.954 .0249540
984.562 .0249545
985.169 .0249543
985.775 .0249534
986.382 .0249520
986.988 .0249501
987.594 .0249475
988.199 .0249446
988.804 .0249420
989.409 .0249401
990.013 .0249390
990.617 .0249393
991.221 .0249410
991.824 .0249444
992.427 .0249496
993.030 .0249564
993.632 .0249644
994.234 .0249738
994.836 .0249840
995.438 .0249949
996.039 .0250063
996.640 .0250174
997.240 .0250289
997.840 .0250411
998.440 .0250540
999.040 .0250674
999.639 .0250814
1000.238 .0250955
1000.836 .0251092
1001.435 .0251217
1002.033 .0251324
1002.630 .0251410
1003.228 .0251476
1003.825 .0251523
1004.422 .0251555
1005.018 .0251577
1005.614 .0251595
1006.210 .0251611
1006.806 .0251626
1007.401 .0251633
1007.996 .0251629
1008.591 .0251614
1009.186 .0251591
1009.780 .0251559
1010.374 .0251525
1010.967 .0251493
1011.561 .0251465
1012.154 .0251440
1012.746 .0251412
1013.339 .0251378
1013.931 .0251329
1014.523 .0251261
1015.115 .0251175
1015.706 .0251075
1016.298 .0250967
1016.888 .0250857
1017.479 .0250757
1018.069 .0250670
1018.660 .0250591
1019.250 .0250517
1019.839 .0250442
1020.429 .0250367
1021.018 .0250288
1021.607 .0250204
1022.195 .0250118
1022.784 .0250038
1023.372 .0249967
1023.960 .0249914
1024.547 .0249882
1025.135 .0249873
1025.722 .0249880
1026.309 .0249895
1026.896 .0249917
1027.483 .0249935
1028.069 .0249945
1028.655 .0249942
1029.241 .0249922
1029.827 .0249884
1030.412 .0249824
1030.997 .0249748
1031.582 .0249657
1032.167 .0249558
1032.752 .0249449
1033.336 .0249324
1033.921 .0249190
1034.505 .0249041
1035.089 .0248876
1035.672 .0248690
1036.256 .0248488
1036.839 .0248269
1037.422 .0248042
1038.005 .0247815
1038.588 .0247595
1039.171 .0247386
1039.753 .0247186
1040.335 .0246994
1040.918 .0246800
1041.500 .0246597
1042.081 .0246382
1042.663 .0246146
1043.244 .0245908
1043.826 .0245661
1044.407 .0245415
1044.988 .0245178
1045.569 .0244961
1046.150 .0244760
1046.730 .0244573
1047.311 .0244394
1047.891 .0244207
1048.471 .0244018
1049.052 .0243814
1049.632 .0243598
1050.211 .0243388
1050.791 .0243182
1051.371 .0242988
1051.950 .0242813
1052.530 .0242668
1053.109 .0242534
1053.688 .0242408
1054.268 .0242293
1054.847 .0242161
1055.426 .0242017
1056.005 .0241865
1056.583 .0241700
1057.162 .0241537
1057.741 .0241381
1058.319 .0241223
1058.898 .0241082
1059.476 .0240945
1060.055 .0240795
1060.633 .0240636
1061.211 .0240477
1061.790 .0240319
1062.368 .0240154
1062.946 .0240012
1063.524 .0239898
1064.102 .0239804
1064.680 .0239737
1065.258 .0239667
1065.836 .0239593
1066.414 .0239508
1066.992 .0239394
1067.570 .0239261
1068.148 .0239120
1068.726 .0238991
1069.304 .0238892
1069.882 .0238839
1070.460 .0238840
1071.038 .0238871
1071.616 .0238928
1072.194 .0238997
1072.772 .0239038
1073.350 .0239038
1073.928 .0239003
1074.506 .0238941
1075.084 .0238865
1075.662 .0238772
1076.240 .0238682
1076.819 .0238596
1077.397 .0238528
1077.976 .0238465
1078.554 .0238387
1079.133 .0238311
1079.711 .0238218
1080.290 .0238094
1080.869 .0237947
1081.448 .0237778
1082.027 .0237606
1082.606 .0237440
1083.185 .0237315
1083.764 .0237228
1084.343 .0237194
1084.923 .0237214
1085.502 .0237298
1086.082 .0237437
1086.662 .0237630
1087.242 .0237838
1087.822 .0238056
1088.402 .0238276
1088.983 .0238486
1089.563 .0238686
1090.144 .0238888
1090.725 .0239107
1091.306 .0239334
1091.887 .0239542
1092.469 .0239740
1093.050 .0239903
1093.632 .0240039
1094.214 .0240146
1094.796 .0240219
1095.379 .0240268
1095.961 .0240310
1096.544 .0240360
1097.127 .0240434
1097.710 .0240538
1098.294 .0240661
1098.877 .0240798
1099.461 .0240952
1100.046 .0241117
1100.630 .0241268
1101.215 .0241441
1101.800 .0241661
1102.385 .0241912
1102.970 .0242201
1103.556 .0242523
1104.142 .0242869
1104.728 .0243262
1105.315 .0243678
1105.902 .0244107
1106.489 .0244550
1107.077 .0245003
1107.664 .0245455
1108.253 .0245921
1108.841 .0246389
1109.430 .0246856
1110.019 .0247309
1110.609 .0247768
1111.198 .0248195
1111.789 .0248611
1112.379 .0249040
1112.970 .0249481
1113.561 .0249948
1114.153 .0250436
1114.745 .0250955
1115.338 .0251515
1115.931 .0252086
1116.524 .0252630
1117.117 .0253158
1117.712 .0253654
1118.306 .0254085
1118.901 .0254497
1119.496 .0254901
1120.092 .0255327
1120.689 .0255773
1121.285 .0256236
1121.882 .0256735
1122.480 .0257265
1123.078 .0257824
1123.677 .0258377
1124.276 .0258903
1124.875 .0259407
1125.476 .0259841
1126.076 .0260272
1126.677 .0260718
1127.279 .0261176
1127.881 .0261686
1128.484 .0262251
1129.087 .0262836
1129.691 .0263472
1130.295 .0264147
1130.900 .0264894
1131.505 .0265719
1132.111 .0266621
1132.718 .0267570
1133.325 .0268585
1133.933 .0269687
1134.541 .0270815
1135.150 .0271966
1135.760 .0273129
1136.370 .0274223
1136.981 .0275298
1137.592 .0276358
1138.204 .0277456
1138.817 .0278626
1139.431 .0279870
1140.045 .0281140
1140.660 .0282343
1141.275 .0283623
1141.891 .0284683
1142.508 .0287147
1143.126 .0287088
1143.744 .0285535
1144.363 .0290552
1144.983 .0286348
