Measurement Sequence started on: 15-12-46-377
Integration time: 28
Scans to Average: 2 
>>>>>Begin Spectral Data<<<<<
432.689 .0000100
433.621 .0000100
434.552 .0000100
435.482 .0000100
436.410 .0000100
437.337 .0000100
438.262 .0273684
439.187 .0582226
440.110 .0965082
441.031 .1396428
441.952 .1816028
442.871 .2146653
443.789 .2328955
444.705 .2341814
445.621 .2210386
446.535 .1989722
447.447 .1739673
448.359 .1356394
449.269 .1165432
450.178 .1045862
451.086 .0961776
451.993 .0896663
452.898 .0845191
453.803 .0802815
454.706 .0767988
455.608 .0738578
456.508 .0713405
457.408 .0691655
458.306 .0672588
459.204 .0655532
460.100 .0640092
460.995 .0626028
461.888 .0613135
462.781 .0601085
463.673 .0590033
464.563 .0579938
465.452 .0570606
466.340 .0561764
467.228 .0553709
468.114 .0546269
468.999 .0539486
469.882 .0533105
470.765 .0527225
471.647 .0521817
472.528 .0516879
473.407 .0512310
474.286 .0508177
475.163 .0504443
476.040 .0501251
476.915 .0498360
477.790 .0495860
478.663 .0493643
479.535 .0491737
480.407 .0490058
481.277 .0488636
482.147 .0487377
483.015 .0486181
483.883 .0485076
484.749 .0484123
485.615 .0483252
486.479 .0482574
487.343 .0482128
488.206 .0481945
489.067 .0482004
489.928 .0482331
490.788 .0482857
491.647 .0483661
492.505 .0484716
493.362 .0486039
494.218 .0487549
495.073 .0489339
495.928 .0491528
496.781 .0493998
497.634 .0496940
498.486 .0500300
499.337 .0503985
500.187 .0508007
501.036 .0512289
501.884 .0516729
502.731 .0521271
503.578 .0525921
504.424 .0530612
505.268 .0535236
506.113 .0540013
506.956 .0544938
507.798 .0550059
508.640 .0555520
509.480 .0561446
510.320 .0567875
511.160 .0575068
511.998 .0582920
512.836 .0591546
513.672 .0601242
514.508 .0612171
515.344 .0624475
516.178 .0638448
517.012 .0654697
517.845 .0673829
518.677 .0696289
519.508 .0722418
520.339 .0752662
521.169 .0787609
521.998 .0827246
522.826 .0871961
523.654 .0921733
524.481 .0976685
525.307 .1037108
526.133 .1102398
526.958 .1172550
527.782 .1246894
528.605 .1323489
529.428 .1400981
530.250 .1474558
531.072 .1541211
531.892 .1596056
532.712 .1636338
533.532 .1660262
534.350 .1665493
535.168 .1651510
535.986 .1619564
536.802 .1571929
537.618 .1512028
538.434 .1442532
539.249 .1367956
540.063 .1291243
540.876 .1215493
541.689 .1142441
542.501 .1073602
543.313 .1010636
544.124 .0954068
544.934 .0902733
545.744 .0856329
546.553 .0814459
547.361 .0776562
548.169 .0742939
548.976 .0712917
549.783 .0686434
550.589 .0662916
551.395 .0641730
552.200 .0622644
553.004 .0605179
553.808 .0589081
554.611 .0574276
555.414 .0560642
556.216 .0548196
557.018 .0536943
557.819 .0526896
558.619 .0517972
559.419 .0510132
560.218 .0503052
561.017 .0496626
561.815 .0490487
562.613 .0484413
563.410 .0478249
564.207 .0472068
565.003 .0465937
565.799 .0459811
566.594 .0453717
567.388 .0447966
568.182 .0442399
568.976 .0437122
569.769 .0432058
570.562 .0427161
571.354 .0422352
572.145 .0417622
572.936 .0412881
573.727 .0408133
574.517 .0403441
575.307 .0398862
576.096 .0394405
576.885 .0390162
577.673 .0386141
578.461 .0382396
579.248 .0378939
580.035 .0375798
580.821 .0372853
581.607 .0370115
582.392 .0367556
583.177 .0365115
583.962 .0362778
584.746 .0360550
585.529 .0358438
586.313 .0356454
587.095 .0354604
587.878 .0352890
588.660 .0351297
589.441 .0349882
590.222 .0348604
591.003 .0347458
591.783 .0346413
592.563 .0345451
593.342 .0344549
594.121 .0343688
594.899 .0342877
595.678 .0342095
596.455 .0341370
597.233 .0340697
598.009 .0340076
598.786 .0339512
599.562 .0338984
600.338 .0338482
601.113 .0337986
601.888 .0337488
602.663 .0336958
603.437 .0336399
604.211 .0335819
604.984 .0335214
605.757 .0334597
606.530 .0333980
607.302 .0333379
608.074 .0332798
608.845 .0332241
609.616 .0331705
610.387 .0331189
611.158 .0330704
611.928 .0330239
612.697 .0329796
613.467 .0329383
614.236 .0329008
615.004 .0328666
615.773 .0328364
616.541 .0328102
617.308 .0327871
618.076 .0327672
618.843 .0327493
619.609 .0327330
620.375 .0327173
621.141 .0327022
621.907 .0326870
622.672 .0326720
623.437 .0326573
624.202 .0326417
624.966 .0326257
625.730 .0326097
626.493 .0325927
627.257 .0325749
628.020 .0325563
628.782 .0325376
629.545 .0325185
630.307 .0324990
631.068 .0324789
631.830 .0324588
632.591 .0324384
633.352 .0324176
634.112 .0323960
634.872 .0323746
635.632 .0323528
636.392 .0323309
637.151 .0323090
637.910 .0322874
638.668 .0322654
639.427 .0322434
640.185 .0322204
640.943 .0321970
641.700 .0321721
642.457 .0321464
643.214 .0321199
643.971 .0320929
644.727 .0320662
645.483 .0320396
646.239 .0320135
646.994 .0319881
647.750 .0319627
648.505 .0319374
649.259 .0319114
650.014 .0318845
650.768 .0318555
651.521 .0318245
652.275 .0317917
653.028 .0317575
653.781 .0317223
654.534 .0316867
655.286 .0316508
656.039 .0316153
656.791 .0315799
657.542 .0315437
658.294 .0315067
659.045 .0314690
659.796 .0314293
660.546 .0313881
661.297 .0313454
662.047 .0313024
662.796 .0312594
663.546 .0312176
664.295 .0311772
665.044 .0311390
665.793 .0311033
666.542 .0310694
667.290 .0310367
668.038 .0310055
668.786 .0309741
669.533 .0309428
670.281 .0309120
671.028 .0308820
671.774 .0308531
672.521 .0308262
673.267 .0308018
674.013 .0307796
674.759 .0307594
675.505 .0307408
676.250 .0307228
676.995 .0307049
677.740 .0306864
678.484 .0306670
679.229 .0306473
679.973 .0306275
680.717 .0306080
681.460 .0305896
682.204 .0305726
682.947 .0305572
683.690 .0305433
684.433 .0305298
685.175 .0305171
685.917 .0305044
686.659 .0304915
687.401 .0304781
688.142 .0304647
688.884 .0304516
689.625 .0304394
690.365 .0304280
691.106 .0304172
691.846 .0304075
692.586 .0303981
693.326 .0303885
694.066 .0303785
694.805 .0303677
695.545 .0303562
696.284 .0303439
697.022 .0303313
697.761 .0303184
698.499 .0303056
699.237 .0302931
699.975 .0302806
700.713 .0302683
701.450 .0302563
702.187 .0302441
702.924 .0302319
703.661 .0302199
704.397 .0302077
705.133 .0301960
705.869 .0301842
706.605 .0301727
707.341 .0301614
708.076 .0301498
708.811 .0301378
709.546 .0301253
710.281 .0301122
711.015 .0300978
711.749 .0300822
712.483 .0300656
713.217 .0300474
713.950 .0300281
714.684 .0300081
715.417 .0299874
716.150 .0299664
716.882 .0299447
717.615 .0299227
718.347 .0299008
719.079 .0298791
719.811 .0298569
720.542 .0298349
721.273 .0298127
722.005 .0297904
722.735 .0297676
723.466 .0297449
724.196 .0297218
724.927 .0296983
725.656 .0296744
726.386 .0296500
727.116 .0296254
727.845 .0296009
728.574 .0295761
729.303 .0295517
730.031 .0295274
730.760 .0295029
731.488 .0294781
732.216 .0294532
732.944 .0294282
733.671 .0294027
734.398 .0293776
735.125 .0293530
735.852 .0293291
736.579 .0293065
737.305 .0292851
738.031 .0292654
738.757 .0292470
739.483 .0292289
740.208 .0292110
740.933 .0291934
741.658 .0291757
742.383 .0291577
743.108 .0291398
743.832 .0291222
744.556 .0291052
745.280 .0290890
746.004 .0290736
746.727 .0290587
747.450 .0290446
748.173 .0290298
748.896 .0290143
749.618 .0289979
750.340 .0289799
751.062 .0289606
751.784 .0289404
752.506 .0289193
753.227 .0288976
753.948 .0288752
754.669 .0288530
755.389 .0288306
756.110 .0288082
756.830 .0287854
757.550 .0287621
758.269 .0287384
758.989 .0287138
759.708 .0286885
760.427 .0286636
761.146 .0286392
761.864 .0286161
762.582 .0285941
763.300 .0285739
764.018 .0285554
764.736 .0285386
765.453 .0285232
766.170 .0285090
766.887 .0284958
767.603 .0284836
768.320 .0284724
769.036 .0284624
769.751 .0284536
770.467 .0284463
771.182 .0284401
771.897 .0284348
772.612 .0284296
773.327 .0284247
774.041 .0284197
774.755 .0284146
775.469 .0284094
776.183 .0284047
776.896 .0284007
777.609 .0283981
778.322 .0283965
779.035 .0283960
779.747 .0283966
780.459 .0283982
781.171 .0284003
781.882 .0284028
782.594 .0284054
783.305 .0284087
784.016 .0284124
784.726 .0284170
785.436 .0284223
786.147 .0284283
786.856 .0284351
787.566 .0284422
788.275 .0284489
788.984 .0284554
789.693 .0284611
790.401 .0284661
791.110 .0284697
791.818 .0284723
792.525 .0284738
793.233 .0284747
793.940 .0284747
794.647 .0284741
795.353 .0284727
796.060 .0284706
796.766 .0284677
797.472 .0284639
798.177 .0284592
798.883 .0284537
799.588 .0284480
800.292 .0284421
800.997 .0284360
801.701 .0284301
802.405 .0284247
803.109 .0284201
803.812 .0284160
804.515 .0284118
805.218 .0284073
805.921 .0284026
806.623 .0283970
807.325 .0283898
808.027 .0283816
808.728 .0283722
809.429 .0283618
810.130 .0283503
810.831 .0283386
811.531 .0283266
812.231 .0283141
812.931 .0283008
813.630 .0282859
814.330 .0282692
815.029 .0282505
815.727 .0282294
816.426 .0282069
817.124 .0281835
817.821 .0281596
818.519 .0281359
819.216 .0281136
819.913 .0280928
820.609 .0280733
821.306 .0280556
822.002 .0280394
822.697 .0280238
823.393 .0280091
824.088 .0279946
824.783 .0279806
825.477 .0279673
826.171 .0279545
826.865 .0279423
827.559 .0279312
828.252 .0279207
828.945 .0279107
829.638 .0279009
830.330 .0278914
831.023 .0278812
831.714 .0278701
832.406 .0278578
833.097 .0278442
833.788 .0278292
834.479 .0278129
835.169 .0277955
835.859 .0277778
836.548 .0277591
837.238 .0277403
837.927 .0277207
838.615 .0277007
839.304 .0276801
839.992 .0276589
840.680 .0276369
841.367 .0276142
842.054 .0275915
842.741 .0275690
843.428 .0275470
844.114 .0275260
844.800 .0275058
845.485 .0274862
846.170 .0274665
846.855 .0274462
847.540 .0274252
848.224 .0274039
848.908 .0273823
849.592 .0273606
850.275 .0273393
850.958 .0273184
851.641 .0272975
852.323 .0272768
853.005 .0272557
853.687 .0272337
854.368 .0272108
855.049 .0271866
855.730 .0271618
856.410 .0271364
857.090 .0271113
857.769 .0270868
858.449 .0270630
859.128 .0270398
859.806 .0270171
860.485 .0269950
861.163 .0269736
861.840 .0269527
862.518 .0269324
863.195 .0269127
863.871 .0268936
864.548 .0268750
865.224 .0268567
865.899 .0268387
866.574 .0268214
867.249 .0268042
867.924 .0267874
868.598 .0267712
869.272 .0267562
869.946 .0267423
870.619 .0267296
871.292 .0267182
871.964 .0267072
872.636 .0266965
873.308 .0266859
873.979 .0266749
874.651 .0266639
875.321 .0266529
875.992 .0266421
876.662 .0266323
877.331 .0266239
878.001 .0266170
878.670 .0266117
879.338 .0266081
880.007 .0266058
880.675 .0266044
881.342 .0266040
882.009 .0266049
882.676 .0266067
883.343 .0266096
884.009 .0266137
884.675 .0266186
885.340 .0266239
886.005 .0266299
886.670 .0266368
887.334 .0266447
887.998 .0266533
888.662 .0266626
889.325 .0266733
889.988 .0266859
890.650 .0266998
891.312 .0267147
891.974 .0267308
892.636 .0267476
893.297 .0267638
893.957 .0267796
894.618 .0267951
895.278 .0268101
895.937 .0268249
896.596 .0268400
897.255 .0268554
897.914 .0268711
898.572 .0268872
899.230 .0269038
899.887 .0269200
900.544 .0269351
901.201 .0269480
901.857 .0269589
902.513 .0269674
903.168 .0269728
903.823 .0269755
904.478 .0269760
905.132 .0269747
905.786 .0269714
906.440 .0269667
907.093 .0269614
907.746 .0269555
908.399 .0269491
909.051 .0269423
909.703 .0269348
910.354 .0269266
911.005 .0269179
911.656 .0269084
912.306 .0268985
912.956 .0268880
913.605 .0268775
914.254 .0268671
914.903 .0268573
915.551 .0268484
916.199 .0268403
916.847 .0268334
917.494 .0268275
918.141 .0268221
918.788 .0268173
919.434 .0268129
920.079 .0268086
920.725 .0268039
921.370 .0267984
922.014 .0267919
922.658 .0267839
923.302 .0267746
923.946 .0267637
924.589 .0267512
925.231 .0267376
925.873 .0267231
926.515 .0267080
927.157 .0266925
927.798 .0266760
928.439 .0266584
929.079 .0266398
929.719 .0266198
930.359 .0265983
930.998 .0265755
931.637 .0265525
932.275 .0265297
932.913 .0265074
933.551 .0264863
934.188 .0264668
934.825 .0264490
935.462 .0264329
936.098 .0264175
936.733 .0264028
937.369 .0263886
938.004 .0263751
938.638 .0263618
939.273 .0263492
939.907 .0263375
940.540 .0263263
941.173 .0263164
941.806 .0263074
942.438 .0262992
943.070 .0262916
943.702 .0262844
944.333 .0262771
944.964 .0262691
945.594 .0262602
946.224 .0262499
946.854 .0262385
947.483 .0262265
948.112 .0262134
948.741 .0261995
949.369 .0261855
949.996 .0261717
950.624 .0261581
951.251 .0261449
951.878 .0261317
952.504 .0261178
953.130 .0261033
953.755 .0260875
954.380 .0260698
955.005 .0260507
955.629 .0260304
956.253 .0260088
956.877 .0259872
957.500 .0259658
958.123 .0259442
958.746 .0259229
959.368 .0259015
959.990 .0258793
960.611 .0258557
961.232 .0258303
961.853 .0258031
962.473 .0257746
963.093 .0257451
963.712 .0257146
964.331 .0256840
964.950 .0256542
965.569 .0256253
966.187 .0255979
966.804 .0255722
967.422 .0255476
968.039 .0255242
968.655 .0255018
969.272 .0254793
969.887 .0254567
970.503 .0254338
971.118 .0254105
971.733 .0253871
972.347 .0253634
972.961 .0253401
973.575 .0253172
974.188 .0252955
974.801 .0252741
975.414 .0252527
976.026 .0252311
976.638 .0252087
977.250 .0251849
977.861 .0251601
978.472 .0251343
979.083 .0251071
979.693 .0250791
980.303 .0250506
980.912 .0250222
981.521 .0249939
982.130 .0249666
982.738 .0249403
983.346 .0249148
983.954 .0248900
984.562 .0248657
985.169 .0248418
985.775 .0248185
986.382 .0247948
986.988 .0247710
987.594 .0247472
988.199 .0247232
988.804 .0246991
989.409 .0246761
990.013 .0246548
990.617 .0246354
991.221 .0246176
991.824 .0246019
992.427 .0245880
993.030 .0245755
993.632 .0245641
994.234 .0245535
994.836 .0245436
995.438 .0245338
996.039 .0245244
996.640 .0245156
997.240 .0245079
997.840 .0245011
998.440 .0244959
999.040 .0244916
999.639 .0244879
1000.238 .0244842
1000.836 .0244804
1001.435 .0244761
1002.033 .0244713
1002.630 .0244651
1003.228 .0244578
1003.825 .0244501
1004.422 .0244419
1005.018 .0244330
1005.614 .0244247
1006.210 .0244168
1006.806 .0244102
1007.401 .0244040
1007.996 .0243993
1008.591 .0243955
1009.186 .0243935
1009.780 .0243929
1010.374 .0243933
1010.967 .0243945
1011.561 .0243967
1012.154 .0243993
1012.746 .0244029
1013.339 .0244067
1013.931 .0244114
1014.523 .0244169
1015.115 .0244232
1015.706 .0244303
1016.298 .0244382
1016.888 .0244468
1017.479 .0244565
1018.069 .0244666
1018.660 .0244777
1019.250 .0244893
1019.839 .0245016
1020.429 .0245149
1021.018 .0245292
1021.607 .0245452
1022.195 .0245629
1022.784 .0245819
1023.372 .0246031
1023.960 .0246261
1024.547 .0246504
1025.135 .0246757
1025.722 .0247018
1026.309 .0247285
1026.896 .0247550
1027.483 .0247820
1028.069 .0248089
1028.655 .0248356
1029.241 .0248622
1029.827 .0248880
1030.412 .0249132
1030.997 .0249371
1031.582 .0249594
1032.167 .0249795
1032.752 .0249978
1033.336 .0250144
1033.921 .0250285
1034.505 .0250420
1035.089 .0250551
1035.672 .0250682
1036.256 .0250813
1036.839 .0250945
1037.422 .0251078
1038.005 .0251219
1038.588 .0251362
1039.171 .0251510
1039.753 .0251669
1040.335 .0251837
1040.918 .0252008
1041.500 .0252182
1042.081 .0252359
1042.663 .0252538
1043.244 .0252711
1043.826 .0252879
1044.407 .0253033
1044.988 .0253185
1045.569 .0253326
1046.150 .0253465
1046.730 .0253609
1047.311 .0253748
1047.891 .0253877
1048.471 .0253998
1049.052 .0254110
1049.632 .0254214
1050.211 .0254315
1050.791 .0254423
1051.371 .0254533
1051.950 .0254653
1052.530 .0254786
1053.109 .0254933
1053.688 .0255103
1054.268 .0255290
1054.847 .0255480
1055.426 .0255672
1056.005 .0255862
1056.583 .0256039
1057.162 .0256206
1057.741 .0256380
1058.319 .0256550
1058.898 .0256723
1059.476 .0256903
1060.055 .0257093
1060.633 .0257290
1061.211 .0257498
1061.790 .0257717
1062.368 .0257934
1062.946 .0258152
1063.524 .0258361
1064.102 .0258558
1064.680 .0258753
1065.258 .0258944
1065.836 .0259135
1066.414 .0259329
1066.992 .0259532
1067.570 .0259727
1068.148 .0259922
1068.726 .0260113
1069.304 .0260287
1069.882 .0260433
1070.460 .0260553
1071.038 .0260654
1071.616 .0260728
1072.194 .0260791
1072.772 .0260844
1073.350 .0260904
1073.928 .0260985
1074.506 .0261072
1075.084 .0261168
1075.662 .0261271
1076.240 .0261383
1076.819 .0261480
1077.397 .0261562
1077.976 .0261636
1078.554 .0261698
1079.133 .0261753
1079.711 .0261807
1080.290 .0261863
1080.869 .0261939
1081.448 .0262036
1082.027 .0262147
1082.606 .0262272
1083.185 .0262416
1083.764 .0262551
1084.343 .0262694
1084.923 .0262845
1085.502 .0263001
1086.082 .0263149
1086.662 .0263313
1087.242 .0263485
1087.822 .0263665
1088.402 .0263845
1088.983 .0264012
1089.563 .0264156
1090.144 .0264279
1090.725 .0264337
1091.306 .0264345
1091.887 .0264323
1092.469 .0264285
1093.050 .0264229
1093.632 .0264192
1094.214 .0264174
1094.796 .0264181
1095.379 .0264218
1095.961 .0264275
1096.544 .0264342
1097.127 .0264421
1097.710 .0264490
1098.294 .0264547
1098.877 .0264609
1099.461 .0264690
1100.046 .0264771
1100.630 .0264894
1101.215 .0265048
1101.800 .0265221
1102.385 .0265402
1102.970 .0265586
1103.556 .0265751
1104.142 .0265884
1104.728 .0265973
1105.315 .0265996
1105.902 .0265963
1106.489 .0265900
1107.077 .0265802
1107.664 .0265702
1108.253 .0265651
1108.841 .0265669
1109.430 .0265757
1110.019 .0265931
1110.609 .0266189
1111.198 .0266508
1111.789 .0266870
1112.379 .0267260
1112.970 .0267632
1113.561 .0268001
1114.153 .0268382
1114.745 .0268758
1115.338 .0269192
1115.931 .0269675
1116.524 .0270199
1117.117 .0270757
1117.712 .0271345
1118.306 .0271923
1118.901 .0272457
1119.496 .0272952
1120.092 .0273392
1120.689 .0273763
1121.285 .0274097
1121.882 .0274386
1122.480 .0274673
1123.078 .0274999
1123.677 .0275340
1124.276 .0275685
1124.875 .0276094
1125.476 .0276519
1126.076 .0276985
1126.677 .0277479
1127.279 .0277998
1127.881 .0278518
1128.484 .0279033
1129.087 .0279556
1129.691 .0280076
1130.295 .0280594
1130.900 .0281105
1131.505 .0281591
1132.111 .0282057
1132.718 .0282479
1133.325 .0282858
1133.933 .0283222
1134.541 .0283625
1135.150 .0284053
1135.760 .0284530
1136.370 .0285097
1136.981 .0285824
1137.592 .0286689
1138.204 .0287677
1138.817 .0288764
1139.431 .0290021
1140.045 .0291515
1140.660 .0293277
1141.275 .0295327
1141.891 .0297848
1142.508 .0298524
1143.126 .0303542
1143.744 .0307348
1144.363 .0310663
1144.983 .0317015
