Measurement Sequence started on: 15-12-46-377
Integration time: 28
Scans to Average: 2 
>>>>>Begin Spectral Data<<<<<
432.689 .0000100
433.621 .0000100
434.552 .0000100
435.482 .0000100
436.410 .0000100
437.337 .0000100
438.262 .0271425
439.187 .0573296
440.110 .0948730
441.031 .1371439
441.952 .1780953
442.871 .2102005
443.789 .2275830
444.705 .2282805
445.621 .2148198
446.535 .1926081
447.447 .1675527
448.359 .1293569
449.269 .1105149
450.178 .0985331
451.086 .0900729
451.993 .0836102
452.898 .0784990
453.803 .0743594
454.706 .0709662
455.608 .0681112
456.508 .0657091
457.408 .0636673
458.306 .0618835
459.204 .0603083
460.100 .0588987
460.995 .0576188
461.888 .0564442
462.781 .0553670
463.673 .0543603
464.563 .0534326
465.452 .0525837
466.340 .0517897
467.228 .0510571
468.114 .0503775
468.999 .0497445
469.882 .0491514
470.765 .0485977
471.647 .0480820
472.528 .0476084
473.407 .0471736
474.286 .0467773
475.163 .0464195
476.040 .0460929
476.915 .0457919
477.790 .0455124
478.663 .0452582
479.535 .0450249
480.407 .0448205
481.277 .0446434
482.147 .0444889
483.015 .0443608
483.883 .0442499
484.749 .0441595
485.615 .0440832
486.479 .0440191
487.343 .0439668
488.206 .0439316
489.067 .0439091
489.928 .0438918
490.788 .0438972
491.647 .0439229
492.505 .0439681
493.362 .0440335
494.218 .0441199
495.073 .0442300
495.928 .0443636
496.781 .0445158
497.634 .0446868
498.486 .0448826
499.337 .0450963
500.187 .0453320
501.036 .0455958
501.884 .0458971
502.731 .0462356
503.578 .0466139
504.424 .0470477
505.268 .0475149
506.113 .0480211
506.956 .0485627
507.798 .0491417
508.640 .0497642
509.480 .0504162
510.320 .0511187
511.160 .0518903
511.998 .0527485
512.836 .0537027
513.672 .0547586
514.508 .0559307
515.344 .0572151
516.178 .0586189
517.012 .0601688
517.845 .0619055
518.677 .0638655
519.508 .0660962
520.339 .0686291
521.169 .0715290
521.998 .0748144
522.826 .0784922
523.654 .0826071
524.481 .0871575
525.307 .0921353
526.133 .0975120
526.958 .1032983
527.782 .1094698
528.605 .1159341
529.428 .1226001
530.250 .1289934
531.072 .1349084
531.892 .1399297
532.712 .1437642
533.532 .1461555
534.350 .1469601
535.168 .1460613
535.986 .1435445
536.802 .1396057
537.618 .1345025
538.434 .1284918
539.249 .1220469
540.063 .1153293
540.876 .1086540
541.689 .1021658
542.501 .0960871
543.313 .0905058
544.124 .0855218
544.934 .0810433
545.744 .0770270
546.553 .0734262
547.361 .0702159
548.169 .0673504
548.976 .0647899
549.783 .0625010
550.589 .0604784
551.395 .0586578
552.200 .0570257
553.004 .0555623
553.808 .0542460
554.611 .0530571
555.414 .0519912
556.216 .0510198
557.018 .0501344
557.819 .0493194
558.619 .0485658
559.419 .0478482
560.218 .0471715
561.017 .0465284
561.815 .0458980
562.613 .0452804
563.410 .0446689
564.207 .0440571
565.003 .0434574
565.799 .0428675
566.594 .0422786
567.388 .0417120
568.182 .0411563
568.976 .0406142
569.769 .0400890
570.562 .0395816
571.354 .0390881
572.145 .0386086
572.936 .0381418
573.727 .0376875
574.517 .0372441
575.307 .0368197
576.096 .0364110
576.885 .0360252
577.673 .0356632
578.461 .0353218
579.248 .0349984
580.035 .0346987
580.821 .0344161
581.607 .0341508
582.392 .0338996
583.177 .0336666
583.962 .0334510
584.746 .0332545
585.529 .0330771
586.313 .0329162
587.095 .0327688
587.878 .0326370
588.660 .0325153
589.441 .0324039
590.222 .0323003
591.003 .0322056
591.783 .0321197
592.563 .0320442
593.342 .0319777
594.121 .0319178
594.899 .0318660
595.678 .0318214
596.455 .0317797
597.233 .0317406
598.009 .0317018
598.786 .0316635
599.562 .0316249
600.338 .0315871
601.113 .0315498
601.888 .0315145
602.663 .0314823
603.437 .0314521
604.211 .0314240
604.984 .0313971
605.757 .0313705
606.530 .0313438
607.302 .0313163
608.074 .0312884
608.845 .0312603
609.616 .0312336
610.387 .0312088
611.158 .0311866
611.928 .0311649
612.697 .0311443
613.467 .0311239
614.236 .0311023
615.004 .0310789
615.773 .0310539
616.541 .0310277
617.308 .0310012
618.076 .0309759
618.843 .0309517
619.609 .0309288
620.375 .0309087
621.141 .0308889
621.907 .0308690
622.672 .0308482
623.437 .0308265
624.202 .0308036
624.966 .0307811
625.730 .0307600
626.493 .0307397
627.257 .0307213
628.020 .0307050
628.782 .0306893
629.545 .0306740
630.307 .0306575
631.068 .0306397
631.830 .0306207
632.591 .0306006
633.352 .0305791
634.112 .0305574
634.872 .0305364
635.632 .0305161
636.392 .0304949
637.151 .0304740
637.910 .0304531
638.668 .0304313
639.427 .0304087
640.185 .0303855
640.943 .0303621
641.700 .0303393
642.457 .0303169
643.214 .0302951
643.971 .0302737
644.727 .0302534
645.483 .0302338
646.239 .0302148
646.994 .0301965
647.750 .0301779
648.505 .0301596
649.259 .0301424
650.014 .0301255
650.768 .0301088
651.521 .0300933
652.275 .0300791
653.028 .0300659
653.781 .0300531
654.534 .0300409
655.286 .0300286
656.039 .0300164
656.791 .0300032
657.542 .0299881
658.294 .0299718
659.045 .0299546
659.796 .0299356
660.546 .0299157
661.297 .0298951
662.047 .0298745
662.796 .0298530
663.546 .0298321
664.295 .0298108
665.044 .0297888
665.793 .0297672
666.542 .0297461
667.290 .0297256
668.038 .0297065
668.786 .0296883
669.533 .0296711
670.281 .0296549
671.028 .0296395
671.774 .0296234
672.521 .0296081
673.267 .0295934
674.013 .0295789
674.759 .0295645
675.505 .0295513
676.250 .0295380
676.995 .0295249
677.740 .0295122
678.484 .0294987
679.229 .0294842
679.973 .0294681
680.717 .0294501
681.460 .0294311
682.204 .0294115
682.947 .0293917
683.690 .0293717
684.433 .0293528
685.175 .0293342
685.917 .0293156
686.659 .0292975
687.401 .0292797
688.142 .0292616
688.884 .0292436
689.625 .0292253
690.365 .0292069
691.106 .0291887
691.846 .0291715
692.586 .0291556
693.326 .0291407
694.066 .0291268
694.805 .0291133
695.545 .0290997
696.284 .0290865
697.022 .0290723
697.761 .0290578
698.499 .0290435
699.237 .0290298
699.975 .0290166
700.713 .0290043
701.450 .0289935
702.187 .0289836
702.924 .0289746
703.661 .0289658
704.397 .0289561
705.133 .0289458
705.869 .0289346
706.605 .0289228
707.341 .0289107
708.076 .0288986
708.811 .0288862
709.546 .0288742
710.281 .0288615
711.015 .0288480
711.749 .0288330
712.483 .0288168
713.217 .0287987
713.950 .0287784
714.684 .0287566
715.417 .0287337
716.150 .0287106
716.882 .0286875
717.615 .0286645
718.347 .0286424
719.079 .0286206
719.811 .0285990
720.542 .0285780
721.273 .0285572
722.005 .0285361
722.735 .0285150
723.466 .0284941
724.196 .0284731
724.927 .0284519
725.656 .0284312
726.386 .0284110
727.116 .0283918
727.845 .0283735
728.574 .0283552
729.303 .0283377
730.031 .0283206
730.760 .0283028
731.488 .0282844
732.216 .0282655
732.944 .0282457
733.671 .0282246
734.398 .0282031
735.125 .0281816
735.852 .0281602
736.579 .0281392
737.305 .0281193
738.031 .0281004
738.757 .0280823
739.483 .0280640
740.208 .0280452
740.933 .0280264
741.658 .0280070
742.383 .0279866
743.108 .0279663
743.832 .0279466
744.556 .0279280
745.280 .0279108
746.004 .0278954
746.727 .0278817
747.450 .0278694
748.173 .0278574
748.896 .0278456
749.618 .0278337
750.340 .0278220
751.062 .0278108
751.784 .0278005
752.506 .0277916
753.227 .0277835
753.948 .0277768
754.669 .0277715
755.389 .0277665
756.110 .0277616
756.830 .0277560
757.550 .0277500
758.269 .0277434
758.989 .0277365
759.708 .0277296
760.427 .0277231
761.146 .0277173
761.864 .0277117
762.582 .0277057
763.300 .0276988
764.018 .0276910
764.736 .0276825
765.453 .0276729
766.170 .0276631
766.887 .0276533
767.603 .0276443
768.320 .0276362
769.036 .0276290
769.751 .0276223
770.467 .0276157
771.182 .0276092
771.897 .0276026
772.612 .0275955
773.327 .0275886
774.041 .0275819
774.755 .0275754
775.469 .0275693
776.183 .0275633
776.896 .0275574
777.609 .0275514
778.322 .0275449
779.035 .0275372
779.747 .0275285
780.459 .0275185
781.171 .0275077
781.882 .0274963
782.594 .0274848
783.305 .0274731
784.016 .0274615
784.726 .0274502
785.436 .0274390
786.147 .0274278
786.856 .0274166
787.566 .0274054
788.275 .0273948
788.984 .0273843
789.693 .0273742
790.401 .0273647
791.110 .0273557
791.818 .0273468
792.525 .0273378
793.233 .0273282
793.940 .0273181
794.647 .0273069
795.353 .0272947
796.060 .0272814
796.766 .0272671
797.472 .0272512
798.177 .0272337
798.883 .0272148
799.588 .0271942
800.292 .0271723
800.997 .0271495
801.701 .0271263
802.405 .0271029
803.109 .0270802
803.812 .0270583
804.515 .0270378
805.218 .0270187
805.921 .0270004
806.623 .0269829
807.325 .0269660
808.027 .0269491
808.728 .0269321
809.429 .0269151
810.130 .0268976
810.831 .0268800
811.531 .0268622
812.231 .0268438
812.931 .0268247
813.630 .0268045
814.330 .0267830
815.029 .0267602
815.727 .0267361
816.426 .0267105
817.124 .0266835
817.821 .0266557
818.519 .0266275
819.216 .0265990
819.913 .0265710
820.609 .0265441
821.306 .0265188
822.002 .0264956
822.697 .0264742
823.393 .0264551
824.088 .0264383
824.783 .0264228
825.477 .0264084
826.171 .0263948
826.865 .0263816
827.559 .0263690
828.252 .0263571
828.945 .0263464
829.638 .0263365
830.330 .0263272
831.023 .0263180
831.714 .0263083
832.406 .0262976
833.097 .0262849
833.788 .0262701
834.479 .0262540
835.169 .0262366
835.859 .0262185
836.548 .0262011
837.238 .0261846
837.927 .0261691
838.615 .0261544
839.304 .0261401
839.992 .0261260
840.680 .0261117
841.367 .0260977
842.054 .0260841
842.741 .0260722
843.428 .0260627
844.114 .0260555
844.800 .0260512
845.485 .0260497
846.170 .0260496
846.855 .0260504
847.540 .0260514
848.224 .0260518
848.908 .0260518
849.592 .0260518
850.275 .0260520
850.958 .0260531
851.641 .0260552
852.323 .0260585
853.005 .0260623
853.687 .0260663
854.368 .0260695
855.049 .0260712
855.730 .0260717
856.410 .0260704
857.090 .0260677
857.769 .0260646
858.449 .0260612
859.128 .0260580
859.806 .0260554
860.485 .0260534
861.163 .0260522
861.840 .0260516
862.518 .0260515
863.195 .0260517
863.871 .0260521
864.548 .0260529
865.224 .0260541
865.899 .0260563
866.574 .0260595
867.249 .0260635
867.924 .0260687
868.598 .0260745
869.272 .0260806
869.946 .0260868
870.619 .0260923
871.292 .0260970
871.964 .0261004
872.636 .0261021
873.308 .0261020
873.979 .0261002
874.651 .0260971
875.321 .0260925
875.992 .0260872
876.662 .0260814
877.331 .0260753
878.001 .0260691
878.670 .0260628
879.338 .0260561
880.007 .0260490
880.675 .0260415
881.342 .0260339
882.009 .0260261
882.676 .0260186
883.343 .0260117
884.009 .0260055
884.675 .0259997
885.340 .0259943
886.005 .0259885
886.670 .0259823
887.334 .0259753
887.998 .0259670
888.662 .0259575
889.325 .0259474
889.988 .0259367
890.650 .0259259
891.312 .0259152
891.974 .0259046
892.636 .0258940
893.297 .0258835
893.957 .0258721
894.618 .0258599
895.278 .0258469
895.937 .0258329
896.596 .0258181
897.255 .0258028
897.914 .0257868
898.572 .0257702
899.230 .0257532
899.887 .0257354
900.544 .0257166
901.201 .0256972
901.857 .0256770
902.513 .0256565
903.168 .0256360
903.823 .0256154
904.478 .0255947
905.132 .0255738
905.786 .0255521
906.440 .0255290
907.093 .0255049
907.746 .0254794
908.399 .0254529
909.051 .0254262
909.703 .0253996
910.354 .0253735
911.005 .0253484
911.656 .0253238
912.306 .0252989
912.956 .0252733
913.605 .0252462
914.254 .0252174
914.903 .0251869
915.551 .0251552
916.199 .0251232
916.847 .0250918
917.494 .0250617
918.141 .0250331
918.788 .0250064
919.434 .0249817
920.079 .0249581
920.725 .0249352
921.370 .0249129
922.014 .0248906
922.658 .0248685
923.302 .0248467
923.946 .0248250
924.589 .0248032
925.231 .0247808
925.873 .0247584
926.515 .0247352
927.157 .0247116
927.798 .0246874
928.439 .0246625
929.079 .0246372
929.719 .0246111
930.359 .0245840
930.998 .0245563
931.637 .0245282
932.275 .0244994
932.913 .0244700
933.551 .0244408
934.188 .0244121
934.825 .0243849
935.462 .0243593
936.098 .0243357
936.733 .0243140
937.369 .0242945
938.004 .0242763
938.638 .0242589
939.273 .0242422
939.907 .0242254
940.540 .0242087
941.173 .0241920
941.806 .0241753
942.438 .0241590
943.070 .0241429
943.702 .0241273
944.333 .0241111
944.964 .0240950
945.594 .0240783
946.224 .0240610
946.854 .0240435
947.483 .0240264
948.112 .0240096
948.741 .0239939
949.369 .0239797
949.996 .0239672
950.624 .0239563
951.251 .0239477
951.878 .0239406
952.504 .0239349
953.130 .0239303
953.755 .0239267
954.380 .0239238
955.005 .0239220
955.629 .0239204
956.253 .0239191
956.877 .0239187
957.500 .0239190
958.123 .0239193
958.746 .0239200
959.368 .0239212
959.990 .0239222
960.611 .0239229
961.232 .0239238
961.853 .0239247
962.473 .0239263
963.093 .0239285
963.712 .0239311
964.331 .0239339
964.950 .0239371
965.569 .0239408
966.187 .0239449
966.804 .0239496
967.422 .0239549
968.039 .0239606
968.655 .0239673
969.272 .0239751
969.887 .0239841
970.503 .0239943
971.118 .0240058
971.733 .0240174
972.347 .0240291
972.961 .0240408
973.575 .0240522
974.188 .0240630
974.801 .0240732
975.414 .0240825
976.026 .0240908
976.638 .0240986
977.250 .0241060
977.861 .0241133
978.472 .0241210
979.083 .0241285
979.693 .0241354
980.303 .0241414
980.912 .0241472
981.521 .0241524
982.130 .0241576
982.738 .0241630
983.346 .0241685
983.954 .0241747
984.562 .0241815
985.169 .0241894
985.775 .0241981
986.382 .0242076
986.988 .0242173
987.594 .0242269
988.199 .0242364
988.804 .0242456
989.409 .0242548
990.013 .0242649
990.617 .0242753
991.221 .0242855
991.824 .0242957
992.427 .0243063
993.030 .0243167
993.632 .0243271
994.234 .0243373
994.836 .0243476
995.438 .0243578
996.039 .0243679
996.640 .0243777
997.240 .0243876
997.840 .0243978
998.440 .0244072
999.040 .0244161
999.639 .0244246
1000.238 .0244318
1000.836 .0244380
1001.435 .0244434
1002.033 .0244478
1002.630 .0244511
1003.228 .0244536
1003.825 .0244552
1004.422 .0244568
1005.018 .0244583
1005.614 .0244598
1006.210 .0244614
1006.806 .0244635
1007.401 .0244652
1007.996 .0244668
1008.591 .0244685
1009.186 .0244701
1009.780 .0244710
1010.374 .0244721
1010.967 .0244728
1011.561 .0244734
1012.154 .0244735
1012.746 .0244724
1013.339 .0244696
1013.931 .0244649
1014.523 .0244576
1015.115 .0244485
1015.706 .0244383
1016.298 .0244278
1016.888 .0244178
1017.479 .0244096
1018.069 .0244033
1018.660 .0243982
1019.250 .0243945
1019.839 .0243906
1020.429 .0243863
1021.018 .0243804
1021.607 .0243732
1022.195 .0243654
1022.784 .0243581
1023.372 .0243518
1023.960 .0243476
1024.547 .0243454
1025.135 .0243450
1025.722 .0243450
1026.309 .0243450
1026.896 .0243436
1027.483 .0243404
1028.069 .0243353
1028.655 .0243290
1029.241 .0243221
1029.827 .0243153
1030.412 .0243084
1030.997 .0243028
1031.582 .0242979
1032.167 .0242931
1032.752 .0242881
1033.336 .0242826
1033.921 .0242769
1034.505 .0242706
1035.089 .0242639
1035.672 .0242563
1036.256 .0242486
1036.839 .0242406
1037.422 .0242316
1038.005 .0242213
1038.588 .0242103
1039.171 .0241978
1039.753 .0241849
1040.335 .0241713
1040.918 .0241579
1041.500 .0241442
1042.081 .0241321
1042.663 .0241208
1043.244 .0241107
1043.826 .0241008
1044.407 .0240917
1044.988 .0240820
1045.569 .0240722
1046.150 .0240609
1046.730 .0240481
1047.311 .0240343
1047.891 .0240198
1048.471 .0240035
1049.052 .0239860
1049.632 .0239673
1050.211 .0239479
1050.791 .0239268
1051.371 .0239050
1051.950 .0238824
1052.530 .0238597
1053.109 .0238382
1053.688 .0238171
1054.268 .0237969
1054.847 .0237783
1055.426 .0237613
1056.005 .0237460
1056.583 .0237330
1057.162 .0237219
1057.741 .0237127
1058.319 .0237056
1058.898 .0237008
1059.476 .0236977
1060.055 .0236963
1060.633 .0236969
1061.211 .0236988
1061.790 .0237013
1062.368 .0237045
1062.946 .0237063
1063.524 .0237082
1064.102 .0237101
1064.680 .0237104
1065.258 .0237087
1065.836 .0237051
1066.414 .0236991
1066.992 .0236918
1067.570 .0236836
1068.148 .0236751
1068.726 .0236666
1069.304 .0236593
1069.882 .0236523
1070.460 .0236446
1071.038 .0236366
1071.616 .0236266
1072.194 .0236137
1072.772 .0235981
1073.350 .0235788
1073.928 .0235564
1074.506 .0235336
1075.084 .0235114
1075.662 .0234906
1076.240 .0234724
1076.819 .0234556
1077.397 .0234409
1077.976 .0234282
1078.554 .0234168
1079.133 .0234074
1079.711 .0233993
1080.290 .0233944
1080.869 .0233908
1081.448 .0233889
1082.027 .0233885
1082.606 .0233894
1083.185 .0233926
1083.764 .0233968
1084.343 .0234012
1084.923 .0234072
1085.502 .0234142
1086.082 .0234222
1086.662 .0234320
1087.242 .0234424
1087.822 .0234543
1088.402 .0234672
1088.983 .0234792
1089.563 .0234908
1090.144 .0234996
1090.725 .0235075
1091.306 .0235131
1091.887 .0235177
1092.469 .0235227
1093.050 .0235284
1093.632 .0235372
1094.214 .0235486
1094.796 .0235627
1095.379 .0235795
1095.961 .0235989
1096.544 .0236186
1097.127 .0236362
1097.710 .0236513
1098.294 .0236645
1098.877 .0236750
1099.461 .0236830
1100.046 .0236915
1100.630 .0237006
1101.215 .0237126
1101.800 .0237280
1102.385 .0237450
1102.970 .0237652
1103.556 .0237879
1104.142 .0238111
1104.728 .0238353
1105.315 .0238594
1105.902 .0238835
1106.489 .0239080
1107.077 .0239335
1107.664 .0239584
1108.253 .0239837
1108.841 .0240096
1109.430 .0240351
1110.019 .0240586
1110.609 .0240825
1111.198 .0241054
1111.789 .0241299
1112.379 .0241559
1112.970 .0241824
1113.561 .0242098
1114.153 .0242414
1114.745 .0242733
1115.338 .0243079
1115.931 .0243427
1116.524 .0243795
1117.117 .0244186
1117.712 .0244595
1118.306 .0245033
1118.901 .0245511
1119.496 .0246051
1120.092 .0246681
1120.689 .0247350
1121.285 .0248082
1121.882 .0248816
1122.480 .0249574
1123.078 .0250286
1123.677 .0250937
1124.276 .0251509
1124.875 .0252023
1125.476 .0252471
1126.076 .0252875
1126.677 .0253241
1127.279 .0253616
1127.881 .0254007
1128.484 .0254410
1129.087 .0254799
1129.691 .0255213
1130.295 .0255616
1130.900 .0256028
1131.505 .0256430
1132.111 .0256892
1132.718 .0257399
1133.325 .0258006
1133.933 .0258711
1134.541 .0259534
1135.150 .0260483
1135.760 .0261593
1136.370 .0262861
1136.981 .0264307
1137.592 .0265882
1138.204 .0267620
1138.817 .0269467
1139.431 .0271501
1140.045 .0273640
1140.660 .0275872
1141.275 .0278415
1141.891 .0281083
1142.508 .0283766
1143.126 .0285820
1143.744 .0287601
1144.363 .0296611
1144.983 .0296690
