Measurement Sequence started on: 15-12-46-377
Integration time: 28
Scans to Average: 2 
>>>>>Begin Spectral Data<<<<<
432.689 .0000100
433.621 .0000100
434.552 .0000100
435.482 .0000100
436.410 .0000100
437.337 .0000100
438.262 .0281254
439.187 .0596017
440.110 .0988202
441.031 .1430864
441.952 .1861262
442.871 .2200583
443.789 .2387240
444.705 .2399856
445.621 .2263967
446.535 .2035690
447.447 .1776295
448.359 .1379372
449.269 .1181450
450.178 .1055190
451.086 .0965859
451.993 .0897607
452.898 .0844049
453.803 .0800648
454.706 .0764849
455.608 .0734418
456.508 .0708173
457.408 .0685539
458.306 .0665606
459.204 .0647665
460.100 .0631534
460.995 .0617041
461.888 .0603910
462.781 .0591958
463.673 .0581135
464.563 .0571463
465.452 .0562649
466.340 .0554517
467.228 .0546966
468.114 .0539913
468.999 .0533372
469.882 .0527273
470.765 .0521607
471.647 .0516374
472.528 .0511446
473.407 .0506922
474.286 .0502837
475.163 .0499189
476.040 .0495929
476.915 .0493037
477.790 .0490473
478.663 .0488182
479.535 .0486078
480.407 .0484212
481.277 .0482539
482.147 .0481068
483.015 .0479778
483.883 .0478579
484.749 .0477596
485.615 .0476817
486.479 .0476300
487.343 .0476089
488.206 .0476087
489.067 .0476281
489.928 .0476586
490.788 .0477020
491.647 .0477551
492.505 .0478066
493.362 .0478673
494.218 .0479335
495.073 .0480111
495.928 .0481124
496.781 .0482413
497.634 .0484075
498.486 .0486204
499.337 .0488723
500.187 .0491559
501.036 .0494679
501.884 .0498079
502.731 .0501648
503.578 .0505500
504.424 .0509652
505.268 .0514040
506.113 .0518859
506.956 .0524316
507.798 .0530375
508.640 .0537244
509.480 .0544941
510.320 .0553357
511.160 .0562506
511.998 .0572283
512.836 .0582559
513.672 .0593437
514.508 .0605113
515.344 .0617603
516.178 .0631177
517.012 .0646471
517.845 .0663554
518.677 .0682911
519.508 .0705027
520.339 .0730058
521.169 .0758498
521.998 .0790562
522.826 .0826760
523.654 .0867404
524.481 .0912609
525.307 .0962987
526.133 .1018581
526.958 .1079233
527.782 .1144250
528.605 .1212157
529.428 .1282030
530.250 .1349134
531.072 .1410827
531.892 .1463626
532.712 .1504571
533.532 .1531363
534.350 .1541972
535.168 .1535683
535.986 .1513366
536.802 .1476287
537.618 .1427186
538.434 .1368220
539.249 .1303717
540.063 .1235595
540.876 .1166866
541.689 .1099711
542.501 .1036061
543.313 .0977026
544.124 .0923339
544.934 .0875139
545.744 .0832137
546.553 .0793779
547.361 .0759986
548.169 .0730469
548.976 .0704480
549.783 .0681159
550.589 .0660092
551.395 .0640501
552.200 .0622251
553.004 .0605202
553.808 .0589162
554.611 .0574344
555.414 .0560926
556.216 .0548837
557.018 .0538180
557.819 .0528722
558.619 .0520065
559.419 .0512133
560.218 .0504789
561.017 .0497706
561.815 .0490797
562.613 .0484067
563.410 .0477484
564.207 .0470948
565.003 .0464599
565.799 .0458328
566.594 .0452087
567.388 .0446089
568.182 .0440138
568.976 .0434214
569.769 .0428387
570.562 .0422672
571.354 .0417075
572.145 .0411735
572.936 .0406555
573.727 .0401551
574.517 .0396765
575.307 .0392225
576.096 .0387833
576.885 .0383668
577.673 .0379749
578.461 .0376017
579.248 .0372514
580.035 .0369300
580.821 .0366314
581.607 .0363592
582.392 .0361083
583.177 .0358784
583.962 .0356665
584.746 .0354760
585.529 .0352978
586.313 .0351354
587.095 .0349864
587.878 .0348503
588.660 .0347254
589.441 .0346151
590.222 .0345177
591.003 .0344306
591.783 .0343521
592.563 .0342807
593.342 .0342120
594.121 .0341454
594.899 .0340789
595.678 .0340137
596.455 .0339495
597.233 .0338864
598.009 .0338241
598.786 .0337655
599.562 .0337092
600.338 .0336550
601.113 .0336021
601.888 .0335496
602.663 .0334956
603.437 .0334407
604.211 .0333852
604.984 .0333302
605.757 .0332771
606.530 .0332267
607.302 .0331797
608.074 .0331363
608.845 .0330953
609.616 .0330561
610.387 .0330181
611.158 .0329802
611.928 .0329401
612.697 .0328987
613.467 .0328563
614.236 .0328135
615.004 .0327708
615.773 .0327298
616.541 .0326907
617.308 .0326546
618.076 .0326211
618.843 .0325897
619.609 .0325602
620.375 .0325314
621.141 .0325024
621.907 .0324729
622.672 .0324430
623.437 .0324124
624.202 .0323819
624.966 .0323527
625.730 .0323240
626.493 .0322958
627.257 .0322690
628.020 .0322428
628.782 .0322164
629.545 .0321891
630.307 .0321603
631.068 .0321299
631.830 .0320981
632.591 .0320647
633.352 .0320309
634.112 .0319972
634.872 .0319647
635.632 .0319333
636.392 .0319033
637.151 .0318757
637.910 .0318492
638.668 .0318248
639.427 .0318022
640.185 .0317800
640.943 .0317584
641.700 .0317379
642.457 .0317183
643.214 .0316985
643.971 .0316791
644.727 .0316602
645.483 .0316414
646.239 .0316230
646.994 .0316043
647.750 .0315852
648.505 .0315664
649.259 .0315479
650.014 .0315292
650.768 .0315115
651.521 .0314948
652.275 .0314783
653.028 .0314625
653.781 .0314467
654.534 .0314309
655.286 .0314137
656.039 .0313962
656.791 .0313778
657.542 .0313577
658.294 .0313372
659.045 .0313159
659.796 .0312942
660.546 .0312718
661.297 .0312483
662.047 .0312230
662.796 .0311958
663.546 .0311669
664.295 .0311362
665.044 .0311048
665.793 .0310739
666.542 .0310436
667.290 .0310141
668.038 .0309866
668.786 .0309604
669.533 .0309352
670.281 .0309105
671.028 .0308858
671.774 .0308607
672.521 .0308357
673.267 .0308108
674.013 .0307860
674.759 .0307617
675.505 .0307378
676.250 .0307131
676.995 .0306879
677.740 .0306621
678.484 .0306352
679.229 .0306075
679.973 .0305796
680.717 .0305511
681.460 .0305225
682.204 .0304943
682.947 .0304666
683.690 .0304393
684.433 .0304126
685.175 .0303861
685.917 .0303596
686.659 .0303341
687.401 .0303100
688.142 .0302869
688.884 .0302653
689.625 .0302444
690.365 .0302237
691.106 .0302025
691.846 .0301809
692.586 .0301578
693.326 .0301341
694.066 .0301100
694.805 .0300851
695.545 .0300603
696.284 .0300362
697.022 .0300125
697.761 .0299899
698.499 .0299677
699.237 .0299457
699.975 .0299232
700.713 .0299010
701.450 .0298788
702.187 .0298573
702.924 .0298365
703.661 .0298168
704.397 .0297983
705.133 .0297820
705.869 .0297674
706.605 .0297544
707.341 .0297432
708.076 .0297336
708.811 .0297246
709.546 .0297161
710.281 .0297077
711.015 .0296998
711.749 .0296922
712.483 .0296849
713.217 .0296777
713.950 .0296711
714.684 .0296652
715.417 .0296595
716.150 .0296538
716.882 .0296480
717.615 .0296412
718.347 .0296328
719.079 .0296228
719.811 .0296106
720.542 .0295964
721.273 .0295807
722.005 .0295636
722.735 .0295456
723.466 .0295276
724.196 .0295096
724.927 .0294917
725.656 .0294740
726.386 .0294562
727.116 .0294384
727.845 .0294205
728.574 .0294030
729.303 .0293858
730.031 .0293691
730.760 .0293539
731.488 .0293397
732.216 .0293270
732.944 .0293155
733.671 .0293050
734.398 .0292952
735.125 .0292856
735.852 .0292758
736.579 .0292652
737.305 .0292544
738.031 .0292437
738.757 .0292328
739.483 .0292220
740.208 .0292113
740.933 .0292009
741.658 .0291906
742.383 .0291799
743.108 .0291684
743.832 .0291564
744.556 .0291437
745.280 .0291302
746.004 .0291162
746.727 .0291022
747.450 .0290885
748.173 .0290747
748.896 .0290606
749.618 .0290460
750.340 .0290303
751.062 .0290136
751.784 .0289956
752.506 .0289763
753.227 .0289556
753.948 .0289336
754.669 .0289108
755.389 .0288870
756.110 .0288623
756.830 .0288371
757.550 .0288112
758.269 .0287849
758.989 .0287580
759.708 .0287308
760.427 .0287037
761.146 .0286769
761.864 .0286502
762.582 .0286235
763.300 .0285968
764.018 .0285703
764.736 .0285436
765.453 .0285174
766.170 .0284918
766.887 .0284671
767.603 .0284437
768.320 .0284215
769.036 .0284003
769.751 .0283804
770.467 .0283610
771.182 .0283419
771.897 .0283223
772.612 .0283024
773.327 .0282826
774.041 .0282631
774.755 .0282442
775.469 .0282262
776.183 .0282095
776.896 .0281945
777.609 .0281802
778.322 .0281667
779.035 .0281537
779.747 .0281412
780.459 .0281290
781.171 .0281167
781.882 .0281050
782.594 .0280946
783.305 .0280854
784.016 .0280780
784.726 .0280721
785.436 .0280677
786.147 .0280642
786.856 .0280616
787.566 .0280592
788.275 .0280560
788.984 .0280525
789.693 .0280486
790.401 .0280440
791.110 .0280389
791.818 .0280335
792.525 .0280280
793.233 .0280231
793.940 .0280183
794.647 .0280133
795.353 .0280085
796.060 .0280036
796.766 .0279979
797.472 .0279912
798.177 .0279840
798.883 .0279757
799.588 .0279672
800.292 .0279591
800.997 .0279510
801.701 .0279437
802.405 .0279372
803.109 .0279317
803.812 .0279270
804.515 .0279223
805.218 .0279169
805.921 .0279105
806.623 .0279032
807.325 .0278946
808.027 .0278850
808.728 .0278754
809.429 .0278662
810.130 .0278577
810.831 .0278504
811.531 .0278443
812.231 .0278388
812.931 .0278342
813.630 .0278294
814.330 .0278238
815.029 .0278173
815.727 .0278098
816.426 .0278018
817.124 .0277939
817.821 .0277865
818.519 .0277797
819.216 .0277742
819.913 .0277703
820.609 .0277669
821.306 .0277645
822.002 .0277629
822.697 .0277613
823.393 .0277599
824.088 .0277585
824.783 .0277567
825.477 .0277548
826.171 .0277529
826.865 .0277514
827.559 .0277503
828.252 .0277501
828.945 .0277505
829.638 .0277518
830.330 .0277543
831.023 .0277573
831.714 .0277603
832.406 .0277637
833.097 .0277660
833.788 .0277668
834.479 .0277662
835.169 .0277637
835.859 .0277599
836.548 .0277552
837.238 .0277499
837.927 .0277444
838.615 .0277391
839.304 .0277345
839.992 .0277297
840.680 .0277253
841.367 .0277203
842.054 .0277142
842.741 .0277070
843.428 .0276984
844.114 .0276885
844.800 .0276778
845.485 .0276662
846.170 .0276540
846.855 .0276414
847.540 .0276283
848.224 .0276143
848.908 .0275995
849.592 .0275835
850.275 .0275660
850.958 .0275466
851.641 .0275255
852.323 .0275029
853.005 .0274792
853.687 .0274545
854.368 .0274288
855.049 .0274029
855.730 .0273763
856.410 .0273491
857.090 .0273215
857.769 .0272930
858.449 .0272641
859.128 .0272343
859.806 .0272040
860.485 .0271734
861.163 .0271426
861.840 .0271120
862.518 .0270815
863.195 .0270510
863.871 .0270203
864.548 .0269896
865.224 .0269589
865.899 .0269283
866.574 .0268977
867.249 .0268677
867.924 .0268380
868.598 .0268091
869.272 .0267814
869.946 .0267547
870.619 .0267296
871.292 .0267061
871.964 .0266838
872.636 .0266626
873.308 .0266423
873.979 .0266228
874.651 .0266033
875.321 .0265839
875.992 .0265645
876.662 .0265450
877.331 .0265258
878.001 .0265074
878.670 .0264895
879.338 .0264727
880.007 .0264568
880.675 .0264417
881.342 .0264270
882.009 .0264122
882.676 .0263974
883.343 .0263825
884.009 .0263680
884.675 .0263540
885.340 .0263411
886.005 .0263299
886.670 .0263207
887.334 .0263135
887.998 .0263079
888.662 .0263036
889.325 .0263006
889.988 .0262981
890.650 .0262965
891.312 .0262953
891.974 .0262950
892.636 .0262956
893.297 .0262971
893.957 .0262990
894.618 .0263014
895.278 .0263037
895.937 .0263057
896.596 .0263068
897.255 .0263070
897.914 .0263061
898.572 .0263041
899.230 .0263012
899.887 .0262974
900.544 .0262920
901.201 .0262860
901.857 .0262786
902.513 .0262705
903.168 .0262608
903.823 .0262507
904.478 .0262399
905.132 .0262290
905.786 .0262175
906.440 .0262055
907.093 .0261933
907.746 .0261810
908.399 .0261683
909.051 .0261553
909.703 .0261423
910.354 .0261300
911.005 .0261182
911.656 .0261074
912.306 .0260973
912.956 .0260882
913.605 .0260802
914.254 .0260733
914.903 .0260672
915.551 .0260624
916.199 .0260592
916.847 .0260578
917.494 .0260580
918.141 .0260592
918.788 .0260613
919.434 .0260643
920.079 .0260676
920.725 .0260708
921.370 .0260737
922.014 .0260764
922.658 .0260790
923.302 .0260815
923.946 .0260835
924.589 .0260845
925.231 .0260842
925.873 .0260818
926.515 .0260767
927.157 .0260691
927.798 .0260591
928.439 .0260470
929.079 .0260336
929.719 .0260194
930.359 .0260052
930.998 .0259916
931.637 .0259792
932.275 .0259681
932.913 .0259576
933.551 .0259480
934.188 .0259390
934.825 .0259308
935.462 .0259237
936.098 .0259178
936.733 .0259137
937.369 .0259119
938.004 .0259120
938.638 .0259142
939.273 .0259183
939.907 .0259242
940.540 .0259312
941.173 .0259389
941.806 .0259473
942.438 .0259559
943.070 .0259644
943.702 .0259727
944.333 .0259804
944.964 .0259875
945.594 .0259936
946.224 .0259987
946.854 .0260028
947.483 .0260063
948.112 .0260092
948.741 .0260116
949.369 .0260137
949.996 .0260162
950.624 .0260181
951.251 .0260200
951.878 .0260214
952.504 .0260218
953.130 .0260207
953.755 .0260181
954.380 .0260142
955.005 .0260091
955.629 .0260029
956.253 .0259963
956.877 .0259896
957.500 .0259835
958.123 .0259779
958.746 .0259729
959.368 .0259684
959.990 .0259645
960.611 .0259605
961.232 .0259565
961.853 .0259525
962.473 .0259485
963.093 .0259442
963.712 .0259396
964.331 .0259345
964.950 .0259288
965.569 .0259227
966.187 .0259161
966.804 .0259085
967.422 .0259000
968.039 .0258904
968.655 .0258796
969.272 .0258676
969.887 .0258541
970.503 .0258392
971.118 .0258232
971.733 .0258060
972.347 .0257876
972.961 .0257686
973.575 .0257493
974.188 .0257292
974.801 .0257086
975.414 .0256880
976.026 .0256674
976.638 .0256473
977.250 .0256279
977.861 .0256096
978.472 .0255922
979.083 .0255754
979.693 .0255584
980.303 .0255408
980.912 .0255216
981.521 .0255000
982.130 .0254764
982.738 .0254512
983.346 .0254246
983.954 .0253975
984.562 .0253710
985.169 .0253449
985.775 .0253187
986.382 .0252918
986.988 .0252634
987.594 .0252333
988.199 .0252012
988.804 .0251671
989.409 .0251320
990.013 .0250973
990.617 .0250640
991.221 .0250325
991.824 .0250038
992.427 .0249779
993.030 .0249542
993.632 .0249322
994.234 .0249110
994.836 .0248906
995.438 .0248708
996.039 .0248521
996.640 .0248344
997.240 .0248179
997.840 .0248029
998.440 .0247894
999.040 .0247770
999.639 .0247656
1000.238 .0247541
1000.836 .0247424
1001.435 .0247300
1002.033 .0247171
1002.630 .0247036
1003.228 .0246900
1003.825 .0246761
1004.422 .0246622
1005.018 .0246479
1005.614 .0246335
1006.210 .0246187
1006.806 .0246042
1007.401 .0245899
1007.996 .0245757
1008.591 .0245618
1009.186 .0245487
1009.780 .0245360
1010.374 .0245238
1010.967 .0245115
1011.561 .0244993
1012.154 .0244867
1012.746 .0244741
1013.339 .0244615
1013.931 .0244494
1014.523 .0244384
1015.115 .0244279
1015.706 .0244183
1016.298 .0244099
1016.888 .0244022
1017.479 .0243951
1018.069 .0243885
1018.660 .0243824
1019.250 .0243766
1019.839 .0243713
1020.429 .0243664
1021.018 .0243619
1021.607 .0243583
1022.195 .0243555
1022.784 .0243528
1023.372 .0243501
1023.960 .0243477
1024.547 .0243457
1025.135 .0243446
1025.722 .0243442
1026.309 .0243444
1026.896 .0243456
1027.483 .0243479
1028.069 .0243509
1028.655 .0243544
1029.241 .0243587
1029.827 .0243635
1030.412 .0243686
1030.997 .0243744
1031.582 .0243805
1032.167 .0243863
1032.752 .0243925
1033.336 .0243983
1033.921 .0244040
1034.505 .0244087
1035.089 .0244130
1035.672 .0244168
1036.256 .0244203
1036.839 .0244231
1037.422 .0244253
1038.005 .0244276
1038.588 .0244299
1039.171 .0244317
1039.753 .0244339
1040.335 .0244367
1040.918 .0244412
1041.500 .0244464
1042.081 .0244531
1042.663 .0244601
1043.244 .0244677
1043.826 .0244753
1044.407 .0244828
1044.988 .0244903
1045.569 .0244979
1046.150 .0245058
1046.730 .0245148
1047.311 .0245251
1047.891 .0245377
1048.471 .0245520
1049.052 .0245685
1049.632 .0245858
1050.211 .0246034
1050.791 .0246204
1051.371 .0246372
1051.950 .0246527
1052.530 .0246674
1053.109 .0246815
1053.688 .0246944
1054.268 .0247070
1054.847 .0247197
1055.426 .0247317
1056.005 .0247434
1056.583 .0247547
1057.162 .0247653
1057.741 .0247743
1058.319 .0247819
1058.898 .0247880
1059.476 .0247915
1060.055 .0247930
1060.633 .0247917
1061.211 .0247882
1061.790 .0247844
1062.368 .0247812
1062.946 .0247793
1063.524 .0247810
1064.102 .0247857
1064.680 .0247927
1065.258 .0248020
1065.836 .0248125
1066.414 .0248221
1066.992 .0248298
1067.570 .0248362
1068.148 .0248416
1068.726 .0248457
1069.304 .0248518
1069.882 .0248601
1070.460 .0248716
1071.038 .0248860
1071.616 .0249022
1072.194 .0249198
1072.772 .0249371
1073.350 .0249529
1073.928 .0249664
1074.506 .0249782
1075.084 .0249888
1075.662 .0249991
1076.240 .0250114
1076.819 .0250268
1077.397 .0250458
1077.976 .0250677
1078.554 .0250920
1079.133 .0251176
1079.711 .0251432
1080.290 .0251679
1080.869 .0251926
1081.448 .0252171
1082.027 .0252409
1082.606 .0252650
1083.185 .0252906
1083.764 .0253175
1084.343 .0253457
1084.923 .0253745
1085.502 .0254042
1086.082 .0254344
1086.662 .0254659
1087.242 .0254980
1087.822 .0255326
1088.402 .0255695
1088.983 .0256094
1089.563 .0256508
1090.144 .0256944
1090.725 .0257385
1091.306 .0257828
1091.887 .0258264
1092.469 .0258692
1093.050 .0259096
1093.632 .0259476
1094.214 .0259836
1094.796 .0260186
1095.379 .0260508
1095.961 .0260821
1096.544 .0261111
1097.127 .0261384
1097.710 .0261627
1098.294 .0261845
1098.877 .0262027
1099.461 .0262200
1100.046 .0262347
1100.630 .0262466
1101.215 .0262588
1101.800 .0262704
1102.385 .0262827
1102.970 .0262975
1103.556 .0263146
1104.142 .0263345
1104.728 .0263571
1105.315 .0263844
1105.902 .0264131
1106.489 .0264429
1107.077 .0264737
1107.664 .0265017
1108.253 .0265301
1108.841 .0265576
1109.430 .0265849
1110.019 .0266150
1110.609 .0266494
1111.198 .0266858
1111.789 .0267271
1112.379 .0267741
1112.970 .0268250
1113.561 .0268770
1114.153 .0269314
1114.745 .0269852
1115.338 .0270372
1115.931 .0270876
1116.524 .0271372
1117.117 .0271857
1117.712 .0272376
1118.306 .0272900
1118.901 .0273439
1119.496 .0273962
1120.092 .0274506
1120.689 .0275036
1121.285 .0275556
1121.882 .0276065
1122.480 .0276529
1123.078 .0276982
1123.677 .0277452
1124.276 .0277938
1124.875 .0278468
1125.476 .0279026
1126.076 .0279646
1126.677 .0280266
1127.279 .0280900
1127.881 .0281528
1128.484 .0282158
1129.087 .0282788
1129.691 .0283434
1130.295 .0284045
1130.900 .0284676
1131.505 .0285342
1132.111 .0286073
1132.718 .0286878
1133.325 .0287728
1133.933 .0288658
1134.541 .0289642
1135.150 .0290654
1135.760 .0291708
1136.370 .0292735
1136.981 .0293834
1137.592 .0294913
1138.204 .0296024
1138.817 .0297209
1139.431 .0298501
1140.045 .0299828
1140.660 .0301167
1141.275 .0302369
1141.891 .0303423
1142.508 .0307524
1143.126 .0305967
1143.744 .0306522
1144.363 .0303835
1144.983 .0304746
