Measurement Sequence started on: 15-12-46-377
Integration time: 28
Scans to Average: 2 
>>>>>Begin Spectral Data<<<<<
432.689 .0000100
433.621 .0000100
434.552 .0000100
435.482 .0000100
436.410 .0000100
437.337 .0000100
438.262 .0294756
439.187 .0624883
440.110 .1035068
441.031 .1497001
441.952 .1944884
442.871 .2296381
443.789 .2487368
444.705 .2495809
445.621 .2349129
446.535 .2106672
447.447 .1833048
448.359 .1416677
449.269 .1209527
450.178 .1078613
451.086 .0986458
451.993 .0915889
452.898 .0859802
453.803 .0813702
454.706 .0775360
455.608 .0742652
456.508 .0714412
457.408 .0690028
458.306 .0668705
459.204 .0649913
460.100 .0633214
460.995 .0618241
461.888 .0604795
462.781 .0592634
463.673 .0581498
464.563 .0571413
465.452 .0562171
466.340 .0553701
467.228 .0546018
468.114 .0539004
468.999 .0532608
469.882 .0526786
470.765 .0521449
471.647 .0516592
472.528 .0512227
473.407 .0508345
474.286 .0504930
475.163 .0502058
476.040 .0499689
476.915 .0497721
477.790 .0496182
478.663 .0494966
479.535 .0493991
480.407 .0493183
481.277 .0492455
482.147 .0491858
483.015 .0491408
483.883 .0491105
484.749 .0490902
485.615 .0490909
486.479 .0491000
487.343 .0491168
488.206 .0491373
489.067 .0491519
489.928 .0491565
490.788 .0491597
491.647 .0491630
492.505 .0491767
493.362 .0492114
494.218 .0492761
495.073 .0493750
495.928 .0495216
496.781 .0496943
497.634 .0498987
498.486 .0501320
499.337 .0503953
500.187 .0506755
501.036 .0509947
501.884 .0513479
502.731 .0517368
503.578 .0521687
504.424 .0526400
505.268 .0531297
506.113 .0536459
506.956 .0541690
507.798 .0547140
508.640 .0552841
509.480 .0559086
510.320 .0565937
511.160 .0573771
511.998 .0582691
512.836 .0592720
513.672 .0603890
514.508 .0616234
515.344 .0629666
516.178 .0644552
517.012 .0661148
517.845 .0680077
518.677 .0701868
519.508 .0727086
520.339 .0756181
521.169 .0789789
521.998 .0827940
522.826 .0870794
523.654 .0918364
524.481 .0970761
525.307 .1028252
526.133 .1090700
526.958 .1157963
527.782 .1229443
528.605 .1303851
529.428 .1379488
530.250 .1451566
531.072 .1517331
531.892 .1572400
532.712 .1614064
533.532 .1640040
534.350 .1648446
535.168 .1638534
535.986 .1611242
536.802 .1568309
537.618 .1512141
538.434 .1445174
539.249 .1371759
540.063 .1294208
540.876 .1216102
541.689 .1139788
542.501 .1067723
543.313 .1001798
544.124 .0942951
544.934 .0890564
545.744 .0844109
546.553 .0803020
547.361 .0766844
548.169 .0735025
548.976 .0706929
549.783 .0682086
550.589 .0659900
551.395 .0639912
552.200 .0621886
553.004 .0605561
553.808 .0590701
554.611 .0577149
555.414 .0564904
556.216 .0553821
557.018 .0543833
557.819 .0534783
558.619 .0526407
559.419 .0518488
560.218 .0510825
561.017 .0503313
561.815 .0495786
562.613 .0488247
563.410 .0480800
564.207 .0473533
565.003 .0466602
565.799 .0460055
566.594 .0453850
567.388 .0448062
568.182 .0442654
568.976 .0437446
569.769 .0432430
570.562 .0427561
571.354 .0422708
572.145 .0417919
572.936 .0413223
573.727 .0408636
574.517 .0404158
575.307 .0399862
576.096 .0395744
576.885 .0391784
577.673 .0388070
578.461 .0384509
579.248 .0381154
580.035 .0377974
580.821 .0374903
581.607 .0371918
582.392 .0369078
583.177 .0366360
583.962 .0363777
584.746 .0361378
585.529 .0359192
586.313 .0357217
587.095 .0355442
587.878 .0353845
588.660 .0352410
589.441 .0351092
590.222 .0349872
591.003 .0348722
591.783 .0347650
592.563 .0346638
593.342 .0345703
594.121 .0344828
594.899 .0344031
595.678 .0343289
596.455 .0342607
597.233 .0341969
598.009 .0341367
598.786 .0340783
599.562 .0340210
600.338 .0339658
601.113 .0339121
601.888 .0338578
602.663 .0338050
603.437 .0337518
604.211 .0336988
604.984 .0336455
605.757 .0335937
606.530 .0335433
607.302 .0334965
608.074 .0334535
608.845 .0334144
609.616 .0333790
610.387 .0333474
611.158 .0333175
611.928 .0332890
612.697 .0332611
613.467 .0332332
614.236 .0332047
615.004 .0331779
615.773 .0331522
616.541 .0331289
617.308 .0331084
618.076 .0330907
618.843 .0330746
619.609 .0330598
620.375 .0330447
621.141 .0330281
621.907 .0330101
622.672 .0329901
623.437 .0329682
624.202 .0329454
624.966 .0329231
625.730 .0329013
626.493 .0328807
627.257 .0328614
628.020 .0328425
628.782 .0328236
629.545 .0328039
630.307 .0327821
631.068 .0327588
631.830 .0327331
632.591 .0327052
633.352 .0326749
634.112 .0326441
634.872 .0326122
635.632 .0325795
636.392 .0325458
637.151 .0325116
637.910 .0324755
638.668 .0324383
639.427 .0323987
640.185 .0323572
640.943 .0323148
641.700 .0322717
642.457 .0322282
643.214 .0321852
643.971 .0321425
644.727 .0321009
645.483 .0320601
646.239 .0320204
646.994 .0319807
647.750 .0319423
648.505 .0319056
649.259 .0318702
650.014 .0318367
650.768 .0318053
651.521 .0317755
652.275 .0317474
653.028 .0317205
653.781 .0316935
654.534 .0316671
655.286 .0316409
656.039 .0316144
656.791 .0315869
657.542 .0315588
658.294 .0315301
659.045 .0315014
659.796 .0314720
660.546 .0314421
661.297 .0314111
662.047 .0313796
662.796 .0313467
663.546 .0313127
664.295 .0312780
665.044 .0312430
665.793 .0312080
666.542 .0311734
667.290 .0311394
668.038 .0311070
668.786 .0310752
669.533 .0310447
670.281 .0310152
671.028 .0309859
671.774 .0309574
672.521 .0309300
673.267 .0309036
674.013 .0308789
674.759 .0308559
675.505 .0308353
676.250 .0308157
676.995 .0307976
677.740 .0307805
678.484 .0307637
679.229 .0307484
679.973 .0307336
680.717 .0307202
681.460 .0307094
682.204 .0307010
682.947 .0306951
683.690 .0306913
684.433 .0306885
685.175 .0306856
685.917 .0306812
686.659 .0306749
687.401 .0306663
688.142 .0306554
688.884 .0306438
689.625 .0306318
690.365 .0306205
691.106 .0306104
691.846 .0306008
692.586 .0305920
693.326 .0305826
694.066 .0305718
694.805 .0305595
695.545 .0305455
696.284 .0305300
697.022 .0305131
697.761 .0304957
698.499 .0304787
699.237 .0304622
699.975 .0304464
700.713 .0304315
701.450 .0304171
702.187 .0304023
702.924 .0303864
703.661 .0303691
704.397 .0303504
705.133 .0303304
705.869 .0303088
706.605 .0302866
707.341 .0302638
708.076 .0302410
708.811 .0302183
709.546 .0301967
710.281 .0301757
711.015 .0301551
711.749 .0301347
712.483 .0301142
713.217 .0300931
713.950 .0300714
714.684 .0300488
715.417 .0300258
716.150 .0300023
716.882 .0299780
717.615 .0299531
718.347 .0299282
719.079 .0299028
719.811 .0298766
720.542 .0298499
721.273 .0298226
722.005 .0297941
722.735 .0297649
723.466 .0297354
724.196 .0297053
724.927 .0296752
725.656 .0296449
726.386 .0296149
727.116 .0295855
727.845 .0295567
728.574 .0295287
729.303 .0295019
730.031 .0294764
730.760 .0294512
731.488 .0294265
732.216 .0294025
732.944 .0293786
733.671 .0293551
734.398 .0293320
735.125 .0293095
735.852 .0292875
736.579 .0292666
737.305 .0292470
738.031 .0292282
738.757 .0292103
739.483 .0291926
740.208 .0291748
740.933 .0291571
741.658 .0291392
742.383 .0291208
743.108 .0291031
743.832 .0290860
744.556 .0290698
745.280 .0290542
746.004 .0290399
746.727 .0290265
747.450 .0290136
748.173 .0290012
748.896 .0289883
749.618 .0289751
750.340 .0289613
751.062 .0289468
751.784 .0289321
752.506 .0289180
753.227 .0289043
753.948 .0288914
754.669 .0288798
755.389 .0288691
756.110 .0288589
756.830 .0288494
757.550 .0288400
758.269 .0288302
758.989 .0288197
759.708 .0288084
760.427 .0287960
761.146 .0287837
761.864 .0287711
762.582 .0287592
763.300 .0287483
764.018 .0287385
764.736 .0287296
765.453 .0287215
766.170 .0287144
766.887 .0287069
767.603 .0286999
768.320 .0286927
769.036 .0286855
769.751 .0286788
770.467 .0286728
771.182 .0286678
771.897 .0286640
772.612 .0286614
773.327 .0286595
774.041 .0286579
774.755 .0286566
775.469 .0286550
776.183 .0286537
776.896 .0286527
777.609 .0286522
778.322 .0286521
779.035 .0286532
779.747 .0286545
780.459 .0286561
781.171 .0286574
781.882 .0286584
782.594 .0286587
783.305 .0286583
784.016 .0286575
784.726 .0286567
785.436 .0286562
786.147 .0286565
786.856 .0286569
787.566 .0286580
788.275 .0286590
788.984 .0286594
789.693 .0286591
790.401 .0286577
791.110 .0286551
791.818 .0286512
792.525 .0286463
793.233 .0286406
793.940 .0286339
794.647 .0286267
795.353 .0286191
796.060 .0286110
796.766 .0286026
797.472 .0285935
798.177 .0285837
798.883 .0285733
799.588 .0285620
800.292 .0285494
800.997 .0285356
801.701 .0285203
802.405 .0285040
803.109 .0284865
803.812 .0284685
804.515 .0284503
805.218 .0284319
805.921 .0284134
806.623 .0283946
807.325 .0283755
808.027 .0283560
808.728 .0283358
809.429 .0283148
810.130 .0282924
810.831 .0282693
811.531 .0282450
812.231 .0282201
812.931 .0281948
813.630 .0281689
814.330 .0281422
815.029 .0281147
815.727 .0280865
816.426 .0280572
817.124 .0280274
817.821 .0279971
818.519 .0279669
819.216 .0279369
819.913 .0279076
820.609 .0278794
821.306 .0278525
822.002 .0278273
822.697 .0278037
823.393 .0277815
824.088 .0277610
824.783 .0277418
825.477 .0277237
826.171 .0277072
826.865 .0276925
827.559 .0276794
828.252 .0276680
828.945 .0276578
829.638 .0276485
830.330 .0276399
831.023 .0276313
831.714 .0276224
832.406 .0276128
833.097 .0276024
833.788 .0275907
834.479 .0275779
835.169 .0275645
835.859 .0275508
836.548 .0275369
837.238 .0275228
837.927 .0275082
838.615 .0274933
839.304 .0274778
839.992 .0274621
840.680 .0274462
841.367 .0274302
842.054 .0274147
842.741 .0274000
843.428 .0273862
844.114 .0273735
844.800 .0273619
845.485 .0273512
846.170 .0273408
846.855 .0273307
847.540 .0273198
848.224 .0273080
848.908 .0272958
849.592 .0272832
850.275 .0272703
850.958 .0272573
851.641 .0272443
852.323 .0272315
853.005 .0272189
853.687 .0272060
854.368 .0271923
855.049 .0271782
855.730 .0271633
856.410 .0271476
857.090 .0271313
857.769 .0271147
858.449 .0270986
859.128 .0270834
859.806 .0270690
860.485 .0270555
861.163 .0270427
861.840 .0270306
862.518 .0270189
863.195 .0270075
863.871 .0269961
864.548 .0269849
865.224 .0269741
865.899 .0269636
866.574 .0269532
867.249 .0269432
867.924 .0269334
868.598 .0269243
869.272 .0269157
869.946 .0269075
870.619 .0269000
871.292 .0268939
871.964 .0268889
872.636 .0268851
873.308 .0268823
873.979 .0268801
874.651 .0268785
875.321 .0268770
875.992 .0268753
876.662 .0268739
877.331 .0268736
878.001 .0268743
878.670 .0268764
879.338 .0268802
880.007 .0268855
880.675 .0268924
881.342 .0268999
882.009 .0269074
882.676 .0269146
883.343 .0269210
884.009 .0269268
884.675 .0269326
885.340 .0269391
886.005 .0269465
886.670 .0269560
887.334 .0269675
887.998 .0269807
888.662 .0269955
889.325 .0270107
889.988 .0270260
890.650 .0270411
891.312 .0270549
891.974 .0270678
892.636 .0270804
893.297 .0270934
893.957 .0271067
894.618 .0271206
895.278 .0271351
895.937 .0271499
896.596 .0271649
897.255 .0271790
897.914 .0271916
898.572 .0272026
899.230 .0272119
899.887 .0272195
900.544 .0272257
901.201 .0272310
901.857 .0272354
902.513 .0272389
903.168 .0272412
903.823 .0272415
904.478 .0272398
905.132 .0272356
905.786 .0272288
906.440 .0272197
907.093 .0272086
907.746 .0271954
908.399 .0271812
909.051 .0271664
909.703 .0271510
910.354 .0271346
911.005 .0271174
911.656 .0270993
912.306 .0270799
912.956 .0270594
913.605 .0270381
914.254 .0270168
914.903 .0269957
915.551 .0269752
916.199 .0269559
916.847 .0269378
917.494 .0269209
918.141 .0269047
918.788 .0268890
919.434 .0268739
920.079 .0268582
920.725 .0268421
921.370 .0268255
922.014 .0268084
922.658 .0267904
923.302 .0267719
923.946 .0267532
924.589 .0267338
925.231 .0267137
925.873 .0266931
926.515 .0266714
927.157 .0266488
927.798 .0266245
928.439 .0265986
929.079 .0265707
929.719 .0265410
930.359 .0265089
930.998 .0264758
931.637 .0264417
932.275 .0264076
932.913 .0263738
933.551 .0263410
934.188 .0263092
934.825 .0262788
935.462 .0262497
936.098 .0262220
936.733 .0261950
937.369 .0261693
938.004 .0261441
938.638 .0261205
939.273 .0260976
939.907 .0260764
940.540 .0260564
941.173 .0260385
941.806 .0260218
942.438 .0260060
943.070 .0259909
943.702 .0259753
944.333 .0259589
944.964 .0259414
945.594 .0259224
946.224 .0259025
946.854 .0258819
947.483 .0258616
948.112 .0258415
948.741 .0258222
949.369 .0258034
949.996 .0257854
950.624 .0257676
951.251 .0257497
951.878 .0257313
952.504 .0257124
953.130 .0256928
953.755 .0256722
954.380 .0256514
955.005 .0256303
955.629 .0256085
956.253 .0255863
956.877 .0255635
957.500 .0255409
958.123 .0255176
958.746 .0254939
959.368 .0254698
959.990 .0254454
960.611 .0254206
961.232 .0253952
961.853 .0253697
962.473 .0253443
963.093 .0253190
963.712 .0252940
964.331 .0252694
964.950 .0252457
965.569 .0252232
966.187 .0252024
966.804 .0251830
967.422 .0251654
968.039 .0251487
968.655 .0251329
969.272 .0251173
969.887 .0251015
970.503 .0250851
971.118 .0250681
971.733 .0250508
972.347 .0250332
972.961 .0250157
973.575 .0249989
974.188 .0249826
974.801 .0249671
975.414 .0249516
976.026 .0249359
976.638 .0249198
977.250 .0249036
977.861 .0248867
978.472 .0248693
979.083 .0248521
979.693 .0248347
980.303 .0248178
980.912 .0248016
981.521 .0247858
982.130 .0247705
982.738 .0247558
983.346 .0247410
983.954 .0247258
984.562 .0247105
985.169 .0246950
985.775 .0246791
986.382 .0246633
986.988 .0246473
987.594 .0246315
988.199 .0246171
988.804 .0246037
989.409 .0245918
990.013 .0245814
990.617 .0245723
991.221 .0245645
991.824 .0245578
992.427 .0245525
993.030 .0245484
993.632 .0245462
994.234 .0245462
994.836 .0245487
995.438 .0245533
996.039 .0245605
996.640 .0245692
997.240 .0245796
997.840 .0245904
998.440 .0246014
999.040 .0246120
999.639 .0246225
1000.238 .0246329
1000.836 .0246430
1001.435 .0246527
1002.033 .0246626
1002.630 .0246716
1003.228 .0246805
1003.825 .0246884
1004.422 .0246956
1005.018 .0247025
1005.614 .0247099
1006.210 .0247180
1006.806 .0247274
1007.401 .0247377
1007.996 .0247494
1008.591 .0247616
1009.186 .0247740
1009.780 .0247860
1010.374 .0247979
1010.967 .0248095
1011.561 .0248213
1012.154 .0248330
1012.746 .0248458
1013.339 .0248592
1013.931 .0248736
1014.523 .0248883
1015.115 .0249024
1015.706 .0249154
1016.298 .0249272
1016.888 .0249379
1017.479 .0249485
1018.069 .0249586
1018.660 .0249698
1019.250 .0249823
1019.839 .0249963
1020.429 .0250118
1021.018 .0250290
1021.607 .0250479
1022.195 .0250682
1022.784 .0250891
1023.372 .0251110
1023.960 .0251338
1024.547 .0251577
1025.135 .0251830
1025.722 .0252092
1026.309 .0252364
1026.896 .0252643
1027.483 .0252924
1028.069 .0253206
1028.655 .0253483
1029.241 .0253754
1029.827 .0254014
1030.412 .0254261
1030.997 .0254501
1031.582 .0254730
1032.167 .0254952
1032.752 .0255172
1033.336 .0255383
1033.921 .0255585
1034.505 .0255776
1035.089 .0255952
1035.672 .0256118
1036.256 .0256277
1036.839 .0256425
1037.422 .0256573
1038.005 .0256731
1038.588 .0256904
1039.171 .0257091
1039.753 .0257299
1040.335 .0257517
1040.918 .0257740
1041.500 .0257967
1042.081 .0258188
1042.663 .0258402
1043.244 .0258615
1043.826 .0258823
1044.407 .0259024
1044.988 .0259223
1045.569 .0259412
1046.150 .0259591
1046.730 .0259763
1047.311 .0259904
1047.891 .0260014
1048.471 .0260095
1049.052 .0260154
1049.632 .0260186
1050.211 .0260209
1050.791 .0260231
1051.371 .0260252
1051.950 .0260285
1052.530 .0260319
1053.109 .0260358
1053.688 .0260409
1054.268 .0260470
1054.847 .0260543
1055.426 .0260628
1056.005 .0260729
1056.583 .0260848
1057.162 .0260992
1057.741 .0261150
1058.319 .0261314
1058.898 .0261482
1059.476 .0261640
1060.055 .0261787
1060.633 .0261903
1061.211 .0261994
1061.790 .0262067
1062.368 .0262130
1062.946 .0262180
1063.524 .0262221
1064.102 .0262260
1064.680 .0262292
1065.258 .0262312
1065.836 .0262314
1066.414 .0262287
1066.992 .0262237
1067.570 .0262161
1068.148 .0262056
1068.726 .0261930
1069.304 .0261806
1069.882 .0261685
1070.460 .0261577
1071.038 .0261468
1071.616 .0261364
1072.194 .0261270
1072.772 .0261178
1073.350 .0261093
1073.928 .0261017
1074.506 .0260955
1075.084 .0260911
1075.662 .0260888
1076.240 .0260891
1076.819 .0260910
1077.397 .0260949
1077.976 .0260996
1078.554 .0261033
1079.133 .0261071
1079.711 .0261101
1080.290 .0261126
1080.869 .0261156
1081.448 .0261190
1082.027 .0261216
1082.606 .0261233
1083.185 .0261252
1083.764 .0261247
1084.343 .0261228
1084.923 .0261194
1085.502 .0261148
1086.082 .0261105
1086.662 .0261101
1087.242 .0261122
1087.822 .0261186
1088.402 .0261298
1088.983 .0261443
1089.563 .0261582
1090.144 .0261725
1090.725 .0261854
1091.306 .0261938
1091.887 .0261983
1092.469 .0262000
1093.050 .0261971
1093.632 .0261954
1094.214 .0261939
1094.796 .0261952
1095.379 .0261989
1095.961 .0262059
1096.544 .0262137
1097.127 .0262210
1097.710 .0262290
1098.294 .0262346
1098.877 .0262364
1099.461 .0262386
1100.046 .0262376
1100.630 .0262363
1101.215 .0262376
1101.800 .0262420
1102.385 .0262493
1102.970 .0262591
1103.556 .0262686
1104.142 .0262757
1104.728 .0262804
1105.315 .0262827
1105.902 .0262811
1106.489 .0262774
1107.077 .0262744
1107.664 .0262714
1108.253 .0262725
1108.841 .0262783
1109.430 .0262875
1110.019 .0263009
1110.609 .0263177
1111.198 .0263363
1111.789 .0263562
1112.379 .0263759
1112.970 .0263965
1113.561 .0264161
1114.153 .0264361
1114.745 .0264543
1115.338 .0264734
1115.931 .0264922
1116.524 .0265115
1117.117 .0265333
1117.712 .0265564
1118.306 .0265833
1118.901 .0266126
1119.496 .0266424
1120.092 .0266726
1120.689 .0267006
1121.285 .0267272
1121.882 .0267509
1122.480 .0267791
1123.078 .0268117
1123.677 .0268501
1124.276 .0268975
1124.875 .0269538
1125.476 .0270147
1126.076 .0270800
1126.677 .0271472
1127.279 .0272117
1127.881 .0272725
1128.484 .0273311
1129.087 .0273862
1129.691 .0274442
1130.295 .0275074
1130.900 .0275775
1131.505 .0276520
1132.111 .0277349
1132.718 .0278166
1133.325 .0279005
1133.933 .0279849
1134.541 .0280716
1135.150 .0281570
1135.760 .0282428
1136.370 .0283283
1136.981 .0284162
1137.592 .0285047
1138.204 .0285937
1138.817 .0286844
1139.431 .0287843
1140.045 .0288897
1140.660 .0290016
1141.275 .0291261
1141.891 .0292959
1142.508 .0294695
1143.126 .0296327
1143.744 .0296049
1144.363 .0299362
1144.983 .0309831
