Measurement Sequence started on: 15-12-46-377
Integration time: 28
Scans to Average: 2 
>>>>>Begin Spectral Data<<<<<
432.689 .0000100
433.621 .0000100
434.552 .0000100
435.482 .0000100
436.410 .0000100
437.337 .0000100
438.262 .0274295
439.187 .0580423
440.110 .0961131
441.031 .1389599
441.952 .1805615
442.871 .2132935
443.789 .2311471
444.705 .2321164
445.621 .2187489
446.535 .1965151
447.447 .1713565
448.359 .1328445
449.269 .1137728
450.178 .1016438
451.086 .0930828
451.993 .0864509
452.898 .0811694
453.803 .0768796
454.706 .0733329
455.608 .0702898
456.508 .0676702
457.408 .0654010
458.306 .0633904
459.204 .0615864
460.100 .0599608
460.995 .0584916
461.888 .0571762
462.781 .0559974
463.673 .0549434
464.563 .0540007
465.452 .0531682
466.340 .0523978
467.228 .0517027
468.114 .0510613
468.999 .0504670
469.882 .0499008
470.765 .0493668
471.647 .0488686
472.528 .0484072
473.407 .0479994
474.286 .0476403
475.163 .0473325
476.040 .0470720
476.915 .0468500
477.790 .0466562
478.663 .0464845
479.535 .0463361
480.407 .0462049
481.277 .0460938
482.147 .0460021
483.015 .0459299
483.883 .0458740
484.749 .0458376
485.615 .0458227
486.479 .0458218
487.343 .0458455
488.206 .0458822
489.067 .0459399
489.928 .0460102
490.788 .0460979
491.647 .0461956
492.505 .0463085
493.362 .0464385
494.218 .0465790
495.073 .0467351
495.928 .0469201
496.781 .0471245
497.634 .0473612
498.486 .0476256
499.337 .0479194
500.187 .0482343
501.036 .0485736
501.884 .0489224
502.731 .0492856
503.578 .0496604
504.424 .0500555
505.268 .0504609
506.113 .0508945
506.956 .0513581
507.798 .0518605
508.640 .0524132
509.480 .0530318
510.320 .0537138
511.160 .0544852
511.998 .0553539
512.836 .0563328
513.672 .0574230
514.508 .0586456
515.344 .0600019
516.178 .0615004
517.012 .0631706
517.845 .0650516
518.677 .0671706
519.508 .0695652
520.339 .0722732
521.169 .0753605
521.998 .0788435
522.826 .0827556
523.654 .0871131
524.481 .0919244
525.307 .0972150
526.133 .1029058
526.958 .1089843
527.782 .1154346
528.605 .1220946
529.428 .1288682
530.250 .1352816
531.072 .1411258
531.892 .1460481
532.712 .1497731
533.532 .1520936
534.350 .1528382
535.168 .1519246
535.986 .1494191
536.802 .1454631
537.618 .1403336
538.434 .1342273
539.249 .1275972
540.063 .1206303
540.876 .1136353
541.689 .1068146
542.501 .1003922
543.313 .0944758
544.124 .0891978
544.934 .0844836
545.744 .0802778
546.553 .0765540
547.361 .0732567
548.169 .0703553
548.976 .0677760
549.783 .0654641
550.589 .0633879
551.395 .0614728
552.200 .0597273
553.004 .0581096
553.808 .0566105
554.611 .0552492
555.414 .0540188
556.216 .0529141
557.018 .0519236
557.819 .0510300
558.619 .0502030
559.419 .0494345
560.218 .0487035
561.017 .0480052
561.815 .0473108
562.613 .0466322
563.410 .0459690
564.207 .0453233
565.003 .0447070
565.799 .0441177
566.594 .0435513
567.388 .0430154
568.182 .0424942
568.976 .0419821
569.769 .0414701
570.562 .0409718
571.354 .0404767
572.145 .0399914
572.936 .0395187
573.727 .0390576
574.517 .0386071
575.307 .0381747
576.096 .0377548
576.885 .0373483
577.673 .0369583
578.461 .0365859
579.248 .0362334
580.035 .0359046
580.821 .0356005
581.607 .0353180
582.392 .0350643
583.177 .0348374
583.962 .0346317
584.746 .0344482
585.529 .0342775
586.313 .0341204
587.095 .0339740
587.878 .0338361
588.660 .0337086
589.441 .0335906
590.222 .0334843
591.003 .0333902
591.783 .0333067
592.563 .0332318
593.342 .0331649
594.121 .0331023
594.899 .0330437
595.678 .0329839
596.455 .0329239
597.233 .0328642
598.009 .0328047
598.786 .0327481
599.562 .0326941
600.338 .0326430
601.113 .0325952
601.888 .0325482
602.663 .0325022
603.437 .0324555
604.211 .0324076
604.984 .0323593
605.757 .0323128
606.530 .0322680
607.302 .0322262
608.074 .0321883
608.845 .0321553
609.616 .0321250
610.387 .0320966
611.158 .0320691
611.928 .0320412
612.697 .0320128
613.467 .0319833
614.236 .0319536
615.004 .0319250
615.773 .0318977
616.541 .0318729
617.308 .0318508
618.076 .0318301
618.843 .0318097
619.609 .0317895
620.375 .0317690
621.141 .0317479
621.907 .0317257
622.672 .0317027
623.437 .0316797
624.202 .0316563
624.966 .0316331
625.730 .0316094
626.493 .0315867
627.257 .0315634
628.020 .0315396
628.782 .0315148
629.545 .0314875
630.307 .0314585
631.068 .0314278
631.830 .0313952
632.591 .0313604
633.352 .0313235
634.112 .0312848
634.872 .0312450
635.632 .0312054
636.392 .0311659
637.151 .0311269
637.910 .0310891
638.668 .0310518
639.427 .0310155
640.185 .0309808
640.943 .0309473
641.700 .0309156
642.457 .0308863
643.214 .0308583
643.971 .0308319
644.727 .0308076
645.483 .0307854
646.239 .0307647
646.994 .0307456
647.750 .0307267
648.505 .0307078
649.259 .0306897
650.014 .0306721
650.768 .0306546
651.521 .0306381
652.275 .0306219
653.028 .0306056
653.781 .0305892
654.534 .0305724
655.286 .0305541
656.039 .0305351
656.791 .0305153
657.542 .0304942
658.294 .0304719
659.045 .0304497
659.796 .0304275
660.546 .0304062
661.297 .0303855
662.047 .0303654
662.796 .0303455
663.546 .0303268
664.295 .0303088
665.044 .0302909
665.793 .0302737
666.542 .0302580
667.290 .0302425
668.038 .0302279
668.786 .0302139
669.533 .0302008
670.281 .0301876
671.028 .0301750
671.774 .0301621
672.521 .0301494
673.267 .0301369
674.013 .0301242
674.759 .0301111
675.505 .0300985
676.250 .0300850
676.995 .0300705
677.740 .0300553
678.484 .0300391
679.229 .0300213
679.973 .0300027
680.717 .0299832
681.460 .0299628
682.204 .0299412
682.947 .0299191
683.690 .0298964
684.433 .0298734
685.175 .0298497
685.917 .0298255
686.659 .0298012
687.401 .0297769
688.142 .0297520
688.884 .0297266
689.625 .0297011
690.365 .0296755
691.106 .0296492
691.846 .0296225
692.586 .0295959
693.326 .0295697
694.066 .0295441
694.805 .0295187
695.545 .0294936
696.284 .0294688
697.022 .0294441
697.761 .0294188
698.499 .0293930
699.237 .0293668
699.975 .0293400
700.713 .0293126
701.450 .0292856
702.187 .0292588
702.924 .0292326
703.661 .0292071
704.397 .0291824
705.133 .0291583
705.869 .0291345
706.605 .0291110
707.341 .0290878
708.076 .0290649
708.811 .0290423
709.546 .0290193
710.281 .0289965
711.015 .0289736
711.749 .0289503
712.483 .0289270
713.217 .0289037
713.950 .0288802
714.684 .0288568
715.417 .0288340
716.150 .0288123
716.882 .0287915
717.615 .0287714
718.347 .0287523
719.079 .0287342
719.811 .0287167
720.542 .0287000
721.273 .0286834
722.005 .0286677
722.735 .0286527
723.466 .0286382
724.196 .0286245
724.927 .0286117
725.656 .0285996
726.386 .0285878
727.116 .0285761
727.845 .0285640
728.574 .0285510
729.303 .0285379
730.031 .0285243
730.760 .0285102
731.488 .0284967
732.216 .0284845
732.944 .0284737
733.671 .0284646
734.398 .0284576
735.125 .0284525
735.852 .0284495
736.579 .0284478
737.305 .0284475
738.031 .0284488
738.757 .0284515
739.483 .0284551
740.208 .0284594
740.933 .0284648
741.658 .0284700
742.383 .0284753
743.108 .0284802
743.832 .0284843
744.556 .0284879
745.280 .0284909
746.004 .0284928
746.727 .0284934
747.450 .0284928
748.173 .0284906
748.896 .0284863
749.618 .0284806
750.340 .0284725
751.062 .0284629
751.784 .0284520
752.506 .0284400
753.227 .0284271
753.948 .0284141
754.669 .0284013
755.389 .0283880
756.110 .0283742
756.830 .0283592
757.550 .0283429
758.269 .0283253
758.989 .0283066
759.708 .0282865
760.427 .0282655
761.146 .0282448
761.864 .0282238
762.582 .0282032
763.300 .0281832
764.018 .0281639
764.736 .0281451
765.453 .0281261
766.170 .0281069
766.887 .0280871
767.603 .0280672
768.320 .0280468
769.036 .0280259
769.751 .0280050
770.467 .0279840
771.182 .0279628
771.897 .0279413
772.612 .0279201
773.327 .0278987
774.041 .0278773
774.755 .0278555
775.469 .0278333
776.183 .0278109
776.896 .0277883
777.609 .0277660
778.322 .0277437
779.035 .0277219
779.747 .0277007
780.459 .0276803
781.171 .0276605
781.882 .0276416
782.594 .0276235
783.305 .0276063
784.016 .0275905
784.726 .0275753
785.436 .0275609
786.147 .0275471
786.856 .0275337
787.566 .0275204
788.275 .0275070
788.984 .0274934
789.693 .0274790
790.401 .0274642
791.110 .0274485
791.818 .0274320
792.525 .0274150
793.233 .0273976
793.940 .0273798
794.647 .0273617
795.353 .0273434
796.060 .0273245
796.766 .0273056
797.472 .0272858
798.177 .0272654
798.883 .0272449
799.588 .0272242
800.292 .0272034
800.997 .0271835
801.701 .0271650
802.405 .0271477
803.109 .0271320
803.812 .0271177
804.515 .0271042
805.218 .0270916
805.921 .0270791
806.623 .0270665
807.325 .0270542
808.027 .0270425
808.728 .0270312
809.429 .0270206
810.130 .0270110
810.831 .0270021
811.531 .0269938
812.231 .0269859
812.931 .0269774
813.630 .0269685
814.330 .0269589
815.029 .0269492
815.727 .0269394
816.426 .0269308
817.124 .0269233
817.821 .0269177
818.519 .0269140
819.216 .0269121
819.913 .0269119
820.609 .0269130
821.306 .0269150
822.002 .0269181
822.697 .0269215
823.393 .0269259
824.088 .0269308
824.783 .0269369
825.477 .0269440
826.171 .0269521
826.865 .0269609
827.559 .0269705
828.252 .0269802
828.945 .0269898
829.638 .0269991
830.330 .0270083
831.023 .0270171
831.714 .0270256
832.406 .0270342
833.097 .0270428
833.788 .0270514
834.479 .0270606
835.169 .0270700
835.859 .0270803
836.548 .0270910
837.238 .0271017
837.927 .0271121
838.615 .0271219
839.304 .0271312
839.992 .0271393
840.680 .0271465
841.367 .0271525
842.054 .0271573
842.741 .0271613
843.428 .0271646
844.114 .0271670
844.800 .0271688
845.485 .0271692
846.170 .0271682
846.855 .0271658
847.540 .0271618
848.224 .0271567
848.908 .0271508
849.592 .0271443
850.275 .0271374
850.958 .0271294
851.641 .0271206
852.323 .0271103
853.005 .0270992
853.687 .0270863
854.368 .0270719
855.049 .0270562
855.730 .0270397
856.410 .0270221
857.090 .0270040
857.769 .0269855
858.449 .0269663
859.128 .0269465
859.806 .0269257
860.485 .0269041
861.163 .0268819
861.840 .0268595
862.518 .0268375
863.195 .0268157
863.871 .0267947
864.548 .0267741
865.224 .0267540
865.899 .0267344
866.574 .0267148
867.249 .0266951
867.924 .0266751
868.598 .0266553
869.272 .0266350
869.946 .0266144
870.619 .0265933
871.292 .0265716
871.964 .0265493
872.636 .0265261
873.308 .0265023
873.979 .0264779
874.651 .0264532
875.321 .0264288
875.992 .0264041
876.662 .0263795
877.331 .0263548
878.001 .0263298
878.670 .0263043
879.338 .0262785
880.007 .0262524
880.675 .0262265
881.342 .0262012
882.009 .0261768
882.676 .0261535
883.343 .0261311
884.009 .0261099
884.675 .0260891
885.340 .0260690
886.005 .0260494
886.670 .0260300
887.334 .0260113
887.998 .0259931
888.662 .0259760
889.325 .0259598
889.988 .0259448
890.650 .0259311
891.312 .0259185
891.974 .0259070
892.636 .0258965
893.297 .0258871
893.957 .0258783
894.618 .0258699
895.278 .0258618
895.937 .0258536
896.596 .0258450
897.255 .0258358
897.914 .0258263
898.572 .0258161
899.230 .0258058
899.887 .0257948
900.544 .0257833
901.201 .0257714
901.857 .0257587
902.513 .0257449
903.168 .0257299
903.823 .0257132
904.478 .0256946
905.132 .0256742
905.786 .0256523
906.440 .0256286
907.093 .0256042
907.746 .0255791
908.399 .0255534
909.051 .0255274
909.703 .0255014
910.354 .0254755
911.005 .0254502
911.656 .0254253
912.306 .0254008
912.956 .0253776
913.605 .0253558
914.254 .0253356
914.903 .0253172
915.551 .0253011
916.199 .0252871
916.847 .0252749
917.494 .0252646
918.141 .0252560
918.788 .0252489
919.434 .0252433
920.079 .0252385
920.725 .0252348
921.370 .0252316
922.014 .0252287
922.658 .0252261
923.302 .0252235
923.946 .0252203
924.589 .0252161
925.231 .0252106
925.873 .0252041
926.515 .0251965
927.157 .0251882
927.798 .0251797
928.439 .0251712
929.079 .0251629
929.719 .0251547
930.359 .0251467
930.998 .0251386
931.637 .0251305
932.275 .0251221
932.913 .0251131
933.551 .0251043
934.188 .0250961
934.825 .0250888
935.462 .0250832
936.098 .0250798
936.733 .0250784
937.369 .0250792
938.004 .0250825
938.638 .0250874
939.273 .0250940
939.907 .0251019
940.540 .0251106
941.173 .0251203
941.806 .0251312
942.438 .0251429
943.070 .0251553
943.702 .0251686
944.333 .0251822
944.964 .0251955
945.594 .0252087
946.224 .0252217
946.854 .0252346
947.483 .0252477
948.112 .0252609
948.741 .0252738
949.369 .0252873
949.996 .0253006
950.624 .0253135
951.251 .0253259
951.878 .0253374
952.504 .0253479
953.130 .0253577
953.755 .0253671
954.380 .0253763
955.005 .0253860
955.629 .0253962
956.253 .0254059
956.877 .0254153
957.500 .0254238
958.123 .0254309
958.746 .0254363
959.368 .0254400
959.990 .0254415
960.611 .0254418
961.232 .0254418
961.853 .0254418
962.473 .0254427
963.093 .0254445
963.712 .0254473
964.331 .0254506
964.950 .0254544
965.569 .0254580
966.187 .0254614
966.804 .0254652
967.422 .0254690
968.039 .0254730
968.655 .0254771
969.272 .0254819
969.887 .0254870
970.503 .0254921
971.118 .0254973
971.733 .0255016
972.347 .0255054
972.961 .0255081
973.575 .0255094
974.188 .0255088
974.801 .0255063
975.414 .0255018
976.026 .0254954
976.638 .0254875
977.250 .0254785
977.861 .0254689
978.472 .0254591
979.083 .0254493
979.693 .0254391
980.303 .0254279
980.912 .0254158
981.521 .0254016
982.130 .0253853
982.738 .0253671
983.346 .0253474
983.954 .0253268
984.562 .0253060
985.169 .0252858
985.775 .0252659
986.382 .0252468
986.988 .0252285
987.594 .0252104
988.199 .0251923
988.804 .0251741
989.409 .0251552
990.013 .0251365
990.617 .0251183
991.221 .0251009
991.824 .0250849
992.427 .0250713
993.030 .0250592
993.632 .0250487
994.234 .0250395
994.836 .0250312
995.438 .0250226
996.039 .0250134
996.640 .0250028
997.240 .0249911
997.840 .0249778
998.440 .0249635
999.040 .0249483
999.639 .0249329
1000.238 .0249168
1000.836 .0248999
1001.435 .0248820
1002.033 .0248634
1002.630 .0248428
1003.228 .0248205
1003.825 .0247968
1004.422 .0247724
1005.018 .0247472
1005.614 .0247227
1006.210 .0246994
1006.806 .0246777
1007.401 .0246572
1007.996 .0246378
1008.591 .0246191
1009.186 .0246008
1009.780 .0245820
1010.374 .0245629
1010.967 .0245433
1011.561 .0245236
1012.154 .0245034
1012.746 .0244830
1013.339 .0244630
1013.931 .0244435
1014.523 .0244244
1015.115 .0244056
1015.706 .0243874
1016.298 .0243698
1016.888 .0243522
1017.479 .0243353
1018.069 .0243186
1018.660 .0243020
1019.250 .0242857
1019.839 .0242699
1020.429 .0242548
1021.018 .0242410
1021.607 .0242293
1022.195 .0242194
1022.784 .0242121
1023.372 .0242066
1023.960 .0242031
1024.547 .0242007
1025.135 .0241996
1025.722 .0241983
1026.309 .0241969
1026.896 .0241958
1027.483 .0241945
1028.069 .0241935
1028.655 .0241928
1029.241 .0241921
1029.827 .0241916
1030.412 .0241904
1030.997 .0241889
1031.582 .0241853
1032.167 .0241807
1032.752 .0241745
1033.336 .0241668
1033.921 .0241590
1034.505 .0241512
1035.089 .0241431
1035.672 .0241347
1036.256 .0241257
1036.839 .0241152
1037.422 .0241033
1038.005 .0240901
1038.588 .0240759
1039.171 .0240609
1039.753 .0240460
1040.335 .0240319
1040.918 .0240183
1041.500 .0240067
1042.081 .0239960
1042.663 .0239861
1043.244 .0239771
1043.826 .0239668
1044.407 .0239558
1044.988 .0239446
1045.569 .0239339
1046.150 .0239232
1046.730 .0239132
1047.311 .0239045
1047.891 .0238965
1048.471 .0238891
1049.052 .0238825
1049.632 .0238766
1050.211 .0238721
1050.791 .0238684
1051.371 .0238654
1051.950 .0238641
1052.530 .0238648
1053.109 .0238670
1053.688 .0238709
1054.268 .0238757
1054.847 .0238805
1055.426 .0238847
1056.005 .0238884
1056.583 .0238912
1057.162 .0238931
1057.741 .0238953
1058.319 .0238982
1058.898 .0239020
1059.476 .0239061
1060.055 .0239109
1060.633 .0239161
1061.211 .0239208
1061.790 .0239251
1062.368 .0239272
1062.946 .0239281
1063.524 .0239286
1064.102 .0239297
1064.680 .0239325
1065.258 .0239387
1065.836 .0239490
1066.414 .0239635
1066.992 .0239814
1067.570 .0240019
1068.148 .0240227
1068.726 .0240444
1069.304 .0240651
1069.882 .0240829
1070.460 .0240980
1071.038 .0241119
1071.616 .0241242
1072.194 .0241360
1072.772 .0241473
1073.350 .0241581
1073.928 .0241680
1074.506 .0241775
1075.084 .0241859
1075.662 .0241946
1076.240 .0242051
1076.819 .0242170
1077.397 .0242292
1077.976 .0242439
1078.554 .0242599
1079.133 .0242760
1079.711 .0242934
1080.290 .0243116
1080.869 .0243294
1081.448 .0243479
1082.027 .0243671
1082.606 .0243858
1083.185 .0244060
1083.764 .0244273
1084.343 .0244473
1084.923 .0244664
1085.502 .0244846
1086.082 .0245006
1086.662 .0245167
1087.242 .0245348
1087.822 .0245547
1088.402 .0245771
1088.983 .0246049
1089.563 .0246352
1090.144 .0246677
1090.725 .0247009
1091.306 .0247335
1091.887 .0247664
1092.469 .0247991
1093.050 .0248308
1093.632 .0248629
1094.214 .0248967
1094.796 .0249334
1095.379 .0249699
1095.961 .0250059
1096.544 .0250407
1097.127 .0250732
1097.710 .0251014
1098.294 .0251257
1098.877 .0251479
1099.461 .0251688
1100.046 .0251904
1100.630 .0252125
1101.215 .0252353
1101.800 .0252595
1102.385 .0252870
1102.970 .0253164
1103.556 .0253479
1104.142 .0253832
1104.728 .0254218
1105.315 .0254641
1105.902 .0255084
1106.489 .0255537
1107.077 .0256015
1107.664 .0256498
1108.253 .0256985
1108.841 .0257449
1109.430 .0257921
1110.019 .0258395
1110.609 .0258867
1111.198 .0259334
1111.789 .0259825
1112.379 .0260325
1112.970 .0260822
1113.561 .0261278
1114.153 .0261675
1114.745 .0262006
1115.338 .0262292
1115.931 .0262542
1116.524 .0262767
1117.117 .0262997
1117.712 .0263274
1118.306 .0263585
1118.901 .0263971
1119.496 .0264390
1120.092 .0264860
1120.689 .0265360
1121.285 .0265878
1121.882 .0266358
1122.480 .0266813
1123.078 .0267279
1123.677 .0267768
1124.276 .0268284
1124.875 .0268835
1125.476 .0269416
1126.076 .0270072
1126.677 .0270793
1127.279 .0271554
1127.881 .0272350
1128.484 .0273203
1129.087 .0274076
1129.691 .0274994
1130.295 .0275898
1130.900 .0276837
1131.505 .0277824
1132.111 .0278871
1132.718 .0279996
1133.325 .0281173
1133.933 .0282461
1134.541 .0283846
1135.150 .0285336
1135.760 .0286900
1136.370 .0288498
1136.981 .0290128
1137.592 .0291698
1138.204 .0293196
1138.817 .0294594
1139.431 .0295974
1140.045 .0297389
1140.660 .0298774
1141.275 .0300224
1141.891 .0301682
1142.508 .0304118
1143.126 .0306285
1143.744 .0305900
1144.363 .0308136
1144.983 .0308404
