Measurement Sequence started on: 15-12-46-377
Integration time: 28
Scans to Average: 2 
>>>>>Begin Spectral Data<<<<<
432.689 .0000100
433.621 .0000100
434.552 .0000100
435.482 .0000100
436.410 .0000100
437.337 .0000100
438.262 .0286349
439.187 .0606320
440.110 .1002840
441.031 .1449925
441.952 .1883039
442.871 .2222728
443.789 .2406685
444.705 .2414106
445.621 .2271712
446.535 .2036991
447.447 .1772160
448.359 .1368720
449.269 .1168823
450.178 .1042928
451.086 .0953248
451.993 .0884271
452.898 .0829103
453.803 .0783554
454.706 .0745180
455.608 .0712122
456.508 .0683381
457.408 .0658716
458.306 .0637200
459.204 .0618330
460.100 .0601859
460.995 .0587349
461.888 .0574349
462.781 .0562400
463.673 .0551264
464.563 .0540900
465.452 .0531219
466.340 .0522314
467.228 .0514219
468.114 .0506899
468.999 .0500457
469.882 .0494663
470.765 .0489534
471.647 .0484992
472.528 .0480842
473.407 .0477130
474.286 .0473776
475.163 .0470755
476.040 .0468087
476.915 .0465793
477.790 .0463863
478.663 .0462247
479.535 .0460928
480.407 .0459797
481.277 .0458825
482.147 .0458030
483.015 .0457342
483.883 .0456729
484.749 .0456208
485.615 .0455805
486.479 .0455475
487.343 .0455294
488.206 .0455205
489.067 .0455229
489.928 .0455411
490.788 .0455798
491.647 .0456330
492.505 .0457096
493.362 .0458107
494.218 .0459382
495.073 .0460889
495.928 .0462670
496.781 .0464614
497.634 .0466852
498.486 .0469302
499.337 .0471948
500.187 .0474765
501.036 .0477819
501.884 .0481073
502.731 .0484611
503.578 .0488481
504.424 .0492616
505.268 .0497013
506.113 .0501805
506.956 .0506931
507.798 .0512594
508.640 .0518709
509.480 .0525460
510.320 .0532880
511.160 .0541092
511.998 .0550128
512.836 .0560207
513.672 .0571575
514.508 .0584196
515.344 .0598274
516.178 .0614082
517.012 .0631798
517.845 .0651734
518.677 .0674368
519.508 .0699616
520.339 .0728080
521.169 .0760217
521.998 .0795924
522.826 .0835999
523.654 .0880298
524.481 .0929282
525.307 .0982915
526.133 .1041219
526.958 .1103836
527.782 .1169547
528.605 .1237816
529.428 .1307131
530.250 .1372446
531.072 .1432008
531.892 .1481818
532.712 .1519790
533.532 .1543528
534.350 .1551208
535.168 .1542359
535.986 .1517593
536.802 .1478373
537.618 .1427146
538.434 .1366016
539.249 .1300075
540.063 .1230526
540.876 .1160401
541.689 .1092100
542.501 .1027282
543.313 .0967402
544.124 .0912874
544.934 .0863446
545.744 .0819029
546.553 .0778752
547.361 .0743149
548.169 .0711865
548.976 .0684458
549.783 .0660435
550.589 .0638952
551.395 .0619526
552.200 .0601859
553.004 .0585411
553.808 .0570222
554.611 .0556347
555.414 .0543922
556.216 .0532768
557.018 .0522996
557.819 .0514518
558.619 .0506916
559.419 .0499803
560.218 .0493083
561.017 .0486458
561.815 .0479691
562.613 .0472880
563.410 .0466037
564.207 .0459396
565.003 .0453059
565.799 .0447004
566.594 .0441195
567.388 .0435702
568.182 .0430323
568.976 .0424928
569.769 .0419491
570.562 .0413998
571.354 .0408375
572.145 .0402747
572.936 .0397218
573.727 .0391845
574.517 .0386691
575.307 .0381822
576.096 .0377218
576.885 .0372925
577.673 .0368875
578.461 .0365051
579.248 .0361490
580.035 .0358160
580.821 .0355022
581.607 .0352082
582.392 .0349341
583.177 .0346826
583.962 .0344535
584.746 .0342477
585.529 .0340643
586.313 .0339027
587.095 .0337603
587.878 .0336345
588.660 .0335239
589.441 .0334242
590.222 .0333340
591.003 .0332490
591.783 .0331689
592.563 .0330919
593.342 .0330200
594.121 .0329533
594.899 .0328932
595.678 .0328388
596.455 .0327882
597.233 .0327412
598.009 .0326963
598.786 .0326508
599.562 .0326048
600.338 .0325569
601.113 .0325077
601.888 .0324569
602.663 .0324073
603.437 .0323590
604.211 .0323139
604.984 .0322713
605.757 .0322307
606.530 .0321907
607.302 .0321513
608.074 .0321121
608.845 .0320738
609.616 .0320370
610.387 .0320030
611.158 .0319712
611.928 .0319433
612.697 .0319185
613.467 .0318965
614.236 .0318761
615.004 .0318565
615.773 .0318364
616.541 .0318151
617.308 .0317933
618.076 .0317722
618.843 .0317519
619.609 .0317343
620.375 .0317178
621.141 .0317019
621.907 .0316862
622.672 .0316696
623.437 .0316506
624.202 .0316296
624.966 .0316069
625.730 .0315825
626.493 .0315573
627.257 .0315322
628.020 .0315076
628.782 .0314844
629.545 .0314616
630.307 .0314384
631.068 .0314141
631.830 .0313881
632.591 .0313591
633.352 .0313281
634.112 .0312955
634.872 .0312616
635.632 .0312279
636.392 .0311946
637.151 .0311634
637.910 .0311334
638.668 .0311043
639.427 .0310765
640.185 .0310495
640.943 .0310236
641.700 .0309979
642.457 .0309736
643.214 .0309503
643.971 .0309275
644.727 .0309060
645.483 .0308847
646.239 .0308636
646.994 .0308423
647.750 .0308208
648.505 .0307991
649.259 .0307773
650.014 .0307549
650.768 .0307329
651.521 .0307119
652.275 .0306903
653.028 .0306681
653.781 .0306453
654.534 .0306218
655.286 .0305971
656.039 .0305712
656.791 .0305443
657.542 .0305163
658.294 .0304884
659.045 .0304603
659.796 .0304323
660.546 .0304053
661.297 .0303779
662.047 .0303503
662.796 .0303226
663.546 .0302938
664.295 .0302640
665.044 .0302340
665.793 .0302042
666.542 .0301747
667.290 .0301461
668.038 .0301187
668.786 .0300924
669.533 .0300677
670.281 .0300438
671.028 .0300203
671.774 .0299978
672.521 .0299764
673.267 .0299554
674.013 .0299355
674.759 .0299163
675.505 .0298978
676.250 .0298797
676.995 .0298622
677.740 .0298452
678.484 .0298288
679.229 .0298123
679.973 .0297955
680.717 .0297779
681.460 .0297594
682.204 .0297396
682.947 .0297192
683.690 .0296983
684.433 .0296773
685.175 .0296562
685.917 .0296358
686.659 .0296159
687.401 .0295971
688.142 .0295787
688.884 .0295610
689.625 .0295431
690.365 .0295244
691.106 .0295046
691.846 .0294841
692.586 .0294628
693.326 .0294412
694.066 .0294195
694.805 .0293989
695.545 .0293788
696.284 .0293599
697.022 .0293418
697.761 .0293244
698.499 .0293068
699.237 .0292888
699.975 .0292701
700.713 .0292511
701.450 .0292320
702.187 .0292135
702.924 .0291959
703.661 .0291797
704.397 .0291643
705.133 .0291499
705.869 .0291369
706.605 .0291247
707.341 .0291128
708.076 .0291013
708.811 .0290903
709.546 .0290794
710.281 .0290684
711.015 .0290574
711.749 .0290459
712.483 .0290336
713.217 .0290194
713.950 .0290036
714.684 .0289860
715.417 .0289669
716.150 .0289468
716.882 .0289268
717.615 .0289074
718.347 .0288889
719.079 .0288715
719.811 .0288548
720.542 .0288386
721.273 .0288224
722.005 .0288055
722.735 .0287881
723.466 .0287707
724.196 .0287536
724.927 .0287370
725.656 .0287220
726.386 .0287080
727.116 .0286949
727.845 .0286826
728.574 .0286700
729.303 .0286570
730.031 .0286437
730.760 .0286293
731.488 .0286145
732.216 .0285998
732.944 .0285854
733.671 .0285713
734.398 .0285582
735.125 .0285458
735.852 .0285343
736.579 .0285239
737.305 .0285151
738.031 .0285074
738.757 .0285014
739.483 .0284965
740.208 .0284925
740.933 .0284895
741.658 .0284866
742.383 .0284833
743.108 .0284795
743.832 .0284752
744.556 .0284704
745.280 .0284649
746.004 .0284590
746.727 .0284528
747.450 .0284461
748.173 .0284380
748.896 .0284284
749.618 .0284165
750.340 .0284028
751.062 .0283872
751.784 .0283700
752.506 .0283516
753.227 .0283327
753.948 .0283137
754.669 .0282947
755.389 .0282760
756.110 .0282575
756.830 .0282390
757.550 .0282207
758.269 .0282020
758.989 .0281833
759.708 .0281646
760.427 .0281462
761.146 .0281280
761.864 .0281103
762.582 .0280928
763.300 .0280756
764.018 .0280586
764.736 .0280413
765.453 .0280237
766.170 .0280062
766.887 .0279887
767.603 .0279713
768.320 .0279540
769.036 .0279366
769.751 .0279190
770.467 .0279012
771.182 .0278826
771.897 .0278634
772.612 .0278435
773.327 .0278234
774.041 .0278034
774.755 .0277839
775.469 .0277654
776.183 .0277479
776.896 .0277319
777.609 .0277168
778.322 .0277020
779.035 .0276874
779.747 .0276729
780.459 .0276586
781.171 .0276449
781.882 .0276319
782.594 .0276203
783.305 .0276104
784.016 .0276021
784.726 .0275953
785.436 .0275893
786.147 .0275837
786.856 .0275777
787.566 .0275711
788.275 .0275638
788.984 .0275557
789.693 .0275473
790.401 .0275385
791.110 .0275293
791.818 .0275194
792.525 .0275089
793.233 .0274973
793.940 .0274846
794.647 .0274709
795.353 .0274560
796.060 .0274403
796.766 .0274240
797.472 .0274077
798.177 .0273916
798.883 .0273755
799.588 .0273597
800.292 .0273442
800.997 .0273291
801.701 .0273142
802.405 .0272998
803.109 .0272861
803.812 .0272731
804.515 .0272603
805.218 .0272476
805.921 .0272346
806.623 .0272210
807.325 .0272068
808.027 .0271920
808.728 .0271763
809.429 .0271601
810.130 .0271432
810.831 .0271264
811.531 .0271092
812.231 .0270918
812.931 .0270741
813.630 .0270560
814.330 .0270373
815.029 .0270183
815.727 .0269992
816.426 .0269806
817.124 .0269627
817.821 .0269456
818.519 .0269295
819.216 .0269150
819.913 .0269019
820.609 .0268904
821.306 .0268805
822.002 .0268723
822.697 .0268654
823.393 .0268600
824.088 .0268558
824.783 .0268524
825.477 .0268498
826.171 .0268474
826.865 .0268452
827.559 .0268429
828.252 .0268405
828.945 .0268383
829.638 .0268369
830.330 .0268363
831.023 .0268364
831.714 .0268373
832.406 .0268389
833.097 .0268402
833.788 .0268409
834.479 .0268405
835.169 .0268391
835.859 .0268371
836.548 .0268345
837.238 .0268316
837.927 .0268289
838.615 .0268267
839.304 .0268251
839.992 .0268234
840.680 .0268219
841.367 .0268200
842.054 .0268175
842.741 .0268142
843.428 .0268103
844.114 .0268062
844.800 .0268025
845.485 .0267990
846.170 .0267960
846.855 .0267934
847.540 .0267911
848.224 .0267889
848.908 .0267866
849.592 .0267839
850.275 .0267805
850.958 .0267765
851.641 .0267718
852.323 .0267663
853.005 .0267602
853.687 .0267535
854.368 .0267462
855.049 .0267380
855.730 .0267290
856.410 .0267187
857.090 .0267076
857.769 .0266958
858.449 .0266833
859.128 .0266698
859.806 .0266557
860.485 .0266416
861.163 .0266279
861.840 .0266150
862.518 .0266031
863.195 .0265921
863.871 .0265821
864.548 .0265724
865.224 .0265630
865.899 .0265529
866.574 .0265425
867.249 .0265319
867.924 .0265207
868.598 .0265095
869.272 .0264989
869.946 .0264898
870.619 .0264822
871.292 .0264762
871.964 .0264710
872.636 .0264662
873.308 .0264613
873.979 .0264557
874.651 .0264489
875.321 .0264416
875.992 .0264339
876.662 .0264263
877.331 .0264195
878.001 .0264140
878.670 .0264097
879.338 .0264067
880.007 .0264049
880.675 .0264034
881.342 .0264015
882.009 .0263991
882.676 .0263963
883.343 .0263931
884.009 .0263898
884.675 .0263861
885.340 .0263825
886.005 .0263794
886.670 .0263769
887.334 .0263750
887.998 .0263742
888.662 .0263747
889.325 .0263761
889.988 .0263777
890.650 .0263796
891.312 .0263810
891.974 .0263817
892.636 .0263816
893.297 .0263803
893.957 .0263780
894.618 .0263749
895.278 .0263716
895.937 .0263683
896.596 .0263655
897.255 .0263634
897.914 .0263608
898.572 .0263577
899.230 .0263533
899.887 .0263470
900.544 .0263389
901.201 .0263291
901.857 .0263176
902.513 .0263049
903.168 .0262912
903.823 .0262767
904.478 .0262615
905.132 .0262455
905.786 .0262285
906.440 .0262100
907.093 .0261898
907.746 .0261677
908.399 .0261439
909.051 .0261193
909.703 .0260940
910.354 .0260680
911.005 .0260418
911.656 .0260153
912.306 .0259888
912.956 .0259621
913.605 .0259352
914.254 .0259084
914.903 .0258815
915.551 .0258552
916.199 .0258294
916.847 .0258049
917.494 .0257817
918.141 .0257605
918.788 .0257408
919.434 .0257224
920.079 .0257046
920.725 .0256871
921.370 .0256697
922.014 .0256515
922.658 .0256328
923.302 .0256133
923.946 .0255935
924.589 .0255736
925.231 .0255531
925.873 .0255326
926.515 .0255119
927.157 .0254907
927.798 .0254685
928.439 .0254451
929.079 .0254203
929.719 .0253940
930.359 .0253666
930.998 .0253382
931.637 .0253095
932.275 .0252813
932.913 .0252538
933.551 .0252269
934.188 .0252016
934.825 .0251775
935.462 .0251545
936.098 .0251332
936.733 .0251130
937.369 .0250936
938.004 .0250753
938.638 .0250578
939.273 .0250411
939.907 .0250249
940.540 .0250097
941.173 .0249947
941.806 .0249805
942.438 .0249666
943.070 .0249526
943.702 .0249385
944.333 .0249244
944.964 .0249093
945.594 .0248939
946.224 .0248780
946.854 .0248624
947.483 .0248470
948.112 .0248327
948.741 .0248191
949.369 .0248065
949.996 .0247947
950.624 .0247835
951.251 .0247722
951.878 .0247613
952.504 .0247498
953.130 .0247381
953.755 .0247259
954.380 .0247138
955.005 .0247016
955.629 .0246897
956.253 .0246780
956.877 .0246668
957.500 .0246552
958.123 .0246439
958.746 .0246321
959.368 .0246200
959.990 .0246074
960.611 .0245943
961.232 .0245810
961.853 .0245680
962.473 .0245558
963.093 .0245449
963.712 .0245351
964.331 .0245264
964.950 .0245181
965.569 .0245106
966.187 .0245037
966.804 .0244970
967.422 .0244903
968.039 .0244832
968.655 .0244755
969.272 .0244673
969.887 .0244587
970.503 .0244493
971.118 .0244409
971.733 .0244326
972.347 .0244252
972.961 .0244184
973.575 .0244127
974.188 .0244075
974.801 .0244026
975.414 .0243973
976.026 .0243907
976.638 .0243827
977.250 .0243736
977.861 .0243631
978.472 .0243524
979.083 .0243413
979.693 .0243305
980.303 .0243198
980.912 .0243096
981.521 .0242988
982.130 .0242881
982.738 .0242771
983.346 .0242655
983.954 .0242534
984.562 .0242412
985.169 .0242290
985.775 .0242175
986.382 .0242073
986.988 .0241985
987.594 .0241908
988.199 .0241847
988.804 .0241801
989.409 .0241772
990.013 .0241756
990.617 .0241756
991.221 .0241768
991.824 .0241793
992.427 .0241825
993.030 .0241861
993.632 .0241908
994.234 .0241964
994.836 .0242027
995.438 .0242095
996.039 .0242173
996.640 .0242259
997.240 .0242347
997.840 .0242438
998.440 .0242529
999.040 .0242614
999.639 .0242690
1000.238 .0242755
1000.836 .0242813
1001.435 .0242864
1002.033 .0242910
1002.630 .0242948
1003.228 .0242989
1003.825 .0243026
1004.422 .0243064
1005.018 .0243105
1005.614 .0243152
1006.210 .0243199
1006.806 .0243249
1007.401 .0243304
1007.996 .0243364
1008.591 .0243430
1009.186 .0243506
1009.780 .0243583
1010.374 .0243664
1010.967 .0243745
1011.561 .0243820
1012.154 .0243889
1012.746 .0243957
1013.339 .0244022
1013.931 .0244091
1014.523 .0244162
1015.115 .0244240
1015.706 .0244327
1016.298 .0244426
1016.888 .0244531
1017.479 .0244642
1018.069 .0244754
1018.660 .0244867
1019.250 .0244983
1019.839 .0245101
1020.429 .0245228
1021.018 .0245369
1021.607 .0245524
1022.195 .0245693
1022.784 .0245870
1023.372 .0246050
1023.960 .0246225
1024.547 .0246394
1025.135 .0246558
1025.722 .0246717
1026.309 .0246875
1026.896 .0247046
1027.483 .0247232
1028.069 .0247436
1028.655 .0247655
1029.241 .0247882
1029.827 .0248115
1030.412 .0248342
1030.997 .0248556
1031.582 .0248758
1032.167 .0248946
1032.752 .0249130
1033.336 .0249301
1033.921 .0249473
1034.505 .0249637
1035.089 .0249792
1035.672 .0249933
1036.256 .0250060
1036.839 .0250166
1037.422 .0250247
1038.005 .0250311
1038.588 .0250357
1039.171 .0250395
1039.753 .0250429
1040.335 .0250463
1040.918 .0250506
1041.500 .0250564
1042.081 .0250640
1042.663 .0250729
1043.244 .0250841
1043.826 .0250970
1044.407 .0251112
1044.988 .0251268
1045.569 .0251426
1046.150 .0251581
1046.730 .0251725
1047.311 .0251860
1047.891 .0251974
1048.471 .0252078
1049.052 .0252164
1049.632 .0252246
1050.211 .0252330
1050.791 .0252411
1051.371 .0252484
1051.950 .0252552
1052.530 .0252610
1053.109 .0252658
1053.688 .0252687
1054.268 .0252705
1054.847 .0252707
1055.426 .0252707
1056.005 .0252701
1056.583 .0252703
1057.162 .0252706
1057.741 .0252723
1058.319 .0252742
1058.898 .0252771
1059.476 .0252788
1060.055 .0252809
1060.633 .0252831
1061.211 .0252863
1061.790 .0252898
1062.368 .0252942
1062.946 .0252989
1063.524 .0253046
1064.102 .0253104
1064.680 .0253169
1065.258 .0253215
1065.836 .0253252
1066.414 .0253277
1066.992 .0253304
1067.570 .0253328
1068.148 .0253365
1068.726 .0253411
1069.304 .0253484
1069.882 .0253564
1070.460 .0253645
1071.038 .0253708
1071.616 .0253764
1072.194 .0253807
1072.772 .0253818
1073.350 .0253816
1073.928 .0253810
1074.506 .0253807
1075.084 .0253830
1075.662 .0253881
1076.240 .0253959
1076.819 .0254044
1077.397 .0254143
1077.976 .0254232
1078.554 .0254298
1079.133 .0254340
1079.711 .0254351
1080.290 .0254345
1080.869 .0254326
1081.448 .0254284
1082.027 .0254224
1082.606 .0254164
1083.185 .0254106
1083.764 .0254040
1084.343 .0253957
1084.923 .0253866
1085.502 .0253772
1086.082 .0253682
1086.662 .0253615
1087.242 .0253560
1087.822 .0253520
1088.402 .0253493
1088.983 .0253472
1089.563 .0253431
1090.144 .0253373
1090.725 .0253307
1091.306 .0253235
1091.887 .0253172
1092.469 .0253133
1093.050 .0253113
1093.632 .0253142
1094.214 .0253236
1094.796 .0253369
1095.379 .0253510
1095.961 .0253663
1096.544 .0253797
1097.127 .0253903
1097.710 .0253994
1098.294 .0254095
1098.877 .0254223
1099.461 .0254412
1100.046 .0254656
1100.630 .0254949
1101.215 .0255287
1101.800 .0255638
1102.385 .0255960
1102.970 .0256233
1103.556 .0256432
1104.142 .0256530
1104.728 .0256554
1105.315 .0256537
1105.902 .0256492
1106.489 .0256450
1107.077 .0256443
1107.664 .0256480
1108.253 .0256559
1108.841 .0256670
1109.430 .0256805
1110.019 .0256938
1110.609 .0257076
1111.198 .0257190
1111.789 .0257282
1112.379 .0257372
1112.970 .0257456
1113.561 .0257552
1114.153 .0257713
1114.745 .0257919
1115.338 .0258178
1115.931 .0258466
1116.524 .0258780
1117.117 .0259099
1117.712 .0259394
1118.306 .0259682
1118.901 .0259946
1119.496 .0260202
1120.092 .0260474
1120.689 .0260762
1121.285 .0261106
1121.882 .0261495
1122.480 .0261942
1123.078 .0262460
1123.677 .0263008
1124.276 .0263556
1124.875 .0264093
1125.476 .0264633
1126.076 .0265168
1126.677 .0265707
1127.279 .0266259
1127.881 .0266844
1128.484 .0267460
1129.087 .0268084
1129.691 .0268726
1130.295 .0269409
1130.900 .0270124
1131.505 .0270899
1132.111 .0271761
1132.718 .0272717
1133.325 .0273713
1133.933 .0274783
1134.541 .0275900
1135.150 .0277061
1135.760 .0278223
1136.370 .0279374
1136.981 .0280556
1137.592 .0281767
1138.204 .0283017
1138.817 .0284363
1139.431 .0285798
1140.045 .0287254
1140.660 .0288829
1141.275 .0290561
1141.891 .0292568
1142.508 .0294186
1143.126 .0293305
1143.744 .0298252
1144.363 .0302956
1144.983 .0308984
