Measurement Sequence started on: 15-12-46-377
Integration time: 28
Scans to Average: 2 
>>>>>Begin Spectral Data<<<<<
432.689 .0000100
433.621 .0000100
434.552 .0000100
435.482 .0000100
436.410 .0000100
437.337 .0000100
438.262 .0254835
439.187 .0541090
440.110 .0896774
441.031 .1297601
441.952 .1686965
442.871 .1993337
443.789 .2161088
444.705 .2171167
445.621 .2046938
446.535 .1839934
447.447 .1606190
448.359 .1249322
449.269 .1073369
450.178 .0964238
451.086 .0889083
451.993 .0832560
452.898 .0788565
453.803 .0752853
454.706 .0722992
455.608 .0697341
456.508 .0674683
457.408 .0654588
458.306 .0636641
459.204 .0620445
460.100 .0605901
460.995 .0592793
461.888 .0580908
462.781 .0570064
463.673 .0560048
464.563 .0550776
465.452 .0541930
466.340 .0533397
467.228 .0525222
468.114 .0517361
468.999 .0509802
469.882 .0502605
470.765 .0495841
471.647 .0489662
472.528 .0484053
473.407 .0479130
474.286 .0474941
475.163 .0471341
476.040 .0468355
476.915 .0465874
477.790 .0463803
478.663 .0462076
479.535 .0460635
480.407 .0459500
481.277 .0458611
482.147 .0458046
483.015 .0457708
483.883 .0457695
484.749 .0457951
485.615 .0458425
486.479 .0459080
487.343 .0459929
488.206 .0460907
489.067 .0461919
489.928 .0462972
490.788 .0464018
491.647 .0465003
492.505 .0465968
493.362 .0466908
494.218 .0467837
495.073 .0468836
495.928 .0469966
496.781 .0471178
497.634 .0472699
498.486 .0474535
499.337 .0476665
500.187 .0479108
501.036 .0481841
501.884 .0484794
502.731 .0487899
503.578 .0491219
504.424 .0494688
505.268 .0498298
506.113 .0502196
506.956 .0506306
507.798 .0510774
508.640 .0515748
509.480 .0521157
510.320 .0527266
511.160 .0534097
511.998 .0541619
512.836 .0549862
513.672 .0559077
514.508 .0569350
515.344 .0580707
516.178 .0593582
517.012 .0608252
517.845 .0625123
518.677 .0644609
519.508 .0667000
520.339 .0692440
521.169 .0721762
521.998 .0755459
522.826 .0793840
523.654 .0837994
524.481 .0887957
525.307 .0944230
526.133 .1006472
526.958 .1074185
527.782 .1146321
528.605 .1220606
529.428 .1296015
530.250 .1367245
531.072 .1431395
531.892 .1485060
532.712 .1525344
533.532 .1550603
534.350 .1559099
535.168 .1549644
535.986 .1523117
536.802 .1481526
537.618 .1427245
538.434 .1362307
539.249 .1291695
540.063 .1217976
540.876 .1144393
541.689 .1073260
542.501 .1006778
543.313 .0945929
544.124 .0891979
544.934 .0843882
545.744 .0800698
546.553 .0762150
547.361 .0727914
548.169 .0697568
548.976 .0670726
549.783 .0646913
550.589 .0625781
551.395 .0606633
552.200 .0589443
553.004 .0573532
553.808 .0558559
554.611 .0544590
555.414 .0531709
556.216 .0519856
557.018 .0509223
557.819 .0499723
558.619 .0491396
559.419 .0484075
560.218 .0477687
561.017 .0471836
561.815 .0466353
562.613 .0461128
563.410 .0455963
564.207 .0450770
565.003 .0445536
565.799 .0440247
566.594 .0435037
567.388 .0430017
568.182 .0425175
568.976 .0420447
569.769 .0415857
570.562 .0411369
571.354 .0406866
572.145 .0402371
572.936 .0397818
573.727 .0393220
574.517 .0388627
575.307 .0384082
576.096 .0379640
576.885 .0375379
577.673 .0371361
578.461 .0367599
579.248 .0364113
580.035 .0360891
580.821 .0357895
581.607 .0355068
582.392 .0352377
583.177 .0349840
583.962 .0347444
584.746 .0345193
585.529 .0343088
586.313 .0341194
587.095 .0339483
587.878 .0337937
588.660 .0336538
589.441 .0335257
590.222 .0334093
591.003 .0333015
591.783 .0332004
592.563 .0331057
593.342 .0330189
594.121 .0329381
594.899 .0328642
595.678 .0327985
596.455 .0327395
597.233 .0326860
598.009 .0326365
598.786 .0325905
599.562 .0325462
600.338 .0325038
601.113 .0324643
601.888 .0324272
602.663 .0323926
603.437 .0323607
604.211 .0323296
604.984 .0323000
605.757 .0322702
606.530 .0322385
607.302 .0322055
608.074 .0321721
608.845 .0321382
609.616 .0321039
610.387 .0320703
611.158 .0320391
611.928 .0320089
612.697 .0319796
613.467 .0319503
614.236 .0319209
615.004 .0318910
615.773 .0318604
616.541 .0318292
617.308 .0317991
618.076 .0317705
618.843 .0317436
619.609 .0317186
620.375 .0316955
621.141 .0316734
621.907 .0316520
622.672 .0316304
623.437 .0316086
624.202 .0315851
624.966 .0315607
625.730 .0315349
626.493 .0315089
627.257 .0314819
628.020 .0314542
628.782 .0314259
629.545 .0313969
630.307 .0313665
631.068 .0313341
631.830 .0313000
632.591 .0312648
633.352 .0312283
634.112 .0311911
634.872 .0311534
635.632 .0311163
636.392 .0310799
637.151 .0310452
637.910 .0310119
638.668 .0309806
639.427 .0309510
640.185 .0309230
640.943 .0308962
641.700 .0308712
642.457 .0308474
643.214 .0308250
643.971 .0308042
644.727 .0307852
645.483 .0307679
646.239 .0307519
646.994 .0307379
647.750 .0307252
648.505 .0307138
649.259 .0307034
650.014 .0306933
650.768 .0306830
651.521 .0306720
652.275 .0306600
653.028 .0306470
653.781 .0306328
654.534 .0306179
655.286 .0306015
656.039 .0305847
656.791 .0305675
657.542 .0305497
658.294 .0305313
659.045 .0305128
659.796 .0304931
660.546 .0304723
661.297 .0304503
662.047 .0304274
662.796 .0304037
663.546 .0303797
664.295 .0303557
665.044 .0303316
665.793 .0303075
666.542 .0302834
667.290 .0302585
668.038 .0302335
668.786 .0302072
669.533 .0301800
670.281 .0301527
671.028 .0301260
671.774 .0300998
672.521 .0300753
673.267 .0300524
674.013 .0300313
674.759 .0300120
675.505 .0299942
676.250 .0299770
676.995 .0299608
677.740 .0299454
678.484 .0299296
679.229 .0299146
679.973 .0299004
680.717 .0298867
681.460 .0298742
682.204 .0298622
682.947 .0298503
683.690 .0298382
684.433 .0298257
685.175 .0298122
685.917 .0297981
686.659 .0297835
687.401 .0297671
688.142 .0297500
688.884 .0297325
689.625 .0297142
690.365 .0296954
691.106 .0296761
691.846 .0296567
692.586 .0296373
693.326 .0296179
694.066 .0295986
694.805 .0295795
695.545 .0295602
696.284 .0295403
697.022 .0295193
697.761 .0294976
698.499 .0294749
699.237 .0294514
699.975 .0294276
700.713 .0294035
701.450 .0293794
702.187 .0293552
702.924 .0293314
703.661 .0293080
704.397 .0292841
705.133 .0292603
705.869 .0292367
706.605 .0292135
707.341 .0291911
708.076 .0291695
708.811 .0291492
709.546 .0291299
710.281 .0291112
711.015 .0290926
711.749 .0290738
712.483 .0290548
713.217 .0290354
713.950 .0290154
714.684 .0289952
715.417 .0289751
716.150 .0289557
716.882 .0289371
717.615 .0289192
718.347 .0289017
719.079 .0288839
719.811 .0288652
720.542 .0288459
721.273 .0288251
722.005 .0288034
722.735 .0287811
723.466 .0287588
724.196 .0287370
724.927 .0287158
725.656 .0286958
726.386 .0286773
727.116 .0286602
727.845 .0286437
728.574 .0286274
729.303 .0286116
730.031 .0285956
730.760 .0285800
731.488 .0285647
732.216 .0285504
732.944 .0285368
733.671 .0285242
734.398 .0285122
735.125 .0285009
735.852 .0284901
736.579 .0284794
737.305 .0284689
738.031 .0284588
738.757 .0284487
739.483 .0284389
740.208 .0284294
740.933 .0284207
741.658 .0284117
742.383 .0284023
743.108 .0283924
743.832 .0283820
744.556 .0283718
745.280 .0283622
746.004 .0283535
746.727 .0283463
747.450 .0283405
748.173 .0283353
748.896 .0283304
749.618 .0283256
750.340 .0283198
751.062 .0283129
751.784 .0283046
752.506 .0282953
753.227 .0282852
753.948 .0282750
754.669 .0282652
755.389 .0282557
756.110 .0282467
756.830 .0282377
757.550 .0282281
758.269 .0282183
758.989 .0282080
759.708 .0281968
760.427 .0281854
761.146 .0281738
761.864 .0281616
762.582 .0281491
763.300 .0281361
764.018 .0281231
764.736 .0281098
765.453 .0280963
766.170 .0280829
766.887 .0280694
767.603 .0280561
768.320 .0280427
769.036 .0280288
769.751 .0280154
770.467 .0280014
771.182 .0279871
771.897 .0279724
772.612 .0279575
773.327 .0279424
774.041 .0279277
774.755 .0279134
775.469 .0278998
776.183 .0278863
776.896 .0278732
777.609 .0278599
778.322 .0278466
779.035 .0278328
779.747 .0278191
780.459 .0278056
781.171 .0277924
781.882 .0277785
782.594 .0277650
783.305 .0277515
784.016 .0277384
784.726 .0277257
785.436 .0277129
786.147 .0277002
786.856 .0276876
787.566 .0276747
788.275 .0276621
788.984 .0276496
789.693 .0276373
790.401 .0276248
791.110 .0276120
791.818 .0275985
792.525 .0275843
793.233 .0275699
793.940 .0275553
794.647 .0275401
795.353 .0275243
796.060 .0275081
796.766 .0274913
797.472 .0274741
798.177 .0274563
798.883 .0274378
799.588 .0274186
800.292 .0273986
800.997 .0273778
801.701 .0273566
802.405 .0273355
803.109 .0273149
803.812 .0272952
804.515 .0272766
805.218 .0272582
805.921 .0272406
806.623 .0272233
807.325 .0272063
808.027 .0271893
808.728 .0271720
809.429 .0271546
810.130 .0271371
810.831 .0271197
811.531 .0271024
812.231 .0270855
812.931 .0270687
813.630 .0270516
814.330 .0270341
815.029 .0270162
815.727 .0269975
816.426 .0269784
817.124 .0269592
817.821 .0269403
818.519 .0269221
819.216 .0269054
819.913 .0268901
820.609 .0268769
821.306 .0268652
822.002 .0268551
822.697 .0268465
823.393 .0268394
824.088 .0268338
824.783 .0268294
825.477 .0268262
826.171 .0268244
826.865 .0268239
827.559 .0268252
828.252 .0268274
828.945 .0268305
829.638 .0268341
830.330 .0268381
831.023 .0268421
831.714 .0268454
832.406 .0268488
833.097 .0268521
833.788 .0268548
834.479 .0268571
835.169 .0268594
835.859 .0268618
836.548 .0268645
837.238 .0268680
837.927 .0268718
838.615 .0268759
839.304 .0268802
839.992 .0268841
840.680 .0268873
841.367 .0268898
842.054 .0268905
842.741 .0268897
843.428 .0268882
844.114 .0268855
844.800 .0268828
845.485 .0268806
846.170 .0268790
846.855 .0268775
847.540 .0268763
848.224 .0268748
848.908 .0268726
849.592 .0268694
850.275 .0268651
850.958 .0268593
851.641 .0268529
852.323 .0268457
853.005 .0268383
853.687 .0268312
854.368 .0268244
855.049 .0268178
855.730 .0268113
856.410 .0268043
857.090 .0267967
857.769 .0267881
858.449 .0267785
859.128 .0267675
859.806 .0267555
860.485 .0267425
861.163 .0267289
861.840 .0267148
862.518 .0267007
863.195 .0266868
863.871 .0266733
864.548 .0266600
865.224 .0266469
865.899 .0266336
866.574 .0266206
867.249 .0266073
867.924 .0265939
868.598 .0265804
869.272 .0265668
869.946 .0265533
870.619 .0265402
871.292 .0265276
871.964 .0265156
872.636 .0265042
873.308 .0264935
873.979 .0264829
874.651 .0264724
875.321 .0264618
875.992 .0264515
876.662 .0264416
877.331 .0264325
878.001 .0264240
878.670 .0264163
879.338 .0264091
880.007 .0264025
880.675 .0263963
881.342 .0263903
882.009 .0263840
882.676 .0263771
883.343 .0263694
884.009 .0263609
884.675 .0263514
885.340 .0263413
886.005 .0263306
886.670 .0263198
887.334 .0263086
887.998 .0262969
888.662 .0262849
889.325 .0262722
889.988 .0262592
890.650 .0262455
891.312 .0262314
891.974 .0262170
892.636 .0262027
893.297 .0261889
893.957 .0261757
894.618 .0261631
895.278 .0261514
895.937 .0261398
896.596 .0261283
897.255 .0261161
897.914 .0261029
898.572 .0260883
899.230 .0260727
899.887 .0260556
900.544 .0260373
901.201 .0260183
901.857 .0259992
902.513 .0259793
903.168 .0259590
903.823 .0259380
904.478 .0259162
905.132 .0258931
905.786 .0258687
906.440 .0258429
907.093 .0258163
907.746 .0257887
908.399 .0257604
909.051 .0257322
909.703 .0257045
910.354 .0256774
911.005 .0256514
911.656 .0256266
912.306 .0256026
912.956 .0255794
913.605 .0255566
914.254 .0255340
914.903 .0255115
915.551 .0254886
916.199 .0254655
916.847 .0254427
917.494 .0254203
918.141 .0253983
918.788 .0253771
919.434 .0253573
920.079 .0253380
920.725 .0253190
921.370 .0253002
922.014 .0252811
922.658 .0252617
923.302 .0252419
923.946 .0252221
924.589 .0252021
925.231 .0251823
925.873 .0251629
926.515 .0251438
927.157 .0251254
927.798 .0251073
928.439 .0250891
929.079 .0250709
929.719 .0250527
930.359 .0250346
930.998 .0250167
931.637 .0249998
932.275 .0249835
932.913 .0249683
933.551 .0249536
934.188 .0249395
934.825 .0249255
935.462 .0249119
936.098 .0248984
936.733 .0248852
937.369 .0248723
938.004 .0248599
938.638 .0248477
939.273 .0248362
939.907 .0248251
940.540 .0248150
941.173 .0248056
941.806 .0247981
942.438 .0247919
943.070 .0247876
943.702 .0247848
944.333 .0247834
944.964 .0247832
945.594 .0247832
946.224 .0247836
946.854 .0247843
947.483 .0247853
948.112 .0247872
948.741 .0247901
949.369 .0247950
949.996 .0248015
950.624 .0248098
951.251 .0248191
951.878 .0248287
952.504 .0248379
953.130 .0248461
953.755 .0248526
954.380 .0248582
955.005 .0248626
955.629 .0248657
956.253 .0248686
956.877 .0248715
957.500 .0248740
958.123 .0248768
958.746 .0248794
959.368 .0248822
959.990 .0248846
960.611 .0248873
961.232 .0248903
961.853 .0248936
962.473 .0248979
963.093 .0249019
963.712 .0249058
964.331 .0249093
964.950 .0249120
965.569 .0249146
966.187 .0249171
966.804 .0249204
967.422 .0249245
968.039 .0249299
968.655 .0249361
969.272 .0249426
969.887 .0249488
970.503 .0249540
971.118 .0249578
971.733 .0249596
972.347 .0249601
972.961 .0249595
973.575 .0249587
974.188 .0249577
974.801 .0249570
975.414 .0249563
976.026 .0249555
976.638 .0249542
977.250 .0249522
977.861 .0249495
978.472 .0249469
979.083 .0249438
979.693 .0249411
980.303 .0249385
980.912 .0249367
981.521 .0249348
982.130 .0249331
982.738 .0249315
983.346 .0249296
983.954 .0249274
984.562 .0249254
985.169 .0249233
985.775 .0249216
986.382 .0249201
986.988 .0249187
987.594 .0249171
988.199 .0249155
988.804 .0249132
989.409 .0249105
990.013 .0249077
990.617 .0249052
991.221 .0249026
991.824 .0249000
992.427 .0248982
993.030 .0248969
993.632 .0248958
994.234 .0248954
994.836 .0248949
995.438 .0248945
996.039 .0248940
996.640 .0248931
997.240 .0248916
997.840 .0248901
998.440 .0248879
999.040 .0248842
999.639 .0248798
1000.238 .0248748
1000.836 .0248684
1001.435 .0248617
1002.033 .0248555
1002.630 .0248491
1003.228 .0248435
1003.825 .0248385
1004.422 .0248341
1005.018 .0248306
1005.614 .0248277
1006.210 .0248244
1006.806 .0248207
1007.401 .0248173
1007.996 .0248129
1008.591 .0248084
1009.186 .0248047
1009.780 .0248014
1010.374 .0247986
1010.967 .0247965
1011.561 .0247942
1012.154 .0247911
1012.746 .0247869
1013.339 .0247808
1013.931 .0247727
1014.523 .0247632
1015.115 .0247517
1015.706 .0247392
1016.298 .0247263
1016.888 .0247144
1017.479 .0247028
1018.069 .0246925
1018.660 .0246831
1019.250 .0246748
1019.839 .0246673
1020.429 .0246598
1021.018 .0246521
1021.607 .0246447
1022.195 .0246373
1022.784 .0246305
1023.372 .0246241
1023.960 .0246190
1024.547 .0246145
1025.135 .0246117
1025.722 .0246103
1026.309 .0246098
1026.896 .0246099
1027.483 .0246101
1028.069 .0246092
1028.655 .0246072
1029.241 .0246037
1029.827 .0245990
1030.412 .0245935
1030.997 .0245880
1031.582 .0245824
1032.167 .0245775
1032.752 .0245733
1033.336 .0245695
1033.921 .0245653
1034.505 .0245599
1035.089 .0245524
1035.672 .0245414
1036.256 .0245277
1036.839 .0245114
1037.422 .0244937
1038.005 .0244760
1038.588 .0244586
1039.171 .0244426
1039.753 .0244281
1040.335 .0244145
1040.918 .0244017
1041.500 .0243892
1042.081 .0243765
1042.663 .0243644
1043.244 .0243533
1043.826 .0243432
1044.407 .0243350
1044.988 .0243293
1045.569 .0243255
1046.150 .0243226
1046.730 .0243195
1047.311 .0243159
1047.891 .0243114
1048.471 .0243060
1049.052 .0242987
1049.632 .0242903
1050.211 .0242823
1050.791 .0242741
1051.371 .0242654
1051.950 .0242567
1052.530 .0242466
1053.109 .0242343
1053.688 .0242198
1054.268 .0242032
1054.847 .0241853
1055.426 .0241670
1056.005 .0241501
1056.583 .0241353
1057.162 .0241231
1057.741 .0241129
1058.319 .0241050
1058.898 .0240991
1059.476 .0240950
1060.055 .0240909
1060.633 .0240873
1061.211 .0240854
1061.790 .0240857
1062.368 .0240881
1062.946 .0240933
1063.524 .0241021
1064.102 .0241139
1064.680 .0241269
1065.258 .0241401
1065.836 .0241522
1066.414 .0241634
1066.992 .0241728
1067.570 .0241801
1068.148 .0241856
1068.726 .0241897
1069.304 .0241923
1069.882 .0241933
1070.460 .0241926
1071.038 .0241884
1071.616 .0241814
1072.194 .0241709
1072.772 .0241575
1073.350 .0241412
1073.928 .0241246
1074.506 .0241094
1075.084 .0240983
1075.662 .0240920
1076.240 .0240900
1076.819 .0240937
1077.397 .0241023
1077.976 .0241139
1078.554 .0241269
1079.133 .0241406
1079.711 .0241553
1080.290 .0241681
1080.869 .0241806
1081.448 .0241918
1082.027 .0242021
1082.606 .0242131
1083.185 .0242247
1083.764 .0242373
1084.343 .0242500
1084.923 .0242642
1085.502 .0242784
1086.082 .0242928
1086.662 .0243062
1087.242 .0243179
1087.822 .0243275
1088.402 .0243358
1088.983 .0243416
1089.563 .0243458
1090.144 .0243511
1090.725 .0243584
1091.306 .0243675
1091.887 .0243802
1092.469 .0243956
1093.050 .0244146
1093.632 .0244351
1094.214 .0244572
1094.796 .0244789
1095.379 .0244992
1095.961 .0245179
1096.544 .0245345
1097.127 .0245487
1097.710 .0245611
1098.294 .0245729
1098.877 .0245839
1099.461 .0245946
1100.046 .0246073
1100.630 .0246212
1101.215 .0246356
1101.800 .0246526
1102.385 .0246692
1102.970 .0246853
1103.556 .0247010
1104.142 .0247156
1104.728 .0247293
1105.315 .0247442
1105.902 .0247602
1106.489 .0247791
1107.077 .0248027
1107.664 .0248322
1108.253 .0248666
1108.841 .0249092
1109.430 .0249570
1110.019 .0250085
1110.609 .0250624
1111.198 .0251191
1111.789 .0251779
1112.379 .0252387
1112.970 .0253001
1113.561 .0253643
1114.153 .0254311
1114.745 .0254971
1115.338 .0255617
1115.931 .0256250
1116.524 .0256855
1117.117 .0257417
1117.712 .0257938
1118.306 .0258430
1118.901 .0258887
1119.496 .0259329
1120.092 .0259763
1120.689 .0260180
1121.285 .0260614
1121.882 .0261047
1122.480 .0261517
1123.078 .0262046
1123.677 .0262630
1124.276 .0263256
1124.875 .0263950
1125.476 .0264691
1126.076 .0265451
1126.677 .0266220
1127.279 .0267009
1127.881 .0267816
1128.484 .0268640
1129.087 .0269515
1129.691 .0270446
1130.295 .0271460
1130.900 .0272573
1131.505 .0273720
1132.111 .0274911
1132.718 .0276114
1133.325 .0277306
1133.933 .0278457
1134.541 .0279567
1135.150 .0280662
1135.760 .0281726
1136.370 .0282800
1136.981 .0283877
1137.592 .0284960
1138.204 .0286124
1138.817 .0287316
1139.431 .0288535
1140.045 .0289764
1140.660 .0290873
1141.275 .0291842
1141.891 .0292674
1142.508 .0295070
1143.126 .0295899
1143.744 .0293066
1144.363 .0292983
1144.983 .0294574
