Measurement Sequence started on: 15-12-46-377
Integration time: 28
Scans to Average: 2 
>>>>>Begin Spectral Data<<<<<
432.689 .0000100
433.621 .0000100
434.552 .0000100
435.482 .0000100
436.410 .0000100
437.337 .0000100
438.262 .0253746
439.187 .0536815
440.110 .0889110
441.031 .1286687
441.952 .1673032
442.871 .1977271
443.789 .2144275
444.705 .2155198
445.621 .2033198
446.535 .1828617
447.447 .1596614
448.359 .1240939
449.269 .1065171
450.178 .0953653
451.086 .0874843
451.993 .0814708
452.898 .0767671
453.803 .0729566
454.706 .0698179
455.608 .0671477
456.508 .0648623
457.408 .0628683
458.306 .0610925
459.204 .0594840
460.100 .0580035
460.995 .0566307
461.888 .0553533
462.781 .0541524
463.673 .0530304
464.563 .0519861
465.452 .0510106
466.340 .0500924
467.228 .0492473
468.114 .0484574
468.999 .0477318
469.882 .0470676
470.765 .0464677
471.647 .0459213
472.528 .0454285
473.407 .0449924
474.286 .0446104
475.163 .0442871
476.040 .0440086
476.915 .0437764
477.790 .0435874
478.663 .0434391
479.535 .0433233
480.407 .0432419
481.277 .0431903
482.147 .0431559
483.015 .0431346
483.883 .0431195
484.749 .0431091
485.615 .0431036
486.479 .0431067
487.343 .0431276
488.206 .0431550
489.067 .0431941
489.928 .0432367
490.788 .0432905
491.647 .0433538
492.505 .0434211
493.362 .0434921
494.218 .0435679
495.073 .0436530
495.928 .0437515
496.781 .0438619
497.634 .0439944
498.486 .0441479
499.337 .0443158
500.187 .0444964
501.036 .0446911
501.884 .0449022
502.731 .0451434
503.578 .0454230
504.424 .0457479
505.268 .0461184
506.113 .0465351
506.956 .0470048
507.798 .0475330
508.640 .0481244
509.480 .0487653
510.320 .0494670
511.160 .0502522
511.998 .0511173
512.836 .0520826
513.672 .0531723
514.508 .0544031
515.344 .0557919
516.178 .0573559
517.012 .0591053
517.845 .0610655
518.677 .0632611
519.508 .0656999
520.339 .0684218
521.169 .0714816
521.998 .0748951
522.826 .0787249
523.654 .0830532
524.481 .0879299
525.307 .0933794
526.133 .0994076
526.958 .1059629
527.782 .1129729
528.605 .1201872
529.428 .1274412
530.250 .1342097
531.072 .1402689
531.892 .1452233
532.712 .1488225
533.532 .1509120
534.350 .1513497
535.168 .1501160
535.986 .1472921
536.802 .1430172
537.618 .1376148
538.434 .1312453
539.249 .1244021
540.063 .1172791
540.876 .1102160
541.689 .1034037
542.501 .0970667
543.313 .0913313
544.124 .0862041
544.934 .0816257
545.744 .0775233
546.553 .0738227
547.361 .0705303
548.169 .0675942
548.976 .0649632
549.783 .0626324
550.589 .0605908
551.395 .0587463
552.200 .0570914
553.004 .0555914
553.808 .0542126
554.611 .0529430
555.414 .0517680
556.216 .0506792
557.018 .0496890
557.819 .0487960
558.619 .0479955
559.419 .0472728
560.218 .0466251
561.017 .0460278
561.815 .0454535
562.613 .0448925
563.410 .0443224
564.207 .0437383
565.003 .0431531
565.799 .0425730
566.594 .0420014
567.388 .0414487
568.182 .0409153
568.976 .0404006
569.769 .0399000
570.562 .0394124
571.354 .0389307
572.145 .0384558
572.936 .0379898
573.727 .0375258
574.517 .0370699
575.307 .0366279
576.096 .0361981
576.885 .0357904
577.673 .0354067
578.461 .0350482
579.248 .0347130
580.035 .0344045
580.821 .0341215
581.607 .0338612
582.392 .0336233
583.177 .0334047
583.962 .0332037
584.746 .0330228
585.529 .0328579
586.313 .0327081
587.095 .0325720
587.878 .0324469
588.660 .0323328
589.441 .0322287
590.222 .0321315
591.003 .0320403
591.783 .0319538
592.563 .0318719
593.342 .0317926
594.121 .0317160
594.899 .0316431
595.678 .0315729
596.455 .0315069
597.233 .0314427
598.009 .0313795
598.786 .0313195
599.562 .0312608
600.338 .0312043
601.113 .0311513
601.888 .0311025
602.663 .0310582
603.437 .0310179
604.211 .0309815
604.984 .0309474
605.757 .0309151
606.530 .0308838
607.302 .0308525
608.074 .0308222
608.845 .0307927
609.616 .0307636
610.387 .0307367
611.158 .0307118
611.928 .0306879
612.697 .0306649
613.467 .0306432
614.236 .0306212
615.004 .0305986
615.773 .0305757
616.541 .0305529
617.308 .0305311
618.076 .0305112
618.843 .0304927
619.609 .0304762
620.375 .0304619
621.141 .0304480
621.907 .0304343
622.672 .0304216
623.437 .0304083
624.202 .0303949
624.966 .0303811
625.730 .0303680
626.493 .0303546
627.257 .0303416
628.020 .0303289
628.782 .0303159
629.545 .0303034
630.307 .0302901
631.068 .0302757
631.830 .0302614
632.591 .0302462
633.352 .0302304
634.112 .0302138
634.872 .0301970
635.632 .0301789
636.392 .0301601
637.151 .0301410
637.910 .0301213
638.668 .0301010
639.427 .0300801
640.185 .0300583
640.943 .0300353
641.700 .0300118
642.457 .0299869
643.214 .0299615
643.971 .0299363
644.727 .0299113
645.483 .0298871
646.239 .0298641
646.994 .0298432
647.750 .0298223
648.505 .0298022
649.259 .0297823
650.014 .0297615
650.768 .0297403
651.521 .0297182
652.275 .0296950
653.028 .0296712
653.781 .0296472
654.534 .0296229
655.286 .0295981
656.039 .0295740
656.791 .0295494
657.542 .0295235
658.294 .0294966
659.045 .0294684
659.796 .0294383
660.546 .0294079
661.297 .0293763
662.047 .0293446
662.796 .0293134
663.546 .0292833
664.295 .0292538
665.044 .0292262
665.793 .0292009
666.542 .0291769
667.290 .0291542
668.038 .0291326
668.786 .0291109
669.533 .0290897
670.281 .0290685
671.028 .0290471
671.774 .0290257
672.521 .0290050
673.267 .0289849
674.013 .0289662
674.759 .0289484
675.505 .0289319
676.250 .0289162
676.995 .0289017
677.740 .0288876
678.484 .0288735
679.229 .0288599
679.973 .0288464
680.717 .0288331
681.460 .0288196
682.204 .0288062
682.947 .0287942
683.690 .0287831
684.433 .0287730
685.175 .0287639
685.917 .0287556
686.659 .0287483
687.401 .0287415
688.142 .0287345
688.884 .0287273
689.625 .0287196
690.365 .0287114
691.106 .0287028
691.846 .0286940
692.586 .0286856
693.326 .0286773
694.066 .0286698
694.805 .0286623
695.545 .0286540
696.284 .0286450
697.022 .0286353
697.761 .0286249
698.499 .0286136
699.237 .0286018
699.975 .0285899
700.713 .0285782
701.450 .0285670
702.187 .0285560
702.924 .0285454
703.661 .0285350
704.397 .0285241
705.133 .0285125
705.869 .0285006
706.605 .0284888
707.341 .0284770
708.076 .0284657
708.811 .0284548
709.546 .0284442
710.281 .0284338
711.015 .0284230
711.749 .0284114
712.483 .0283986
713.217 .0283843
713.950 .0283682
714.684 .0283506
715.417 .0283318
716.150 .0283121
716.882 .0282920
717.615 .0282716
718.347 .0282504
719.079 .0282282
719.811 .0282050
720.542 .0281807
721.273 .0281553
722.005 .0281286
722.735 .0281011
723.466 .0280740
724.196 .0280473
724.927 .0280209
725.656 .0279951
726.386 .0279701
727.116 .0279451
727.845 .0279198
728.574 .0278939
729.303 .0278675
730.031 .0278411
730.760 .0278148
731.488 .0277890
732.216 .0277641
732.944 .0277405
733.671 .0277185
734.398 .0276978
735.125 .0276784
735.852 .0276594
736.579 .0276407
737.305 .0276223
738.031 .0276044
738.757 .0275869
739.483 .0275699
740.208 .0275540
740.933 .0275391
741.658 .0275245
742.383 .0275102
743.108 .0274959
743.832 .0274813
744.556 .0274662
745.280 .0274504
746.004 .0274338
746.727 .0274171
747.450 .0274002
748.173 .0273832
748.896 .0273665
749.618 .0273502
750.340 .0273339
751.062 .0273179
751.784 .0273028
752.506 .0272880
753.227 .0272744
753.948 .0272619
754.669 .0272506
755.389 .0272405
756.110 .0272320
756.830 .0272245
757.550 .0272185
758.269 .0272137
758.989 .0272098
759.708 .0272063
760.427 .0272036
761.146 .0272011
761.864 .0271990
762.582 .0271972
763.300 .0271959
764.018 .0271951
764.736 .0271948
765.453 .0271951
766.170 .0271962
766.887 .0271976
767.603 .0272000
768.320 .0272029
769.036 .0272063
769.751 .0272098
770.467 .0272134
771.182 .0272168
771.897 .0272200
772.612 .0272232
773.327 .0272262
774.041 .0272293
774.755 .0272324
775.469 .0272354
776.183 .0272386
776.896 .0272421
777.609 .0272451
778.322 .0272478
779.035 .0272500
779.747 .0272517
780.459 .0272527
781.171 .0272535
781.882 .0272540
782.594 .0272549
783.305 .0272559
784.016 .0272571
784.726 .0272584
785.436 .0272601
786.147 .0272612
786.856 .0272619
787.566 .0272618
788.275 .0272604
788.984 .0272578
789.693 .0272541
790.401 .0272491
791.110 .0272428
791.818 .0272353
792.525 .0272271
793.233 .0272180
793.940 .0272080
794.647 .0271970
795.353 .0271851
796.060 .0271724
796.766 .0271584
797.472 .0271431
798.177 .0271269
798.883 .0271096
799.588 .0270910
800.292 .0270718
800.997 .0270521
801.701 .0270324
802.405 .0270132
803.109 .0269943
803.812 .0269762
804.515 .0269582
805.218 .0269395
805.921 .0269198
806.623 .0268990
807.325 .0268770
808.027 .0268535
808.728 .0268293
809.429 .0268043
810.130 .0267787
810.831 .0267535
811.531 .0267282
812.231 .0267023
812.931 .0266759
813.630 .0266482
814.330 .0266194
815.029 .0265895
815.727 .0265587
816.426 .0265277
817.124 .0264973
817.821 .0264678
818.519 .0264388
819.216 .0264108
819.913 .0263839
820.609 .0263575
821.306 .0263314
822.002 .0263059
822.697 .0262809
823.393 .0262573
824.088 .0262352
824.783 .0262144
825.477 .0261948
826.171 .0261764
826.865 .0261589
827.559 .0261414
828.252 .0261239
828.945 .0261059
829.638 .0260877
830.330 .0260697
831.023 .0260519
831.714 .0260343
832.406 .0260177
833.097 .0260021
833.788 .0259872
834.479 .0259725
835.169 .0259583
835.859 .0259448
836.548 .0259319
837.238 .0259200
837.927 .0259084
838.615 .0258980
839.304 .0258890
839.992 .0258813
840.680 .0258748
841.367 .0258695
842.054 .0258655
842.741 .0258626
843.428 .0258603
844.114 .0258588
844.800 .0258576
845.485 .0258572
846.170 .0258566
846.855 .0258556
847.540 .0258539
848.224 .0258519
848.908 .0258493
849.592 .0258466
850.275 .0258436
850.958 .0258405
851.641 .0258376
852.323 .0258349
853.005 .0258321
853.687 .0258292
854.368 .0258260
855.049 .0258229
855.730 .0258196
856.410 .0258165
857.090 .0258139
857.769 .0258127
858.449 .0258130
859.128 .0258150
859.806 .0258186
860.485 .0258243
861.163 .0258320
861.840 .0258414
862.518 .0258518
863.195 .0258631
863.871 .0258752
864.548 .0258878
865.224 .0259004
865.899 .0259133
866.574 .0259266
867.249 .0259402
867.924 .0259537
868.598 .0259670
869.272 .0259799
869.946 .0259926
870.619 .0260047
871.292 .0260163
871.964 .0260270
872.636 .0260369
873.308 .0260459
873.979 .0260543
874.651 .0260620
875.321 .0260688
875.992 .0260750
876.662 .0260810
877.331 .0260868
878.001 .0260923
878.670 .0260976
879.338 .0261029
880.007 .0261081
880.675 .0261131
881.342 .0261176
882.009 .0261222
882.676 .0261264
883.343 .0261302
884.009 .0261337
884.675 .0261369
885.340 .0261400
886.005 .0261428
886.670 .0261455
887.334 .0261476
887.998 .0261491
888.662 .0261498
889.325 .0261495
889.988 .0261485
890.650 .0261467
891.312 .0261437
891.974 .0261405
892.636 .0261368
893.297 .0261329
893.957 .0261288
894.618 .0261243
895.278 .0261184
895.937 .0261115
896.596 .0261029
897.255 .0260929
897.914 .0260814
898.572 .0260691
899.230 .0260560
899.887 .0260426
900.544 .0260293
901.201 .0260162
901.857 .0260032
902.513 .0259907
903.168 .0259771
903.823 .0259623
904.478 .0259457
905.132 .0259273
905.786 .0259072
906.440 .0258855
907.093 .0258622
907.746 .0258377
908.399 .0258125
909.051 .0257865
909.703 .0257599
910.354 .0257326
911.005 .0257050
911.656 .0256760
912.306 .0256453
912.956 .0256134
913.605 .0255801
914.254 .0255460
914.903 .0255109
915.551 .0254754
916.199 .0254399
916.847 .0254039
917.494 .0253685
918.141 .0253333
918.788 .0252990
919.434 .0252651
920.079 .0252313
920.725 .0251978
921.370 .0251645
922.014 .0251310
922.658 .0250976
923.302 .0250642
923.946 .0250305
924.589 .0249959
925.231 .0249606
925.873 .0249250
926.515 .0248889
927.157 .0248522
927.798 .0248151
928.439 .0247772
929.079 .0247391
929.719 .0247001
930.359 .0246608
930.998 .0246218
931.637 .0245829
932.275 .0245446
932.913 .0245063
933.551 .0244686
934.188 .0244321
934.825 .0243969
935.462 .0243638
936.098 .0243325
936.733 .0243036
937.369 .0242766
938.004 .0242517
938.638 .0242284
939.273 .0242065
939.907 .0241856
940.540 .0241656
941.173 .0241462
941.806 .0241278
942.438 .0241107
943.070 .0240949
943.702 .0240804
944.333 .0240672
944.964 .0240545
945.594 .0240422
946.224 .0240301
946.854 .0240185
947.483 .0240071
948.112 .0239966
948.741 .0239866
949.369 .0239778
949.996 .0239705
950.624 .0239644
951.251 .0239594
951.878 .0239551
952.504 .0239512
953.130 .0239467
953.755 .0239414
954.380 .0239355
955.005 .0239289
955.629 .0239221
956.253 .0239152
956.877 .0239081
957.500 .0239015
958.123 .0238949
958.746 .0238883
959.368 .0238818
959.990 .0238756
960.611 .0238696
961.232 .0238639
961.853 .0238590
962.473 .0238551
963.093 .0238526
963.712 .0238515
964.331 .0238519
964.950 .0238545
965.569 .0238595
966.187 .0238664
966.804 .0238758
967.422 .0238882
968.039 .0239022
968.655 .0239180
969.272 .0239351
969.887 .0239524
970.503 .0239699
971.118 .0239873
971.733 .0240041
972.347 .0240205
972.961 .0240372
973.575 .0240530
974.188 .0240684
974.801 .0240838
975.414 .0240978
976.026 .0241107
976.638 .0241229
977.250 .0241340
977.861 .0241439
978.472 .0241531
979.083 .0241614
979.693 .0241689
980.303 .0241758
980.912 .0241815
981.521 .0241861
982.130 .0241907
982.738 .0241953
983.346 .0241997
983.954 .0242053
984.562 .0242119
985.169 .0242197
985.775 .0242285
986.382 .0242375
986.988 .0242466
987.594 .0242555
988.199 .0242647
988.804 .0242741
989.409 .0242847
990.013 .0242974
990.617 .0243119
991.221 .0243288
991.824 .0243473
992.427 .0243668
993.030 .0243873
993.632 .0244081
994.234 .0244287
994.836 .0244491
995.438 .0244690
996.039 .0244888
996.640 .0245086
997.240 .0245285
997.840 .0245486
998.440 .0245682
999.040 .0245873
999.639 .0246054
1000.238 .0246221
1000.836 .0246382
1001.435 .0246533
1002.033 .0246683
1002.630 .0246828
1003.228 .0246969
1003.825 .0247109
1004.422 .0247246
1005.018 .0247388
1005.614 .0247528
1006.210 .0247667
1006.806 .0247807
1007.401 .0247948
1007.996 .0248084
1008.591 .0248220
1009.186 .0248355
1009.780 .0248489
1010.374 .0248613
1010.967 .0248732
1011.561 .0248842
1012.154 .0248945
1012.746 .0249043
1013.339 .0249137
1013.931 .0249225
1014.523 .0249317
1015.115 .0249397
1015.706 .0249473
1016.298 .0249546
1016.888 .0249620
1017.479 .0249681
1018.069 .0249738
1018.660 .0249788
1019.250 .0249830
1019.839 .0249864
1020.429 .0249894
1021.018 .0249917
1021.607 .0249939
1022.195 .0249952
1022.784 .0249961
1023.372 .0249961
1023.960 .0249964
1024.547 .0249958
1025.135 .0249959
1025.722 .0249962
1026.309 .0249968
1026.896 .0249969
1027.483 .0249976
1028.069 .0249977
1028.655 .0249971
1029.241 .0249953
1029.827 .0249925
1030.412 .0249887
1030.997 .0249844
1031.582 .0249800
1032.167 .0249763
1032.752 .0249731
1033.336 .0249710
1033.921 .0249686
1034.505 .0249664
1035.089 .0249629
1035.672 .0249578
1036.256 .0249515
1036.839 .0249438
1037.422 .0249341
1038.005 .0249232
1038.588 .0249118
1039.171 .0249004
1039.753 .0248892
1040.335 .0248781
1040.918 .0248675
1041.500 .0248569
1042.081 .0248453
1042.663 .0248318
1043.244 .0248165
1043.826 .0247991
1044.407 .0247786
1044.988 .0247561
1045.569 .0247324
1046.150 .0247071
1046.730 .0246816
1047.311 .0246571
1047.891 .0246337
1048.471 .0246114
1049.052 .0245899
1049.632 .0245685
1050.211 .0245481
1050.791 .0245273
1051.371 .0245063
1051.950 .0244851
1052.530 .0244651
1053.109 .0244454
1053.688 .0244265
1054.268 .0244090
1054.847 .0243927
1055.426 .0243768
1056.005 .0243613
1056.583 .0243450
1057.162 .0243280
1057.741 .0243101
1058.319 .0242912
1058.898 .0242711
1059.476 .0242499
1060.055 .0242275
1060.633 .0242042
1061.211 .0241795
1061.790 .0241555
1062.368 .0241313
1062.946 .0241083
1063.524 .0240874
1064.102 .0240688
1064.680 .0240535
1065.258 .0240408
1065.836 .0240297
1066.414 .0240195
1066.992 .0240091
1067.570 .0239990
1068.148 .0239870
1068.726 .0239754
1069.304 .0239647
1069.882 .0239544
1070.460 .0239448
1071.038 .0239369
1071.616 .0239291
1072.194 .0239214
1072.772 .0239121
1073.350 .0239010
1073.928 .0238877
1074.506 .0238722
1075.084 .0238551
1075.662 .0238382
1076.240 .0238231
1076.819 .0238107
1077.397 .0237996
1077.976 .0237921
1078.554 .0237861
1079.133 .0237812
1079.711 .0237755
1080.290 .0237691
1080.869 .0237614
1081.448 .0237522
1082.027 .0237415
1082.606 .0237301
1083.185 .0237185
1083.764 .0237092
1084.343 .0237008
1084.923 .0236944
1085.502 .0236886
1086.082 .0236859
1086.662 .0236848
1087.242 .0236857
1087.822 .0236864
1088.402 .0236873
1088.983 .0236880
1089.563 .0236888
1090.144 .0236877
1090.725 .0236868
1091.306 .0236863
1091.887 .0236872
1092.469 .0236908
1093.050 .0236967
1093.632 .0237038
1094.214 .0237129
1094.796 .0237217
1095.379 .0237301
1095.961 .0237342
1096.544 .0237356
1097.127 .0237332
1097.710 .0237299
1098.294 .0237257
1098.877 .0237213
1099.461 .0237202
1100.046 .0237244
1100.630 .0237312
1101.215 .0237425
1101.800 .0237564
1102.385 .0237719
1102.970 .0237880
1103.556 .0238050
1104.142 .0238224
1104.728 .0238422
1105.315 .0238654
1105.902 .0238924
1106.489 .0239222
1107.077 .0239558
1107.664 .0239910
1108.253 .0240276
1108.841 .0240646
1109.430 .0240999
1110.019 .0241328
1110.609 .0241658
1111.198 .0241963
1111.789 .0242249
1112.379 .0242536
1112.970 .0242818
1113.561 .0243098
1114.153 .0243368
1114.745 .0243645
1115.338 .0243944
1115.931 .0244276
1116.524 .0244634
1117.117 .0245037
1117.712 .0245503
1118.306 .0246031
1118.901 .0246613
1119.496 .0247246
1120.092 .0247908
1120.689 .0248600
1121.285 .0249297
1121.882 .0249988
1122.480 .0250663
1123.078 .0251329
1123.677 .0251970
1124.276 .0252605
1124.875 .0253211
1125.476 .0253772
1126.076 .0254299
1126.677 .0254810
1127.279 .0255293
1127.881 .0255765
1128.484 .0256254
1129.087 .0256769
1129.691 .0257356
1130.295 .0258013
1130.900 .0258713
1131.505 .0259484
1132.111 .0260337
1132.718 .0261233
1133.325 .0262178
1133.933 .0263162
1134.541 .0264182
1135.150 .0265197
1135.760 .0266249
1136.370 .0267293
1136.981 .0268335
1137.592 .0269366
1138.204 .0270365
1138.817 .0271329
1139.431 .0272326
1140.045 .0273310
1140.660 .0274237
1141.275 .0275255
1141.891 .0276395
1142.508 .0278108
1143.126 .0278904
1143.744 .0277463
1144.363 .0281824
1144.983 .0284892
