Measurement Sequence started on: 15-12-46-377
Integration time: 28
Scans to Average: 2 
>>>>>Begin Spectral Data<<<<<
432.689 .0000100
433.621 .0000100
434.552 .0000100
435.482 .0000100
436.410 .0000100
437.337 .0000100
438.262 .0269062
439.187 .0569362
440.110 .0943393
441.031 .1365167
441.952 .1775076
442.871 .2098407
443.789 .2276411
444.705 .2289269
445.621 .2161728
446.535 .1947154
447.447 .1703916
448.359 .1329453
449.269 .1145285
450.178 .1028525
451.086 .0945972
451.993 .0882240
452.898 .0831237
453.803 .0789338
454.706 .0754188
455.608 .0723917
456.508 .0697872
457.408 .0675182
458.306 .0655210
459.204 .0637224
460.100 .0620824
460.995 .0605876
461.888 .0592139
462.781 .0579435
463.673 .0567743
464.563 .0557104
465.452 .0547282
466.340 .0538111
467.228 .0529787
468.114 .0522159
468.999 .0515251
469.882 .0508913
470.765 .0503128
471.647 .0497913
472.528 .0493232
473.407 .0488969
474.286 .0485180
475.163 .0481834
476.040 .0478831
476.915 .0476181
477.790 .0473877
478.663 .0471892
479.535 .0470197
480.407 .0468896
481.277 .0467943
482.147 .0467319
483.015 .0467028
483.883 .0466911
484.749 .0466954
485.615 .0467158
486.479 .0467354
487.343 .0467601
488.206 .0467959
489.067 .0468368
489.928 .0468866
490.788 .0469625
491.647 .0470553
492.505 .0471644
493.362 .0472938
494.218 .0474409
495.073 .0475911
495.928 .0477536
496.781 .0479132
497.634 .0480683
498.486 .0482348
499.337 .0484133
500.187 .0486012
501.036 .0488164
501.884 .0490640
502.731 .0493443
503.578 .0496646
504.424 .0500229
505.268 .0504010
506.113 .0508083
506.956 .0512472
507.798 .0517191
508.640 .0522299
509.480 .0527983
510.320 .0534365
511.160 .0541698
511.998 .0550179
512.836 .0559961
513.672 .0571333
514.508 .0584402
515.344 .0599161
516.178 .0615715
517.012 .0634189
517.845 .0654793
518.677 .0677815
519.508 .0703263
520.339 .0731751
521.169 .0763885
521.998 .0799932
522.826 .0840669
523.654 .0886615
524.481 .0938070
525.307 .0994919
526.133 .1057435
526.958 .1124578
527.782 .1195321
528.605 .1268212
529.428 .1341475
530.250 .1410019
531.072 .1471697
531.892 .1523254
532.712 .1561806
533.532 .1585944
534.350 .1593265
535.168 .1582807
535.986 .1555913
536.802 .1513256
537.618 .1457540
538.434 .1391057
539.249 .1319361
540.063 .1244268
540.876 .1169263
541.689 .1097493
542.501 .1030442
543.313 .0970099
544.124 .0916111
544.934 .0867644
545.744 .0824413
546.553 .0785254
547.361 .0750140
548.169 .0718758
548.976 .0691028
549.783 .0666257
550.589 .0644289
551.395 .0624686
552.200 .0607109
553.004 .0591126
553.808 .0576402
554.611 .0562848
555.414 .0550387
556.216 .0538879
557.018 .0528267
557.819 .0518579
558.619 .0509814
559.419 .0501685
560.218 .0494254
561.017 .0487289
561.815 .0480600
562.613 .0473964
563.410 .0467354
564.207 .0460748
565.003 .0454140
565.799 .0447571
566.594 .0441156
567.388 .0434993
568.182 .0429029
568.976 .0423204
569.769 .0417588
570.562 .0412150
571.354 .0406876
572.145 .0401705
572.936 .0396702
573.727 .0391852
574.517 .0387149
575.307 .0382662
576.096 .0378445
576.885 .0374544
577.673 .0370980
578.461 .0367723
579.248 .0364796
580.035 .0362132
580.821 .0359687
581.607 .0357437
582.392 .0355347
583.177 .0353354
583.962 .0351419
584.746 .0349565
585.529 .0347787
586.313 .0346097
587.095 .0344536
587.878 .0343095
588.660 .0341801
589.441 .0340622
590.222 .0339537
591.003 .0338545
591.783 .0337629
592.563 .0336750
593.342 .0335897
594.121 .0335067
594.899 .0334263
595.678 .0333477
596.455 .0332735
597.233 .0332048
598.009 .0331413
598.786 .0330845
599.562 .0330336
600.338 .0329857
601.113 .0329408
601.888 .0328967
602.663 .0328530
603.437 .0328089
604.211 .0327638
604.984 .0327183
605.757 .0326735
606.530 .0326308
607.302 .0325898
608.074 .0325518
608.845 .0325176
609.616 .0324857
610.387 .0324557
611.158 .0324274
611.928 .0323994
612.697 .0323713
613.467 .0323435
614.236 .0323160
615.004 .0322887
615.773 .0322621
616.541 .0322372
617.308 .0322147
618.076 .0321948
618.843 .0321771
619.609 .0321614
620.375 .0321469
621.141 .0321326
621.907 .0321170
622.672 .0321000
623.437 .0320815
624.202 .0320609
624.966 .0320387
625.730 .0320160
626.493 .0319933
627.257 .0319712
628.020 .0319505
628.782 .0319312
629.545 .0319122
630.307 .0318926
631.068 .0318717
631.830 .0318483
632.591 .0318217
633.352 .0317928
634.112 .0317618
634.872 .0317301
635.632 .0316984
636.392 .0316665
637.151 .0316362
637.910 .0316068
638.668 .0315773
639.427 .0315471
640.185 .0315159
640.943 .0314828
641.700 .0314474
642.457 .0314104
643.214 .0313728
643.971 .0313354
644.727 .0312999
645.483 .0312666
646.239 .0312359
646.994 .0312073
647.750 .0311801
648.505 .0311536
649.259 .0311274
650.014 .0311009
650.768 .0310742
651.521 .0310483
652.275 .0310236
653.028 .0310003
653.781 .0309789
654.534 .0309593
655.286 .0309408
656.039 .0309223
656.791 .0309026
657.542 .0308806
658.294 .0308567
659.045 .0308314
659.796 .0308050
660.546 .0307784
661.297 .0307520
662.047 .0307268
662.796 .0307024
663.546 .0306786
664.295 .0306544
665.044 .0306297
665.793 .0306047
666.542 .0305788
667.290 .0305523
668.038 .0305260
668.786 .0305004
669.533 .0304759
670.281 .0304518
671.028 .0304282
671.774 .0304047
672.521 .0303809
673.267 .0303565
674.013 .0303316
674.759 .0303062
675.505 .0302810
676.250 .0302564
676.995 .0302330
677.740 .0302105
678.484 .0301884
679.229 .0301670
679.973 .0301456
680.717 .0301237
681.460 .0301012
682.204 .0300779
682.947 .0300552
683.690 .0300327
684.433 .0300109
685.175 .0299898
685.917 .0299705
686.659 .0299526
687.401 .0299356
688.142 .0299187
688.884 .0299020
689.625 .0298843
690.365 .0298657
691.106 .0298457
691.846 .0298247
692.586 .0298032
693.326 .0297818
694.066 .0297606
694.805 .0297406
695.545 .0297210
696.284 .0297021
697.022 .0296829
697.761 .0296640
698.499 .0296438
699.237 .0296226
699.975 .0296006
700.713 .0295782
701.450 .0295556
702.187 .0295336
702.924 .0295128
703.661 .0294939
704.397 .0294766
705.133 .0294605
705.869 .0294455
706.605 .0294316
707.341 .0294177
708.076 .0294047
708.811 .0293923
709.546 .0293809
710.281 .0293695
711.015 .0293587
711.749 .0293481
712.483 .0293370
713.217 .0293248
713.950 .0293110
714.684 .0292954
715.417 .0292779
716.150 .0292584
716.882 .0292376
717.615 .0292165
718.347 .0291954
719.079 .0291746
719.811 .0291546
720.542 .0291355
721.273 .0291170
722.005 .0290989
722.735 .0290811
723.466 .0290639
724.196 .0290465
724.927 .0290297
725.656 .0290136
726.386 .0289987
727.116 .0289850
727.845 .0289725
728.574 .0289610
729.303 .0289505
730.031 .0289402
730.760 .0289301
731.488 .0289194
732.216 .0289088
732.944 .0288974
733.671 .0288854
734.398 .0288728
735.125 .0288598
735.852 .0288461
736.579 .0288327
737.305 .0288193
738.031 .0288064
738.757 .0287943
739.483 .0287828
740.208 .0287718
740.933 .0287614
741.658 .0287511
742.383 .0287408
743.108 .0287302
743.832 .0287193
744.556 .0287079
745.280 .0286964
746.004 .0286846
746.727 .0286727
747.450 .0286614
748.173 .0286496
748.896 .0286378
749.618 .0286256
750.340 .0286129
751.062 .0285993
751.784 .0285852
752.506 .0285702
753.227 .0285544
753.948 .0285385
754.669 .0285218
755.389 .0285046
756.110 .0284875
756.830 .0284701
757.550 .0284524
758.269 .0284347
758.989 .0284167
759.708 .0283978
760.427 .0283793
761.146 .0283604
761.864 .0283409
762.582 .0283212
763.300 .0283012
764.018 .0282810
764.736 .0282607
765.453 .0282407
766.170 .0282209
766.887 .0282023
767.603 .0281845
768.320 .0281669
769.036 .0281497
769.751 .0281330
770.467 .0281160
771.182 .0280991
771.897 .0280822
772.612 .0280652
773.327 .0280492
774.041 .0280340
774.755 .0280195
775.469 .0280063
776.183 .0279943
776.896 .0279833
777.609 .0279729
778.322 .0279627
779.035 .0279518
779.747 .0279406
780.459 .0279295
781.171 .0279180
781.882 .0279067
782.594 .0278963
783.305 .0278873
784.016 .0278800
784.726 .0278740
785.436 .0278689
786.147 .0278647
786.856 .0278608
787.566 .0278561
788.275 .0278502
788.984 .0278435
789.693 .0278361
790.401 .0278283
791.110 .0278204
791.818 .0278124
792.525 .0278047
793.233 .0277967
793.940 .0277880
794.647 .0277780
795.353 .0277665
796.060 .0277536
796.766 .0277395
797.472 .0277247
798.177 .0277099
798.883 .0276955
799.588 .0276822
800.292 .0276698
800.997 .0276582
801.701 .0276470
802.405 .0276361
803.109 .0276259
803.812 .0276164
804.515 .0276073
805.218 .0275989
805.921 .0275912
806.623 .0275841
807.325 .0275772
808.027 .0275701
808.728 .0275618
809.429 .0275525
810.130 .0275413
810.831 .0275287
811.531 .0275151
812.231 .0275010
812.931 .0274863
813.630 .0274714
814.330 .0274560
815.029 .0274401
815.727 .0274234
816.426 .0274064
817.124 .0273888
817.821 .0273711
818.519 .0273535
819.216 .0273365
819.913 .0273205
820.609 .0273066
821.306 .0272943
822.002 .0272839
822.697 .0272750
823.393 .0272674
824.088 .0272608
824.783 .0272550
825.477 .0272499
826.171 .0272452
826.865 .0272408
827.559 .0272369
828.252 .0272332
828.945 .0272299
829.638 .0272270
830.330 .0272247
831.023 .0272227
831.714 .0272210
832.406 .0272192
833.097 .0272169
833.788 .0272141
834.479 .0272105
835.169 .0272060
835.859 .0272013
836.548 .0271965
837.238 .0271915
837.927 .0271866
838.615 .0271818
839.304 .0271771
839.992 .0271725
840.680 .0271675
841.367 .0271622
842.054 .0271567
842.741 .0271508
843.428 .0271448
844.114 .0271392
844.800 .0271340
845.485 .0271291
846.170 .0271245
846.855 .0271194
847.540 .0271139
848.224 .0271077
848.908 .0271006
849.592 .0270929
850.275 .0270845
850.958 .0270755
851.641 .0270660
852.323 .0270565
853.005 .0270465
853.687 .0270360
854.368 .0270253
855.049 .0270137
855.730 .0270012
856.410 .0269877
857.090 .0269734
857.769 .0269588
858.449 .0269442
859.128 .0269298
859.806 .0269154
860.485 .0269020
861.163 .0268891
861.840 .0268772
862.518 .0268656
863.195 .0268541
863.871 .0268424
864.548 .0268306
865.224 .0268186
865.899 .0268060
866.574 .0267933
867.249 .0267812
867.924 .0267689
868.598 .0267572
869.272 .0267459
869.946 .0267352
870.619 .0267249
871.292 .0267151
871.964 .0267054
872.636 .0266955
873.308 .0266856
873.979 .0266760
874.651 .0266666
875.321 .0266574
875.992 .0266488
876.662 .0266400
877.331 .0266320
878.001 .0266241
878.670 .0266158
879.338 .0266078
880.007 .0266000
880.675 .0265923
881.342 .0265846
882.009 .0265768
882.676 .0265689
883.343 .0265603
884.009 .0265514
884.675 .0265415
885.340 .0265306
886.005 .0265192
886.670 .0265075
887.334 .0264959
887.998 .0264848
888.662 .0264745
889.325 .0264654
889.988 .0264576
890.650 .0264508
891.312 .0264447
891.974 .0264394
892.636 .0264349
893.297 .0264313
893.957 .0264283
894.618 .0264266
895.278 .0264259
895.937 .0264263
896.596 .0264281
897.255 .0264306
897.914 .0264335
898.572 .0264358
899.230 .0264373
899.887 .0264374
900.544 .0264354
901.201 .0264315
901.857 .0264256
902.513 .0264178
903.168 .0264084
903.823 .0263975
904.478 .0263850
905.132 .0263713
905.786 .0263562
906.440 .0263398
907.093 .0263222
907.746 .0263033
908.399 .0262834
909.051 .0262626
909.703 .0262415
910.354 .0262199
911.005 .0261983
911.656 .0261772
912.306 .0261563
912.956 .0261359
913.605 .0261159
914.254 .0260963
914.903 .0260769
915.551 .0260583
916.199 .0260401
916.847 .0260226
917.494 .0260061
918.141 .0259906
918.788 .0259756
919.434 .0259616
920.079 .0259478
920.725 .0259341
921.370 .0259205
922.014 .0259072
922.658 .0258933
923.302 .0258796
923.946 .0258658
924.589 .0258515
925.231 .0258362
925.873 .0258200
926.515 .0258019
927.157 .0257823
927.798 .0257610
928.439 .0257380
929.079 .0257135
929.719 .0256880
930.359 .0256621
930.998 .0256359
931.637 .0256101
932.275 .0255853
932.913 .0255610
933.551 .0255375
934.188 .0255144
934.825 .0254921
935.462 .0254709
936.098 .0254513
936.733 .0254331
937.369 .0254166
938.004 .0254020
938.638 .0253886
939.273 .0253767
939.907 .0253655
940.540 .0253550
941.173 .0253447
941.806 .0253348
942.438 .0253251
943.070 .0253149
943.702 .0253052
944.333 .0252960
944.964 .0252866
945.594 .0252772
946.224 .0252670
946.854 .0252565
947.483 .0252457
948.112 .0252343
948.741 .0252220
949.369 .0252095
949.996 .0251968
950.624 .0251838
951.251 .0251703
951.878 .0251569
952.504 .0251435
953.130 .0251301
953.755 .0251172
954.380 .0251039
955.005 .0250908
955.629 .0250779
956.253 .0250644
956.877 .0250512
957.500 .0250377
958.123 .0250242
958.746 .0250112
959.368 .0249989
959.990 .0249876
960.611 .0249771
961.232 .0249683
961.853 .0249611
962.473 .0249553
963.093 .0249508
963.712 .0249466
964.331 .0249424
964.950 .0249377
965.569 .0249322
966.187 .0249259
966.804 .0249196
967.422 .0249131
968.039 .0249072
968.655 .0249021
969.272 .0248974
969.887 .0248932
970.503 .0248887
971.118 .0248840
971.733 .0248781
972.347 .0248708
972.961 .0248626
973.575 .0248536
974.188 .0248447
974.801 .0248354
975.414 .0248260
976.026 .0248168
976.638 .0248076
977.250 .0247984
977.861 .0247892
978.472 .0247802
979.083 .0247713
979.693 .0247624
980.303 .0247534
980.912 .0247451
981.521 .0247367
982.130 .0247286
982.738 .0247209
983.346 .0247134
983.954 .0247065
984.562 .0247002
985.169 .0246949
985.775 .0246907
986.382 .0246865
986.988 .0246829
987.594 .0246786
988.199 .0246740
988.804 .0246686
989.409 .0246627
990.013 .0246566
990.617 .0246506
991.221 .0246448
991.824 .0246397
992.427 .0246358
993.030 .0246335
993.632 .0246317
994.234 .0246307
994.836 .0246309
995.438 .0246316
996.039 .0246334
996.640 .0246372
997.240 .0246426
997.840 .0246508
998.440 .0246608
999.040 .0246720
999.639 .0246835
1000.238 .0246947
1000.836 .0247044
1001.435 .0247116
1002.033 .0247167
1002.630 .0247189
1003.228 .0247188
1003.825 .0247179
1004.422 .0247158
1005.018 .0247135
1005.614 .0247115
1006.210 .0247096
1006.806 .0247079
1007.401 .0247064
1007.996 .0247046
1008.591 .0247031
1009.186 .0247022
1009.780 .0247022
1010.374 .0247033
1010.967 .0247063
1011.561 .0247105
1012.154 .0247162
1012.746 .0247233
1013.339 .0247305
1013.931 .0247375
1014.523 .0247437
1015.115 .0247482
1015.706 .0247517
1016.298 .0247542
1016.888 .0247559
1017.479 .0247574
1018.069 .0247598
1018.660 .0247624
1019.250 .0247654
1019.839 .0247697
1020.429 .0247751
1021.018 .0247817
1021.607 .0247902
1022.195 .0247998
1022.784 .0248109
1023.372 .0248245
1023.960 .0248400
1024.547 .0248578
1025.135 .0248773
1025.722 .0248976
1026.309 .0249184
1026.896 .0249387
1027.483 .0249580
1028.069 .0249754
1028.655 .0249909
1029.241 .0250043
1029.827 .0250150
1030.412 .0250239
1030.997 .0250306
1031.582 .0250364
1032.167 .0250421
1032.752 .0250473
1033.336 .0250521
1033.921 .0250574
1034.505 .0250623
1035.089 .0250675
1035.672 .0250732
1036.256 .0250794
1036.839 .0250859
1037.422 .0250938
1038.005 .0251028
1038.588 .0251131
1039.171 .0251245
1039.753 .0251374
1040.335 .0251502
1040.918 .0251633
1041.500 .0251761
1042.081 .0251872
1042.663 .0251974
1043.244 .0252066
1043.826 .0252140
1044.407 .0252202
1044.988 .0252253
1045.569 .0252294
1046.150 .0252317
1046.730 .0252330
1047.311 .0252327
1047.891 .0252302
1048.471 .0252266
1049.052 .0252225
1049.632 .0252177
1050.211 .0252138
1050.791 .0252114
1051.371 .0252099
1051.950 .0252105
1052.530 .0252130
1053.109 .0252170
1053.688 .0252207
1054.268 .0252245
1054.847 .0252278
1055.426 .0252302
1056.005 .0252324
1056.583 .0252343
1057.162 .0252359
1057.741 .0252385
1058.319 .0252417
1058.898 .0252452
1059.476 .0252490
1060.055 .0252542
1060.633 .0252598
1061.211 .0252661
1061.790 .0252731
1062.368 .0252817
1062.946 .0252897
1063.524 .0252982
1064.102 .0253062
1064.680 .0253119
1065.258 .0253150
1065.836 .0253170
1066.414 .0253174
1066.992 .0253170
1067.570 .0253171
1068.148 .0253180
1068.726 .0253204
1069.304 .0253248
1069.882 .0253292
1070.460 .0253314
1071.038 .0253315
1071.616 .0253284
1072.194 .0253204
1072.772 .0253108
1073.350 .0253013
1073.928 .0252928
1074.506 .0252880
1075.084 .0252886
1075.662 .0252938
1076.240 .0253035
1076.819 .0253170
1077.397 .0253319
1077.976 .0253462
1078.554 .0253593
1079.133 .0253710
1079.711 .0253803
1080.290 .0253897
1080.869 .0253995
1081.448 .0254091
1082.027 .0254193
1082.606 .0254296
1083.185 .0254393
1083.764 .0254482
1084.343 .0254555
1084.923 .0254597
1085.502 .0254614
1086.082 .0254615
1086.662 .0254608
1087.242 .0254591
1087.822 .0254588
1088.402 .0254613
1088.983 .0254637
1089.563 .0254663
1090.144 .0254684
1090.725 .0254700
1091.306 .0254713
1091.887 .0254713
1092.469 .0254728
1093.050 .0254747
1093.632 .0254788
1094.214 .0254850
1094.796 .0254938
1095.379 .0255048
1095.961 .0255173
1096.544 .0255279
1097.127 .0255369
1097.710 .0255431
1098.294 .0255461
1098.877 .0255476
1099.461 .0255494
1100.046 .0255520
1100.630 .0255564
1101.215 .0255633
1101.800 .0255744
1102.385 .0255853
1102.970 .0255992
1103.556 .0256108
1104.142 .0256200
1104.728 .0256281
1105.315 .0256325
1105.902 .0256360
1106.489 .0256394
1107.077 .0256441
1107.664 .0256511
1108.253 .0256592
1108.841 .0256690
1109.430 .0256777
1110.019 .0256867
1110.609 .0256931
1111.198 .0256960
1111.789 .0256966
1112.379 .0256955
1112.970 .0256916
1113.561 .0256892
1114.153 .0256893
1114.745 .0256925
1115.338 .0257011
1115.931 .0257124
1116.524 .0257293
1117.117 .0257486
1117.712 .0257690
1118.306 .0257923
1118.901 .0258178
1119.496 .0258457
1120.092 .0258770
1120.689 .0259128
1121.285 .0259544
1121.882 .0259984
1122.480 .0260465
1123.078 .0260974
1123.677 .0261511
1124.276 .0262060
1124.875 .0262610
1125.476 .0263202
1126.076 .0263868
1126.677 .0264569
1127.279 .0265347
1127.881 .0266210
1128.484 .0267143
1129.087 .0268124
1129.691 .0269156
1130.295 .0270211
1130.900 .0271309
1131.505 .0272434
1132.111 .0273611
1132.718 .0274839
1133.325 .0276131
1133.933 .0277491
1134.541 .0278888
1135.150 .0280299
1135.760 .0281684
1136.370 .0282978
1136.981 .0284194
1137.592 .0285310
1138.204 .0286317
1138.817 .0287257
1139.431 .0288139
1140.045 .0288952
1140.660 .0289658
1141.275 .0290255
1141.891 .0290658
1142.508 .0292310
1143.126 .0291827
1143.744 .0290999
1144.363 .0290886
1144.983 .0289179
