Measurement Sequence started on: 15-12-46-377
Integration time: 28
Scans to Average: 2 
>>>>>Begin Spectral Data<<<<<
432.689 .0000100
433.621 .0000100
434.552 .0000100
435.482 .0000100
436.410 .0000100
437.337 .0000100
438.262 .0253811
439.187 .0536984
440.110 .0889609
441.031 .1286992
441.952 .1673162
442.871 .1977311
443.789 .2144627
444.705 .2156312
445.621 .2035663
446.535 .1833154
447.447 .1603775
448.359 .1251079
449.269 .1078145
450.178 .0968998
451.086 .0892276
451.993 .0832928
452.898 .0785579
453.803 .0746186
454.706 .0712901
455.608 .0684075
456.508 .0659034
457.408 .0637131
458.306 .0617742
459.204 .0600676
460.100 .0585448
460.995 .0571820
461.888 .0559637
462.781 .0548512
463.673 .0538190
464.563 .0528638
465.452 .0519672
466.340 .0511072
467.228 .0503160
468.114 .0495734
468.999 .0488940
469.882 .0482801
470.765 .0477366
471.647 .0472573
472.528 .0468310
473.407 .0464662
474.286 .0461442
475.163 .0458545
476.040 .0456013
476.915 .0453744
477.790 .0451731
478.663 .0449988
479.535 .0448563
480.407 .0447488
481.277 .0446718
482.147 .0446178
483.015 .0445812
483.883 .0445536
484.749 .0445310
485.615 .0445105
486.479 .0444829
487.343 .0444660
488.206 .0444554
489.067 .0444564
489.928 .0444734
490.788 .0445125
491.647 .0445730
492.505 .0446546
493.362 .0447553
494.218 .0448670
495.073 .0449848
495.928 .0451225
496.781 .0452666
497.634 .0454316
498.486 .0456204
499.337 .0458357
500.187 .0460725
501.036 .0463388
501.884 .0466319
502.731 .0469468
503.578 .0472818
504.424 .0476527
505.268 .0480386
506.113 .0484595
506.956 .0489071
507.798 .0493895
508.640 .0499148
509.480 .0504899
510.320 .0511121
511.160 .0518037
511.998 .0525653
512.836 .0534105
513.672 .0543581
514.508 .0554386
515.344 .0566622
516.178 .0580555
517.012 .0596380
517.845 .0614461
518.677 .0634870
519.508 .0658050
520.339 .0683922
521.169 .0713199
521.998 .0746270
522.826 .0783255
523.654 .0824659
524.481 .0870820
525.307 .0922016
526.133 .0978274
526.958 .1039488
527.782 .1104652
528.605 .1171856
529.428 .1239793
530.250 .1303162
531.072 .1359737
531.892 .1405402
532.712 .1437498
533.532 .1454069
534.350 .1454306
535.168 .1438261
535.986 .1407192
536.802 .1364201
537.618 .1311809
538.434 .1252292
539.249 .1189672
540.063 .1124767
540.876 .1060531
541.689 .0998076
542.501 .0938849
543.313 .0883607
544.124 .0833307
544.934 .0787841
545.744 .0747026
546.553 .0710995
547.361 .0679516
548.169 .0652353
548.976 .0628881
549.783 .0608439
550.589 .0590477
551.395 .0574388
552.200 .0559939
553.004 .0546736
553.808 .0534789
554.611 .0523845
555.414 .0514090
556.216 .0505334
557.018 .0497546
557.819 .0490522
558.619 .0484092
559.419 .0478013
560.218 .0472137
561.017 .0466380
561.815 .0460612
562.613 .0454803
563.410 .0449048
564.207 .0443284
565.003 .0437623
565.799 .0432058
566.594 .0426586
567.388 .0421257
568.182 .0416018
568.976 .0410813
569.769 .0405692
570.562 .0400682
571.354 .0395773
572.145 .0390939
572.936 .0386246
573.727 .0381657
574.517 .0377175
575.307 .0372805
576.096 .0368550
576.885 .0364475
577.673 .0360628
578.461 .0356985
579.248 .0353557
580.035 .0350374
580.821 .0347416
581.607 .0344686
582.392 .0342167
583.177 .0339826
583.962 .0337652
584.746 .0335653
585.529 .0333800
586.313 .0332061
587.095 .0330472
587.878 .0329027
588.660 .0327739
589.441 .0326605
590.222 .0325623
591.003 .0324797
591.783 .0324097
592.563 .0323475
593.342 .0322898
594.121 .0322343
594.899 .0321791
595.678 .0321232
596.455 .0320676
597.233 .0320129
598.009 .0319593
598.786 .0319079
599.562 .0318602
600.338 .0318152
601.113 .0317734
601.888 .0317329
602.663 .0316921
603.437 .0316505
604.211 .0316066
604.984 .0315604
605.757 .0315135
606.530 .0314657
607.302 .0314175
608.074 .0313703
608.845 .0313244
609.616 .0312804
610.387 .0312395
611.158 .0312015
611.928 .0311665
612.697 .0311336
613.467 .0311029
614.236 .0310727
615.004 .0310437
615.773 .0310159
616.541 .0309881
617.308 .0309599
618.076 .0309320
618.843 .0309041
619.609 .0308769
620.375 .0308501
621.141 .0308245
621.907 .0307999
622.672 .0307766
623.437 .0307529
624.202 .0307292
624.966 .0307048
625.730 .0306800
626.493 .0306535
627.257 .0306263
628.020 .0305987
628.782 .0305709
629.545 .0305440
630.307 .0305191
631.068 .0304966
631.830 .0304767
632.591 .0304588
633.352 .0304438
634.112 .0304297
634.872 .0304169
635.632 .0304039
636.392 .0303912
637.151 .0303791
637.910 .0303675
638.668 .0303570
639.427 .0303482
640.185 .0303413
640.943 .0303359
641.700 .0303311
642.457 .0303268
643.214 .0303210
643.971 .0303131
644.727 .0303023
645.483 .0302899
646.239 .0302757
646.994 .0302609
647.750 .0302463
648.505 .0302334
649.259 .0302220
650.014 .0302118
650.768 .0302021
651.521 .0301922
652.275 .0301810
653.028 .0301671
653.781 .0301501
654.534 .0301304
655.286 .0301082
656.039 .0300850
656.791 .0300607
657.542 .0300367
658.294 .0300132
659.045 .0299906
659.796 .0299683
660.546 .0299457
661.297 .0299221
662.047 .0298969
662.796 .0298698
663.546 .0298410
664.295 .0298106
665.044 .0297800
665.793 .0297500
666.542 .0297208
667.290 .0296933
668.038 .0296674
668.786 .0296430
669.533 .0296199
670.281 .0295970
671.028 .0295735
671.774 .0295486
672.521 .0295226
673.267 .0294956
674.013 .0294679
674.759 .0294403
675.505 .0294127
676.250 .0293858
676.995 .0293595
677.740 .0293337
678.484 .0293080
679.229 .0292833
679.973 .0292588
680.717 .0292346
681.460 .0292109
682.204 .0291873
682.947 .0291648
683.690 .0291431
684.433 .0291223
685.175 .0291021
685.917 .0290825
686.659 .0290636
687.401 .0290456
688.142 .0290294
688.884 .0290147
689.625 .0290013
690.365 .0289894
691.106 .0289784
691.846 .0289677
692.586 .0289568
693.326 .0289457
694.066 .0289342
694.805 .0289229
695.545 .0289114
696.284 .0289004
697.022 .0288907
697.761 .0288823
698.499 .0288755
699.237 .0288695
699.975 .0288642
700.713 .0288595
701.450 .0288548
702.187 .0288507
702.924 .0288470
703.661 .0288442
704.397 .0288423
705.133 .0288416
705.869 .0288420
706.605 .0288428
707.341 .0288438
708.076 .0288450
708.811 .0288458
709.546 .0288459
710.281 .0288447
711.015 .0288424
711.749 .0288385
712.483 .0288330
713.217 .0288252
713.950 .0288157
714.684 .0288042
715.417 .0287909
716.150 .0287755
716.882 .0287589
717.615 .0287410
718.347 .0287222
719.079 .0287032
719.811 .0286843
720.542 .0286659
721.273 .0286476
722.005 .0286291
722.735 .0286110
723.466 .0285928
724.196 .0285749
724.927 .0285567
725.656 .0285383
726.386 .0285197
727.116 .0285010
727.845 .0284820
728.574 .0284629
729.303 .0284439
730.031 .0284249
730.760 .0284059
731.488 .0283866
732.216 .0283668
732.944 .0283468
733.671 .0283270
734.398 .0283070
735.125 .0282866
735.852 .0282662
736.579 .0282454
737.305 .0282246
738.031 .0282042
738.757 .0281843
739.483 .0281641
740.208 .0281441
740.933 .0281241
741.658 .0281034
742.383 .0280821
743.108 .0280604
743.832 .0280379
744.556 .0280151
745.280 .0279914
746.004 .0279670
746.727 .0279423
747.450 .0279184
748.173 .0278946
748.896 .0278715
749.618 .0278494
750.340 .0278279
751.062 .0278067
751.784 .0277864
752.506 .0277663
753.227 .0277466
753.948 .0277273
754.669 .0277083
755.389 .0276892
756.110 .0276702
756.830 .0276509
757.550 .0276321
758.269 .0276132
758.989 .0275946
759.708 .0275758
760.427 .0275575
761.146 .0275395
761.864 .0275218
762.582 .0275042
763.300 .0274867
764.018 .0274695
764.736 .0274524
765.453 .0274353
766.170 .0274189
766.887 .0274036
767.603 .0273900
768.320 .0273781
769.036 .0273686
769.751 .0273608
770.467 .0273549
771.182 .0273504
771.897 .0273467
772.612 .0273440
773.327 .0273415
774.041 .0273399
774.755 .0273390
775.469 .0273391
776.183 .0273408
776.896 .0273439
777.609 .0273491
778.322 .0273560
779.035 .0273639
779.747 .0273726
780.459 .0273819
781.171 .0273916
781.882 .0274013
782.594 .0274115
783.305 .0274223
784.016 .0274340
784.726 .0274461
785.436 .0274585
786.147 .0274710
786.856 .0274837
787.566 .0274960
788.275 .0275077
788.984 .0275189
789.693 .0275290
790.401 .0275379
791.110 .0275457
791.818 .0275520
792.525 .0275572
793.233 .0275608
793.940 .0275629
794.647 .0275635
795.353 .0275627
796.060 .0275608
796.766 .0275578
797.472 .0275540
798.177 .0275493
798.883 .0275439
799.588 .0275375
800.292 .0275304
800.997 .0275224
801.701 .0275139
802.405 .0275050
803.109 .0274956
803.812 .0274856
804.515 .0274755
805.218 .0274645
805.921 .0274530
806.623 .0274409
807.325 .0274282
808.027 .0274144
808.728 .0273997
809.429 .0273839
810.130 .0273663
810.831 .0273473
811.531 .0273269
812.231 .0273047
812.931 .0272810
813.630 .0272553
814.330 .0272282
815.029 .0272003
815.727 .0271718
816.426 .0271428
817.124 .0271139
817.821 .0270851
818.519 .0270564
819.216 .0270278
819.913 .0269997
820.609 .0269722
821.306 .0269453
822.002 .0269190
822.697 .0268935
823.393 .0268690
824.088 .0268453
824.783 .0268224
825.477 .0268005
826.171 .0267788
826.865 .0267575
827.559 .0267365
828.252 .0267158
828.945 .0266953
829.638 .0266747
830.330 .0266541
831.023 .0266330
831.714 .0266111
832.406 .0265888
833.097 .0265658
833.788 .0265427
834.479 .0265197
835.169 .0264971
835.859 .0264757
836.548 .0264553
837.238 .0264362
837.927 .0264177
838.615 .0263996
839.304 .0263816
839.992 .0263629
840.680 .0263442
841.367 .0263255
842.054 .0263068
842.741 .0262888
843.428 .0262717
844.114 .0262555
844.800 .0262401
845.485 .0262253
846.170 .0262104
846.855 .0261952
847.540 .0261794
848.224 .0261630
848.908 .0261464
849.592 .0261299
850.275 .0261137
850.958 .0260982
851.641 .0260837
852.323 .0260696
853.005 .0260559
853.687 .0260423
854.368 .0260283
855.049 .0260141
855.730 .0259992
856.410 .0259842
857.090 .0259696
857.769 .0259558
858.449 .0259426
859.128 .0259305
859.806 .0259195
860.485 .0259093
861.163 .0259002
861.840 .0258921
862.518 .0258848
863.195 .0258790
863.871 .0258744
864.548 .0258716
865.224 .0258705
865.899 .0258716
866.574 .0258742
867.249 .0258788
867.924 .0258849
868.598 .0258917
869.272 .0258991
869.946 .0259072
870.619 .0259151
871.292 .0259231
871.964 .0259312
872.636 .0259394
873.308 .0259474
873.979 .0259558
874.651 .0259638
875.321 .0259720
875.992 .0259800
876.662 .0259881
877.331 .0259961
878.001 .0260051
878.670 .0260147
879.338 .0260250
880.007 .0260364
880.675 .0260486
881.342 .0260615
882.009 .0260751
882.676 .0260891
883.343 .0261036
884.009 .0261183
884.675 .0261337
885.340 .0261493
886.005 .0261652
886.670 .0261814
887.334 .0261979
887.998 .0262140
888.662 .0262293
889.325 .0262433
889.988 .0262563
890.650 .0262680
891.312 .0262785
891.974 .0262879
892.636 .0262966
893.297 .0263052
893.957 .0263133
894.618 .0263214
895.278 .0263297
895.937 .0263381
896.596 .0263464
897.255 .0263542
897.914 .0263610
898.572 .0263667
899.230 .0263710
899.887 .0263739
900.544 .0263752
901.201 .0263751
901.857 .0263737
902.513 .0263714
903.168 .0263681
903.823 .0263640
904.478 .0263589
905.132 .0263529
905.786 .0263450
906.440 .0263348
907.093 .0263222
907.746 .0263070
908.399 .0262897
909.051 .0262704
909.703 .0262495
910.354 .0262278
911.005 .0262054
911.656 .0261827
912.306 .0261597
912.956 .0261362
913.605 .0261119
914.254 .0260869
914.903 .0260609
915.551 .0260340
916.199 .0260067
916.847 .0259792
917.494 .0259517
918.141 .0259247
918.788 .0258986
919.434 .0258732
920.079 .0258483
920.725 .0258237
921.370 .0257988
922.014 .0257736
922.658 .0257475
923.302 .0257204
923.946 .0256923
924.589 .0256632
925.231 .0256327
925.873 .0256014
926.515 .0255693
927.157 .0255364
927.798 .0255029
928.439 .0254689
929.079 .0254342
929.719 .0253985
930.359 .0253623
930.998 .0253255
931.637 .0252879
932.275 .0252502
932.913 .0252123
933.551 .0251748
934.188 .0251381
934.825 .0251024
935.462 .0250680
936.098 .0250353
936.733 .0250038
937.369 .0249735
938.004 .0249441
938.638 .0249151
939.273 .0248864
939.907 .0248578
940.540 .0248294
941.173 .0248010
941.806 .0247730
942.438 .0247458
943.070 .0247190
943.702 .0246931
944.333 .0246679
944.964 .0246431
945.594 .0246191
946.224 .0245953
946.854 .0245722
947.483 .0245499
948.112 .0245282
948.741 .0245073
949.369 .0244875
949.996 .0244685
950.624 .0244505
951.251 .0244334
951.878 .0244169
952.504 .0244009
953.130 .0243849
953.755 .0243685
954.380 .0243519
955.005 .0243349
955.629 .0243174
956.253 .0242994
956.877 .0242814
957.500 .0242631
958.123 .0242449
958.746 .0242267
959.368 .0242085
959.990 .0241906
960.611 .0241728
961.232 .0241555
961.853 .0241387
962.473 .0241230
963.093 .0241081
963.712 .0240944
964.331 .0240820
964.950 .0240706
965.569 .0240611
966.187 .0240531
966.804 .0240465
967.422 .0240413
968.039 .0240373
968.655 .0240338
969.272 .0240305
969.887 .0240269
970.503 .0240225
971.118 .0240178
971.733 .0240129
972.347 .0240079
972.961 .0240036
973.575 .0240007
974.188 .0239991
974.801 .0239987
975.414 .0239991
976.026 .0239993
976.638 .0239995
977.250 .0239990
977.861 .0239976
978.472 .0239957
979.083 .0239940
979.693 .0239928
980.303 .0239924
980.912 .0239933
981.521 .0239951
982.130 .0239971
982.738 .0239988
983.346 .0239998
983.954 .0240000
984.562 .0239993
985.169 .0239983
985.775 .0239977
986.382 .0239981
986.988 .0239992
987.594 .0240013
988.199 .0240045
988.804 .0240085
989.409 .0240121
990.013 .0240157
990.617 .0240193
991.221 .0240234
991.824 .0240284
992.427 .0240349
993.030 .0240437
993.632 .0240550
994.234 .0240685
994.836 .0240843
995.438 .0241018
996.039 .0241204
996.640 .0241395
997.240 .0241592
997.840 .0241800
998.440 .0242022
999.040 .0242256
999.639 .0242513
1000.238 .0242785
1000.836 .0243069
1001.435 .0243356
1002.033 .0243642
1002.630 .0243921
1003.228 .0244191
1003.825 .0244450
1004.422 .0244694
1005.018 .0244927
1005.614 .0245150
1006.210 .0245361
1006.806 .0245554
1007.401 .0245728
1007.996 .0245882
1008.591 .0246018
1009.186 .0246140
1009.780 .0246255
1010.374 .0246375
1010.967 .0246501
1011.561 .0246637
1012.154 .0246780
1012.746 .0246924
1013.339 .0247065
1013.931 .0247202
1014.523 .0247334
1015.115 .0247460
1015.706 .0247590
1016.298 .0247729
1016.888 .0247889
1017.479 .0248072
1018.069 .0248274
1018.660 .0248490
1019.250 .0248720
1019.839 .0248950
1020.429 .0249171
1021.018 .0249388
1021.607 .0249598
1022.195 .0249801
1022.784 .0250006
1023.372 .0250214
1023.960 .0250427
1024.547 .0250650
1025.135 .0250881
1025.722 .0251109
1026.309 .0251343
1026.896 .0251576
1027.483 .0251800
1028.069 .0252023
1028.655 .0252242
1029.241 .0252448
1029.827 .0252651
1030.412 .0252850
1030.997 .0253040
1031.582 .0253226
1032.167 .0253404
1032.752 .0253570
1033.336 .0253722
1033.921 .0253864
1034.505 .0253992
1035.089 .0254099
1035.672 .0254197
1036.256 .0254270
1036.839 .0254327
1037.422 .0254371
1038.005 .0254411
1038.588 .0254444
1039.171 .0254473
1039.753 .0254496
1040.335 .0254509
1040.918 .0254506
1041.500 .0254489
1042.081 .0254447
1042.663 .0254393
1043.244 .0254329
1043.826 .0254259
1044.407 .0254179
1044.988 .0254116
1045.569 .0254059
1046.150 .0254002
1046.730 .0253936
1047.311 .0253858
1047.891 .0253753
1048.471 .0253626
1049.052 .0253484
1049.632 .0253333
1050.211 .0253200
1050.791 .0253094
1051.371 .0253015
1051.950 .0252971
1052.530 .0252948
1053.109 .0252928
1053.688 .0252891
1054.268 .0252828
1054.847 .0252724
1055.426 .0252585
1056.005 .0252428
1056.583 .0252272
1057.162 .0252136
1057.741 .0252016
1058.319 .0251922
1058.898 .0251842
1059.476 .0251761
1060.055 .0251649
1060.633 .0251502
1061.211 .0251317
1061.790 .0251104
1062.368 .0250878
1062.946 .0250652
1063.524 .0250440
1064.102 .0250264
1064.680 .0250109
1065.258 .0249961
1065.836 .0249819
1066.414 .0249669
1066.992 .0249495
1067.570 .0249314
1068.148 .0249122
1068.726 .0248931
1069.304 .0248753
1069.882 .0248599
1070.460 .0248456
1071.038 .0248321
1071.616 .0248189
1072.194 .0248050
1072.772 .0247899
1073.350 .0247730
1073.928 .0247538
1074.506 .0247336
1075.084 .0247128
1075.662 .0246918
1076.240 .0246708
1076.819 .0246498
1077.397 .0246282
1077.976 .0246059
1078.554 .0245822
1079.133 .0245575
1079.711 .0245320
1080.290 .0245066
1080.869 .0244807
1081.448 .0244557
1082.027 .0244318
1082.606 .0244100
1083.185 .0243919
1083.764 .0243790
1084.343 .0243712
1084.923 .0243682
1085.502 .0243702
1086.082 .0243755
1086.662 .0243821
1087.242 .0243901
1087.822 .0243969
1088.402 .0244014
1088.983 .0244035
1089.563 .0244026
1090.144 .0243973
1090.725 .0243912
1091.306 .0243834
1091.887 .0243732
1092.469 .0243618
1093.050 .0243490
1093.632 .0243331
1094.214 .0243163
1094.796 .0243003
1095.379 .0242842
1095.961 .0242706
1096.544 .0242621
1097.127 .0242558
1097.710 .0242529
1098.294 .0242552
1098.877 .0242617
1099.461 .0242727
1100.046 .0242895
1100.630 .0243084
1101.215 .0243304
1101.800 .0243567
1102.385 .0243840
1102.970 .0244116
1103.556 .0244386
1104.142 .0244618
1104.728 .0244800
1105.315 .0244938
1105.902 .0245013
1106.489 .0245037
1107.077 .0245026
1107.664 .0245002
1108.253 .0244951
1108.841 .0244905
1109.430 .0244874
1110.019 .0244857
1110.609 .0244862
1111.198 .0244877
1111.789 .0244906
1112.379 .0244957
1112.970 .0245018
1113.561 .0245133
1114.153 .0245308
1114.745 .0245572
1115.338 .0245922
1115.931 .0246367
1116.524 .0246912
1117.117 .0247554
1117.712 .0248262
1118.306 .0249014
1118.901 .0249779
1119.496 .0250510
1120.092 .0251205
1120.689 .0251875
1121.285 .0252520
1121.882 .0253119
1122.480 .0253714
1123.078 .0254342
1123.677 .0254959
1124.276 .0255593
1124.875 .0256223
1125.476 .0256844
1126.076 .0257450
1126.677 .0257988
1127.279 .0258449
1127.881 .0258829
1128.484 .0259165
1129.087 .0259402
1129.691 .0259592
1130.295 .0259801
1130.900 .0260010
1131.505 .0260294
1132.111 .0260698
1132.718 .0261198
1133.325 .0261784
1133.933 .0262456
1134.541 .0263171
1135.150 .0263905
1135.760 .0264661
1136.370 .0265401
1136.981 .0266187
1137.592 .0267062
1138.204 .0268062
1138.817 .0269201
1139.431 .0270493
1140.045 .0271897
1140.660 .0273478
1141.275 .0275401
1141.891 .0277287
1142.508 .0278429
1143.126 .0278971
1143.744 .0283336
1144.363 .0291285
1144.983 .0286046
