Measurement Sequence started on: 15-12-46-377
Integration time: 28
Scans to Average: 2 
>>>>>Begin Spectral Data<<<<<
432.689 .0000100
433.621 .0000100
434.552 .0000100
435.482 .0000100
436.410 .0000100
437.337 .0000100
438.262 .0276221
439.187 .0586159
440.110 .0971405
441.031 .1406521
441.952 .1829104
442.871 .2162567
443.789 .2346574
444.705 .2360341
445.621 .2229059
446.535 .2007793
447.447 .1757052
448.359 .1371906
449.269 .1181644
450.178 .1062179
451.086 .0977758
451.993 .0913271
452.898 .0861564
453.803 .0818717
454.706 .0782563
455.608 .0751388
456.508 .0724137
457.408 .0700029
458.306 .0678532
459.204 .0659163
460.100 .0641544
460.995 .0625331
461.888 .0610394
462.781 .0596493
463.673 .0583476
464.563 .0571443
465.452 .0560102
466.340 .0549437
467.228 .0539498
468.114 .0530265
468.999 .0521803
469.882 .0514058
470.765 .0507048
471.647 .0500820
472.528 .0495325
473.407 .0490567
474.286 .0486475
475.163 .0482958
476.040 .0480049
476.915 .0477570
477.790 .0475479
478.663 .0473683
479.535 .0472102
480.407 .0470840
481.277 .0469736
482.147 .0468833
483.015 .0468075
483.883 .0467429
484.749 .0466901
485.615 .0466381
486.479 .0465911
487.343 .0465537
488.206 .0465248
489.067 .0465007
489.928 .0464814
490.788 .0464763
491.647 .0464851
492.505 .0465101
493.362 .0465589
494.218 .0466369
495.073 .0467381
495.928 .0468749
496.781 .0470402
497.634 .0472465
498.486 .0474878
499.337 .0477631
500.187 .0480734
501.036 .0484073
501.884 .0487592
502.731 .0491204
503.578 .0495012
504.424 .0499003
505.268 .0502995
506.113 .0507129
506.956 .0511415
507.798 .0515987
508.640 .0520892
509.480 .0526354
510.320 .0532581
511.160 .0539654
511.998 .0547553
512.836 .0556269
513.672 .0565965
514.508 .0576600
515.344 .0588127
516.178 .0600957
517.012 .0615344
517.845 .0631472
518.677 .0649804
519.508 .0670707
520.339 .0694599
521.169 .0722281
521.998 .0753721
522.826 .0789375
523.654 .0829110
524.481 .0873118
525.307 .0921630
526.133 .0974381
526.958 .1031630
527.782 .1092542
528.605 .1156278
529.428 .1222381
530.250 .1285975
531.072 .1345364
531.892 .1396756
532.712 .1438227
533.532 .1467006
534.350 .1480551
535.168 .1477900
535.986 .1459613
536.802 .1426553
537.618 .1381075
538.434 .1324849
539.249 .1262681
540.063 .1196477
540.876 .1129403
541.689 .1063413
542.501 .1001189
543.313 .0944153
544.124 .0892782
544.934 .0846173
545.744 .0804409
546.553 .0766417
547.361 .0732286
548.169 .0701966
548.976 .0674706
549.783 .0650283
550.589 .0628426
551.395 .0608470
552.200 .0590503
553.004 .0574294
553.808 .0559478
554.611 .0546110
555.414 .0534209
556.216 .0523475
557.018 .0513721
557.819 .0505022
558.619 .0497119
559.419 .0489702
560.218 .0482844
561.017 .0476328
561.815 .0470034
562.613 .0464036
563.410 .0458228
564.207 .0452654
565.003 .0447395
565.799 .0442309
566.594 .0437256
567.388 .0432299
568.182 .0427347
568.976 .0422288
569.769 .0417208
570.562 .0412132
571.354 .0407065
572.145 .0402129
572.936 .0397402
573.727 .0392827
574.517 .0388493
575.307 .0384387
576.096 .0380433
576.885 .0376622
577.673 .0372967
578.461 .0369427
579.248 .0366031
580.035 .0362836
580.821 .0359842
581.607 .0357018
582.392 .0354413
583.177 .0351974
583.962 .0349690
584.746 .0347588
585.529 .0345638
586.313 .0343828
587.095 .0342160
587.878 .0340607
588.660 .0339149
589.441 .0337783
590.222 .0336504
591.003 .0335319
591.783 .0334207
592.563 .0333161
593.342 .0332193
594.121 .0331281
594.899 .0330446
595.678 .0329675
596.455 .0328966
597.233 .0328327
598.009 .0327721
598.786 .0327158
599.562 .0326630
600.338 .0326145
601.113 .0325703
601.888 .0325302
602.663 .0324942
603.437 .0324612
604.211 .0324309
604.984 .0324019
605.757 .0323725
606.530 .0323428
607.302 .0323122
608.074 .0322808
608.845 .0322497
609.616 .0322194
610.387 .0321913
611.158 .0321669
611.928 .0321450
612.697 .0321258
613.467 .0321077
614.236 .0320899
615.004 .0320714
615.773 .0320516
616.541 .0320310
617.308 .0320097
618.076 .0319896
618.843 .0319716
619.609 .0319558
620.375 .0319424
621.141 .0319299
621.907 .0319180
622.672 .0319049
623.437 .0318892
624.202 .0318701
624.966 .0318481
625.730 .0318234
626.493 .0317973
627.257 .0317704
628.020 .0317441
628.782 .0317190
629.545 .0316952
630.307 .0316720
631.068 .0316491
631.830 .0316255
632.591 .0316014
633.352 .0315765
634.112 .0315510
634.872 .0315247
635.632 .0314989
636.392 .0314739
637.151 .0314499
637.910 .0314262
638.668 .0314026
639.427 .0313782
640.185 .0313523
640.943 .0313238
641.700 .0312931
642.457 .0312610
643.214 .0312281
643.971 .0311942
644.727 .0311608
645.483 .0311277
646.239 .0310952
646.994 .0310636
647.750 .0310327
648.505 .0310020
649.259 .0309714
650.014 .0309408
650.768 .0309103
651.521 .0308804
652.275 .0308518
653.028 .0308245
653.781 .0307998
654.534 .0307769
655.286 .0307552
656.039 .0307350
656.791 .0307165
657.542 .0306985
658.294 .0306804
659.045 .0306625
659.796 .0306441
660.546 .0306257
661.297 .0306073
662.047 .0305888
662.796 .0305710
663.546 .0305538
664.295 .0305373
665.044 .0305206
665.793 .0305052
666.542 .0304903
667.290 .0304766
668.038 .0304643
668.786 .0304523
669.533 .0304405
670.281 .0304286
671.028 .0304163
671.774 .0304031
672.521 .0303894
673.267 .0303756
674.013 .0303619
674.759 .0303486
675.505 .0303358
676.250 .0303247
676.995 .0303144
677.740 .0303055
678.484 .0302970
679.229 .0302889
679.973 .0302806
680.717 .0302712
681.460 .0302611
682.204 .0302501
682.947 .0302382
683.690 .0302258
684.433 .0302133
685.175 .0302013
685.917 .0301891
686.659 .0301773
687.401 .0301661
688.142 .0301552
688.884 .0301439
689.625 .0301323
690.365 .0301200
691.106 .0301064
691.846 .0300918
692.586 .0300753
693.326 .0300578
694.066 .0300396
694.805 .0300209
695.545 .0300019
696.284 .0299837
697.022 .0299663
697.761 .0299498
698.499 .0299340
699.237 .0299189
699.975 .0299030
700.713 .0298869
701.450 .0298697
702.187 .0298509
702.924 .0298311
703.661 .0298102
704.397 .0297882
705.133 .0297663
705.869 .0297444
706.605 .0297231
707.341 .0297025
708.076 .0296830
708.811 .0296634
709.546 .0296443
710.281 .0296250
711.015 .0296049
711.749 .0295837
712.483 .0295610
713.217 .0295364
713.950 .0295103
714.684 .0294832
715.417 .0294553
716.150 .0294273
716.882 .0293998
717.615 .0293731
718.347 .0293473
719.079 .0293223
719.811 .0292978
720.542 .0292737
721.273 .0292498
722.005 .0292247
722.735 .0291989
723.466 .0291727
724.196 .0291460
724.927 .0291197
725.656 .0290932
726.386 .0290674
727.116 .0290425
727.845 .0290182
728.574 .0289942
729.303 .0289705
730.031 .0289471
730.760 .0289238
731.488 .0289002
732.216 .0288769
732.944 .0288540
733.671 .0288322
734.398 .0288116
735.125 .0287927
735.852 .0287754
736.579 .0287600
737.305 .0287462
738.031 .0287346
738.757 .0287245
739.483 .0287155
740.208 .0287076
740.933 .0287004
741.658 .0286938
742.383 .0286873
743.108 .0286809
743.832 .0286743
744.556 .0286675
745.280 .0286604
746.004 .0286530
746.727 .0286460
747.450 .0286397
748.173 .0286337
748.896 .0286289
749.618 .0286252
750.340 .0286226
751.062 .0286211
751.784 .0286209
752.506 .0286211
753.227 .0286218
753.948 .0286228
754.669 .0286239
755.389 .0286252
756.110 .0286270
756.830 .0286286
757.550 .0286302
758.269 .0286314
758.989 .0286319
759.708 .0286310
760.427 .0286290
761.146 .0286251
761.864 .0286195
762.582 .0286125
763.300 .0286049
764.018 .0285971
764.736 .0285903
765.453 .0285840
766.170 .0285787
766.887 .0285734
767.603 .0285687
768.320 .0285637
769.036 .0285587
769.751 .0285535
770.467 .0285484
771.182 .0285434
771.897 .0285390
772.612 .0285348
773.327 .0285312
774.041 .0285274
774.755 .0285226
775.469 .0285161
776.183 .0285076
776.896 .0284968
777.609 .0284840
778.322 .0284695
779.035 .0284536
779.747 .0284367
780.459 .0284192
781.171 .0284017
781.882 .0283843
782.594 .0283671
783.305 .0283499
784.016 .0283329
784.726 .0283159
785.436 .0282987
786.147 .0282818
786.856 .0282651
787.566 .0282485
788.275 .0282321
788.984 .0282155
789.693 .0281989
790.401 .0281820
791.110 .0281644
791.818 .0281460
792.525 .0281268
793.233 .0281060
793.940 .0280831
794.647 .0280584
795.353 .0280318
796.060 .0280033
796.766 .0279731
797.472 .0279416
798.177 .0279094
798.883 .0278775
799.588 .0278460
800.292 .0278151
800.997 .0277855
801.701 .0277571
802.405 .0277296
803.109 .0277036
803.812 .0276788
804.515 .0276552
805.218 .0276327
805.921 .0276113
806.623 .0275910
807.325 .0275716
808.027 .0275530
808.728 .0275347
809.429 .0275162
810.130 .0274973
810.831 .0274770
811.531 .0274556
812.231 .0274330
812.931 .0274088
813.630 .0273832
814.330 .0273568
815.029 .0273298
815.727 .0273022
816.426 .0272748
817.124 .0272477
817.821 .0272210
818.519 .0271949
819.216 .0271702
819.913 .0271469
820.609 .0271255
821.306 .0271065
822.002 .0270899
822.697 .0270762
823.393 .0270650
824.088 .0270562
824.783 .0270489
825.477 .0270430
826.171 .0270379
826.865 .0270336
827.559 .0270305
828.252 .0270282
828.945 .0270266
829.638 .0270257
830.330 .0270250
831.023 .0270238
831.714 .0270217
832.406 .0270189
833.097 .0270147
833.788 .0270094
834.479 .0270030
835.169 .0269964
835.859 .0269905
836.548 .0269858
837.238 .0269824
837.927 .0269802
838.615 .0269795
839.304 .0269793
839.992 .0269799
840.680 .0269813
841.367 .0269835
842.054 .0269864
842.741 .0269905
843.428 .0269960
844.114 .0270029
844.800 .0270112
845.485 .0270205
846.170 .0270301
846.855 .0270398
847.540 .0270485
848.224 .0270565
848.908 .0270641
849.592 .0270716
850.275 .0270791
850.958 .0270870
851.641 .0270956
852.323 .0271043
853.005 .0271131
853.687 .0271215
854.368 .0271290
855.049 .0271354
855.730 .0271405
856.410 .0271439
857.090 .0271466
857.769 .0271490
858.449 .0271511
859.128 .0271540
859.806 .0271574
860.485 .0271615
861.163 .0271662
861.840 .0271713
862.518 .0271760
863.195 .0271803
863.871 .0271840
864.548 .0271867
865.224 .0271888
865.899 .0271914
866.574 .0271944
867.249 .0271985
867.924 .0272036
868.598 .0272093
869.272 .0272153
869.946 .0272213
870.619 .0272254
871.292 .0272277
871.964 .0272274
872.636 .0272244
873.308 .0272185
873.979 .0272107
874.651 .0272009
875.321 .0271898
875.992 .0271780
876.662 .0271652
877.331 .0271511
878.001 .0271360
878.670 .0271192
879.338 .0271010
880.007 .0270817
880.675 .0270617
881.342 .0270412
882.009 .0270214
882.676 .0270023
883.343 .0269840
884.009 .0269663
884.675 .0269489
885.340 .0269311
886.005 .0269129
886.670 .0268940
887.334 .0268745
887.998 .0268547
888.662 .0268347
889.325 .0268146
889.988 .0267950
890.650 .0267754
891.312 .0267557
891.974 .0267359
892.636 .0267149
893.297 .0266929
893.957 .0266695
894.618 .0266450
895.278 .0266193
895.937 .0265931
896.596 .0265666
897.255 .0265400
897.914 .0265134
898.572 .0264869
899.230 .0264604
899.887 .0264340
900.544 .0264065
901.201 .0263783
901.857 .0263491
902.513 .0263189
903.168 .0262873
903.823 .0262548
904.478 .0262215
905.132 .0261880
905.786 .0261541
906.440 .0261198
907.093 .0260862
907.746 .0260527
908.399 .0260190
909.051 .0259854
909.703 .0259522
910.354 .0259188
911.005 .0258855
911.656 .0258530
912.306 .0258213
912.956 .0257908
913.605 .0257611
914.254 .0257323
914.903 .0257045
915.551 .0256775
916.199 .0256511
916.847 .0256252
917.494 .0256003
918.141 .0255762
918.788 .0255531
919.434 .0255316
920.079 .0255112
920.725 .0254914
921.370 .0254725
922.014 .0254538
922.658 .0254346
923.302 .0254145
923.946 .0253935
924.589 .0253716
925.231 .0253490
925.873 .0253261
926.515 .0253033
927.157 .0252810
927.798 .0252595
928.439 .0252381
929.079 .0252169
929.719 .0251955
930.359 .0251736
930.998 .0251514
931.637 .0251295
932.275 .0251081
932.913 .0250873
933.551 .0250677
934.188 .0250499
934.825 .0250334
935.462 .0250178
936.098 .0250031
936.733 .0249894
937.369 .0249756
938.004 .0249622
938.638 .0249489
939.273 .0249361
939.907 .0249238
940.540 .0249128
941.173 .0249027
941.806 .0248940
942.438 .0248868
943.070 .0248807
943.702 .0248756
944.333 .0248715
944.964 .0248676
945.594 .0248643
946.224 .0248622
946.854 .0248611
947.483 .0248607
948.112 .0248621
948.741 .0248650
949.369 .0248692
949.996 .0248739
950.624 .0248790
951.251 .0248838
951.878 .0248884
952.504 .0248916
953.130 .0248935
953.755 .0248946
954.380 .0248956
955.005 .0248963
955.629 .0248977
956.253 .0248995
956.877 .0249027
957.500 .0249074
958.123 .0249134
958.746 .0249204
959.368 .0249286
959.990 .0249375
960.611 .0249473
961.232 .0249579
961.853 .0249694
962.473 .0249813
963.093 .0249949
963.712 .0250086
964.331 .0250229
964.950 .0250374
965.569 .0250521
966.187 .0250673
966.804 .0250834
967.422 .0250998
968.039 .0251165
968.655 .0251341
969.272 .0251519
969.887 .0251690
970.503 .0251859
971.118 .0252021
971.733 .0252180
972.347 .0252336
972.961 .0252492
973.575 .0252650
974.188 .0252813
974.801 .0252975
975.414 .0253128
976.026 .0253270
976.638 .0253394
977.250 .0253499
977.861 .0253587
978.472 .0253664
979.083 .0253727
979.693 .0253782
980.303 .0253837
980.912 .0253889
981.521 .0253938
982.130 .0253982
982.738 .0254020
983.346 .0254054
983.954 .0254081
984.562 .0254106
985.169 .0254131
985.775 .0254158
986.382 .0254188
986.988 .0254216
987.594 .0254240
988.199 .0254258
988.804 .0254268
989.409 .0254277
990.013 .0254287
990.617 .0254299
991.221 .0254314
991.824 .0254342
992.427 .0254383
993.030 .0254436
993.632 .0254499
994.234 .0254573
994.836 .0254655
995.438 .0254738
996.039 .0254821
996.640 .0254906
997.240 .0254996
997.840 .0255095
998.440 .0255199
999.040 .0255304
999.639 .0255409
1000.238 .0255505
1000.836 .0255587
1001.435 .0255651
1002.033 .0255690
1002.630 .0255705
1003.228 .0255693
1003.825 .0255660
1004.422 .0255610
1005.018 .0255550
1005.614 .0255487
1006.210 .0255418
1006.806 .0255350
1007.401 .0255274
1007.996 .0255189
1008.591 .0255093
1009.186 .0254989
1009.780 .0254876
1010.374 .0254757
1010.967 .0254633
1011.561 .0254507
1012.154 .0254381
1012.746 .0254250
1013.339 .0254111
1013.931 .0253960
1014.523 .0253797
1015.115 .0253617
1015.706 .0253421
1016.298 .0253219
1016.888 .0253012
1017.479 .0252809
1018.069 .0252617
1018.660 .0252434
1019.250 .0252263
1019.839 .0252101
1020.429 .0251942
1021.018 .0251783
1021.607 .0251631
1022.195 .0251483
1022.784 .0251341
1023.372 .0251212
1023.960 .0251098
1024.547 .0250995
1025.135 .0250905
1025.722 .0250824
1026.309 .0250746
1026.896 .0250672
1027.483 .0250593
1028.069 .0250503
1028.655 .0250406
1029.241 .0250297
1029.827 .0250179
1030.412 .0250051
1030.997 .0249919
1031.582 .0249781
1032.167 .0249637
1032.752 .0249486
1033.336 .0249340
1033.921 .0249197
1034.505 .0249053
1035.089 .0248909
1035.672 .0248764
1036.256 .0248616
1036.839 .0248461
1037.422 .0248300
1038.005 .0248133
1038.588 .0247965
1039.171 .0247791
1039.753 .0247607
1040.335 .0247419
1040.918 .0247228
1041.500 .0247027
1042.081 .0246823
1042.663 .0246611
1043.244 .0246393
1043.826 .0246170
1044.407 .0245947
1044.988 .0245714
1045.569 .0245483
1046.150 .0245243
1046.730 .0244997
1047.311 .0244751
1047.891 .0244507
1048.471 .0244259
1049.052 .0244022
1049.632 .0243786
1050.211 .0243566
1050.791 .0243356
1051.371 .0243162
1051.950 .0242989
1052.530 .0242835
1053.109 .0242690
1053.688 .0242540
1054.268 .0242393
1054.847 .0242246
1055.426 .0242090
1056.005 .0241942
1056.583 .0241792
1057.162 .0241654
1057.741 .0241538
1058.319 .0241445
1058.898 .0241378
1059.476 .0241341
1060.055 .0241323
1060.633 .0241303
1061.211 .0241281
1061.790 .0241254
1062.368 .0241226
1062.946 .0241198
1063.524 .0241179
1064.102 .0241158
1064.680 .0241141
1065.258 .0241132
1065.836 .0241127
1066.414 .0241124
1066.992 .0241109
1067.570 .0241080
1068.148 .0241023
1068.726 .0240936
1069.304 .0240836
1069.882 .0240722
1070.460 .0240612
1071.038 .0240499
1071.616 .0240375
1072.194 .0240240
1072.772 .0240099
1073.350 .0239961
1073.928 .0239824
1074.506 .0239703
1075.084 .0239606
1075.662 .0239525
1076.240 .0239488
1076.819 .0239495
1077.397 .0239538
1077.976 .0239633
1078.554 .0239756
1079.133 .0239891
1079.711 .0240038
1080.290 .0240198
1080.869 .0240365
1081.448 .0240549
1082.027 .0240754
1082.606 .0240961
1083.185 .0241172
1083.764 .0241400
1084.343 .0241622
1084.923 .0241844
1085.502 .0242057
1086.082 .0242232
1086.662 .0242373
1087.242 .0242475
1087.822 .0242530
1088.402 .0242566
1088.983 .0242596
1089.563 .0242622
1090.144 .0242649
1090.725 .0242694
1091.306 .0242744
1091.887 .0242801
1092.469 .0242886
1093.050 .0242984
1093.632 .0243099
1094.214 .0243248
1094.796 .0243426
1095.379 .0243658
1095.961 .0243949
1096.544 .0244288
1097.127 .0244667
1097.710 .0245083
1098.294 .0245514
1098.877 .0245948
1099.461 .0246378
1100.046 .0246806
1100.630 .0247215
1101.215 .0247609
1101.800 .0247983
1102.385 .0248324
1102.970 .0248637
1103.556 .0248920
1104.142 .0249174
1104.728 .0249405
1105.315 .0249608
1105.902 .0249811
1106.489 .0250031
1107.077 .0250279
1107.664 .0250556
1108.253 .0250862
1108.841 .0251204
1109.430 .0251583
1110.019 .0251969
1110.609 .0252379
1111.198 .0252804
1111.789 .0253254
1112.379 .0253722
1112.970 .0254202
1113.561 .0254685
1114.153 .0255180
1114.745 .0255670
1115.338 .0256168
1115.931 .0256656
1116.524 .0257140
1117.117 .0257613
1117.712 .0258089
1118.306 .0258569
1118.901 .0259063
1119.496 .0259571
1120.092 .0260116
1120.689 .0260689
1121.285 .0261301
1121.882 .0261943
1122.480 .0262643
1123.078 .0263382
1123.677 .0264139
1124.276 .0264923
1124.875 .0265724
1125.476 .0266523
1126.076 .0267331
1126.677 .0268154
1127.279 .0268974
1127.881 .0269816
1128.484 .0270651
1129.087 .0271443
1129.691 .0272218
1130.295 .0272962
1130.900 .0273641
1131.505 .0274309
1132.111 .0274965
1132.718 .0275632
1133.325 .0276368
1133.933 .0277205
1134.541 .0278109
1135.150 .0279098
1135.760 .0280153
1136.370 .0281231
1136.981 .0282279
1137.592 .0283296
1138.204 .0284221
1138.817 .0285144
1139.431 .0286078
1140.045 .0287042
1140.660 .0288021
1141.275 .0289014
1141.891 .0290211
1142.508 .0291859
1143.126 .0293748
1143.744 .0293063
1144.363 .0292837
1144.983 .0299288
