Measurement Sequence started on: 15-12-46-377
Integration time: 28
Scans to Average: 2 
>>>>>Begin Spectral Data<<<<<
432.689 .0000100
433.621 .0000100
434.552 .0000100
435.482 .0000100
436.410 .0000100
437.337 .0000100
438.262 .0280947
439.187 .0596501
440.110 .0989093
441.031 .1432121
441.952 .1863094
442.871 .2202972
443.789 .2390141
444.705 .2403049
445.621 .2267265
446.535 .2038760
447.447 .1778978
448.359 .1381791
449.269 .1182577
450.178 .1055899
451.086 .0966129
451.993 .0897272
452.898 .0843115
453.803 .0799162
454.706 .0762865
455.608 .0731884
456.508 .0705124
457.408 .0681741
458.306 .0660962
459.204 .0642249
460.100 .0625266
460.995 .0610041
461.888 .0596333
462.781 .0584046
463.673 .0572999
464.563 .0563227
465.452 .0554378
466.340 .0546251
467.228 .0538774
468.114 .0531784
468.999 .0525287
469.882 .0519265
470.765 .0513653
471.647 .0508492
472.528 .0503768
473.407 .0499588
474.286 .0495960
475.163 .0492865
476.040 .0490173
476.915 .0487884
477.790 .0485897
478.663 .0484151
479.535 .0482460
480.407 .0480915
481.277 .0479453
482.147 .0478075
483.015 .0476740
483.883 .0475524
484.749 .0474473
485.615 .0473662
486.479 .0473014
487.343 .0472598
488.206 .0472348
489.067 .0472256
489.928 .0472249
490.788 .0472377
491.647 .0472595
492.505 .0472929
493.362 .0473345
494.218 .0473984
495.073 .0474866
495.928 .0476056
496.781 .0477532
497.634 .0479416
498.486 .0481614
499.337 .0484122
500.187 .0486826
501.036 .0489810
501.884 .0493011
502.731 .0496437
503.578 .0500057
504.424 .0503956
505.268 .0508105
506.113 .0512656
506.956 .0517563
507.798 .0522999
508.640 .0528898
509.480 .0535357
510.320 .0542379
511.160 .0550167
511.998 .0558751
512.836 .0568278
513.672 .0578760
514.508 .0590483
515.344 .0603230
516.178 .0617361
517.012 .0633122
517.845 .0650850
518.677 .0670798
519.508 .0693342
520.339 .0718870
521.169 .0748268
521.998 .0781615
522.826 .0819474
523.654 .0862203
524.481 .0910800
525.307 .0964965
526.133 .1024533
526.958 .1089448
527.782 .1158679
528.605 .1230777
529.428 .1305164
530.250 .1375695
531.072 .1440720
531.892 .1496701
532.712 .1540597
533.532 .1569738
534.350 .1582703
535.168 .1577812
535.986 .1556193
536.802 .1519347
537.618 .1469116
538.434 .1406916
539.249 .1339247
540.063 .1267323
540.876 .1194148
541.689 .1122736
542.501 .1055323
543.313 .0993486
544.124 .0938417
544.934 .0888744
545.744 .0844157
546.553 .0804335
547.361 .0769207
548.169 .0737357
548.976 .0708582
549.783 .0682770
550.589 .0659397
551.395 .0638268
552.200 .0619240
553.004 .0601990
553.808 .0586399
554.611 .0572612
555.414 .0560207
556.216 .0548925
557.018 .0538864
557.819 .0529764
558.619 .0521335
559.419 .0513427
560.218 .0505989
561.017 .0498794
561.815 .0491791
562.613 .0485091
563.410 .0478452
564.207 .0472066
565.003 .0465852
565.799 .0459831
566.594 .0453816
567.388 .0447984
568.182 .0442139
568.976 .0436304
569.769 .0430579
570.562 .0424858
571.354 .0419140
572.145 .0413570
572.936 .0408126
573.727 .0402828
574.517 .0397741
575.307 .0392996
576.096 .0388469
576.885 .0384267
577.673 .0380328
578.461 .0376642
579.248 .0373223
580.035 .0370020
580.821 .0367004
581.607 .0364163
582.392 .0361515
583.177 .0359048
583.962 .0356734
584.746 .0354658
585.529 .0352767
586.313 .0351046
587.095 .0349467
587.878 .0347984
588.660 .0346553
589.441 .0345194
590.222 .0343893
591.003 .0342678
591.783 .0341569
592.563 .0340564
593.342 .0339658
594.121 .0338841
594.899 .0338110
595.678 .0337420
596.455 .0336760
597.233 .0336127
598.009 .0335488
598.786 .0334863
599.562 .0334255
600.338 .0333663
601.113 .0333101
601.888 .0332570
602.663 .0332059
603.437 .0331560
604.211 .0331060
604.984 .0330545
605.757 .0330015
606.530 .0329473
607.302 .0328921
608.074 .0328373
608.845 .0327858
609.616 .0327376
610.387 .0326935
611.158 .0326548
611.928 .0326200
612.697 .0325887
613.467 .0325605
614.236 .0325337
615.004 .0325081
615.773 .0324834
616.541 .0324602
617.308 .0324379
618.076 .0324180
618.843 .0323999
619.609 .0323836
620.375 .0323695
621.141 .0323559
621.907 .0323410
622.672 .0323251
623.437 .0323078
624.202 .0322876
624.966 .0322654
625.730 .0322413
626.493 .0322157
627.257 .0321897
628.020 .0321634
628.782 .0321365
629.545 .0321090
630.307 .0320803
631.068 .0320497
631.830 .0320173
632.591 .0319836
633.352 .0319480
634.112 .0319122
634.872 .0318761
635.632 .0318408
636.392 .0318058
637.151 .0317721
637.910 .0317389
638.668 .0317067
639.427 .0316742
640.185 .0316418
640.943 .0316102
641.700 .0315798
642.457 .0315503
643.214 .0315231
643.971 .0314969
644.727 .0314719
645.483 .0314481
646.239 .0314253
646.994 .0314017
647.750 .0313787
648.505 .0313551
649.259 .0313318
650.014 .0313094
650.768 .0312882
651.521 .0312672
652.275 .0312469
653.028 .0312271
653.781 .0312062
654.534 .0311836
655.286 .0311597
656.039 .0311338
656.791 .0311071
657.542 .0310788
658.294 .0310503
659.045 .0310222
659.796 .0309954
660.546 .0309691
661.297 .0309431
662.047 .0309169
662.796 .0308897
663.546 .0308612
664.295 .0308315
665.044 .0308005
665.793 .0307693
666.542 .0307383
667.290 .0307083
668.038 .0306804
668.786 .0306541
669.533 .0306297
670.281 .0306074
671.028 .0305862
671.774 .0305651
672.521 .0305446
673.267 .0305244
674.013 .0305053
674.759 .0304870
675.505 .0304697
676.250 .0304532
676.995 .0304379
677.740 .0304231
678.484 .0304078
679.229 .0303923
679.973 .0303763
680.717 .0303592
681.460 .0303420
682.204 .0303240
682.947 .0303061
683.690 .0302883
684.433 .0302706
685.175 .0302523
685.917 .0302333
686.659 .0302136
687.401 .0301933
688.142 .0301724
688.884 .0301515
689.625 .0301308
690.365 .0301106
691.106 .0300915
691.846 .0300731
692.586 .0300552
693.326 .0300375
694.066 .0300198
694.805 .0300025
695.545 .0299846
696.284 .0299665
697.022 .0299484
697.761 .0299306
698.499 .0299127
699.237 .0298945
699.975 .0298759
700.713 .0298574
701.450 .0298386
702.187 .0298193
702.924 .0298000
703.661 .0297810
704.397 .0297626
705.133 .0297455
705.869 .0297294
706.605 .0297147
707.341 .0297010
708.076 .0296884
708.811 .0296765
709.546 .0296647
710.281 .0296530
711.015 .0296412
711.749 .0296294
712.483 .0296171
713.217 .0296039
713.950 .0295906
714.684 .0295770
715.417 .0295631
716.150 .0295487
716.882 .0295336
717.615 .0295177
718.347 .0295007
719.079 .0294820
719.811 .0294617
720.542 .0294400
721.273 .0294170
722.005 .0293927
722.735 .0293680
723.466 .0293433
724.196 .0293187
724.927 .0292942
725.656 .0292699
726.386 .0292457
727.116 .0292216
727.845 .0291974
728.574 .0291728
729.303 .0291482
730.031 .0291237
730.760 .0290999
731.488 .0290767
732.216 .0290552
732.944 .0290354
733.671 .0290171
734.398 .0290004
735.125 .0289848
735.852 .0289702
736.579 .0289563
737.305 .0289430
738.031 .0289303
738.757 .0289175
739.483 .0289050
740.208 .0288927
740.933 .0288809
741.658 .0288695
742.383 .0288582
743.108 .0288467
743.832 .0288351
744.556 .0288231
745.280 .0288107
746.004 .0287979
746.727 .0287854
747.450 .0287727
748.173 .0287595
748.896 .0287460
749.618 .0287325
750.340 .0287183
751.062 .0287039
751.784 .0286890
752.506 .0286735
753.227 .0286573
753.948 .0286410
754.669 .0286247
755.389 .0286087
756.110 .0285933
756.830 .0285780
757.550 .0285628
758.269 .0285480
758.989 .0285321
759.708 .0285155
760.427 .0284978
761.146 .0284790
761.864 .0284588
762.582 .0284381
763.300 .0284173
764.018 .0283963
764.736 .0283762
765.453 .0283572
766.170 .0283389
766.887 .0283218
767.603 .0283048
768.320 .0282882
769.036 .0282718
769.751 .0282555
770.467 .0282391
771.182 .0282239
771.897 .0282098
772.612 .0281975
773.327 .0281870
774.041 .0281785
774.755 .0281717
775.469 .0281664
776.183 .0281623
776.896 .0281589
777.609 .0281557
778.322 .0281527
779.035 .0281493
779.747 .0281464
780.459 .0281434
781.171 .0281407
781.882 .0281385
782.594 .0281371
783.305 .0281359
784.016 .0281354
784.726 .0281351
785.436 .0281349
786.147 .0281344
786.856 .0281336
787.566 .0281322
788.275 .0281303
788.984 .0281282
789.693 .0281260
790.401 .0281235
791.110 .0281211
791.818 .0281185
792.525 .0281159
793.233 .0281128
793.940 .0281091
794.647 .0281044
795.353 .0280991
796.060 .0280934
796.766 .0280873
797.472 .0280811
798.177 .0280751
798.883 .0280696
799.588 .0280643
800.292 .0280592
800.997 .0280543
801.701 .0280490
802.405 .0280431
803.109 .0280366
803.812 .0280296
804.515 .0280220
805.218 .0280140
805.921 .0280052
806.623 .0279957
807.325 .0279855
808.027 .0279745
808.728 .0279627
809.429 .0279501
810.130 .0279370
810.831 .0279230
811.531 .0279085
812.231 .0278932
812.931 .0278773
813.630 .0278607
814.330 .0278437
815.029 .0278261
815.727 .0278080
816.426 .0277902
817.124 .0277731
817.821 .0277566
818.519 .0277412
819.216 .0277269
819.913 .0277136
820.609 .0277011
821.306 .0276895
822.002 .0276784
822.697 .0276682
823.393 .0276587
824.088 .0276502
824.783 .0276419
825.477 .0276346
826.171 .0276276
826.865 .0276212
827.559 .0276154
828.252 .0276096
828.945 .0276034
829.638 .0275969
830.330 .0275897
831.023 .0275817
831.714 .0275728
832.406 .0275632
833.097 .0275525
833.788 .0275410
834.479 .0275288
835.169 .0275162
835.859 .0275041
836.548 .0274926
837.238 .0274815
837.927 .0274707
838.615 .0274603
839.304 .0274499
839.992 .0274394
840.680 .0274291
841.367 .0274188
842.054 .0274088
842.741 .0273988
843.428 .0273891
844.114 .0273799
844.800 .0273711
845.485 .0273618
846.170 .0273519
846.855 .0273412
847.540 .0273288
848.224 .0273150
848.908 .0272999
849.592 .0272838
850.275 .0272668
850.958 .0272490
851.641 .0272306
852.323 .0272115
853.005 .0271916
853.687 .0271705
854.368 .0271481
855.049 .0271249
855.730 .0271003
856.410 .0270747
857.090 .0270487
857.769 .0270227
858.449 .0269967
859.128 .0269710
859.806 .0269455
860.485 .0269201
861.163 .0268945
861.840 .0268692
862.518 .0268438
863.195 .0268186
863.871 .0267936
864.548 .0267693
865.224 .0267459
865.899 .0267237
866.574 .0267023
867.249 .0266819
867.924 .0266622
868.598 .0266431
869.272 .0266245
869.946 .0266064
870.619 .0265889
871.292 .0265717
871.964 .0265551
872.636 .0265393
873.308 .0265237
873.979 .0265090
874.651 .0264951
875.321 .0264813
875.992 .0264679
876.662 .0264544
877.331 .0264414
878.001 .0264289
878.670 .0264173
879.338 .0264065
880.007 .0263968
880.675 .0263887
881.342 .0263815
882.009 .0263753
882.676 .0263702
883.343 .0263659
884.009 .0263627
884.675 .0263601
885.340 .0263581
886.005 .0263566
886.670 .0263561
887.334 .0263564
887.998 .0263576
888.662 .0263595
889.325 .0263619
889.988 .0263649
890.650 .0263682
891.312 .0263722
891.974 .0263764
892.636 .0263810
893.297 .0263862
893.957 .0263915
894.618 .0263967
895.278 .0264020
895.937 .0264069
896.596 .0264121
897.255 .0264168
897.914 .0264208
898.572 .0264238
899.230 .0264265
899.887 .0264281
900.544 .0264289
901.201 .0264289
901.857 .0264279
902.513 .0264260
903.168 .0264229
903.823 .0264183
904.478 .0264125
905.132 .0264053
905.786 .0263964
906.440 .0263858
907.093 .0263739
907.746 .0263601
908.399 .0263452
909.051 .0263297
909.703 .0263135
910.354 .0262970
911.005 .0262811
911.656 .0262652
912.306 .0262498
912.956 .0262355
913.605 .0262214
914.254 .0262081
914.903 .0261957
915.551 .0261840
916.199 .0261737
916.847 .0261650
917.494 .0261581
918.141 .0261524
918.788 .0261489
919.434 .0261470
920.079 .0261465
920.725 .0261470
921.370 .0261484
922.014 .0261498
922.658 .0261511
923.302 .0261517
923.946 .0261510
924.589 .0261492
925.231 .0261459
925.873 .0261413
926.515 .0261351
927.157 .0261272
927.798 .0261181
928.439 .0261073
929.079 .0260953
929.719 .0260818
930.359 .0260665
930.998 .0260502
931.637 .0260332
932.275 .0260157
932.913 .0259982
933.551 .0259813
934.188 .0259649
934.825 .0259495
935.462 .0259349
936.098 .0259217
936.733 .0259099
937.369 .0258997
938.004 .0258916
938.638 .0258852
939.273 .0258809
939.907 .0258785
940.540 .0258776
941.173 .0258781
941.806 .0258791
942.438 .0258806
943.070 .0258817
943.702 .0258826
944.333 .0258833
944.964 .0258837
945.594 .0258841
946.224 .0258845
946.854 .0258848
947.483 .0258851
948.112 .0258854
948.741 .0258848
949.369 .0258838
949.996 .0258817
950.624 .0258789
951.251 .0258759
951.878 .0258726
952.504 .0258697
953.130 .0258668
953.755 .0258643
954.380 .0258618
955.005 .0258588
955.629 .0258552
956.253 .0258504
956.877 .0258451
957.500 .0258390
958.123 .0258323
958.746 .0258252
959.368 .0258181
959.990 .0258111
960.611 .0258037
961.232 .0257955
961.853 .0257866
962.473 .0257772
963.093 .0257668
963.712 .0257557
964.331 .0257441
964.950 .0257326
965.569 .0257215
966.187 .0257110
966.804 .0257016
967.422 .0256928
968.039 .0256845
968.655 .0256759
969.272 .0256667
969.887 .0256568
970.503 .0256453
971.118 .0256332
971.733 .0256203
972.347 .0256068
972.961 .0255926
973.575 .0255783
974.188 .0255638
974.801 .0255494
975.414 .0255344
976.026 .0255183
976.638 .0255018
977.250 .0254846
977.861 .0254668
978.472 .0254487
979.083 .0254309
979.693 .0254127
980.303 .0253943
980.912 .0253763
981.521 .0253577
982.130 .0253391
982.738 .0253207
983.346 .0253025
983.954 .0252841
984.562 .0252658
985.169 .0252472
985.775 .0252285
986.382 .0252097
986.988 .0251898
987.594 .0251695
988.199 .0251488
988.804 .0251278
989.409 .0251067
990.013 .0250861
990.617 .0250664
991.221 .0250472
991.824 .0250298
992.427 .0250140
993.030 .0249993
993.632 .0249862
994.234 .0249745
994.836 .0249639
995.438 .0249540
996.039 .0249441
996.640 .0249339
997.240 .0249242
997.840 .0249143
998.440 .0249042
999.040 .0248942
999.639 .0248850
1000.238 .0248752
1000.836 .0248650
1001.435 .0248544
1002.033 .0248429
1002.630 .0248304
1003.228 .0248172
1003.825 .0248032
1004.422 .0247893
1005.018 .0247749
1005.614 .0247604
1006.210 .0247465
1006.806 .0247331
1007.401 .0247194
1007.996 .0247057
1008.591 .0246920
1009.186 .0246786
1009.780 .0246652
1010.374 .0246525
1010.967 .0246402
1011.561 .0246285
1012.154 .0246169
1012.746 .0246050
1013.339 .0245935
1013.931 .0245819
1014.523 .0245705
1015.115 .0245598
1015.706 .0245501
1016.298 .0245416
1016.888 .0245346
1017.479 .0245298
1018.069 .0245266
1018.660 .0245244
1019.250 .0245233
1019.839 .0245226
1020.429 .0245224
1021.018 .0245225
1021.607 .0245231
1022.195 .0245243
1022.784 .0245267
1023.372 .0245297
1023.960 .0245336
1024.547 .0245379
1025.135 .0245430
1025.722 .0245475
1026.309 .0245520
1026.896 .0245562
1027.483 .0245595
1028.069 .0245623
1028.655 .0245651
1029.241 .0245671
1029.827 .0245695
1030.412 .0245718
1030.997 .0245745
1031.582 .0245769
1032.167 .0245794
1032.752 .0245818
1033.336 .0245846
1033.921 .0245877
1034.505 .0245913
1035.089 .0245946
1035.672 .0245988
1036.256 .0246026
1036.839 .0246063
1037.422 .0246100
1038.005 .0246135
1038.588 .0246170
1039.171 .0246206
1039.753 .0246243
1040.335 .0246285
1040.918 .0246332
1041.500 .0246388
1042.081 .0246450
1042.663 .0246510
1043.244 .0246565
1043.826 .0246606
1044.407 .0246632
1044.988 .0246646
1045.569 .0246643
1046.150 .0246622
1046.730 .0246593
1047.311 .0246558
1047.891 .0246525
1048.471 .0246498
1049.052 .0246481
1049.632 .0246465
1050.211 .0246455
1050.791 .0246445
1051.371 .0246424
1051.950 .0246405
1052.530 .0246383
1053.109 .0246358
1053.688 .0246333
1054.268 .0246306
1054.847 .0246284
1055.426 .0246264
1056.005 .0246257
1056.583 .0246259
1057.162 .0246266
1057.741 .0246283
1058.319 .0246307
1058.898 .0246347
1059.476 .0246392
1060.055 .0246441
1060.633 .0246492
1061.211 .0246538
1061.790 .0246580
1062.368 .0246620
1062.946 .0246647
1063.524 .0246675
1064.102 .0246711
1064.680 .0246750
1065.258 .0246803
1065.836 .0246867
1066.414 .0246946
1066.992 .0247030
1067.570 .0247117
1068.148 .0247183
1068.726 .0247225
1069.304 .0247258
1069.882 .0247288
1070.460 .0247309
1071.038 .0247343
1071.616 .0247386
1072.194 .0247448
1072.772 .0247524
1073.350 .0247620
1073.928 .0247723
1074.506 .0247837
1075.084 .0247953
1075.662 .0248079
1076.240 .0248218
1076.819 .0248374
1077.397 .0248543
1077.976 .0248742
1078.554 .0248944
1079.133 .0249143
1079.711 .0249314
1080.290 .0249471
1080.869 .0249613
1081.448 .0249737
1082.027 .0249841
1082.606 .0249947
1083.185 .0250057
1083.764 .0250184
1084.343 .0250311
1084.923 .0250452
1085.502 .0250593
1086.082 .0250724
1086.662 .0250846
1087.242 .0250955
1087.822 .0251063
1088.402 .0251187
1088.983 .0251332
1089.563 .0251519
1090.144 .0251731
1090.725 .0251981
1091.306 .0252239
1091.887 .0252521
1092.469 .0252810
1093.050 .0253098
1093.632 .0253383
1094.214 .0253680
1094.796 .0253996
1095.379 .0254331
1095.961 .0254683
1096.544 .0255043
1097.127 .0255395
1097.710 .0255727
1098.294 .0256012
1098.877 .0256269
1099.461 .0256484
1100.046 .0256694
1100.630 .0256899
1101.215 .0257145
1101.800 .0257417
1102.385 .0257728
1102.970 .0258063
1103.556 .0258422
1104.142 .0258774
1104.728 .0259101
1105.315 .0259388
1105.902 .0259644
1106.489 .0259873
1107.077 .0260106
1107.664 .0260336
1108.253 .0260635
1108.841 .0260980
1109.430 .0261387
1110.019 .0261823
1110.609 .0262288
1111.198 .0262741
1111.789 .0263194
1112.379 .0263622
1112.970 .0264025
1113.561 .0264383
1114.153 .0264751
1114.745 .0265123
1115.338 .0265526
1115.931 .0265979
1116.524 .0266491
1117.117 .0267042
1117.712 .0267656
1118.306 .0268262
1118.901 .0268882
1119.496 .0269498
1120.092 .0270112
1120.689 .0270670
1121.285 .0271186
1121.882 .0271651
1122.480 .0272059
1123.078 .0272452
1123.677 .0272850
1124.276 .0273247
1124.875 .0273687
1125.476 .0274144
1126.076 .0274620
1126.677 .0275133
1127.279 .0275669
1127.881 .0276207
1128.484 .0276727
1129.087 .0277224
1129.691 .0277727
1130.295 .0278266
1130.900 .0278901
1131.505 .0279676
1132.111 .0280593
1132.718 .0281663
1133.325 .0282833
1133.933 .0284046
1134.541 .0285242
1135.150 .0286386
1135.760 .0287504
1136.370 .0288529
1136.981 .0289535
1137.592 .0290547
1138.204 .0291653
1138.817 .0292811
1139.431 .0294014
1140.045 .0295252
1140.660 .0296495
1141.275 .0297909
1141.891 .0299330
1142.508 .0299647
1143.126 .0301130
1143.744 .0301937
1144.363 .0308808
1144.983 .0307885
