Measurement Sequence started on: 15-12-46-377
Integration time: 28
Scans to Average: 2 
>>>>>Begin Spectral Data<<<<<
432.689 .0000100
433.621 .0000100
434.552 .0000100
435.482 .0000100
436.410 .0000100
437.337 .0000100
438.262 .0290590
439.187 .0614410
440.110 .1017306
441.031 .1471398
441.952 .1911770
442.871 .2257237
443.789 .2444881
444.705 .2453409
445.621 .2309688
446.535 .2072029
447.447 .1803744
448.359 .1394564
449.269 .1192348
450.178 .1064034
451.086 .0973663
451.993 .0904535
452.898 .0849994
453.803 .0805193
454.706 .0767675
455.608 .0735425
456.508 .0707336
457.408 .0682885
458.306 .0661490
459.204 .0642458
460.100 .0625603
460.995 .0610565
461.888 .0597355
462.781 .0585560
463.673 .0574995
464.563 .0565506
465.452 .0556793
466.340 .0548575
467.228 .0540952
468.114 .0533667
468.999 .0526896
469.882 .0520475
470.765 .0514576
471.647 .0509196
472.528 .0504260
473.407 .0499804
474.286 .0495889
475.163 .0492446
476.040 .0489534
476.915 .0486928
477.790 .0484637
478.663 .0482605
479.535 .0480744
480.407 .0479074
481.277 .0477610
482.147 .0476311
483.015 .0475222
483.883 .0474297
484.749 .0473682
485.615 .0473226
486.479 .0473014
487.343 .0473106
488.206 .0473356
489.067 .0473740
489.928 .0474118
490.788 .0474462
491.647 .0474751
492.505 .0474955
493.362 .0475092
494.218 .0475225
495.073 .0475426
495.928 .0475825
496.781 .0476359
497.634 .0477232
498.486 .0478419
499.337 .0479875
500.187 .0481652
501.036 .0483789
501.884 .0486234
502.731 .0489070
503.578 .0492307
504.424 .0496070
505.268 .0500228
506.113 .0504947
506.956 .0510097
507.798 .0515774
508.640 .0522065
509.480 .0529003
510.320 .0536672
511.160 .0545424
511.998 .0555185
512.836 .0566111
513.672 .0578225
514.508 .0591578
515.344 .0605925
516.178 .0621498
517.012 .0638687
517.845 .0657699
518.677 .0678951
519.508 .0702890
520.339 .0730241
521.169 .0761960
521.998 .0798032
522.826 .0839137
523.654 .0885631
524.481 .0937806
525.307 .0995612
526.133 .1058448
526.958 .1125530
527.782 .1196679
528.605 .1269773
529.428 .1343747
530.250 .1413566
531.072 .1476647
531.892 .1529308
532.712 .1569347
533.532 .1594702
534.350 .1602949
535.168 .1593429
535.986 .1567566
536.802 .1526257
537.618 .1472835
538.434 .1409213
539.249 .1340444
540.063 .1269086
540.876 .1197862
541.689 .1128532
542.501 .1063568
543.313 .1004563
544.124 .0951571
544.934 .0903481
545.744 .0859727
546.553 .0819552
547.361 .0782928
548.169 .0749747
548.976 .0719412
549.783 .0692028
550.589 .0667528
551.395 .0645289
552.200 .0625355
553.004 .0607352
553.808 .0590814
554.611 .0575655
555.414 .0561775
556.216 .0548746
557.018 .0536772
557.819 .0525956
558.619 .0516162
559.419 .0507458
560.218 .0499793
561.017 .0492813
561.815 .0486216
562.613 .0479871
563.410 .0473508
564.207 .0467157
565.003 .0460914
565.799 .0454658
566.594 .0448417
567.388 .0442411
568.182 .0436635
568.976 .0431023
569.769 .0425673
570.562 .0420448
571.354 .0415261
572.145 .0410106
572.936 .0404971
573.727 .0399860
574.517 .0394853
575.307 .0390072
576.096 .0385537
576.885 .0381266
577.673 .0377285
578.461 .0373574
579.248 .0370133
580.035 .0366938
580.821 .0363946
581.607 .0361078
582.392 .0358400
583.177 .0355871
583.962 .0353495
584.746 .0351283
585.529 .0349253
586.313 .0347371
587.095 .0345623
587.878 .0344026
588.660 .0342582
589.441 .0341279
590.222 .0340113
591.003 .0339070
591.783 .0338127
592.563 .0337279
593.342 .0336498
594.121 .0335738
594.899 .0335032
595.678 .0334358
596.455 .0333721
597.233 .0333131
598.009 .0332589
598.786 .0332090
599.562 .0331634
600.338 .0331220
601.113 .0330826
601.888 .0330422
602.663 .0330007
603.437 .0329573
604.211 .0329113
604.984 .0328647
605.757 .0328167
606.530 .0327703
607.302 .0327261
608.074 .0326838
608.845 .0326437
609.616 .0326055
610.387 .0325686
611.158 .0325317
611.928 .0324946
612.697 .0324584
613.467 .0324227
614.236 .0323885
615.004 .0323562
615.773 .0323263
616.541 .0322986
617.308 .0322736
618.076 .0322502
618.843 .0322295
619.609 .0322106
620.375 .0321941
621.141 .0321797
621.907 .0321668
622.672 .0321554
623.437 .0321447
624.202 .0321347
624.966 .0321243
625.730 .0321126
626.493 .0320996
627.257 .0320848
628.020 .0320685
628.782 .0320504
629.545 .0320303
630.307 .0320078
631.068 .0319834
631.830 .0319558
632.591 .0319245
633.352 .0318902
634.112 .0318532
634.872 .0318145
635.632 .0317744
636.392 .0317333
637.151 .0316925
637.910 .0316530
638.668 .0316150
639.427 .0315778
640.185 .0315430
640.943 .0315098
641.700 .0314783
642.457 .0314490
643.214 .0314214
643.971 .0313947
644.727 .0313696
645.483 .0313454
646.239 .0313214
646.994 .0312977
647.750 .0312740
648.505 .0312510
649.259 .0312301
650.014 .0312108
650.768 .0311926
651.521 .0311760
652.275 .0311605
653.028 .0311448
653.781 .0311282
654.534 .0311097
655.286 .0310887
656.039 .0310659
656.791 .0310405
657.542 .0310131
658.294 .0309854
659.045 .0309584
659.796 .0309314
660.546 .0309054
661.297 .0308794
662.047 .0308531
662.796 .0308262
663.546 .0307980
664.295 .0307676
665.044 .0307359
665.793 .0307033
666.542 .0306703
667.290 .0306389
668.038 .0306101
668.786 .0305840
669.533 .0305617
670.281 .0305421
671.028 .0305248
671.774 .0305084
672.521 .0304930
673.267 .0304773
674.013 .0304612
674.759 .0304444
675.505 .0304276
676.250 .0304111
676.995 .0303958
677.740 .0303812
678.484 .0303678
679.229 .0303555
679.973 .0303427
680.717 .0303289
681.460 .0303134
682.204 .0302962
682.947 .0302780
683.690 .0302584
684.433 .0302385
685.175 .0302185
685.917 .0301991
686.659 .0301805
687.401 .0301624
688.142 .0301450
688.884 .0301280
689.625 .0301114
690.365 .0300947
691.106 .0300781
691.846 .0300618
692.586 .0300465
693.326 .0300317
694.066 .0300176
694.805 .0300031
695.545 .0299882
696.284 .0299726
697.022 .0299555
697.761 .0299370
698.499 .0299174
699.237 .0298967
699.975 .0298757
700.713 .0298541
701.450 .0298327
702.187 .0298116
702.924 .0297913
703.661 .0297708
704.397 .0297499
705.133 .0297292
705.869 .0297083
706.605 .0296877
707.341 .0296680
708.076 .0296495
708.811 .0296323
709.546 .0296167
710.281 .0296020
711.015 .0295874
711.749 .0295730
712.483 .0295579
713.217 .0295420
713.950 .0295255
714.684 .0295082
715.417 .0294905
716.150 .0294734
716.882 .0294569
717.615 .0294403
718.347 .0294241
719.079 .0294082
719.811 .0293922
720.542 .0293758
721.273 .0293590
722.005 .0293415
722.735 .0293237
723.466 .0293055
724.196 .0292866
724.927 .0292669
725.656 .0292465
726.386 .0292251
727.116 .0292026
727.845 .0291793
728.574 .0291552
729.303 .0291307
730.031 .0291066
730.760 .0290826
731.488 .0290586
732.216 .0290351
732.944 .0290120
733.671 .0289894
734.398 .0289679
735.125 .0289473
735.852 .0289281
736.579 .0289111
737.305 .0288963
738.031 .0288836
738.757 .0288728
739.483 .0288636
740.208 .0288544
740.933 .0288453
741.658 .0288357
742.383 .0288251
743.108 .0288139
743.832 .0288023
744.556 .0287905
745.280 .0287784
746.004 .0287660
746.727 .0287531
747.450 .0287399
748.173 .0287260
748.896 .0287109
749.618 .0286949
750.340 .0286779
751.062 .0286607
751.784 .0286430
752.506 .0286256
753.227 .0286088
753.948 .0285924
754.669 .0285766
755.389 .0285610
756.110 .0285459
756.830 .0285312
757.550 .0285170
758.269 .0285031
758.989 .0284895
759.708 .0284759
760.427 .0284624
761.146 .0284493
761.864 .0284360
762.582 .0284226
763.300 .0284093
764.018 .0283962
764.736 .0283832
765.453 .0283700
766.170 .0283570
766.887 .0283435
767.603 .0283303
768.320 .0283162
769.036 .0283012
769.751 .0282857
770.467 .0282698
771.182 .0282537
771.897 .0282378
772.612 .0282224
773.327 .0282078
774.041 .0281944
774.755 .0281822
775.469 .0281708
776.183 .0281607
776.896 .0281515
777.609 .0281434
778.322 .0281356
779.035 .0281287
779.747 .0281222
780.459 .0281168
781.171 .0281124
781.882 .0281087
782.594 .0281057
783.305 .0281031
784.016 .0281010
784.726 .0280989
785.436 .0280962
786.147 .0280935
786.856 .0280903
787.566 .0280866
788.275 .0280827
788.984 .0280784
789.693 .0280738
790.401 .0280692
791.110 .0280638
791.818 .0280580
792.525 .0280519
793.233 .0280455
793.940 .0280383
794.647 .0280312
795.353 .0280240
796.060 .0280166
796.766 .0280093
797.472 .0280015
798.177 .0279931
798.883 .0279846
799.588 .0279750
800.292 .0279652
800.997 .0279554
801.701 .0279460
802.405 .0279372
803.109 .0279294
803.812 .0279227
804.515 .0279167
805.218 .0279115
805.921 .0279069
806.623 .0279019
807.325 .0278968
808.027 .0278916
808.728 .0278859
809.429 .0278801
810.130 .0278738
810.831 .0278668
811.531 .0278597
812.231 .0278514
812.931 .0278417
813.630 .0278309
814.330 .0278190
815.029 .0278066
815.727 .0277934
816.426 .0277798
817.124 .0277659
817.821 .0277522
818.519 .0277390
819.216 .0277260
819.913 .0277132
820.609 .0277009
821.306 .0276892
822.002 .0276785
822.697 .0276687
823.393 .0276605
824.088 .0276539
824.783 .0276488
825.477 .0276445
826.171 .0276410
826.865 .0276380
827.559 .0276356
828.252 .0276335
828.945 .0276314
829.638 .0276297
830.330 .0276280
831.023 .0276262
831.714 .0276246
832.406 .0276227
833.097 .0276205
833.788 .0276172
834.479 .0276133
835.169 .0276083
835.859 .0276028
836.548 .0275968
837.238 .0275906
837.927 .0275839
838.615 .0275767
839.304 .0275686
839.992 .0275597
840.680 .0275502
841.367 .0275399
842.054 .0275289
842.741 .0275176
843.428 .0275057
844.114 .0274937
844.800 .0274812
845.485 .0274685
846.170 .0274549
846.855 .0274405
847.540 .0274249
848.224 .0274085
848.908 .0273919
849.592 .0273753
850.275 .0273592
850.958 .0273437
851.641 .0273290
852.323 .0273151
853.005 .0273013
853.687 .0272875
854.368 .0272736
855.049 .0272589
855.730 .0272436
856.410 .0272279
857.090 .0272118
857.769 .0271954
858.449 .0271790
859.128 .0271628
859.806 .0271463
860.485 .0271294
861.163 .0271119
861.840 .0270937
862.518 .0270749
863.195 .0270553
863.871 .0270347
864.548 .0270138
865.224 .0269925
865.899 .0269707
866.574 .0269491
867.249 .0269279
867.924 .0269073
868.598 .0268876
869.272 .0268690
869.946 .0268515
870.619 .0268347
871.292 .0268186
871.964 .0268026
872.636 .0267866
873.308 .0267702
873.979 .0267530
874.651 .0267355
875.321 .0267175
875.992 .0266995
876.662 .0266817
877.331 .0266647
878.001 .0266485
878.670 .0266333
879.338 .0266190
880.007 .0266062
880.675 .0265947
881.342 .0265838
882.009 .0265738
882.676 .0265642
883.343 .0265546
884.009 .0265452
884.675 .0265352
885.340 .0265253
886.005 .0265149
886.670 .0265054
887.334 .0264962
887.998 .0264882
888.662 .0264819
889.325 .0264768
889.988 .0264729
890.650 .0264695
891.312 .0264653
891.974 .0264601
892.636 .0264537
893.297 .0264466
893.957 .0264384
894.618 .0264307
895.278 .0264232
895.937 .0264170
896.596 .0264118
897.255 .0264072
897.914 .0264023
898.572 .0263970
899.230 .0263902
899.887 .0263813
900.544 .0263705
901.201 .0263584
901.857 .0263457
902.513 .0263336
903.168 .0263219
903.823 .0263111
904.478 .0263008
905.132 .0262911
905.786 .0262810
906.440 .0262703
907.093 .0262585
907.746 .0262454
908.399 .0262313
909.051 .0262161
909.703 .0262002
910.354 .0261838
911.005 .0261673
911.656 .0261510
912.306 .0261344
912.956 .0261173
913.605 .0260995
914.254 .0260814
914.903 .0260630
915.551 .0260442
916.199 .0260256
916.847 .0260069
917.494 .0259887
918.141 .0259708
918.788 .0259539
919.434 .0259380
920.079 .0259235
920.725 .0259104
921.370 .0258988
922.014 .0258885
922.658 .0258794
923.302 .0258705
923.946 .0258618
924.589 .0258520
925.231 .0258407
925.873 .0258274
926.515 .0258122
927.157 .0257953
927.798 .0257774
928.439 .0257592
929.079 .0257417
929.719 .0257249
930.359 .0257098
930.998 .0256954
931.637 .0256819
932.275 .0256687
932.913 .0256555
933.551 .0256416
934.188 .0256279
934.825 .0256139
935.462 .0256005
936.098 .0255884
936.733 .0255783
937.369 .0255705
938.004 .0255654
938.638 .0255622
939.273 .0255599
939.907 .0255577
940.540 .0255551
941.173 .0255507
941.806 .0255453
942.438 .0255391
943.070 .0255323
943.702 .0255254
944.333 .0255188
944.964 .0255132
945.594 .0255088
946.224 .0255058
946.854 .0255039
947.483 .0255026
948.112 .0255018
948.741 .0255013
949.369 .0255008
949.996 .0255010
950.624 .0255013
951.251 .0255020
951.878 .0255030
952.504 .0255040
953.130 .0255044
953.755 .0255047
954.380 .0255046
955.005 .0255040
955.629 .0255024
956.253 .0255001
956.877 .0254972
957.500 .0254941
958.123 .0254903
958.746 .0254859
959.368 .0254806
959.990 .0254742
960.611 .0254664
961.232 .0254584
961.853 .0254497
962.473 .0254413
963.093 .0254338
963.712 .0254274
964.331 .0254219
964.950 .0254173
965.569 .0254134
966.187 .0254104
966.804 .0254081
967.422 .0254062
968.039 .0254041
968.655 .0254035
969.272 .0254034
969.887 .0254042
970.503 .0254064
971.118 .0254101
971.733 .0254148
972.347 .0254207
972.961 .0254273
973.575 .0254334
974.188 .0254388
974.801 .0254428
975.414 .0254448
976.026 .0254452
976.638 .0254439
977.250 .0254413
977.861 .0254382
978.472 .0254351
979.083 .0254316
979.693 .0254275
980.303 .0254226
980.912 .0254163
981.521 .0254080
982.130 .0253974
982.738 .0253850
983.346 .0253713
983.954 .0253572
984.562 .0253431
985.169 .0253296
985.775 .0253170
986.382 .0253054
986.988 .0252941
987.594 .0252827
988.199 .0252707
988.804 .0252581
989.409 .0252448
990.013 .0252313
990.617 .0252185
991.221 .0252068
991.824 .0251970
992.427 .0251899
993.030 .0251854
993.632 .0251834
994.234 .0251833
994.836 .0251849
995.438 .0251878
996.039 .0251913
996.640 .0251946
997.240 .0251978
997.840 .0252015
998.440 .0252053
999.040 .0252090
999.639 .0252130
1000.238 .0252174
1000.836 .0252218
1001.435 .0252262
1002.033 .0252304
1002.630 .0252336
1003.228 .0252363
1003.825 .0252380
1004.422 .0252394
1005.018 .0252405
1005.614 .0252417
1006.210 .0252431
1006.806 .0252448
1007.401 .0252468
1007.996 .0252483
1008.591 .0252493
1009.186 .0252500
1009.780 .0252499
1010.374 .0252492
1010.967 .0252473
1011.561 .0252449
1012.154 .0252417
1012.746 .0252379
1013.339 .0252334
1013.931 .0252282
1014.523 .0252228
1015.115 .0252174
1015.706 .0252127
1016.298 .0252091
1016.888 .0252068
1017.479 .0252062
1018.069 .0252068
1018.660 .0252086
1019.250 .0252116
1019.839 .0252156
1020.429 .0252203
1021.018 .0252263
1021.607 .0252334
1022.195 .0252419
1022.784 .0252513
1023.372 .0252613
1023.960 .0252721
1024.547 .0252833
1025.135 .0252941
1025.722 .0253035
1026.309 .0253123
1026.896 .0253207
1027.483 .0253284
1028.069 .0253358
1028.655 .0253431
1029.241 .0253500
1029.827 .0253568
1030.412 .0253626
1030.997 .0253676
1031.582 .0253721
1032.167 .0253758
1032.752 .0253790
1033.336 .0253824
1033.921 .0253849
1034.505 .0253870
1035.089 .0253888
1035.672 .0253904
1036.256 .0253911
1036.839 .0253912
1037.422 .0253912
1038.005 .0253921
1038.588 .0253937
1039.171 .0253966
1039.753 .0253997
1040.335 .0254039
1040.918 .0254077
1041.500 .0254097
1042.081 .0254100
1042.663 .0254091
1043.244 .0254069
1043.826 .0254041
1044.407 .0254011
1044.988 .0253983
1045.569 .0253951
1046.150 .0253914
1046.730 .0253856
1047.311 .0253772
1047.891 .0253657
1048.471 .0253511
1049.052 .0253330
1049.632 .0253140
1050.211 .0252946
1050.791 .0252764
1051.371 .0252606
1051.950 .0252475
1052.530 .0252363
1053.109 .0252273
1053.688 .0252188
1054.268 .0252100
1054.847 .0252011
1055.426 .0251927
1056.005 .0251845
1056.583 .0251781
1057.162 .0251733
1057.741 .0251696
1058.319 .0251684
1058.898 .0251693
1059.476 .0251701
1060.055 .0251721
1060.633 .0251739
1061.211 .0251749
1061.790 .0251757
1062.368 .0251772
1062.946 .0251786
1063.524 .0251810
1064.102 .0251844
1064.680 .0251877
1065.258 .0251904
1065.836 .0251931
1066.414 .0251949
1066.992 .0251955
1067.570 .0251958
1068.148 .0251943
1068.726 .0251916
1069.304 .0251888
1069.882 .0251847
1070.460 .0251790
1071.038 .0251717
1071.616 .0251633
1072.194 .0251530
1072.772 .0251419
1073.350 .0251322
1073.928 .0251233
1074.506 .0251167
1075.084 .0251122
1075.662 .0251099
1076.240 .0251092
1076.819 .0251097
1077.397 .0251106
1077.976 .0251136
1078.554 .0251179
1079.133 .0251242
1079.711 .0251316
1080.290 .0251416
1080.869 .0251532
1081.448 .0251648
1082.027 .0251748
1082.606 .0251833
1083.185 .0251882
1083.764 .0251897
1084.343 .0251874
1084.923 .0251842
1085.502 .0251794
1086.082 .0251755
1086.662 .0251729
1087.242 .0251723
1087.822 .0251716
1088.402 .0251722
1088.983 .0251730
1089.563 .0251749
1090.144 .0251761
1090.725 .0251778
1091.306 .0251779
1091.887 .0251795
1092.469 .0251811
1093.050 .0251820
1093.632 .0251843
1094.214 .0251892
1094.796 .0251943
1095.379 .0252029
1095.961 .0252142
1096.544 .0252295
1097.127 .0252472
1097.710 .0252681
1098.294 .0252887
1098.877 .0253080
1099.461 .0253246
1100.046 .0253383
1100.630 .0253489
1101.215 .0253596
1101.800 .0253701
1102.385 .0253815
1102.970 .0253957
1103.556 .0254121
1104.142 .0254287
1104.728 .0254455
1105.315 .0254608
1105.902 .0254745
1106.489 .0254860
1107.077 .0254981
1107.664 .0255113
1108.253 .0255273
1108.841 .0255491
1109.430 .0255763
1110.019 .0256080
1110.609 .0256458
1111.198 .0256865
1111.789 .0257288
1112.379 .0257727
1112.970 .0258177
1113.561 .0258631
1114.153 .0259122
1114.745 .0259638
1115.338 .0260181
1115.931 .0260743
1116.524 .0261330
1117.117 .0261938
1117.712 .0262550
1118.306 .0263168
1118.901 .0263771
1119.496 .0264353
1120.092 .0264923
1120.689 .0265456
1121.285 .0266003
1121.882 .0266541
1122.480 .0267088
1123.078 .0267634
1123.677 .0268161
1124.276 .0268678
1124.875 .0269194
1125.476 .0269674
1126.076 .0270120
1126.677 .0270533
1127.279 .0270913
1127.881 .0271287
1128.484 .0271678
1129.087 .0272041
1129.691 .0272434
1130.295 .0272858
1130.900 .0273298
1131.505 .0273725
1132.111 .0274193
1132.718 .0274667
1133.325 .0275196
1133.933 .0275822
1134.541 .0276530
1135.150 .0277339
1135.760 .0278304
1136.370 .0279385
1136.981 .0280530
1137.592 .0281669
1138.204 .0282821
1138.817 .0283965
1139.431 .0285143
1140.045 .0286375
1140.660 .0287689
1141.275 .0288996
1141.891 .0290216
1142.508 .0292261
1143.126 .0295187
1143.744 .0296687
1144.363 .0294090
1144.983 .0291243
