Measurement Sequence started on: 15-12-46-377
Integration time: 28
Scans to Average: 2 
>>>>>Begin Spectral Data<<<<<
432.689 .0000100
433.621 .0000100
434.552 .0000100
435.482 .0000100
436.410 .0000100
437.337 .0000100
438.262 .0260404
439.187 .0551762
440.110 .0913957
441.031 .1323146
441.952 .1720888
442.871 .2034454
443.789 .2207420
444.705 .2220428
445.621 .2097370
446.535 .1889899
447.447 .1654841
448.359 .1293240
449.269 .1115951
450.178 .1005230
451.086 .0927570
451.993 .0868637
452.898 .0822255
453.803 .0784084
454.706 .0751953
455.608 .0724093
456.508 .0699675
457.408 .0677869
458.306 .0658314
459.204 .0640440
460.100 .0623932
460.995 .0608664
461.888 .0594668
462.781 .0581665
463.673 .0569512
464.563 .0558288
465.452 .0547754
466.340 .0537890
467.228 .0528836
468.114 .0520446
468.999 .0512890
469.882 .0506009
470.765 .0499807
471.647 .0494284
472.528 .0489485
473.407 .0485303
474.286 .0481723
475.163 .0478728
476.040 .0476187
476.915 .0473893
477.790 .0471829
478.663 .0469981
479.535 .0468216
480.407 .0466587
481.277 .0465058
482.147 .0463683
483.015 .0462498
483.883 .0461512
484.749 .0460741
485.615 .0460189
486.479 .0459784
487.343 .0459461
488.206 .0459180
489.067 .0458901
489.928 .0458598
490.788 .0458367
491.647 .0458220
492.505 .0458257
493.362 .0458468
494.218 .0459021
495.073 .0459887
495.928 .0461131
496.781 .0462633
497.634 .0464507
498.486 .0466626
499.337 .0468989
500.187 .0471547
501.036 .0474343
501.884 .0477381
502.731 .0480702
503.578 .0484352
504.424 .0488337
505.268 .0492564
506.113 .0497105
506.956 .0501841
507.798 .0507020
508.640 .0512614
509.480 .0518702
510.320 .0525488
511.160 .0533170
511.998 .0541572
512.836 .0550812
513.672 .0560942
514.508 .0571812
515.344 .0583461
516.178 .0596041
517.012 .0609885
517.845 .0625440
518.677 .0643469
519.508 .0664480
520.339 .0689282
521.169 .0718682
521.998 .0752374
522.826 .0790526
523.654 .0833368
524.481 .0880644
525.307 .0931983
526.133 .0987785
526.958 .1048156
527.782 .1112495
528.605 .1180426
529.428 .1251699
530.250 .1321893
531.072 .1388847
531.892 .1448126
532.712 .1496653
533.532 .1531315
534.350 .1549382
535.168 .1548508
535.986 .1529701
536.802 .1494478
537.618 .1445364
538.434 .1384737
539.249 .1318050
540.063 .1247677
540.876 .1177039
541.689 .1107883
542.501 .1042738
543.313 .0982662
544.124 .0928440
544.934 .0879000
545.744 .0834368
546.553 .0793877
547.361 .0757646
548.169 .0725550
548.976 .0697037
549.783 .0671689
550.589 .0649052
551.395 .0628352
552.200 .0609836
553.004 .0592821
553.808 .0577195
554.611 .0562880
555.414 .0549953
556.216 .0538196
557.018 .0527572
557.819 .0517976
558.619 .0509269
559.419 .0501221
560.218 .0493700
561.017 .0486356
561.815 .0479082
562.613 .0471861
563.410 .0464647
564.207 .0457547
565.003 .0450646
565.799 .0443868
566.594 .0437269
567.388 .0430883
568.182 .0424718
568.976 .0418805
569.769 .0413111
570.562 .0407645
571.354 .0402348
572.145 .0397203
572.936 .0392218
573.727 .0387418
574.517 .0382800
575.307 .0378390
576.096 .0374228
576.885 .0370322
577.673 .0366674
578.461 .0363318
579.248 .0360227
580.035 .0357382
580.821 .0354754
581.607 .0352283
582.392 .0349944
583.177 .0347756
583.962 .0345690
584.746 .0343758
585.529 .0341985
586.313 .0340358
587.095 .0338854
587.878 .0337478
588.660 .0336205
589.441 .0335015
590.222 .0333903
591.003 .0332871
591.783 .0331895
592.563 .0330990
593.342 .0330151
594.121 .0329366
594.899 .0328643
595.678 .0327974
596.455 .0327342
597.233 .0326745
598.009 .0326184
598.786 .0325630
599.562 .0325092
600.338 .0324574
601.113 .0324078
601.888 .0323607
602.663 .0323171
603.437 .0322761
604.211 .0322370
604.984 .0322000
605.757 .0321645
606.530 .0321290
607.302 .0320949
608.074 .0320613
608.845 .0320282
609.616 .0319961
610.387 .0319660
611.158 .0319370
611.928 .0319096
612.697 .0318834
613.467 .0318578
614.236 .0318322
615.004 .0318064
615.773 .0317792
616.541 .0317520
617.308 .0317244
618.076 .0316967
618.843 .0316691
619.609 .0316430
620.375 .0316170
621.141 .0315920
621.907 .0315678
622.672 .0315440
623.437 .0315203
624.202 .0314960
624.966 .0314716
625.730 .0314471
626.493 .0314223
627.257 .0313967
628.020 .0313715
628.782 .0313467
629.545 .0313206
630.307 .0312941
631.068 .0312671
631.830 .0312394
632.591 .0312107
633.352 .0311809
634.112 .0311498
634.872 .0311181
635.632 .0310860
636.392 .0310531
637.151 .0310213
637.910 .0309903
638.668 .0309604
639.427 .0309316
640.185 .0309037
640.943 .0308755
641.700 .0308475
642.457 .0308202
643.214 .0307940
643.971 .0307689
644.727 .0307457
645.483 .0307236
646.239 .0307035
646.994 .0306847
647.750 .0306665
648.505 .0306486
649.259 .0306313
650.014 .0306133
650.768 .0305953
651.521 .0305764
652.275 .0305579
653.028 .0305398
653.781 .0305223
654.534 .0305047
655.286 .0304861
656.039 .0304667
656.791 .0304466
657.542 .0304253
658.294 .0304038
659.045 .0303821
659.796 .0303605
660.546 .0303384
661.297 .0303157
662.047 .0302922
662.796 .0302679
663.546 .0302429
664.295 .0302170
665.044 .0301898
665.793 .0301631
666.542 .0301367
667.290 .0301111
668.038 .0300873
668.786 .0300643
669.533 .0300416
670.281 .0300191
671.028 .0299965
671.774 .0299733
672.521 .0299508
673.267 .0299292
674.013 .0299085
674.759 .0298894
675.505 .0298722
676.250 .0298561
676.995 .0298411
677.740 .0298271
678.484 .0298125
679.229 .0297973
679.973 .0297818
680.717 .0297653
681.460 .0297485
682.204 .0297316
682.947 .0297145
683.690 .0296976
684.433 .0296808
685.175 .0296634
685.917 .0296455
686.659 .0296277
687.401 .0296093
688.142 .0295904
688.884 .0295713
689.625 .0295526
690.365 .0295339
691.106 .0295154
691.846 .0294973
692.586 .0294794
693.326 .0294621
694.066 .0294452
694.805 .0294288
695.545 .0294131
696.284 .0293972
697.022 .0293809
697.761 .0293638
698.499 .0293456
699.237 .0293261
699.975 .0293054
700.713 .0292839
701.450 .0292622
702.187 .0292403
702.924 .0292188
703.661 .0291983
704.397 .0291786
705.133 .0291601
705.869 .0291419
706.605 .0291241
707.341 .0291064
708.076 .0290883
708.811 .0290702
709.546 .0290519
710.281 .0290340
711.015 .0290166
711.749 .0289996
712.483 .0289832
713.217 .0289668
713.950 .0289504
714.684 .0289333
715.417 .0289154
716.150 .0288968
716.882 .0288777
717.615 .0288583
718.347 .0288389
719.079 .0288196
719.811 .0288007
720.542 .0287826
721.273 .0287649
722.005 .0287474
722.735 .0287305
723.466 .0287138
724.196 .0286973
724.927 .0286807
725.656 .0286647
726.386 .0286488
727.116 .0286334
727.845 .0286182
728.574 .0286027
729.303 .0285870
730.031 .0285711
730.760 .0285548
731.488 .0285380
732.216 .0285213
732.944 .0285046
733.671 .0284886
734.398 .0284734
735.125 .0284589
735.852 .0284455
736.579 .0284330
737.305 .0284212
738.031 .0284099
738.757 .0283991
739.483 .0283889
740.208 .0283789
740.933 .0283694
741.658 .0283598
742.383 .0283499
743.108 .0283395
743.832 .0283282
744.556 .0283160
745.280 .0283027
746.004 .0282885
746.727 .0282741
747.450 .0282595
748.173 .0282451
748.896 .0282307
749.618 .0282166
750.340 .0282024
751.062 .0281880
751.784 .0281730
752.506 .0281574
753.227 .0281412
753.948 .0281250
754.669 .0281089
755.389 .0280939
756.110 .0280797
756.830 .0280665
757.550 .0280536
758.269 .0280407
758.989 .0280269
759.708 .0280117
760.427 .0279948
761.146 .0279762
761.864 .0279561
762.582 .0279348
763.300 .0279128
764.018 .0278910
764.736 .0278696
765.453 .0278491
766.170 .0278293
766.887 .0278102
767.603 .0277920
768.320 .0277746
769.036 .0277579
769.751 .0277423
770.467 .0277271
771.182 .0277128
771.897 .0276993
772.612 .0276866
773.327 .0276750
774.041 .0276649
774.755 .0276561
775.469 .0276478
776.183 .0276405
776.896 .0276337
777.609 .0276267
778.322 .0276197
779.035 .0276120
779.747 .0276032
780.459 .0275936
781.171 .0275832
781.882 .0275723
782.594 .0275617
783.305 .0275517
784.016 .0275424
784.726 .0275337
785.436 .0275255
786.147 .0275175
786.856 .0275095
787.566 .0275015
788.275 .0274931
788.984 .0274844
789.693 .0274761
790.401 .0274681
791.110 .0274604
791.818 .0274527
792.525 .0274452
793.233 .0274373
793.940 .0274284
794.647 .0274186
795.353 .0274076
796.060 .0273956
796.766 .0273829
797.472 .0273694
798.177 .0273553
798.883 .0273409
799.588 .0273264
800.292 .0273117
800.997 .0272971
801.701 .0272825
802.405 .0272684
803.109 .0272554
803.812 .0272438
804.515 .0272333
805.218 .0272238
805.921 .0272153
806.623 .0272071
807.325 .0271983
808.027 .0271891
808.728 .0271793
809.429 .0271688
810.130 .0271573
810.831 .0271454
811.531 .0271333
812.231 .0271208
812.931 .0271077
813.630 .0270935
814.330 .0270777
815.029 .0270600
815.727 .0270405
816.426 .0270199
817.124 .0269989
817.821 .0269778
818.519 .0269576
819.216 .0269393
819.913 .0269234
820.609 .0269096
821.306 .0268981
822.002 .0268888
822.697 .0268812
823.393 .0268750
824.088 .0268697
824.783 .0268656
825.477 .0268626
826.171 .0268607
826.865 .0268597
827.559 .0268597
828.252 .0268606
828.945 .0268623
829.638 .0268644
830.330 .0268660
831.023 .0268666
831.714 .0268655
832.406 .0268631
833.097 .0268586
833.788 .0268522
834.479 .0268443
835.169 .0268354
835.859 .0268261
836.548 .0268168
837.238 .0268076
837.927 .0267993
838.615 .0267911
839.304 .0267834
839.992 .0267753
840.680 .0267669
841.367 .0267583
842.054 .0267500
842.741 .0267426
843.428 .0267361
844.114 .0267309
844.800 .0267273
845.485 .0267249
846.170 .0267233
846.855 .0267215
847.540 .0267192
848.224 .0267161
848.908 .0267121
849.592 .0267068
850.275 .0267010
850.958 .0266943
851.641 .0266874
852.323 .0266804
853.005 .0266727
853.687 .0266641
854.368 .0266540
855.049 .0266425
855.730 .0266295
856.410 .0266149
857.090 .0265991
857.769 .0265825
858.449 .0265657
859.128 .0265490
859.806 .0265323
860.485 .0265158
861.163 .0264998
861.840 .0264838
862.518 .0264681
863.195 .0264523
863.871 .0264369
864.548 .0264221
865.224 .0264082
865.899 .0263956
866.574 .0263840
867.249 .0263736
867.924 .0263639
868.598 .0263552
869.272 .0263474
869.946 .0263403
870.619 .0263335
871.292 .0263274
871.964 .0263214
872.636 .0263153
873.308 .0263089
873.979 .0263020
874.651 .0262944
875.321 .0262861
875.992 .0262771
876.662 .0262678
877.331 .0262589
878.001 .0262506
878.670 .0262425
879.338 .0262352
880.007 .0262285
880.675 .0262219
881.342 .0262153
882.009 .0262089
882.676 .0262024
883.343 .0261959
884.009 .0261894
884.675 .0261829
885.340 .0261768
886.005 .0261713
886.670 .0261662
887.334 .0261613
887.998 .0261570
888.662 .0261530
889.325 .0261491
889.988 .0261455
890.650 .0261418
891.312 .0261380
891.974 .0261340
892.636 .0261301
893.297 .0261263
893.957 .0261231
894.618 .0261208
895.278 .0261196
895.937 .0261196
896.596 .0261209
897.255 .0261228
897.914 .0261248
898.572 .0261269
899.230 .0261285
899.887 .0261288
900.544 .0261279
901.201 .0261264
901.857 .0261240
902.513 .0261209
903.168 .0261167
903.823 .0261112
904.478 .0261043
905.132 .0260952
905.786 .0260835
906.440 .0260693
907.093 .0260528
907.746 .0260341
908.399 .0260137
909.051 .0259924
909.703 .0259706
910.354 .0259487
911.005 .0259272
911.656 .0259061
912.306 .0258852
912.956 .0258647
913.605 .0258444
914.254 .0258245
914.903 .0258050
915.551 .0257862
916.199 .0257685
916.847 .0257520
917.494 .0257369
918.141 .0257232
918.788 .0257109
919.434 .0257001
920.079 .0256897
920.725 .0256799
921.370 .0256702
922.014 .0256599
922.658 .0256486
923.302 .0256362
923.946 .0256227
924.589 .0256078
925.231 .0255917
925.873 .0255749
926.515 .0255577
927.157 .0255399
927.798 .0255211
928.439 .0255014
929.079 .0254804
929.719 .0254579
930.359 .0254336
930.998 .0254085
931.637 .0253829
932.275 .0253572
932.913 .0253320
933.551 .0253078
934.188 .0252846
934.825 .0252626
935.462 .0252410
936.098 .0252200
936.733 .0251992
937.369 .0251785
938.004 .0251582
938.638 .0251390
939.273 .0251212
939.907 .0251051
940.540 .0250909
941.173 .0250790
941.806 .0250690
942.438 .0250607
943.070 .0250532
943.702 .0250464
944.333 .0250397
944.964 .0250325
945.594 .0250249
946.224 .0250175
946.854 .0250103
947.483 .0250037
948.112 .0249973
948.741 .0249912
949.369 .0249851
949.996 .0249789
950.624 .0249717
951.251 .0249634
951.878 .0249535
952.504 .0249418
953.130 .0249283
953.755 .0249136
954.380 .0248977
955.005 .0248811
955.629 .0248647
956.253 .0248484
956.877 .0248328
957.500 .0248183
958.123 .0248047
958.746 .0247921
959.368 .0247798
959.990 .0247671
960.611 .0247537
961.232 .0247401
961.853 .0247261
962.473 .0247118
963.093 .0246980
963.712 .0246844
964.331 .0246722
964.950 .0246611
965.569 .0246515
966.187 .0246431
966.804 .0246356
967.422 .0246290
968.039 .0246223
968.655 .0246157
969.272 .0246089
969.887 .0246023
970.503 .0245965
971.118 .0245910
971.733 .0245863
972.347 .0245822
972.961 .0245788
973.575 .0245757
974.188 .0245720
974.801 .0245668
975.414 .0245599
976.026 .0245507
976.638 .0245387
977.250 .0245245
977.861 .0245083
978.472 .0244909
979.083 .0244729
979.693 .0244544
980.303 .0244359
980.912 .0244178
981.521 .0244007
982.130 .0243840
982.738 .0243683
983.346 .0243535
983.954 .0243393
984.562 .0243256
985.169 .0243126
985.775 .0243000
986.382 .0242878
986.988 .0242761
987.594 .0242655
988.199 .0242556
988.804 .0242472
989.409 .0242398
990.013 .0242337
990.617 .0242290
991.221 .0242249
991.824 .0242209
992.427 .0242175
993.030 .0242143
993.632 .0242108
994.234 .0242076
994.836 .0242052
995.438 .0242033
996.039 .0242026
996.640 .0242031
997.240 .0242051
997.840 .0242085
998.440 .0242137
999.040 .0242192
999.639 .0242256
1000.238 .0242317
1000.836 .0242364
1001.435 .0242397
1002.033 .0242413
1002.630 .0242413
1003.228 .0242404
1003.825 .0242397
1004.422 .0242398
1005.018 .0242407
1005.614 .0242435
1006.210 .0242476
1006.806 .0242531
1007.401 .0242585
1007.996 .0242625
1008.591 .0242647
1009.186 .0242650
1009.780 .0242632
1010.374 .0242598
1010.967 .0242565
1011.561 .0242535
1012.154 .0242512
1012.746 .0242502
1013.339 .0242500
1013.931 .0242501
1014.523 .0242504
1015.115 .0242501
1015.706 .0242486
1016.298 .0242465
1016.888 .0242438
1017.479 .0242414
1018.069 .0242408
1018.660 .0242419
1019.250 .0242453
1019.839 .0242506
1020.429 .0242585
1021.018 .0242679
1021.607 .0242793
1022.195 .0242922
1022.784 .0243061
1023.372 .0243211
1023.960 .0243364
1024.547 .0243515
1025.135 .0243667
1025.722 .0243812
1026.309 .0243945
1026.896 .0244065
1027.483 .0244174
1028.069 .0244267
1028.655 .0244349
1029.241 .0244427
1029.827 .0244504
1030.412 .0244575
1030.997 .0244645
1031.582 .0244713
1032.167 .0244778
1032.752 .0244842
1033.336 .0244902
1033.921 .0244967
1034.505 .0245040
1035.089 .0245124
1035.672 .0245219
1036.256 .0245324
1036.839 .0245437
1037.422 .0245553
1038.005 .0245674
1038.588 .0245798
1039.171 .0245916
1039.753 .0246036
1040.335 .0246158
1040.918 .0246278
1041.500 .0246396
1042.081 .0246516
1042.663 .0246626
1043.244 .0246726
1043.826 .0246801
1044.407 .0246847
1044.988 .0246868
1045.569 .0246868
1046.150 .0246843
1046.730 .0246808
1047.311 .0246781
1047.891 .0246758
1048.471 .0246746
1049.052 .0246752
1049.632 .0246767
1050.211 .0246789
1050.791 .0246808
1051.371 .0246819
1051.950 .0246814
1052.530 .0246802
1053.109 .0246771
1053.688 .0246733
1054.268 .0246699
1054.847 .0246672
1055.426 .0246654
1056.005 .0246650
1056.583 .0246667
1057.162 .0246693
1057.741 .0246726
1058.319 .0246770
1058.898 .0246813
1059.476 .0246849
1060.055 .0246870
1060.633 .0246870
1061.211 .0246849
1061.790 .0246809
1062.368 .0246758
1062.946 .0246705
1063.524 .0246665
1064.102 .0246644
1064.680 .0246645
1065.258 .0246670
1065.836 .0246725
1066.414 .0246787
1066.992 .0246848
1067.570 .0246903
1068.148 .0246946
1068.726 .0246972
1069.304 .0246999
1069.882 .0247033
1070.460 .0247088
1071.038 .0247167
1071.616 .0247265
1072.194 .0247376
1072.772 .0247505
1073.350 .0247631
1073.928 .0247741
1074.506 .0247829
1075.084 .0247898
1075.662 .0247956
1076.240 .0248007
1076.819 .0248055
1077.397 .0248101
1077.976 .0248143
1078.554 .0248176
1079.133 .0248191
1079.711 .0248201
1080.290 .0248207
1080.869 .0248217
1081.448 .0248253
1082.027 .0248306
1082.606 .0248384
1083.185 .0248475
1083.764 .0248574
1084.343 .0248679
1084.923 .0248766
1085.502 .0248828
1086.082 .0248879
1086.662 .0248938
1087.242 .0249026
1087.822 .0249142
1088.402 .0249299
1088.983 .0249486
1089.563 .0249691
1090.144 .0249898
1090.725 .0250081
1091.306 .0250242
1091.887 .0250393
1092.469 .0250543
1093.050 .0250716
1093.632 .0250921
1094.214 .0251166
1094.796 .0251457
1095.379 .0251791
1095.961 .0252124
1096.544 .0252433
1097.127 .0252695
1097.710 .0252913
1098.294 .0253078
1098.877 .0253209
1099.461 .0253311
1100.046 .0253416
1100.630 .0253556
1101.215 .0253733
1101.800 .0253932
1102.385 .0254148
1102.970 .0254352
1103.556 .0254542
1104.142 .0254704
1104.728 .0254844
1105.315 .0254949
1105.902 .0255057
1106.489 .0255169
1107.077 .0255309
1107.664 .0255487
1108.253 .0255707
1108.841 .0255972
1109.430 .0256297
1110.019 .0256639
1110.609 .0256981
1111.198 .0257303
1111.789 .0257613
1112.379 .0257896
1112.970 .0258172
1113.561 .0258419
1114.153 .0258671
1114.745 .0258960
1115.338 .0259309
1115.931 .0259722
1116.524 .0260224
1117.117 .0260787
1117.712 .0261399
1118.306 .0262030
1118.901 .0262651
1119.496 .0263211
1120.092 .0263732
1120.689 .0264190
1121.285 .0264594
1121.882 .0264959
1122.480 .0265330
1123.078 .0265729
1123.677 .0266216
1124.276 .0266756
1124.875 .0267362
1125.476 .0267980
1126.076 .0268579
1126.677 .0269120
1127.279 .0269588
1127.881 .0269974
1128.484 .0270314
1129.087 .0270619
1129.691 .0270938
1130.295 .0271331
1130.900 .0271840
1131.505 .0272445
1132.111 .0273183
1132.718 .0274021
1133.325 .0274918
1133.933 .0275835
1134.541 .0276819
1135.150 .0277788
1135.760 .0278814
1136.370 .0279913
1136.981 .0281064
1137.592 .0282290
1138.204 .0283592
1138.817 .0285017
1139.431 .0286495
1140.045 .0288081
1140.660 .0289752
1141.275 .0291370
1141.891 .0293035
1142.508 .0294179
1143.126 .0297429
1143.744 .0299159
1144.363 .0298588
1144.983 .0300464
