Measurement Sequence started on: 15-12-46-377
Integration time: 28
Scans to Average: 2 
>>>>>Begin Spectral Data<<<<<
432.689 .0000100
433.621 .0000100
434.552 .0000100
435.482 .0000100
436.410 .0000100
437.337 .0000100
438.262 .0265071
439.187 .0562459
440.110 .0933446
441.031 .1352154
441.952 .1759153
442.871 .2080184
443.789 .2256930
444.705 .2268961
445.621 .2140370
446.535 .1923966
447.447 .1677980
448.359 .1302441
449.269 .1114408
450.178 .0994661
451.086 .0910789
451.993 .0847554
452.898 .0798327
453.803 .0758829
454.706 .0726551
455.608 .0699142
456.508 .0675565
457.408 .0654961
458.306 .0636567
459.204 .0619776
460.100 .0604490
460.995 .0590694
461.888 .0578247
462.781 .0567000
463.673 .0556690
464.563 .0547246
465.452 .0538384
466.340 .0529792
467.228 .0521566
468.114 .0513657
468.999 .0506149
469.882 .0499078
470.765 .0492600
471.647 .0486776
472.528 .0481593
473.407 .0477133
474.286 .0473364
475.163 .0470198
476.040 .0467610
476.915 .0465405
477.790 .0463611
478.663 .0462172
479.535 .0461040
480.407 .0460186
481.277 .0459578
482.147 .0459166
483.015 .0458961
483.883 .0458933
484.749 .0459091
485.615 .0459349
486.479 .0459722
487.343 .0460143
488.206 .0460577
489.067 .0460900
489.928 .0461118
490.788 .0461264
491.647 .0461413
492.505 .0461606
493.362 .0461919
494.218 .0462407
495.073 .0463178
495.928 .0464292
496.781 .0465711
497.634 .0467413
498.486 .0469432
499.337 .0471655
500.187 .0474063
501.036 .0476645
501.884 .0479444
502.731 .0482513
503.578 .0485982
504.424 .0489848
505.268 .0494018
506.113 .0498572
506.956 .0503418
507.798 .0508585
508.640 .0514113
509.480 .0520047
510.320 .0526563
511.160 .0533794
511.998 .0541777
512.836 .0550629
513.672 .0560495
514.508 .0571613
515.344 .0583959
516.178 .0597897
517.012 .0613547
517.845 .0631258
518.677 .0651314
519.508 .0673757
520.339 .0699013
521.169 .0727818
521.998 .0760096
522.826 .0796552
523.654 .0837395
524.481 .0882964
525.307 .0933458
526.133 .0989052
526.958 .1049159
527.782 .1113166
528.605 .1179885
529.428 .1248099
530.250 .1312732
531.072 .1371812
531.892 .1421514
532.712 .1459365
533.532 .1483889
534.350 .1493095
535.168 .1485936
535.986 .1464107
536.802 .1428653
537.618 .1381561
538.434 .1324534
539.249 .1262269
540.063 .1196425
540.876 .1129829
541.689 .1064775
542.501 .1003052
543.313 .0946502
544.124 .0895973
544.934 .0850280
545.744 .0809095
546.553 .0771682
547.361 .0737870
548.169 .0707339
548.976 .0679715
549.783 .0655103
550.589 .0633190
551.395 .0613689
552.200 .0596453
553.004 .0580929
553.808 .0566790
554.611 .0554049
555.414 .0542581
556.216 .0532042
557.018 .0522400
557.819 .0513638
558.619 .0505563
559.419 .0498159
560.218 .0491269
561.017 .0484740
561.815 .0478425
562.613 .0472220
563.410 .0465973
564.207 .0459695
565.003 .0453419
565.799 .0447126
566.594 .0440854
567.388 .0434728
568.182 .0428666
568.976 .0422629
569.769 .0416713
570.562 .0410937
571.354 .0405290
572.145 .0399826
572.936 .0394535
573.727 .0389460
574.517 .0384609
575.307 .0380041
576.096 .0375732
576.885 .0371649
577.673 .0367830
578.461 .0364199
579.248 .0360757
580.035 .0357538
580.821 .0354544
581.607 .0351762
582.392 .0349190
583.177 .0346829
583.962 .0344649
584.746 .0342649
585.529 .0340804
586.313 .0339095
587.095 .0337543
587.878 .0336117
588.660 .0334800
589.441 .0333597
590.222 .0332533
591.003 .0331594
591.783 .0330761
592.563 .0330025
593.342 .0329366
594.121 .0328748
594.899 .0328177
595.678 .0327634
596.455 .0327126
597.233 .0326650
598.009 .0326194
598.786 .0325769
599.562 .0325363
600.338 .0324971
601.113 .0324602
601.888 .0324238
602.663 .0323879
603.437 .0323518
604.211 .0323127
604.984 .0322726
605.757 .0322312
606.530 .0321893
607.302 .0321475
608.074 .0321076
608.845 .0320702
609.616 .0320343
610.387 .0320019
611.158 .0319724
611.928 .0319436
612.697 .0319165
613.467 .0318900
614.236 .0318635
615.004 .0318369
615.773 .0318104
616.541 .0317835
617.308 .0317593
618.076 .0317370
618.843 .0317161
619.609 .0316971
620.375 .0316792
621.141 .0316601
621.907 .0316390
622.672 .0316165
623.437 .0315913
624.202 .0315634
624.966 .0315345
625.730 .0315035
626.493 .0314723
627.257 .0314409
628.020 .0314099
628.782 .0313789
629.545 .0313481
630.307 .0313162
631.068 .0312827
631.830 .0312484
632.591 .0312121
633.352 .0311747
634.112 .0311366
634.872 .0310979
635.632 .0310596
636.392 .0310210
637.151 .0309842
637.910 .0309484
638.668 .0309147
639.427 .0308825
640.185 .0308516
640.943 .0308220
641.700 .0307938
642.457 .0307672
643.214 .0307423
643.971 .0307186
644.727 .0306963
645.483 .0306752
646.239 .0306561
646.994 .0306385
647.750 .0306225
648.505 .0306070
649.259 .0305933
650.014 .0305798
650.768 .0305666
651.521 .0305529
652.275 .0305382
653.028 .0305222
653.781 .0305052
654.534 .0304861
655.286 .0304655
656.039 .0304433
656.791 .0304204
657.542 .0303955
658.294 .0303699
659.045 .0303430
659.796 .0303156
660.546 .0302879
661.297 .0302598
662.047 .0302315
662.796 .0302041
663.546 .0301778
664.295 .0301530
665.044 .0301290
665.793 .0301064
666.542 .0300840
667.290 .0300625
668.038 .0300403
668.786 .0300179
669.533 .0299958
670.281 .0299745
671.028 .0299538
671.774 .0299342
672.521 .0299161
673.267 .0298995
674.013 .0298837
674.759 .0298681
675.505 .0298521
676.250 .0298353
676.995 .0298175
677.740 .0297996
678.484 .0297813
679.229 .0297640
679.973 .0297475
680.717 .0297322
681.460 .0297180
682.204 .0297043
682.947 .0296911
683.690 .0296782
684.433 .0296649
685.175 .0296508
685.917 .0296357
686.659 .0296203
687.401 .0296045
688.142 .0295890
688.884 .0295737
689.625 .0295586
690.365 .0295438
691.106 .0295288
691.846 .0295138
692.586 .0294992
693.326 .0294842
694.066 .0294692
694.805 .0294541
695.545 .0294390
696.284 .0294236
697.022 .0294086
697.761 .0293941
698.499 .0293795
699.237 .0293655
699.975 .0293513
700.713 .0293363
701.450 .0293213
702.187 .0293055
702.924 .0292891
703.661 .0292726
704.397 .0292559
705.133 .0292393
705.869 .0292234
706.605 .0292084
707.341 .0291942
708.076 .0291804
708.811 .0291674
709.546 .0291539
710.281 .0291398
711.015 .0291255
711.749 .0291102
712.483 .0290946
713.217 .0290789
713.950 .0290628
714.684 .0290467
715.417 .0290304
716.150 .0290142
716.882 .0289973
717.615 .0289798
718.347 .0289619
719.079 .0289432
719.811 .0289237
720.542 .0289045
721.273 .0288850
722.005 .0288662
722.735 .0288477
723.466 .0288300
724.196 .0288126
724.927 .0287949
725.656 .0287768
726.386 .0287580
727.116 .0287386
727.845 .0287189
728.574 .0286980
729.303 .0286774
730.031 .0286569
730.760 .0286366
731.488 .0286162
732.216 .0285965
732.944 .0285769
733.671 .0285575
734.398 .0285380
735.125 .0285188
735.852 .0285000
736.579 .0284818
737.305 .0284644
738.031 .0284478
738.757 .0284323
739.483 .0284176
740.208 .0284031
740.933 .0283895
741.658 .0283763
742.383 .0283631
743.108 .0283497
743.832 .0283361
744.556 .0283221
745.280 .0283073
746.004 .0282917
746.727 .0282751
747.450 .0282579
748.173 .0282399
748.896 .0282208
749.618 .0282009
750.340 .0281805
751.062 .0281596
751.784 .0281382
752.506 .0281165
753.227 .0280942
753.948 .0280717
754.669 .0280491
755.389 .0280262
756.110 .0280036
756.830 .0279812
757.550 .0279589
758.269 .0279372
758.989 .0279159
759.708 .0278950
760.427 .0278745
761.146 .0278544
761.864 .0278342
762.582 .0278136
763.300 .0277927
764.018 .0277720
764.736 .0277512
765.453 .0277312
766.170 .0277113
766.887 .0276922
767.603 .0276739
768.320 .0276562
769.036 .0276391
769.751 .0276225
770.467 .0276067
771.182 .0275910
771.897 .0275752
772.612 .0275600
773.327 .0275456
774.041 .0275325
774.755 .0275204
775.469 .0275096
776.183 .0274999
776.896 .0274913
777.609 .0274834
778.322 .0274758
779.035 .0274684
779.747 .0274612
780.459 .0274541
781.171 .0274469
781.882 .0274400
782.594 .0274331
783.305 .0274268
784.016 .0274209
784.726 .0274153
785.436 .0274098
786.147 .0274046
786.856 .0274002
787.566 .0273966
788.275 .0273934
788.984 .0273908
789.693 .0273887
790.401 .0273865
791.110 .0273834
791.818 .0273793
792.525 .0273746
793.233 .0273690
793.940 .0273628
794.647 .0273560
795.353 .0273489
796.060 .0273420
796.766 .0273348
797.472 .0273273
798.177 .0273196
798.883 .0273112
799.588 .0273024
800.292 .0272931
800.997 .0272838
801.701 .0272742
802.405 .0272652
803.109 .0272569
803.812 .0272495
804.515 .0272429
805.218 .0272367
805.921 .0272309
806.623 .0272253
807.325 .0272195
808.027 .0272133
808.728 .0272067
809.429 .0271999
810.130 .0271924
810.831 .0271848
811.531 .0271767
812.231 .0271687
812.931 .0271606
813.630 .0271527
814.330 .0271450
815.029 .0271374
815.727 .0271298
816.426 .0271218
817.124 .0271136
817.821 .0271048
818.519 .0270957
819.216 .0270865
819.913 .0270769
820.609 .0270677
821.306 .0270590
822.002 .0270514
822.697 .0270450
823.393 .0270401
824.088 .0270364
824.783 .0270339
825.477 .0270326
826.171 .0270318
826.865 .0270318
827.559 .0270328
828.252 .0270344
828.945 .0270370
829.638 .0270403
830.330 .0270444
831.023 .0270496
831.714 .0270556
832.406 .0270618
833.097 .0270679
833.788 .0270733
834.479 .0270773
835.169 .0270801
835.859 .0270821
836.548 .0270825
837.238 .0270820
837.927 .0270809
838.615 .0270792
839.304 .0270774
839.992 .0270756
840.680 .0270738
841.367 .0270717
842.054 .0270692
842.741 .0270656
843.428 .0270614
844.114 .0270571
844.800 .0270523
845.485 .0270471
846.170 .0270418
846.855 .0270362
847.540 .0270301
848.224 .0270233
848.908 .0270156
849.592 .0270064
850.275 .0269957
850.958 .0269826
851.641 .0269676
852.323 .0269507
853.005 .0269322
853.687 .0269126
854.368 .0268920
855.049 .0268706
855.730 .0268483
856.410 .0268252
857.090 .0268015
857.769 .0267768
858.449 .0267508
859.128 .0267233
859.806 .0266948
860.485 .0266655
861.163 .0266355
861.840 .0266056
862.518 .0265765
863.195 .0265486
863.871 .0265217
864.548 .0264956
865.224 .0264707
865.899 .0264469
866.574 .0264239
867.249 .0264013
867.924 .0263791
868.598 .0263578
869.272 .0263372
869.946 .0263176
870.619 .0262992
871.292 .0262823
871.964 .0262662
872.636 .0262506
873.308 .0262351
873.979 .0262194
874.651 .0262031
875.321 .0261859
875.992 .0261683
876.662 .0261504
877.331 .0261318
878.001 .0261129
878.670 .0260944
879.338 .0260761
880.007 .0260578
880.675 .0260402
881.342 .0260228
882.009 .0260057
882.676 .0259891
883.343 .0259727
884.009 .0259572
884.675 .0259427
885.340 .0259288
886.005 .0259154
886.670 .0259031
887.334 .0258918
887.998 .0258806
888.662 .0258704
889.325 .0258604
889.988 .0258501
890.650 .0258399
891.312 .0258292
891.974 .0258179
892.636 .0258065
893.297 .0257947
893.957 .0257824
894.618 .0257696
895.278 .0257567
895.937 .0257428
896.596 .0257287
897.255 .0257140
897.914 .0256983
898.572 .0256820
899.230 .0256661
899.887 .0256499
900.544 .0256344
901.201 .0256194
901.857 .0256049
902.513 .0255903
903.168 .0255757
903.823 .0255602
904.478 .0255438
905.132 .0255262
905.786 .0255072
906.440 .0254868
907.093 .0254661
907.746 .0254447
908.399 .0254232
909.051 .0254017
909.703 .0253799
910.354 .0253572
911.005 .0253341
911.656 .0253103
912.306 .0252860
912.956 .0252609
913.605 .0252358
914.254 .0252110
914.903 .0251872
915.551 .0251644
916.199 .0251434
916.847 .0251245
917.494 .0251077
918.141 .0250924
918.788 .0250786
919.434 .0250662
920.079 .0250550
920.725 .0250442
921.370 .0250338
922.014 .0250234
922.658 .0250129
923.302 .0250017
923.946 .0249900
924.589 .0249773
925.231 .0249633
925.873 .0249479
926.515 .0249315
927.157 .0249139
927.798 .0248953
928.439 .0248757
929.079 .0248559
929.719 .0248355
930.359 .0248146
930.998 .0247936
931.637 .0247728
932.275 .0247527
932.913 .0247336
933.551 .0247152
934.188 .0246983
934.825 .0246834
935.462 .0246706
936.098 .0246601
936.733 .0246519
937.369 .0246458
938.004 .0246416
938.638 .0246392
939.273 .0246377
939.907 .0246369
940.540 .0246370
941.173 .0246375
941.806 .0246381
942.438 .0246391
943.070 .0246403
943.702 .0246417
944.333 .0246438
944.964 .0246459
945.594 .0246484
946.224 .0246509
946.854 .0246535
947.483 .0246561
948.112 .0246590
948.741 .0246622
949.369 .0246656
949.996 .0246694
950.624 .0246735
951.251 .0246778
951.878 .0246826
952.504 .0246877
953.130 .0246933
953.755 .0246984
954.380 .0247031
955.005 .0247071
955.629 .0247106
956.253 .0247132
956.877 .0247162
957.500 .0247191
958.123 .0247218
958.746 .0247243
959.368 .0247264
959.990 .0247278
960.611 .0247288
961.232 .0247290
961.853 .0247284
962.473 .0247279
963.093 .0247278
963.712 .0247280
964.331 .0247294
964.950 .0247322
965.569 .0247361
966.187 .0247410
966.804 .0247468
967.422 .0247529
968.039 .0247590
968.655 .0247658
969.272 .0247726
969.887 .0247792
970.503 .0247860
971.118 .0247929
971.733 .0248001
972.347 .0248076
972.961 .0248149
973.575 .0248221
974.188 .0248289
974.801 .0248351
975.414 .0248401
976.026 .0248442
976.638 .0248478
977.250 .0248510
977.861 .0248538
978.472 .0248567
979.083 .0248596
979.693 .0248626
980.303 .0248650
980.912 .0248670
981.521 .0248684
982.130 .0248689
982.738 .0248688
983.346 .0248682
983.954 .0248674
984.562 .0248669
985.169 .0248665
985.775 .0248661
986.382 .0248662
986.988 .0248665
987.594 .0248665
988.199 .0248663
988.804 .0248658
989.409 .0248650
990.013 .0248641
990.617 .0248633
991.221 .0248626
991.824 .0248623
992.427 .0248634
993.030 .0248655
993.632 .0248686
994.234 .0248731
994.836 .0248790
995.438 .0248857
996.039 .0248935
996.640 .0249014
997.240 .0249095
997.840 .0249179
998.440 .0249261
999.040 .0249339
999.639 .0249413
1000.238 .0249482
1000.836 .0249546
1001.435 .0249608
1002.033 .0249670
1002.630 .0249728
1003.228 .0249786
1003.825 .0249846
1004.422 .0249905
1005.018 .0249965
1005.614 .0250024
1006.210 .0250078
1006.806 .0250126
1007.401 .0250165
1007.996 .0250190
1008.591 .0250205
1009.186 .0250216
1009.780 .0250224
1010.374 .0250232
1010.967 .0250245
1011.561 .0250264
1012.154 .0250291
1012.746 .0250324
1013.339 .0250358
1013.931 .0250387
1014.523 .0250407
1015.115 .0250411
1015.706 .0250405
1016.298 .0250389
1016.888 .0250373
1017.479 .0250359
1018.069 .0250356
1018.660 .0250368
1019.250 .0250398
1019.839 .0250443
1020.429 .0250498
1021.018 .0250559
1021.607 .0250619
1022.195 .0250673
1022.784 .0250714
1023.372 .0250741
1023.960 .0250764
1024.547 .0250783
1025.135 .0250799
1025.722 .0250817
1026.309 .0250849
1026.896 .0250889
1027.483 .0250939
1028.069 .0250996
1028.655 .0251055
1029.241 .0251117
1029.827 .0251179
1030.412 .0251226
1030.997 .0251268
1031.582 .0251303
1032.167 .0251324
1032.752 .0251333
1033.336 .0251341
1033.921 .0251343
1034.505 .0251335
1035.089 .0251324
1035.672 .0251304
1036.256 .0251266
1036.839 .0251221
1037.422 .0251157
1038.005 .0251082
1038.588 .0250995
1039.171 .0250894
1039.753 .0250784
1040.335 .0250677
1040.918 .0250572
1041.500 .0250468
1042.081 .0250369
1042.663 .0250278
1043.244 .0250190
1043.826 .0250099
1044.407 .0250006
1044.988 .0249915
1045.569 .0249822
1046.150 .0249728
1046.730 .0249631
1047.311 .0249540
1047.891 .0249450
1048.471 .0249363
1049.052 .0249271
1049.632 .0249169
1050.211 .0249068
1050.791 .0248958
1051.371 .0248846
1051.950 .0248741
1052.530 .0248634
1053.109 .0248532
1053.688 .0248439
1054.268 .0248346
1054.847 .0248250
1055.426 .0248153
1056.005 .0248051
1056.583 .0247931
1057.162 .0247799
1057.741 .0247654
1058.319 .0247499
1058.898 .0247353
1059.476 .0247205
1060.055 .0247057
1060.633 .0246918
1061.211 .0246785
1061.790 .0246649
1062.368 .0246532
1062.946 .0246420
1063.524 .0246318
1064.102 .0246231
1064.680 .0246160
1065.258 .0246105
1065.836 .0246070
1066.414 .0246045
1066.992 .0246022
1067.570 .0245991
1068.148 .0245942
1068.726 .0245853
1069.304 .0245756
1069.882 .0245642
1070.460 .0245514
1071.038 .0245378
1071.616 .0245238
1072.194 .0245084
1072.772 .0244928
1073.350 .0244756
1073.928 .0244568
1074.506 .0244368
1075.084 .0244151
1075.662 .0243914
1076.240 .0243678
1076.819 .0243452
1077.397 .0243247
1077.976 .0243068
1078.554 .0242921
1079.133 .0242775
1079.711 .0242642
1080.290 .0242509
1080.869 .0242369
1081.448 .0242222
1082.027 .0242075
1082.606 .0241932
1083.185 .0241811
1083.764 .0241725
1084.343 .0241673
1084.923 .0241660
1085.502 .0241685
1086.082 .0241730
1086.662 .0241792
1087.242 .0241853
1087.822 .0241917
1088.402 .0241983
1088.983 .0242064
1089.563 .0242160
1090.144 .0242271
1090.725 .0242413
1091.306 .0242562
1091.887 .0242708
1092.469 .0242830
1093.050 .0242933
1093.632 .0242992
1094.214 .0243013
1094.796 .0243001
1095.379 .0242988
1095.961 .0242990
1096.544 .0243014
1097.127 .0243072
1097.710 .0243175
1098.294 .0243305
1098.877 .0243461
1099.461 .0243600
1100.046 .0243752
1100.630 .0243870
1101.215 .0243993
1101.800 .0244119
1102.385 .0244290
1102.970 .0244492
1103.556 .0244742
1104.142 .0245036
1104.728 .0245356
1105.315 .0245667
1105.902 .0245957
1106.489 .0246189
1107.077 .0246389
1107.664 .0246518
1108.253 .0246608
1108.841 .0246662
1109.430 .0246733
1110.019 .0246767
1110.609 .0246803
1111.198 .0246819
1111.789 .0246809
1112.379 .0246771
1112.970 .0246703
1113.561 .0246604
1114.153 .0246504
1114.745 .0246418
1115.338 .0246363
1115.931 .0246317
1116.524 .0246355
1117.117 .0246423
1117.712 .0246561
1118.306 .0246767
1118.901 .0247039
1119.496 .0247360
1120.092 .0247758
1120.689 .0248227
1121.285 .0248759
1121.882 .0249337
1122.480 .0249946
1123.078 .0250572
1123.677 .0251239
1124.276 .0251872
1124.875 .0252510
1125.476 .0253118
1126.076 .0253744
1126.677 .0254354
1127.279 .0254959
1127.881 .0255578
1128.484 .0256217
1129.087 .0256856
1129.691 .0257494
1130.295 .0258133
1130.900 .0258791
1131.505 .0259445
1132.111 .0260126
1132.718 .0260845
1133.325 .0261575
1133.933 .0262336
1134.541 .0263137
1135.150 .0263965
1135.760 .0264878
1136.370 .0265861
1136.981 .0266900
1137.592 .0268020
1138.204 .0269189
1138.817 .0270407
1139.431 .0271646
1140.045 .0272989
1140.660 .0274427
1141.275 .0276038
1141.891 .0277692
1142.508 .0278438
1143.126 .0281276
1143.744 .0283859
1144.363 .0287825
1144.983 .0285739
