Measurement Sequence started on: 15-12-46-377
Integration time: 28
Scans to Average: 2 
>>>>>Begin Spectral Data<<<<<
432.689 .0000100
433.621 .0000100
434.552 .0000100
435.482 .0000100
436.410 .0000100
437.337 .0000100
438.262 .0285616
439.187 .0604904
440.110 .1000713
441.031 .1446389
441.952 .1877852
442.871 .2215704
443.789 .2397872
444.705 .2403810
445.621 .2260450
446.535 .2025625
447.447 .1761558
448.359 .1360116
449.269 .1162162
450.178 .1038573
451.086 .0951744
451.993 .0885423
452.898 .0832695
453.803 .0789486
454.706 .0753282
455.608 .0722215
456.508 .0695319
457.408 .0672377
458.306 .0652271
459.204 .0634616
460.100 .0618891
460.995 .0604925
461.888 .0592367
462.781 .0581011
463.673 .0570564
464.563 .0561104
465.452 .0552318
466.340 .0544024
467.228 .0536348
468.114 .0529252
468.999 .0522671
469.882 .0516520
470.765 .0510798
471.647 .0505533
472.528 .0500469
473.407 .0495740
474.286 .0491308
475.163 .0487192
476.040 .0483436
476.915 .0479920
477.790 .0476731
478.663 .0473875
479.535 .0471273
480.407 .0468964
481.277 .0466866
482.147 .0465025
483.015 .0463410
483.883 .0462068
484.749 .0461035
485.615 .0460352
486.479 .0459996
487.343 .0460015
488.206 .0460347
489.067 .0460849
489.928 .0461453
490.788 .0462142
491.647 .0462934
492.505 .0463787
493.362 .0464774
494.218 .0465952
495.073 .0467312
495.928 .0469023
496.781 .0470933
497.634 .0473109
498.486 .0475558
499.337 .0478203
500.187 .0481009
501.036 .0483996
501.884 .0487165
502.731 .0490454
503.578 .0494055
504.424 .0498021
505.268 .0502175
506.113 .0506600
506.956 .0511275
507.798 .0516303
508.640 .0521691
509.480 .0527570
510.320 .0534121
511.160 .0541544
511.998 .0549897
512.836 .0559158
513.672 .0569543
514.508 .0581041
515.344 .0593601
516.178 .0607547
517.012 .0623097
517.845 .0640515
518.677 .0659940
519.508 .0681762
520.339 .0706638
521.169 .0735238
521.998 .0767579
522.826 .0804467
523.654 .0846291
524.481 .0892816
525.307 .0944356
526.133 .1000719
526.958 .1061513
527.782 .1125697
528.605 .1192361
529.428 .1260497
530.250 .1325302
531.072 .1385404
531.892 .1437470
532.712 .1479341
533.532 .1509216
534.350 .1524424
535.168 .1523576
535.986 .1507042
536.802 .1475565
537.618 .1430268
538.434 .1373400
539.249 .1309635
540.063 .1240740
540.876 .1170192
541.689 .1100815
542.501 .1035170
543.313 .0975055
544.124 .0921335
544.934 .0873094
545.744 .0829923
546.553 .0791136
547.361 .0756387
548.169 .0725583
548.976 .0698029
549.783 .0673519
550.589 .0651742
551.395 .0632102
552.200 .0614487
553.004 .0598593
553.808 .0584120
554.611 .0570980
555.414 .0559074
556.216 .0548006
557.018 .0537779
557.819 .0528251
558.619 .0519252
559.419 .0510747
560.218 .0502764
561.017 .0495051
561.815 .0487504
562.613 .0480289
563.410 .0473206
564.207 .0466274
565.003 .0459635
565.799 .0453221
566.594 .0446967
567.388 .0440912
568.182 .0435031
568.976 .0429257
569.769 .0423708
570.562 .0418308
571.354 .0412988
572.145 .0407838
572.936 .0402827
573.727 .0397891
574.517 .0393079
575.307 .0388438
576.096 .0383892
576.885 .0379514
577.673 .0375315
578.461 .0371296
579.248 .0367484
580.035 .0363908
580.821 .0360609
581.607 .0357572
582.392 .0354801
583.177 .0352248
583.962 .0349922
584.746 .0347832
585.529 .0345950
586.313 .0344243
587.095 .0342704
587.878 .0341317
588.660 .0340068
589.441 .0338921
590.222 .0337855
591.003 .0336881
591.783 .0335973
592.563 .0335114
593.342 .0334312
594.121 .0333531
594.899 .0332785
595.678 .0332049
596.455 .0331329
597.233 .0330634
598.009 .0329962
598.786 .0329309
599.562 .0328664
600.338 .0328047
601.113 .0327439
601.888 .0326835
602.663 .0326259
603.437 .0325705
604.211 .0325170
604.984 .0324668
605.757 .0324198
606.530 .0323743
607.302 .0323304
608.074 .0322869
608.845 .0322435
609.616 .0322007
610.387 .0321585
611.158 .0321173
611.928 .0320775
612.697 .0320408
613.467 .0320057
614.236 .0319728
615.004 .0319422
615.773 .0319119
616.541 .0318826
617.308 .0318532
618.076 .0318245
618.843 .0317961
619.609 .0317705
620.375 .0317486
621.141 .0317302
621.907 .0317156
622.672 .0317041
623.437 .0316950
624.202 .0316874
624.966 .0316803
625.730 .0316727
626.493 .0316642
627.257 .0316543
628.020 .0316428
628.782 .0316303
629.545 .0316175
630.307 .0316048
631.068 .0315927
631.830 .0315818
632.591 .0315710
633.352 .0315592
634.112 .0315469
634.872 .0315327
635.632 .0315162
636.392 .0314966
637.151 .0314738
637.910 .0314488
638.668 .0314225
639.427 .0313961
640.185 .0313705
640.943 .0313467
641.700 .0313247
642.457 .0313024
643.214 .0312794
643.971 .0312538
644.727 .0312258
645.483 .0311953
646.239 .0311631
646.994 .0311298
647.750 .0310969
648.505 .0310657
649.259 .0310369
650.014 .0310106
650.768 .0309861
651.521 .0309622
652.275 .0309385
653.028 .0309138
653.781 .0308882
654.534 .0308619
655.286 .0308354
656.039 .0308097
656.791 .0307850
657.542 .0307609
658.294 .0307378
659.045 .0307154
659.796 .0306930
660.546 .0306699
661.297 .0306452
662.047 .0306186
662.796 .0305899
663.546 .0305601
664.295 .0305296
665.044 .0304989
665.793 .0304689
666.542 .0304397
667.290 .0304111
668.038 .0303832
668.786 .0303553
669.533 .0303274
670.281 .0302985
671.028 .0302688
671.774 .0302379
672.521 .0302071
673.267 .0301773
674.013 .0301489
674.759 .0301225
675.505 .0300980
676.250 .0300749
676.995 .0300529
677.740 .0300319
678.484 .0300110
679.229 .0299898
679.973 .0299685
680.717 .0299471
681.460 .0299255
682.204 .0299048
682.947 .0298849
683.690 .0298661
684.433 .0298480
685.175 .0298296
685.917 .0298105
686.659 .0297912
687.401 .0297711
688.142 .0297507
688.884 .0297300
689.625 .0297095
690.365 .0296884
691.106 .0296671
691.846 .0296461
692.586 .0296256
693.326 .0296056
694.066 .0295865
694.805 .0295675
695.545 .0295496
696.284 .0295317
697.022 .0295143
697.761 .0294971
698.499 .0294801
699.237 .0294627
699.975 .0294450
700.713 .0294272
701.450 .0294100
702.187 .0293928
702.924 .0293766
703.661 .0293609
704.397 .0293459
705.133 .0293312
705.869 .0293163
706.605 .0293015
707.341 .0292865
708.076 .0292711
708.811 .0292557
709.546 .0292403
710.281 .0292253
711.015 .0292108
711.749 .0291964
712.483 .0291826
713.217 .0291687
713.950 .0291546
714.684 .0291395
715.417 .0291240
716.150 .0291081
716.882 .0290918
717.615 .0290758
718.347 .0290610
719.079 .0290470
719.811 .0290343
720.542 .0290233
721.273 .0290132
722.005 .0290035
722.735 .0289941
723.466 .0289844
724.196 .0289741
724.927 .0289633
725.656 .0289517
726.386 .0289392
727.116 .0289271
727.845 .0289149
728.574 .0289025
729.303 .0288903
730.031 .0288782
730.760 .0288657
731.488 .0288524
732.216 .0288389
732.944 .0288244
733.671 .0288094
734.398 .0287939
735.125 .0287779
735.852 .0287618
736.579 .0287462
737.305 .0287311
738.031 .0287172
738.757 .0287042
739.483 .0286920
740.208 .0286800
740.933 .0286683
741.658 .0286561
742.383 .0286426
743.108 .0286277
743.832 .0286117
744.556 .0285945
745.280 .0285763
746.004 .0285575
746.727 .0285391
747.450 .0285216
748.173 .0285044
748.896 .0284879
749.618 .0284721
750.340 .0284565
751.062 .0284411
751.784 .0284254
752.506 .0284096
753.227 .0283939
753.948 .0283778
754.669 .0283614
755.389 .0283442
756.110 .0283266
756.830 .0283081
757.550 .0282893
758.269 .0282700
758.989 .0282501
759.708 .0282298
760.427 .0282098
761.146 .0281894
761.864 .0281690
762.582 .0281481
763.300 .0281266
764.018 .0281045
764.736 .0280815
765.453 .0280576
766.170 .0280337
766.887 .0280102
767.603 .0279878
768.320 .0279662
769.036 .0279463
769.751 .0279277
770.467 .0279103
771.182 .0278937
771.897 .0278774
772.612 .0278609
773.327 .0278446
774.041 .0278280
774.755 .0278115
775.469 .0277957
776.183 .0277808
776.896 .0277674
777.609 .0277551
778.322 .0277438
779.035 .0277333
779.747 .0277232
780.459 .0277134
781.171 .0277030
781.882 .0276921
782.594 .0276811
783.305 .0276702
784.016 .0276596
784.726 .0276495
785.436 .0276404
786.147 .0276320
786.856 .0276243
787.566 .0276168
788.275 .0276096
788.984 .0276025
789.693 .0275956
790.401 .0275881
791.110 .0275807
791.818 .0275733
792.525 .0275659
793.233 .0275586
793.940 .0275514
794.647 .0275441
795.353 .0275367
796.060 .0275290
796.766 .0275210
797.472 .0275124
798.177 .0275034
798.883 .0274939
799.588 .0274836
800.292 .0274726
800.997 .0274612
801.701 .0274497
802.405 .0274387
803.109 .0274282
803.812 .0274185
804.515 .0274099
805.218 .0274020
805.921 .0273944
806.623 .0273868
807.325 .0273790
808.027 .0273710
808.728 .0273620
809.429 .0273519
810.130 .0273410
810.831 .0273293
811.531 .0273172
812.231 .0273048
812.931 .0272924
813.630 .0272801
814.330 .0272680
815.029 .0272561
815.727 .0272443
816.426 .0272327
817.124 .0272219
817.821 .0272111
818.519 .0272012
819.216 .0271914
819.913 .0271823
820.609 .0271742
821.306 .0271671
822.002 .0271615
822.697 .0271579
823.393 .0271566
824.088 .0271579
824.783 .0271606
825.477 .0271649
826.171 .0271702
826.865 .0271758
827.559 .0271811
828.252 .0271862
828.945 .0271908
829.638 .0271957
830.330 .0272009
831.023 .0272068
831.714 .0272139
832.406 .0272221
833.097 .0272306
833.788 .0272383
834.479 .0272451
835.169 .0272502
835.859 .0272539
836.548 .0272561
837.238 .0272570
837.927 .0272566
838.615 .0272557
839.304 .0272546
839.992 .0272533
840.680 .0272516
841.367 .0272497
842.054 .0272475
842.741 .0272448
843.428 .0272414
844.114 .0272380
844.800 .0272350
845.485 .0272328
846.170 .0272308
846.855 .0272295
847.540 .0272281
848.224 .0272271
848.908 .0272256
849.592 .0272237
850.275 .0272211
850.958 .0272179
851.641 .0272135
852.323 .0272080
853.005 .0272011
853.687 .0271923
854.368 .0271816
855.049 .0271692
855.730 .0271545
856.410 .0271379
857.090 .0271195
857.769 .0270998
858.449 .0270790
859.128 .0270573
859.806 .0270344
860.485 .0270110
861.163 .0269869
861.840 .0269625
862.518 .0269374
863.195 .0269123
863.871 .0268869
864.548 .0268615
865.224 .0268368
865.899 .0268125
866.574 .0267884
867.249 .0267655
867.924 .0267432
868.598 .0267216
869.272 .0267005
869.946 .0266801
870.619 .0266598
871.292 .0266402
871.964 .0266206
872.636 .0266013
873.308 .0265824
873.979 .0265647
874.651 .0265477
875.321 .0265319
875.992 .0265173
876.662 .0265036
877.331 .0264910
878.001 .0264791
878.670 .0264669
879.338 .0264552
880.007 .0264435
880.675 .0264320
881.342 .0264206
882.009 .0264096
882.676 .0263983
883.343 .0263870
884.009 .0263753
884.675 .0263626
885.340 .0263491
886.005 .0263348
886.670 .0263202
887.334 .0263054
887.998 .0262903
888.662 .0262752
889.325 .0262604
889.988 .0262459
890.650 .0262312
891.312 .0262168
891.974 .0262025
892.636 .0261887
893.297 .0261756
893.957 .0261639
894.618 .0261536
895.278 .0261450
895.937 .0261377
896.596 .0261307
897.255 .0261238
897.914 .0261161
898.572 .0261073
899.230 .0260978
899.887 .0260873
900.544 .0260759
901.201 .0260642
901.857 .0260528
902.513 .0260413
903.168 .0260295
903.823 .0260171
904.478 .0260033
905.132 .0259875
905.786 .0259691
906.440 .0259482
907.093 .0259255
907.746 .0259013
908.399 .0258765
909.051 .0258516
909.703 .0258274
910.354 .0258039
911.005 .0257814
911.656 .0257595
912.306 .0257381
912.956 .0257160
913.605 .0256929
914.254 .0256692
914.903 .0256449
915.551 .0256206
916.199 .0255973
916.847 .0255754
917.494 .0255553
918.141 .0255371
918.788 .0255208
919.434 .0255057
920.079 .0254917
920.725 .0254780
921.370 .0254642
922.014 .0254502
922.658 .0254363
923.302 .0254222
923.946 .0254081
924.589 .0253939
925.231 .0253796
925.873 .0253650
926.515 .0253502
927.157 .0253349
927.798 .0253198
928.439 .0253044
929.079 .0252892
929.719 .0252743
930.359 .0252600
930.998 .0252460
931.637 .0252324
932.275 .0252188
932.913 .0252050
933.551 .0251910
934.188 .0251772
934.825 .0251635
935.462 .0251513
936.098 .0251402
936.733 .0251310
937.369 .0251240
938.004 .0251186
938.638 .0251145
939.273 .0251115
939.907 .0251090
940.540 .0251065
941.173 .0251040
941.806 .0251022
942.438 .0251008
943.070 .0251007
943.702 .0251017
944.333 .0251038
944.964 .0251068
945.594 .0251110
946.224 .0251155
946.854 .0251210
947.483 .0251270
948.112 .0251331
948.741 .0251396
949.369 .0251464
949.996 .0251536
950.624 .0251607
951.251 .0251678
951.878 .0251749
952.504 .0251811
953.130 .0251869
953.755 .0251921
954.380 .0251967
955.005 .0252011
955.629 .0252053
956.253 .0252092
956.877 .0252128
957.500 .0252161
958.123 .0252191
958.746 .0252210
959.368 .0252224
959.990 .0252234
960.611 .0252238
961.232 .0252246
961.853 .0252262
962.473 .0252286
963.093 .0252321
963.712 .0252360
964.331 .0252400
964.950 .0252441
965.569 .0252481
966.187 .0252517
966.804 .0252549
967.422 .0252590
968.039 .0252633
968.655 .0252678
969.272 .0252734
969.887 .0252795
970.503 .0252852
971.118 .0252907
971.733 .0252955
972.347 .0252989
972.961 .0253011
973.575 .0253026
974.188 .0253026
974.801 .0253021
975.414 .0253012
976.026 .0252996
976.638 .0252978
977.250 .0252962
977.861 .0252936
978.472 .0252908
979.083 .0252880
979.693 .0252840
980.303 .0252789
980.912 .0252735
981.521 .0252673
982.130 .0252606
982.738 .0252541
983.346 .0252479
983.954 .0252416
984.562 .0252363
985.169 .0252311
985.775 .0252257
986.382 .0252202
986.988 .0252143
987.594 .0252074
988.199 .0251999
988.804 .0251917
989.409 .0251830
990.013 .0251749
990.617 .0251676
991.221 .0251607
991.824 .0251544
992.427 .0251485
993.030 .0251429
993.632 .0251375
994.234 .0251326
994.836 .0251284
995.438 .0251247
996.039 .0251221
996.640 .0251203
997.240 .0251193
997.840 .0251195
998.440 .0251204
999.040 .0251217
999.639 .0251230
1000.238 .0251240
1000.836 .0251245
1001.435 .0251249
1002.033 .0251255
1002.630 .0251263
1003.228 .0251276
1003.825 .0251295
1004.422 .0251318
1005.018 .0251348
1005.614 .0251384
1006.210 .0251418
1006.806 .0251447
1007.401 .0251471
1007.996 .0251477
1008.591 .0251472
1009.186 .0251457
1009.780 .0251432
1010.374 .0251405
1010.967 .0251379
1011.561 .0251352
1012.154 .0251328
1012.746 .0251305
1013.339 .0251277
1013.931 .0251239
1014.523 .0251187
1015.115 .0251117
1015.706 .0251032
1016.298 .0250942
1016.888 .0250846
1017.479 .0250758
1018.069 .0250683
1018.660 .0250614
1019.250 .0250554
1019.839 .0250501
1020.429 .0250439
1021.018 .0250370
1021.607 .0250289
1022.195 .0250197
1022.784 .0250096
1023.372 .0249999
1023.960 .0249909
1024.547 .0249842
1025.135 .0249795
1025.722 .0249771
1026.309 .0249763
1026.896 .0249782
1027.483 .0249806
1028.069 .0249836
1028.655 .0249870
1029.241 .0249904
1029.827 .0249931
1030.412 .0249957
1030.997 .0249977
1031.582 .0249999
1032.167 .0250018
1032.752 .0250035
1033.336 .0250041
1033.921 .0250043
1034.505 .0250030
1035.089 .0250003
1035.672 .0249957
1036.256 .0249897
1036.839 .0249809
1037.422 .0249702
1038.005 .0249575
1038.588 .0249433
1039.171 .0249282
1039.753 .0249132
1040.335 .0248984
1040.918 .0248847
1041.500 .0248714
1042.081 .0248588
1042.663 .0248469
1043.244 .0248366
1043.826 .0248266
1044.407 .0248169
1044.988 .0248072
1045.569 .0247971
1046.150 .0247863
1046.730 .0247755
1047.311 .0247642
1047.891 .0247537
1048.471 .0247444
1049.052 .0247355
1049.632 .0247268
1050.211 .0247191
1050.791 .0247113
1051.371 .0247034
1051.950 .0246949
1052.530 .0246847
1053.109 .0246726
1053.688 .0246590
1054.268 .0246437
1054.847 .0246274
1055.426 .0246108
1056.005 .0245951
1056.583 .0245802
1057.162 .0245670
1057.741 .0245554
1058.319 .0245451
1058.898 .0245365
1059.476 .0245291
1060.055 .0245223
1060.633 .0245159
1061.211 .0245097
1061.790 .0245041
1062.368 .0244987
1062.946 .0244943
1063.524 .0244905
1064.102 .0244869
1064.680 .0244839
1065.258 .0244803
1065.836 .0244750
1066.414 .0244684
1066.992 .0244605
1067.570 .0244497
1068.148 .0244367
1068.726 .0244235
1069.304 .0244104
1069.882 .0243978
1070.460 .0243865
1071.038 .0243756
1071.616 .0243656
1072.194 .0243567
1072.772 .0243467
1073.350 .0243362
1073.928 .0243267
1074.506 .0243173
1075.084 .0243085
1075.662 .0243018
1076.240 .0242993
1076.819 .0242993
1077.397 .0243028
1077.976 .0243086
1078.554 .0243156
1079.133 .0243234
1079.711 .0243318
1080.290 .0243397
1080.869 .0243483
1081.448 .0243573
1082.027 .0243655
1082.606 .0243743
1083.185 .0243846
1083.764 .0243946
1084.343 .0244044
1084.923 .0244149
1085.502 .0244251
1086.082 .0244320
1086.662 .0244384
1087.242 .0244434
1087.822 .0244470
1088.402 .0244507
1088.983 .0244530
1089.563 .0244543
1090.144 .0244557
1090.725 .0244574
1091.306 .0244581
1091.887 .0244604
1092.469 .0244655
1093.050 .0244726
1093.632 .0244836
1094.214 .0244991
1094.796 .0245177
1095.379 .0245399
1095.961 .0245648
1096.544 .0245903
1097.127 .0246150
1097.710 .0246408
1098.294 .0246645
1098.877 .0246890
1099.461 .0247147
1100.046 .0247426
1100.630 .0247722
1101.215 .0248040
1101.800 .0248367
1102.385 .0248683
1102.970 .0248979
1103.556 .0249234
1104.142 .0249457
1104.728 .0249669
1105.315 .0249850
1105.902 .0250019
1106.489 .0250200
1107.077 .0250410
1107.664 .0250632
1108.253 .0250864
1108.841 .0251102
1109.430 .0251326
1110.019 .0251528
1110.609 .0251712
1111.198 .0251912
1111.789 .0252147
1112.379 .0252418
1112.970 .0252716
1113.561 .0253067
1114.153 .0253451
1114.745 .0253843
1115.338 .0254237
1115.931 .0254625
1116.524 .0254982
1117.117 .0255330
1117.712 .0255686
1118.306 .0256107
1118.901 .0256624
1119.496 .0257235
1120.092 .0257935
1120.689 .0258708
1121.285 .0259499
1121.882 .0260254
1122.480 .0260977
1123.078 .0261665
1123.677 .0262276
1124.276 .0262857
1124.875 .0263438
1125.476 .0264062
1126.076 .0264767
1126.677 .0265551
1127.279 .0266363
1127.881 .0267184
1128.484 .0267943
1129.087 .0268535
1129.691 .0269019
1130.295 .0269405
1130.900 .0269766
1131.505 .0270136
1132.111 .0270618
1132.718 .0271243
1133.325 .0272017
1133.933 .0272969
1134.541 .0274001
1135.150 .0275058
1135.760 .0276106
1136.370 .0277080
1136.981 .0278050
1137.592 .0279020
1138.204 .0280108
1138.817 .0281319
1139.431 .0282619
1140.045 .0284031
1140.660 .0285531
1141.275 .0287160
1141.891 .0289040
1142.508 .0289320
1143.126 .0290887
1143.744 .0293294
1144.363 .0297207
1144.983 .0303890
