Measurement Sequence started on: 15-12-46-377
Integration time: 28
Scans to Average: 2 
>>>>>Begin Spectral Data<<<<<
432.689 .0000100
433.621 .0000100
434.552 .0000100
435.482 .0000100
436.410 .0000100
437.337 .0000100
438.262 .0246477
439.187 .0523141
440.110 .0866703
441.031 .1254328
441.952 .1630263
442.871 .1926220
443.789 .2088006
444.705 .2097276
445.621 .1976817
446.535 .1776135
447.447 .1549113
448.359 .1202448
449.269 .1030270
450.178 .0922074
451.086 .0845569
451.993 .0787091
452.898 .0740195
453.803 .0701461
454.706 .0668696
455.608 .0640210
456.508 .0615224
457.408 .0593419
458.306 .0574097
459.204 .0556817
460.100 .0541541
460.995 .0528050
461.888 .0516035
462.781 .0505230
463.673 .0495557
464.563 .0486858
465.452 .0478850
466.340 .0471462
467.228 .0464610
468.114 .0458286
468.999 .0452429
469.882 .0446991
470.765 .0442064
471.647 .0437569
472.528 .0433447
473.407 .0429776
474.286 .0426565
475.163 .0423791
476.040 .0421287
476.915 .0419097
477.790 .0417165
478.663 .0415440
479.535 .0413902
480.407 .0412565
481.277 .0411434
482.147 .0410516
483.015 .0409754
483.883 .0409192
484.749 .0408679
485.615 .0408283
486.479 .0407979
487.343 .0407762
488.206 .0407645
489.067 .0407661
489.928 .0407779
490.788 .0408101
491.647 .0408592
492.505 .0409275
493.362 .0410082
494.218 .0411020
495.073 .0412037
495.928 .0413158
496.781 .0414321
497.634 .0415659
498.486 .0417206
499.337 .0419169
500.187 .0421485
501.036 .0424234
501.884 .0427349
502.731 .0430780
503.578 .0434468
504.424 .0438229
505.268 .0442002
506.113 .0445890
506.956 .0449817
507.798 .0454004
508.640 .0458593
509.480 .0463897
510.320 .0469956
511.160 .0477084
511.998 .0485207
512.836 .0494137
513.672 .0504007
514.508 .0514702
515.344 .0526025
516.178 .0538443
517.012 .0551925
517.845 .0566738
518.677 .0583377
519.508 .0602391
520.339 .0623859
521.169 .0648634
521.998 .0676965
522.826 .0709248
523.654 .0745400
524.481 .0785969
525.307 .0830786
526.133 .0879775
526.958 .0933343
527.782 .0990285
528.605 .1049422
529.428 .1110213
530.250 .1167641
531.072 .1220256
531.892 .1264562
532.712 .1298301
533.532 .1319166
534.350 .1325926
535.168 .1318157
535.986 .1295889
536.802 .1260740
537.618 .1215155
538.434 .1160719
539.249 .1101894
540.063 .1039968
540.876 .0978058
541.689 .0918488
542.501 .0863194
543.313 .0813181
544.124 .0769105
544.934 .0730484
545.744 .0696853
546.553 .0667126
547.361 .0640915
548.169 .0617995
548.976 .0597537
549.783 .0579226
550.589 .0562643
551.395 .0547325
552.200 .0533290
553.004 .0520333
553.808 .0508324
554.611 .0497219
555.414 .0486888
556.216 .0477401
557.018 .0468527
557.819 .0460407
558.619 .0452846
559.419 .0445809
560.218 .0439278
561.017 .0433164
561.815 .0427271
562.613 .0421642
563.410 .0416113
564.207 .0410669
565.003 .0405301
565.799 .0399990
566.594 .0394655
567.388 .0389494
568.182 .0384426
568.976 .0379453
569.769 .0374584
570.562 .0369892
571.354 .0365300
572.145 .0360876
572.936 .0356634
573.727 .0352556
574.517 .0348689
575.307 .0345017
576.096 .0341489
576.885 .0338171
577.673 .0335050
578.461 .0332132
579.248 .0329426
580.035 .0326949
580.821 .0324641
581.607 .0322492
582.392 .0320526
583.177 .0318667
583.962 .0316928
584.746 .0315283
585.529 .0313699
586.313 .0312189
587.095 .0310758
587.878 .0309410
588.660 .0308178
589.441 .0307063
590.222 .0306050
591.003 .0305160
591.783 .0304366
592.563 .0303637
593.342 .0302963
594.121 .0302335
594.899 .0301740
595.678 .0301177
596.455 .0300644
597.233 .0300129
598.009 .0299648
598.786 .0299196
599.562 .0298757
600.338 .0298339
601.113 .0297936
601.888 .0297537
602.663 .0297159
603.437 .0296807
604.211 .0296456
604.984 .0296122
605.757 .0295807
606.530 .0295493
607.302 .0295185
608.074 .0294890
608.845 .0294613
609.616 .0294368
610.387 .0294165
611.158 .0293996
611.928 .0293867
612.697 .0293780
613.467 .0293715
614.236 .0293661
615.004 .0293621
615.773 .0293581
616.541 .0293536
617.308 .0293499
618.076 .0293477
618.843 .0293468
619.609 .0293487
620.375 .0293519
621.141 .0293556
621.907 .0293588
622.672 .0293604
623.437 .0293587
624.202 .0293544
624.966 .0293479
625.730 .0293389
626.493 .0293279
627.257 .0293166
628.020 .0293040
628.782 .0292907
629.545 .0292762
630.307 .0292592
631.068 .0292394
631.830 .0292172
632.591 .0291912
633.352 .0291625
634.112 .0291318
634.872 .0290988
635.632 .0290640
636.392 .0290286
637.151 .0289928
637.910 .0289572
638.668 .0289220
639.427 .0288881
640.185 .0288549
640.943 .0288234
641.700 .0287927
642.457 .0287627
643.214 .0287344
643.971 .0287062
644.727 .0286783
645.483 .0286509
646.239 .0286240
646.994 .0285981
647.750 .0285730
648.505 .0285497
649.259 .0285281
650.014 .0285080
650.768 .0284891
651.521 .0284716
652.275 .0284549
653.028 .0284387
653.781 .0284225
654.534 .0284061
655.286 .0283898
656.039 .0283737
656.791 .0283583
657.542 .0283431
658.294 .0283294
659.045 .0283176
659.796 .0283063
660.546 .0282968
661.297 .0282879
662.047 .0282795
662.796 .0282711
663.546 .0282622
664.295 .0282527
665.044 .0282428
665.793 .0282335
666.542 .0282244
667.290 .0282166
668.038 .0282106
668.786 .0282063
669.533 .0282033
670.281 .0282017
671.028 .0282005
671.774 .0281994
672.521 .0281988
673.267 .0281981
674.013 .0281978
674.759 .0281979
675.505 .0281980
676.250 .0281984
676.995 .0281985
677.740 .0281981
678.484 .0281964
679.229 .0281936
679.973 .0281895
680.717 .0281839
681.460 .0281772
682.204 .0281697
682.947 .0281616
683.690 .0281533
684.433 .0281449
685.175 .0281363
685.917 .0281275
686.659 .0281181
687.401 .0281077
688.142 .0280963
688.884 .0280839
689.625 .0280704
690.365 .0280560
691.106 .0280410
691.846 .0280250
692.586 .0280075
693.326 .0279890
694.066 .0279691
694.805 .0279477
695.545 .0279245
696.284 .0278993
697.022 .0278724
697.761 .0278442
698.499 .0278145
699.237 .0277844
699.975 .0277543
700.713 .0277248
701.450 .0276958
702.187 .0276680
702.924 .0276412
703.661 .0276156
704.397 .0275912
705.133 .0275680
705.869 .0275456
706.605 .0275240
707.341 .0275028
708.076 .0274826
708.811 .0274629
709.546 .0274438
710.281 .0274244
711.015 .0274054
711.749 .0273856
712.483 .0273652
713.217 .0273441
713.950 .0273225
714.684 .0273004
715.417 .0272781
716.150 .0272557
716.882 .0272338
717.615 .0272120
718.347 .0271912
719.079 .0271708
719.811 .0271515
720.542 .0271325
721.273 .0271147
722.005 .0270973
722.735 .0270809
723.466 .0270648
724.196 .0270493
724.927 .0270339
725.656 .0270189
726.386 .0270042
727.116 .0269898
727.845 .0269760
728.574 .0269627
729.303 .0269497
730.031 .0269380
730.760 .0269265
731.488 .0269157
732.216 .0269060
732.944 .0268971
733.671 .0268893
734.398 .0268827
735.125 .0268773
735.852 .0268736
736.579 .0268712
737.305 .0268700
738.031 .0268699
738.757 .0268710
739.483 .0268727
740.208 .0268749
740.933 .0268771
741.658 .0268794
742.383 .0268813
743.108 .0268832
743.832 .0268844
744.556 .0268853
745.280 .0268859
746.004 .0268859
746.727 .0268851
747.450 .0268843
748.173 .0268826
748.896 .0268812
749.618 .0268796
750.340 .0268779
751.062 .0268760
751.784 .0268737
752.506 .0268711
753.227 .0268682
753.948 .0268645
754.669 .0268600
755.389 .0268544
756.110 .0268483
756.830 .0268415
757.550 .0268343
758.269 .0268267
758.989 .0268190
759.708 .0268103
760.427 .0268008
761.146 .0267896
761.864 .0267768
762.582 .0267620
763.300 .0267451
764.018 .0267264
764.736 .0267059
765.453 .0266841
766.170 .0266623
766.887 .0266405
767.603 .0266193
768.320 .0265979
769.036 .0265764
769.751 .0265546
770.467 .0265320
771.182 .0265090
771.897 .0264853
772.612 .0264617
773.327 .0264384
774.041 .0264160
774.755 .0263949
775.469 .0263752
776.183 .0263565
776.896 .0263386
777.609 .0263209
778.322 .0263025
779.035 .0262832
779.747 .0262628
780.459 .0262418
781.171 .0262204
781.882 .0261986
782.594 .0261772
783.305 .0261559
784.016 .0261356
784.726 .0261151
785.436 .0260944
786.147 .0260734
786.856 .0260519
787.566 .0260297
788.275 .0260069
788.984 .0259840
789.693 .0259612
790.401 .0259384
791.110 .0259161
791.818 .0258942
792.525 .0258730
793.233 .0258526
793.940 .0258326
794.647 .0258129
795.353 .0257934
796.060 .0257739
796.766 .0257543
797.472 .0257344
798.177 .0257144
798.883 .0256937
799.588 .0256728
800.292 .0256522
800.997 .0256316
801.701 .0256113
802.405 .0255918
803.109 .0255731
803.812 .0255557
804.515 .0255392
805.218 .0255238
805.921 .0255099
806.623 .0254975
807.325 .0254864
808.027 .0254766
808.728 .0254683
809.429 .0254614
810.130 .0254554
810.831 .0254506
811.531 .0254468
812.231 .0254438
812.931 .0254417
813.630 .0254401
814.330 .0254384
815.029 .0254366
815.727 .0254344
816.426 .0254316
817.124 .0254281
817.821 .0254235
818.519 .0254183
819.216 .0254127
819.913 .0254074
820.609 .0254027
821.306 .0253991
822.002 .0253974
822.697 .0253978
823.393 .0254008
824.088 .0254062
824.783 .0254141
825.477 .0254246
826.171 .0254375
826.865 .0254526
827.559 .0254696
828.252 .0254881
828.945 .0255076
829.638 .0255280
830.330 .0255486
831.023 .0255690
831.714 .0255890
832.406 .0256082
833.097 .0256263
833.788 .0256422
834.479 .0256559
835.169 .0256670
835.859 .0256758
836.548 .0256823
837.238 .0256863
837.927 .0256885
838.615 .0256887
839.304 .0256876
839.992 .0256850
840.680 .0256812
841.367 .0256764
842.054 .0256705
842.741 .0256637
843.428 .0256560
844.114 .0256478
844.800 .0256394
845.485 .0256313
846.170 .0256235
846.855 .0256158
847.540 .0256078
848.224 .0255997
848.908 .0255915
849.592 .0255827
850.275 .0255734
850.958 .0255633
851.641 .0255527
852.323 .0255414
853.005 .0255291
853.687 .0255153
854.368 .0255005
855.049 .0254839
855.730 .0254655
856.410 .0254448
857.090 .0254228
857.769 .0253992
858.449 .0253744
859.128 .0253486
859.806 .0253221
860.485 .0252949
861.163 .0252671
861.840 .0252385
862.518 .0252091
863.195 .0251789
863.871 .0251478
864.548 .0251158
865.224 .0250837
865.899 .0250513
866.574 .0250195
867.249 .0249883
867.924 .0249586
868.598 .0249298
869.272 .0249021
869.946 .0248754
870.619 .0248492
871.292 .0248232
871.964 .0247967
872.636 .0247699
873.308 .0247434
873.979 .0247168
874.651 .0246908
875.321 .0246654
875.992 .0246412
876.662 .0246178
877.331 .0245946
878.001 .0245717
878.670 .0245489
879.338 .0245258
880.007 .0245024
880.675 .0244792
881.342 .0244563
882.009 .0244339
882.676 .0244121
883.343 .0243909
884.009 .0243705
884.675 .0243501
885.340 .0243302
886.005 .0243102
886.670 .0242907
887.334 .0242719
887.998 .0242540
888.662 .0242374
889.325 .0242219
889.988 .0242077
890.650 .0241945
891.312 .0241818
891.974 .0241696
892.636 .0241575
893.297 .0241461
893.957 .0241351
894.618 .0241250
895.278 .0241154
895.937 .0241071
896.596 .0240997
897.255 .0240930
897.914 .0240865
898.572 .0240800
899.230 .0240735
899.887 .0240672
900.544 .0240609
901.201 .0240548
901.857 .0240489
902.513 .0240435
903.168 .0240376
903.823 .0240317
904.478 .0240253
905.132 .0240182
905.786 .0240102
906.440 .0240018
907.093 .0239928
907.746 .0239837
908.399 .0239751
909.051 .0239675
909.703 .0239609
910.354 .0239554
911.005 .0239511
911.656 .0239479
912.306 .0239458
912.956 .0239447
913.605 .0239439
914.254 .0239438
914.903 .0239443
915.551 .0239453
916.199 .0239471
916.847 .0239498
917.494 .0239532
918.141 .0239570
918.788 .0239613
919.434 .0239658
920.079 .0239700
920.725 .0239744
921.370 .0239789
922.014 .0239834
922.658 .0239876
923.302 .0239917
923.946 .0239957
924.589 .0239993
925.231 .0240027
925.873 .0240053
926.515 .0240075
927.157 .0240093
927.798 .0240109
928.439 .0240126
929.079 .0240149
929.719 .0240177
930.359 .0240210
930.998 .0240255
931.637 .0240306
932.275 .0240360
932.913 .0240418
933.551 .0240475
934.188 .0240527
934.825 .0240572
935.462 .0240612
936.098 .0240646
936.733 .0240682
937.369 .0240718
938.004 .0240757
938.638 .0240800
939.273 .0240847
939.907 .0240893
940.540 .0240939
941.173 .0240983
941.806 .0241019
942.438 .0241045
943.070 .0241064
943.702 .0241072
944.333 .0241071
944.964 .0241062
945.594 .0241053
946.224 .0241045
946.854 .0241042
947.483 .0241045
948.112 .0241054
948.741 .0241068
949.369 .0241084
949.996 .0241100
950.624 .0241111
951.251 .0241115
951.878 .0241109
952.504 .0241093
953.130 .0241071
953.755 .0241044
954.380 .0241014
955.005 .0240986
955.629 .0240964
956.253 .0240941
956.877 .0240917
957.500 .0240889
958.123 .0240848
958.746 .0240795
959.368 .0240724
959.990 .0240635
960.611 .0240529
961.232 .0240411
961.853 .0240283
962.473 .0240145
963.093 .0240004
963.712 .0239852
964.331 .0239687
964.950 .0239511
965.569 .0239320
966.187 .0239112
966.804 .0238894
967.422 .0238667
968.039 .0238435
968.655 .0238204
969.272 .0237973
969.887 .0237745
970.503 .0237518
971.118 .0237293
971.733 .0237066
972.347 .0236836
972.961 .0236608
973.575 .0236375
974.188 .0236140
974.801 .0235904
975.414 .0235663
976.026 .0235420
976.638 .0235176
977.250 .0234931
977.861 .0234682
978.472 .0234428
979.083 .0234174
979.693 .0233909
980.303 .0233637
980.912 .0233356
981.521 .0233070
982.130 .0232774
982.738 .0232479
983.346 .0232184
983.954 .0231893
984.562 .0231608
985.169 .0231324
985.775 .0231038
986.382 .0230753
986.988 .0230457
987.594 .0230152
988.199 .0229838
988.804 .0229529
989.409 .0229215
990.013 .0228906
990.617 .0228606
991.221 .0228310
991.824 .0228019
992.427 .0227741
993.030 .0227470
993.632 .0227211
994.234 .0226968
994.836 .0226743
995.438 .0226531
996.039 .0226335
996.640 .0226153
997.240 .0225983
997.840 .0225827
998.440 .0225684
999.040 .0225549
999.639 .0225428
1000.238 .0225322
1000.836 .0225225
1001.435 .0225136
1002.033 .0225050
1002.630 .0224958
1003.228 .0224853
1003.825 .0224741
1004.422 .0224615
1005.018 .0224480
1005.614 .0224344
1006.210 .0224218
1006.806 .0224099
1007.401 .0223992
1007.996 .0223892
1008.591 .0223798
1009.186 .0223706
1009.780 .0223610
1010.374 .0223509
1010.967 .0223409
1011.561 .0223313
1012.154 .0223221
1012.746 .0223137
1013.339 .0223064
1013.931 .0222994
1014.523 .0222934
1015.115 .0222873
1015.706 .0222814
1016.298 .0222754
1016.888 .0222701
1017.479 .0222657
1018.069 .0222626
1018.660 .0222610
1019.250 .0222608
1019.839 .0222627
1020.429 .0222661
1021.018 .0222710
1021.607 .0222778
1022.195 .0222865
1022.784 .0222965
1023.372 .0223076
1023.960 .0223203
1024.547 .0223336
1025.135 .0223482
1025.722 .0223638
1026.309 .0223806
1026.896 .0223983
1027.483 .0224171
1028.069 .0224368
1028.655 .0224569
1029.241 .0224774
1029.827 .0224971
1030.412 .0225160
1030.997 .0225341
1031.582 .0225511
1032.167 .0225674
1032.752 .0225842
1033.336 .0226021
1033.921 .0226206
1034.505 .0226407
1035.089 .0226622
1035.672 .0226840
1036.256 .0227049
1036.839 .0227245
1037.422 .0227423
1038.005 .0227577
1038.588 .0227711
1039.171 .0227831
1039.753 .0227954
1040.335 .0228085
1040.918 .0228227
1041.500 .0228384
1042.081 .0228558
1042.663 .0228740
1043.244 .0228920
1043.826 .0229084
1044.407 .0229233
1044.988 .0229352
1045.569 .0229448
1046.150 .0229526
1046.730 .0229598
1047.311 .0229672
1047.891 .0229759
1048.471 .0229870
1049.052 .0230003
1049.632 .0230145
1050.211 .0230309
1050.791 .0230480
1051.371 .0230657
1051.950 .0230840
1052.530 .0231032
1053.109 .0231244
1053.688 .0231478
1054.268 .0231735
1054.847 .0232014
1055.426 .0232307
1056.005 .0232615
1056.583 .0232917
1057.162 .0233207
1057.741 .0233485
1058.319 .0233754
1058.898 .0234018
1059.476 .0234276
1060.055 .0234530
1060.633 .0234784
1061.211 .0235030
1061.790 .0235268
1062.368 .0235488
1062.946 .0235689
1063.524 .0235879
1064.102 .0236060
1064.680 .0236243
1065.258 .0236434
1065.836 .0236637
1066.414 .0236870
1066.992 .0237123
1067.570 .0237400
1068.148 .0237682
1068.726 .0237964
1069.304 .0238242
1069.882 .0238506
1070.460 .0238736
1071.038 .0238945
1071.616 .0239130
1072.194 .0239299
1072.772 .0239432
1073.350 .0239556
1073.928 .0239651
1074.506 .0239735
1075.084 .0239801
1075.662 .0239853
1076.240 .0239886
1076.819 .0239921
1077.397 .0239945
1077.976 .0239984
1078.554 .0240026
1079.133 .0240087
1079.711 .0240146
1080.290 .0240233
1080.869 .0240326
1081.448 .0240427
1082.027 .0240539
1082.606 .0240666
1083.185 .0240798
1083.764 .0240949
1084.343 .0241098
1084.923 .0241255
1085.502 .0241405
1086.082 .0241548
1086.662 .0241673
1087.242 .0241793
1087.822 .0241893
1088.402 .0241981
1088.983 .0242068
1089.563 .0242148
1090.144 .0242213
1090.725 .0242278
1091.306 .0242331
1091.887 .0242371
1092.469 .0242416
1093.050 .0242456
1093.632 .0242508
1094.214 .0242588
1094.796 .0242701
1095.379 .0242861
1095.961 .0243062
1096.544 .0243302
1097.127 .0243557
1097.710 .0243824
1098.294 .0244107
1098.877 .0244365
1099.461 .0244622
1100.046 .0244866
1100.630 .0245106
1101.215 .0245328
1101.800 .0245530
1102.385 .0245724
1102.970 .0245910
1103.556 .0246090
1104.142 .0246263
1104.728 .0246421
1105.315 .0246586
1105.902 .0246742
1106.489 .0246898
1107.077 .0247067
1107.664 .0247244
1108.253 .0247405
1108.841 .0247565
1109.430 .0247720
1110.019 .0247873
1110.609 .0248016
1111.198 .0248172
1111.789 .0248336
1112.379 .0248521
1112.970 .0248708
1113.561 .0248892
1114.153 .0249081
1114.745 .0249287
1115.338 .0249445
1115.931 .0249588
1116.524 .0249712
1117.117 .0249815
1117.712 .0249914
1118.306 .0250024
1118.901 .0250147
1119.496 .0250300
1120.092 .0250471
1120.689 .0250640
1121.285 .0250794
1121.882 .0250944
1122.480 .0251041
1123.078 .0251113
1123.677 .0251170
1124.276 .0251210
1124.875 .0251280
1125.476 .0251425
1126.076 .0251640
1126.677 .0251951
1127.279 .0252359
1127.881 .0252838
1128.484 .0253389
1129.087 .0253968
1129.691 .0254583
1130.295 .0255227
1130.900 .0255929
1131.505 .0256675
1132.111 .0257505
1132.718 .0258445
1133.325 .0259446
1133.933 .0260497
1134.541 .0261587
1135.150 .0262655
1135.760 .0263705
1136.370 .0264674
1136.981 .0265574
1137.592 .0266381
1138.204 .0267108
1138.817 .0267757
1139.431 .0268392
1140.045 .0269041
1140.660 .0269786
1141.275 .0270654
1141.891 .0271490
1142.508 .0272240
1143.126 .0273139
1143.744 .0275823
1144.363 .0278020
1144.983 .0273770
