Measurement Sequence started on: 15-12-46-377
Integration time: 28
Scans to Average: 2 
>>>>>Begin Spectral Data<<<<<
432.689 .0000100
433.621 .0000100
434.552 .0000100
435.482 .0000100
436.410 .0000100
437.337 .0000100
438.262 .0273383
439.187 .0579615
440.110 .0961098
441.031 .1391602
441.952 .1809871
442.871 .2139410
443.789 .2320608
444.705 .2332566
445.621 .2200051
446.535 .1977739
447.447 .1725524
448.359 .1340255
449.269 .1148565
450.178 .1027045
451.086 .0941694
451.993 .0876792
452.898 .0825609
453.803 .0783407
454.706 .0748116
455.608 .0717624
456.508 .0690966
457.408 .0667642
458.306 .0647021
459.204 .0628926
460.100 .0612965
460.995 .0598845
461.888 .0586211
462.781 .0574672
463.673 .0563987
464.563 .0553950
465.452 .0544479
466.340 .0535406
467.228 .0526871
468.114 .0518887
468.999 .0511481
469.882 .0504650
470.765 .0498432
471.647 .0492821
472.528 .0487675
473.407 .0483062
474.286 .0478916
475.163 .0475258
476.040 .0471983
476.915 .0469038
477.790 .0466428
478.663 .0464136
479.535 .0462138
480.407 .0460434
481.277 .0459039
482.147 .0457951
483.015 .0457142
483.883 .0456620
484.749 .0456325
485.615 .0456232
486.479 .0456293
487.343 .0456518
488.206 .0456759
489.067 .0456970
489.928 .0457066
490.788 .0457117
491.647 .0457177
492.505 .0457254
493.362 .0457407
494.218 .0457731
495.073 .0458325
495.928 .0459208
496.781 .0460338
497.634 .0461834
498.486 .0463642
499.337 .0465696
500.187 .0468005
501.036 .0470481
501.884 .0473189
502.731 .0476269
503.578 .0479728
504.424 .0483713
505.268 .0488191
506.113 .0493321
506.956 .0499076
507.798 .0505577
508.640 .0512808
509.480 .0520600
510.320 .0529148
511.160 .0538393
511.998 .0548271
512.836 .0559037
513.672 .0570822
514.508 .0583712
515.344 .0597897
516.178 .0613654
517.012 .0631042
517.845 .0650493
518.677 .0672206
519.508 .0696345
520.339 .0723126
521.169 .0753311
521.998 .0786906
522.826 .0824094
523.654 .0865864
524.481 .0912005
525.307 .0963151
526.133 .1019199
526.958 .1079193
527.782 .1142532
528.605 .1207894
529.428 .1274881
530.250 .1338013
531.072 .1395934
531.892 .1445013
532.712 .1482280
533.532 .1506124
534.350 .1513965
535.168 .1504375
535.986 .1478274
536.802 .1436781
537.618 .1382129
538.434 .1316684
539.249 .1246187
540.063 .1172795
540.876 .1100564
541.689 .1031547
542.501 .0967583
543.313 .0909928
544.124 .0859181
544.934 .0813986
545.744 .0773538
546.553 .0737381
547.361 .0705281
548.169 .0677223
548.976 .0652581
549.783 .0631114
550.589 .0612747
551.395 .0596680
552.200 .0582542
553.004 .0569600
553.808 .0557533
554.611 .0546141
555.414 .0535404
556.216 .0525211
557.018 .0515665
557.819 .0506862
558.619 .0498744
559.419 .0491189
560.218 .0484354
561.017 .0477950
561.815 .0471766
562.613 .0465750
563.410 .0459757
564.207 .0453678
565.003 .0447704
565.799 .0441779
566.594 .0435918
567.388 .0430202
568.182 .0424628
568.976 .0419085
569.769 .0413711
570.562 .0408466
571.354 .0403210
572.145 .0398054
572.936 .0393033
573.727 .0388044
574.517 .0383220
575.307 .0378616
576.096 .0374276
576.885 .0370240
577.673 .0366586
578.461 .0363202
579.248 .0360107
580.035 .0357310
580.821 .0354735
581.607 .0352317
582.392 .0350051
583.177 .0347866
583.962 .0345766
584.746 .0343818
585.529 .0342011
586.313 .0340341
587.095 .0338859
587.878 .0337508
588.660 .0336260
589.441 .0335103
590.222 .0334018
591.003 .0333010
591.783 .0332098
592.563 .0331256
593.342 .0330486
594.121 .0329794
594.899 .0329179
595.678 .0328615
596.455 .0328104
597.233 .0327622
598.009 .0327136
598.786 .0326656
599.562 .0326169
600.338 .0325669
601.113 .0325171
601.888 .0324676
602.663 .0324183
603.437 .0323705
604.211 .0323234
604.984 .0322768
605.757 .0322316
606.530 .0321871
607.302 .0321429
608.074 .0320993
608.845 .0320567
609.616 .0320153
610.387 .0319761
611.158 .0319407
611.928 .0319082
612.697 .0318795
613.467 .0318538
614.236 .0318307
615.004 .0318100
615.773 .0317907
616.541 .0317712
617.308 .0317514
618.076 .0317310
618.843 .0317097
619.609 .0316881
620.375 .0316663
621.141 .0316443
621.907 .0316229
622.672 .0316018
623.437 .0315805
624.202 .0315582
624.966 .0315357
625.730 .0315121
626.493 .0314875
627.257 .0314617
628.020 .0314342
628.782 .0314058
629.545 .0313773
630.307 .0313485
631.068 .0313200
631.830 .0312914
632.591 .0312633
633.352 .0312353
634.112 .0312074
634.872 .0311787
635.632 .0311487
636.392 .0311176
637.151 .0310848
637.910 .0310495
638.668 .0310131
639.427 .0309758
640.185 .0309386
640.943 .0309020
641.700 .0308664
642.457 .0308324
643.214 .0308001
643.971 .0307697
644.727 .0307414
645.483 .0307142
646.239 .0306892
646.994 .0306654
647.750 .0306441
648.505 .0306250
649.259 .0306081
650.014 .0305935
650.768 .0305805
651.521 .0305683
652.275 .0305566
653.028 .0305440
653.781 .0305307
654.534 .0305155
655.286 .0304989
656.039 .0304803
656.791 .0304599
657.542 .0304377
658.294 .0304148
659.045 .0303911
659.796 .0303671
660.546 .0303420
661.297 .0303170
662.047 .0302917
662.796 .0302659
663.546 .0302407
664.295 .0302157
665.044 .0301912
665.793 .0301679
666.542 .0301459
667.290 .0301259
668.038 .0301075
668.786 .0300908
669.533 .0300751
670.281 .0300605
671.028 .0300459
671.774 .0300304
672.521 .0300150
673.267 .0299995
674.013 .0299836
674.759 .0299680
675.505 .0299532
676.250 .0299387
676.995 .0299246
677.740 .0299103
678.484 .0298956
679.229 .0298800
679.973 .0298633
680.717 .0298455
681.460 .0298270
682.204 .0298080
682.947 .0297890
683.690 .0297706
684.433 .0297533
685.175 .0297359
685.917 .0297185
686.659 .0297008
687.401 .0296831
688.142 .0296647
688.884 .0296466
689.625 .0296288
690.365 .0296116
691.106 .0295950
691.846 .0295795
692.586 .0295648
693.326 .0295509
694.066 .0295368
694.805 .0295226
695.545 .0295078
696.284 .0294922
697.022 .0294759
697.761 .0294594
698.499 .0294429
699.237 .0294264
699.975 .0294094
700.713 .0293923
701.450 .0293746
702.187 .0293562
702.924 .0293371
703.661 .0293171
704.397 .0292963
705.133 .0292751
705.869 .0292539
706.605 .0292330
707.341 .0292125
708.076 .0291921
708.811 .0291716
709.546 .0291509
710.281 .0291296
711.015 .0291073
711.749 .0290845
712.483 .0290613
713.217 .0290377
713.950 .0290137
714.684 .0289901
715.417 .0289666
716.150 .0289441
716.882 .0289221
717.615 .0289008
718.347 .0288793
719.079 .0288578
719.811 .0288362
720.542 .0288143
721.273 .0287921
722.005 .0287700
722.735 .0287478
723.466 .0287263
724.196 .0287050
724.927 .0286840
725.656 .0286631
726.386 .0286421
727.116 .0286207
727.845 .0285988
728.574 .0285762
729.303 .0285530
730.031 .0285297
730.760 .0285069
731.488 .0284847
732.216 .0284637
732.944 .0284446
733.671 .0284274
734.398 .0284120
735.125 .0283984
735.852 .0283862
736.579 .0283754
737.305 .0283659
738.031 .0283568
738.757 .0283485
739.483 .0283404
740.208 .0283329
740.933 .0283258
741.658 .0283193
742.383 .0283128
743.108 .0283062
743.832 .0282994
744.556 .0282923
745.280 .0282845
746.004 .0282760
746.727 .0282668
747.450 .0282569
748.173 .0282459
748.896 .0282342
749.618 .0282219
750.340 .0282096
751.062 .0281976
751.784 .0281860
752.506 .0281745
753.227 .0281636
753.948 .0281530
754.669 .0281425
755.389 .0281322
756.110 .0281217
756.830 .0281108
757.550 .0280998
758.269 .0280889
758.989 .0280779
759.708 .0280669
760.427 .0280564
761.146 .0280459
761.864 .0280356
762.582 .0280254
763.300 .0280152
764.018 .0280054
764.736 .0279962
765.453 .0279872
766.170 .0279788
766.887 .0279710
767.603 .0279639
768.320 .0279568
769.036 .0279498
769.751 .0279425
770.467 .0279342
771.182 .0279252
771.897 .0279150
772.612 .0279037
773.327 .0278922
774.041 .0278808
774.755 .0278697
775.469 .0278597
776.183 .0278513
776.896 .0278441
777.609 .0278384
778.322 .0278341
779.035 .0278305
779.747 .0278277
780.459 .0278260
781.171 .0278250
781.882 .0278251
782.594 .0278271
783.305 .0278307
784.016 .0278361
784.726 .0278431
785.436 .0278508
786.147 .0278587
786.856 .0278657
787.566 .0278710
788.275 .0278737
788.984 .0278741
789.693 .0278718
790.401 .0278671
791.110 .0278607
791.818 .0278530
792.525 .0278444
793.233 .0278349
793.940 .0278244
794.647 .0278129
795.353 .0278009
796.060 .0277885
796.766 .0277759
797.472 .0277635
798.177 .0277521
798.883 .0277418
799.588 .0277327
800.292 .0277244
800.997 .0277165
801.701 .0277090
802.405 .0277011
803.109 .0276924
803.812 .0276832
804.515 .0276732
805.218 .0276625
805.921 .0276509
806.623 .0276382
807.325 .0276241
808.027 .0276086
808.728 .0275911
809.429 .0275714
810.130 .0275492
810.831 .0275252
811.531 .0274992
812.231 .0274718
812.931 .0274435
813.630 .0274144
814.330 .0273847
815.029 .0273551
815.727 .0273255
816.426 .0272964
817.124 .0272680
817.821 .0272407
818.519 .0272145
819.216 .0271897
819.913 .0271663
820.609 .0271441
821.306 .0271233
822.002 .0271037
822.697 .0270851
823.393 .0270679
824.088 .0270521
824.783 .0270376
825.477 .0270246
826.171 .0270130
826.865 .0270025
827.559 .0269929
828.252 .0269838
828.945 .0269749
829.638 .0269662
830.330 .0269574
831.023 .0269480
831.714 .0269386
832.406 .0269291
833.097 .0269191
833.788 .0269083
834.479 .0268967
835.169 .0268841
835.859 .0268707
836.548 .0268564
837.238 .0268413
837.927 .0268256
838.615 .0268096
839.304 .0267935
839.992 .0267775
840.680 .0267621
841.367 .0267468
842.054 .0267321
842.741 .0267179
843.428 .0267040
844.114 .0266903
844.800 .0266772
845.485 .0266646
846.170 .0266520
846.855 .0266395
847.540 .0266271
848.224 .0266146
848.908 .0266025
849.592 .0265902
850.275 .0265777
850.958 .0265648
851.641 .0265513
852.323 .0265368
853.005 .0265213
853.687 .0265049
854.368 .0264873
855.049 .0264689
855.730 .0264503
856.410 .0264313
857.090 .0264126
857.769 .0263947
858.449 .0263776
859.128 .0263612
859.806 .0263453
860.485 .0263295
861.163 .0263141
861.840 .0262988
862.518 .0262834
863.195 .0262677
863.871 .0262522
864.548 .0262371
865.224 .0262222
865.899 .0262077
866.574 .0261941
867.249 .0261814
867.924 .0261699
868.598 .0261592
869.272 .0261495
869.946 .0261408
870.619 .0261329
871.292 .0261261
871.964 .0261198
872.636 .0261135
873.308 .0261077
873.979 .0261023
874.651 .0260972
875.321 .0260928
875.992 .0260892
876.662 .0260869
877.331 .0260860
878.001 .0260864
878.670 .0260875
879.338 .0260895
880.007 .0260927
880.675 .0260960
881.342 .0260996
882.009 .0261036
882.676 .0261077
883.343 .0261122
884.009 .0261175
884.675 .0261231
885.340 .0261292
886.005 .0261364
886.670 .0261445
887.334 .0261534
887.998 .0261629
888.662 .0261729
889.325 .0261827
889.988 .0261922
890.650 .0262011
891.312 .0262087
891.974 .0262158
892.636 .0262223
893.297 .0262287
893.957 .0262354
894.618 .0262422
895.278 .0262500
895.937 .0262583
896.596 .0262671
897.255 .0262758
897.914 .0262839
898.572 .0262913
899.230 .0262980
899.887 .0263034
900.544 .0263076
901.201 .0263109
901.857 .0263134
902.513 .0263150
903.168 .0263158
903.823 .0263158
904.478 .0263147
905.132 .0263127
905.786 .0263097
906.440 .0263050
907.093 .0262990
907.746 .0262913
908.399 .0262818
909.051 .0262708
909.703 .0262580
910.354 .0262437
911.005 .0262285
911.656 .0262130
912.306 .0261970
912.956 .0261811
913.605 .0261659
914.254 .0261515
914.903 .0261377
915.551 .0261247
916.199 .0261123
916.847 .0261010
917.494 .0260905
918.141 .0260811
918.788 .0260732
919.434 .0260668
920.079 .0260618
920.725 .0260580
921.370 .0260546
922.014 .0260519
922.658 .0260491
923.302 .0260456
923.946 .0260412
924.589 .0260356
925.231 .0260281
925.873 .0260194
926.515 .0260092
927.157 .0259977
927.798 .0259844
928.439 .0259703
929.079 .0259543
929.719 .0259367
930.359 .0259181
930.998 .0258985
931.637 .0258782
932.275 .0258580
932.913 .0258377
933.551 .0258183
934.188 .0257997
934.825 .0257822
935.462 .0257657
936.098 .0257506
936.733 .0257366
937.369 .0257235
938.004 .0257113
938.638 .0256994
939.273 .0256878
939.907 .0256765
940.540 .0256655
941.173 .0256543
941.806 .0256436
942.438 .0256328
943.070 .0256222
943.702 .0256115
944.333 .0256001
944.964 .0255881
945.594 .0255755
946.224 .0255618
946.854 .0255473
947.483 .0255320
948.112 .0255162
948.741 .0255002
949.369 .0254849
949.996 .0254703
950.624 .0254564
951.251 .0254437
951.878 .0254316
952.504 .0254196
953.130 .0254076
953.755 .0253951
954.380 .0253817
955.005 .0253676
955.629 .0253526
956.253 .0253367
956.877 .0253205
957.500 .0253040
958.123 .0252876
958.746 .0252712
959.368 .0252546
959.990 .0252378
960.611 .0252205
961.232 .0252032
961.853 .0251853
962.473 .0251675
963.093 .0251494
963.712 .0251311
964.331 .0251127
964.950 .0250949
965.569 .0250778
966.187 .0250617
966.804 .0250466
967.422 .0250329
968.039 .0250202
968.655 .0250084
969.272 .0249966
969.887 .0249850
970.503 .0249725
971.118 .0249591
971.733 .0249440
972.347 .0249274
972.961 .0249095
973.575 .0248910
974.188 .0248718
974.801 .0248516
975.414 .0248310
976.026 .0248102
976.638 .0247888
977.250 .0247671
977.861 .0247451
978.472 .0247229
979.083 .0247006
979.693 .0246785
980.303 .0246554
980.912 .0246332
981.521 .0246110
982.130 .0245888
982.738 .0245669
983.346 .0245452
983.954 .0245229
984.562 .0245002
985.169 .0244777
985.775 .0244547
986.382 .0244317
986.988 .0244094
987.594 .0243872
988.199 .0243660
988.804 .0243456
989.409 .0243263
990.013 .0243081
990.617 .0242909
991.221 .0242736
991.824 .0242564
992.427 .0242403
993.030 .0242245
993.632 .0242098
994.234 .0241970
994.836 .0241862
995.438 .0241769
996.039 .0241685
996.640 .0241602
997.240 .0241523
997.840 .0241442
998.440 .0241351
999.040 .0241249
999.639 .0241142
1000.238 .0241030
1000.836 .0240916
1001.435 .0240803
1002.033 .0240695
1002.630 .0240586
1003.228 .0240481
1003.825 .0240374
1004.422 .0240271
1005.018 .0240178
1005.614 .0240100
1006.210 .0240041
1006.806 .0240005
1007.401 .0239981
1007.996 .0239970
1008.591 .0239971
1009.186 .0239977
1009.780 .0239977
1010.374 .0239971
1010.967 .0239960
1011.561 .0239942
1012.154 .0239919
1012.746 .0239896
1013.339 .0239870
1013.931 .0239851
1014.523 .0239834
1015.115 .0239809
1015.706 .0239785
1016.298 .0239762
1016.888 .0239735
1017.479 .0239709
1018.069 .0239686
1018.660 .0239665
1019.250 .0239656
1019.839 .0239660
1020.429 .0239680
1021.018 .0239718
1021.607 .0239778
1022.195 .0239853
1022.784 .0239942
1023.372 .0240045
1023.960 .0240160
1024.547 .0240282
1025.135 .0240411
1025.722 .0240538
1026.309 .0240667
1026.896 .0240802
1027.483 .0240932
1028.069 .0241062
1028.655 .0241196
1029.241 .0241327
1029.827 .0241455
1030.412 .0241571
1030.997 .0241689
1031.582 .0241801
1032.167 .0241914
1032.752 .0242030
1033.336 .0242150
1033.921 .0242280
1034.505 .0242418
1035.089 .0242554
1035.672 .0242695
1036.256 .0242827
1036.839 .0242948
1037.422 .0243052
1038.005 .0243151
1038.588 .0243237
1039.171 .0243324
1039.753 .0243420
1040.335 .0243537
1040.918 .0243666
1041.500 .0243812
1042.081 .0243965
1042.663 .0244117
1043.244 .0244264
1043.826 .0244384
1044.407 .0244477
1044.988 .0244557
1045.569 .0244617
1046.150 .0244660
1046.730 .0244698
1047.311 .0244741
1047.891 .0244789
1048.471 .0244844
1049.052 .0244900
1049.632 .0244949
1050.211 .0244998
1050.791 .0245033
1051.371 .0245063
1051.950 .0245108
1052.530 .0245176
1053.109 .0245264
1053.688 .0245384
1054.268 .0245532
1054.847 .0245700
1055.426 .0245880
1056.005 .0246075
1056.583 .0246273
1057.162 .0246476
1057.741 .0246673
1058.319 .0246863
1058.898 .0247049
1059.476 .0247228
1060.055 .0247390
1060.633 .0247540
1061.211 .0247667
1061.790 .0247772
1062.368 .0247857
1062.946 .0247942
1063.524 .0248024
1064.102 .0248123
1064.680 .0248233
1065.258 .0248363
1065.836 .0248511
1066.414 .0248665
1066.992 .0248814
1067.570 .0248971
1068.148 .0249124
1068.726 .0249267
1069.304 .0249400
1069.882 .0249533
1070.460 .0249656
1071.038 .0249787
1071.616 .0249906
1072.194 .0250010
1072.772 .0250088
1073.350 .0250153
1073.928 .0250178
1074.506 .0250185
1075.084 .0250167
1075.662 .0250130
1076.240 .0250094
1076.819 .0250073
1077.397 .0250072
1077.976 .0250107
1078.554 .0250193
1079.133 .0250332
1079.711 .0250503
1080.290 .0250716
1080.869 .0250932
1081.448 .0251158
1082.027 .0251381
1082.606 .0251601
1083.185 .0251808
1083.764 .0252014
1084.343 .0252229
1084.923 .0252452
1085.502 .0252682
1086.082 .0252912
1086.662 .0253129
1087.242 .0253303
1087.822 .0253427
1088.402 .0253491
1088.983 .0253507
1089.563 .0253495
1090.144 .0253471
1090.725 .0253467
1091.306 .0253502
1091.887 .0253594
1092.469 .0253746
1093.050 .0253953
1093.632 .0254211
1094.214 .0254488
1094.796 .0254768
1095.379 .0255037
1095.961 .0255302
1096.544 .0255565
1097.127 .0255835
1097.710 .0256100
1098.294 .0256380
1098.877 .0256677
1099.461 .0256991
1100.046 .0257326
1100.630 .0257669
1101.215 .0258010
1101.800 .0258333
1102.385 .0258616
1102.970 .0258857
1103.556 .0259062
1104.142 .0259236
1104.728 .0259374
1105.315 .0259502
1105.902 .0259633
1106.489 .0259772
1107.077 .0259935
1107.664 .0260177
1108.253 .0260467
1108.841 .0260817
1109.430 .0261192
1110.019 .0261576
1110.609 .0261979
1111.198 .0262358
1111.789 .0262721
1112.379 .0263076
1112.970 .0263445
1113.561 .0263833
1114.153 .0264246
1114.745 .0264734
1115.338 .0265273
1115.931 .0265869
1116.524 .0266474
1117.117 .0267084
1117.712 .0267680
1118.306 .0268250
1118.901 .0268790
1119.496 .0269317
1120.092 .0269831
1120.689 .0270327
1121.285 .0270821
1121.882 .0271294
1122.480 .0271767
1123.078 .0272226
1123.677 .0272672
1124.276 .0273116
1124.875 .0273558
1125.476 .0274022
1126.076 .0274495
1126.677 .0275060
1127.279 .0275694
1127.881 .0276400
1128.484 .0277152
1129.087 .0277894
1129.691 .0278661
1130.295 .0279390
1130.900 .0280096
1131.505 .0280773
1132.111 .0281455
1132.718 .0282168
1133.325 .0282933
1133.933 .0283783
1134.541 .0284739
1135.150 .0285812
1135.760 .0286963
1136.370 .0288125
1136.981 .0289265
1137.592 .0290325
1138.204 .0291328
1138.817 .0292251
1139.431 .0293130
1140.045 .0294006
1140.660 .0294837
1141.275 .0295549
1141.891 .0296049
1142.508 .0298258
1143.126 .0300299
1143.744 .0298321
1144.363 .0295692
1144.983 .0292616
