Measurement Sequence started on: 15-12-46-377
Integration time: 28
Scans to Average: 2 
>>>>>Begin Spectral Data<<<<<
432.689 .0000100
433.621 .0000100
434.552 .0000100
435.482 .0000100
436.410 .0000100
437.337 .0000100
438.262 .0286230
439.187 .0606603
440.110 .1003871
441.031 .1451657
441.952 .1885355
442.871 .2225429
443.789 .2409703
444.705 .2417191
445.621 .2274643
446.535 .2039595
447.447 .1774693
448.359 .1371598
449.269 .1172069
450.178 .1047270
451.086 .0959448
451.993 .0892864
452.898 .0840354
453.803 .0797490
454.706 .0761910
455.608 .0731485
456.508 .0705191
457.408 .0682453
458.306 .0662378
459.204 .0644674
460.100 .0628983
460.995 .0615194
461.888 .0602906
462.781 .0591764
463.673 .0581427
464.563 .0571817
465.452 .0562654
466.340 .0553822
467.228 .0545363
468.114 .0537310
468.999 .0529675
469.882 .0522497
470.765 .0515913
471.647 .0509936
472.528 .0504399
473.407 .0499553
474.286 .0495211
475.163 .0491423
476.040 .0488147
476.915 .0485341
477.790 .0482978
478.663 .0481030
479.535 .0479395
480.407 .0478006
481.277 .0476847
482.147 .0475940
483.015 .0475145
483.883 .0474529
484.749 .0474067
485.615 .0473735
486.479 .0473519
487.343 .0473505
488.206 .0473552
489.067 .0473686
489.928 .0473811
490.788 .0473902
491.647 .0474000
492.505 .0474112
493.362 .0474328
494.218 .0474697
495.073 .0475289
495.928 .0476183
496.781 .0477376
497.634 .0479012
498.486 .0481050
499.337 .0483569
500.187 .0486511
501.036 .0489774
501.884 .0493416
502.731 .0497325
503.578 .0501503
504.424 .0505964
505.268 .0510588
506.113 .0515357
506.956 .0520243
507.798 .0525299
508.640 .0530538
509.480 .0536240
510.320 .0542585
511.160 .0549622
511.998 .0557588
512.836 .0566514
513.672 .0576319
514.508 .0587135
515.344 .0599093
516.178 .0612348
517.012 .0627292
517.845 .0644349
518.677 .0663828
519.508 .0686409
520.339 .0712654
521.169 .0743356
521.998 .0778990
522.826 .0820008
523.654 .0866118
524.481 .0917542
525.307 .0974354
526.133 .1035920
526.958 .1101894
527.782 .1171786
528.605 .1244219
529.428 .1318358
530.250 .1389008
531.072 .1453688
531.892 .1508926
532.712 .1552333
533.532 .1581009
534.350 .1592693
535.168 .1586805
535.986 .1564062
536.802 .1526011
537.618 .1475410
538.434 .1414033
539.249 .1346975
540.063 .1276158
540.876 .1204406
541.689 .1133794
542.501 .1066911
543.313 .1005438
544.124 .0950003
544.934 .0900034
545.744 .0854844
546.553 .0813840
547.361 .0777160
548.169 .0744345
548.976 .0714696
549.783 .0687846
550.589 .0663721
551.395 .0641763
552.200 .0622018
553.004 .0604096
553.808 .0587938
554.611 .0573587
555.414 .0560804
556.216 .0549242
557.018 .0538674
557.819 .0529058
558.619 .0520181
559.419 .0511835
560.218 .0504033
561.017 .0496621
561.815 .0489604
562.613 .0482888
563.410 .0476512
564.207 .0470428
565.003 .0464583
565.799 .0458844
566.594 .0453174
567.388 .0447566
568.182 .0441892
568.976 .0436189
569.769 .0430550
570.562 .0424991
571.354 .0419549
572.145 .0414211
572.936 .0409031
573.727 .0404008
574.517 .0399179
575.307 .0394472
576.096 .0389957
576.885 .0385591
577.673 .0381381
578.461 .0377406
579.248 .0373667
580.035 .0370182
580.821 .0366952
581.607 .0363959
582.392 .0361215
583.177 .0358646
583.962 .0356270
584.746 .0354080
585.529 .0352079
586.313 .0350253
587.095 .0348578
587.878 .0347055
588.660 .0345669
589.441 .0344408
590.222 .0343281
591.003 .0342284
591.783 .0341389
592.563 .0340611
593.342 .0339921
594.121 .0339297
594.899 .0338716
595.678 .0338151
596.455 .0337595
597.233 .0337039
598.009 .0336464
598.786 .0335892
599.562 .0335328
600.338 .0334789
601.113 .0334269
601.888 .0333779
602.663 .0333317
603.437 .0332879
604.211 .0332445
604.984 .0332015
605.757 .0331566
606.530 .0331109
607.302 .0330641
608.074 .0330185
608.845 .0329752
609.616 .0329348
610.387 .0328982
611.158 .0328663
611.928 .0328370
612.697 .0328096
613.467 .0327828
614.236 .0327560
615.004 .0327282
615.773 .0326990
616.541 .0326684
617.308 .0326377
618.076 .0326075
618.843 .0325783
619.609 .0325500
620.375 .0325233
621.141 .0324974
621.907 .0324724
622.672 .0324480
623.437 .0324238
624.202 .0323991
624.966 .0323744
625.730 .0323494
626.493 .0323237
627.257 .0322972
628.020 .0322702
628.782 .0322424
629.545 .0322133
630.307 .0321830
631.068 .0321522
631.830 .0321213
632.591 .0320908
633.352 .0320605
634.112 .0320308
634.872 .0320008
635.632 .0319708
636.392 .0319403
637.151 .0319094
637.910 .0318780
638.668 .0318465
639.427 .0318152
640.185 .0317852
640.943 .0317558
641.700 .0317282
642.457 .0317026
643.214 .0316786
643.971 .0316550
644.727 .0316318
645.483 .0316087
646.239 .0315851
646.994 .0315603
647.750 .0315351
648.505 .0315092
649.259 .0314833
650.014 .0314572
650.768 .0314312
651.521 .0314061
652.275 .0313818
653.028 .0313578
653.781 .0313343
654.534 .0313110
655.286 .0312873
656.039 .0312630
656.791 .0312391
657.542 .0312154
658.294 .0311912
659.045 .0311678
659.796 .0311450
660.546 .0311223
661.297 .0310997
662.047 .0310767
662.796 .0310528
663.546 .0310281
664.295 .0310022
665.044 .0309753
665.793 .0309483
666.542 .0309218
667.290 .0308956
668.038 .0308706
668.786 .0308464
669.533 .0308228
670.281 .0307991
671.028 .0307758
671.774 .0307520
672.521 .0307277
673.267 .0307038
674.013 .0306802
674.759 .0306576
675.505 .0306365
676.250 .0306170
676.995 .0305991
677.740 .0305827
678.484 .0305669
679.229 .0305520
679.973 .0305379
680.717 .0305243
681.460 .0305110
682.204 .0304978
682.947 .0304855
683.690 .0304734
684.433 .0304618
685.175 .0304506
685.917 .0304388
686.659 .0304266
687.401 .0304134
688.142 .0303993
688.884 .0303841
689.625 .0303680
690.365 .0303508
691.106 .0303323
691.846 .0303128
692.586 .0302923
693.326 .0302707
694.066 .0302488
694.805 .0302265
695.545 .0302032
696.284 .0301797
697.022 .0301559
697.761 .0301320
698.499 .0301081
699.237 .0300846
699.975 .0300613
700.713 .0300385
701.450 .0300162
702.187 .0299940
702.924 .0299723
703.661 .0299516
704.397 .0299313
705.133 .0299118
705.869 .0298932
706.605 .0298754
707.341 .0298582
708.076 .0298419
708.811 .0298261
709.546 .0298103
710.281 .0297945
711.015 .0297787
711.749 .0297623
712.483 .0297458
713.217 .0297285
713.950 .0297108
714.684 .0296924
715.417 .0296730
716.150 .0296525
716.882 .0296308
717.615 .0296086
718.347 .0295863
719.079 .0295634
719.811 .0295411
720.542 .0295193
721.273 .0294983
722.005 .0294775
722.735 .0294568
723.466 .0294363
724.196 .0294154
724.927 .0293939
725.656 .0293719
726.386 .0293501
727.116 .0293290
727.845 .0293086
728.574 .0292895
729.303 .0292714
730.031 .0292540
730.760 .0292370
731.488 .0292201
732.216 .0292036
732.944 .0291874
733.671 .0291713
734.398 .0291560
735.125 .0291419
735.852 .0291290
736.579 .0291174
737.305 .0291067
738.031 .0290972
738.757 .0290879
739.483 .0290782
740.208 .0290684
740.933 .0290581
741.658 .0290474
742.383 .0290358
743.108 .0290234
743.832 .0290105
744.556 .0289965
745.280 .0289821
746.004 .0289671
746.727 .0289525
747.450 .0289379
748.173 .0289231
748.896 .0289088
749.618 .0288951
750.340 .0288818
751.062 .0288687
751.784 .0288556
752.506 .0288424
753.227 .0288291
753.948 .0288158
754.669 .0288023
755.389 .0287894
756.110 .0287768
756.830 .0287648
757.550 .0287527
758.269 .0287404
758.989 .0287274
759.708 .0287130
760.427 .0286976
761.146 .0286805
761.864 .0286623
762.582 .0286435
763.300 .0286245
764.018 .0286064
764.736 .0285892
765.453 .0285734
766.170 .0285590
766.887 .0285458
767.603 .0285333
768.320 .0285209
769.036 .0285085
769.751 .0284957
770.467 .0284833
771.182 .0284709
771.897 .0284589
772.612 .0284478
773.327 .0284382
774.041 .0284293
774.755 .0284213
775.469 .0284137
776.183 .0284063
776.896 .0283985
777.609 .0283905
778.322 .0283819
779.035 .0283733
779.747 .0283648
780.459 .0283565
781.171 .0283484
781.882 .0283411
782.594 .0283340
783.305 .0283273
784.016 .0283210
784.726 .0283148
785.436 .0283082
786.147 .0283019
786.856 .0282959
787.566 .0282901
788.275 .0282843
788.984 .0282792
789.693 .0282743
790.401 .0282693
791.110 .0282638
791.818 .0282577
792.525 .0282509
793.233 .0282432
793.940 .0282341
794.647 .0282242
795.353 .0282137
796.060 .0282032
796.766 .0281925
797.472 .0281822
798.177 .0281725
798.883 .0281627
799.588 .0281529
800.292 .0281433
800.997 .0281335
801.701 .0281234
802.405 .0281133
803.109 .0281038
803.812 .0280949
804.515 .0280867
805.218 .0280793
805.921 .0280730
806.623 .0280673
807.325 .0280620
808.027 .0280563
808.728 .0280501
809.429 .0280427
810.130 .0280332
810.831 .0280228
811.531 .0280112
812.231 .0279985
812.931 .0279852
813.630 .0279708
814.330 .0279562
815.029 .0279410
815.727 .0279253
816.426 .0279098
817.124 .0278944
817.821 .0278790
818.519 .0278636
819.216 .0278487
819.913 .0278352
820.609 .0278225
821.306 .0278115
822.002 .0278020
822.697 .0277939
823.393 .0277873
824.088 .0277818
824.783 .0277772
825.477 .0277736
826.171 .0277701
826.865 .0277667
827.559 .0277629
828.252 .0277586
828.945 .0277534
829.638 .0277475
830.330 .0277409
831.023 .0277332
831.714 .0277245
832.406 .0277155
833.097 .0277056
833.788 .0276952
834.479 .0276846
835.169 .0276734
835.859 .0276626
836.548 .0276515
837.238 .0276401
837.927 .0276283
838.615 .0276162
839.304 .0276041
839.992 .0275915
840.680 .0275794
841.367 .0275676
842.054 .0275559
842.741 .0275451
843.428 .0275346
844.114 .0275247
844.800 .0275153
845.485 .0275059
846.170 .0274964
846.855 .0274864
847.540 .0274754
848.224 .0274637
848.908 .0274517
849.592 .0274397
850.275 .0274272
850.958 .0274149
851.641 .0274029
852.323 .0273904
853.005 .0273775
853.687 .0273642
854.368 .0273500
855.049 .0273350
855.730 .0273187
856.410 .0273007
857.090 .0272819
857.769 .0272620
858.449 .0272416
859.128 .0272206
859.806 .0271998
860.485 .0271794
861.163 .0271592
861.840 .0271399
862.518 .0271212
863.195 .0271029
863.871 .0270849
864.548 .0270666
865.224 .0270480
865.899 .0270289
866.574 .0270096
867.249 .0269904
867.924 .0269719
868.598 .0269546
869.272 .0269384
869.946 .0269235
870.619 .0269100
871.292 .0268974
871.964 .0268851
872.636 .0268729
873.308 .0268604
873.979 .0268473
874.651 .0268336
875.321 .0268196
875.992 .0268056
876.662 .0267921
877.331 .0267792
878.001 .0267667
878.670 .0267545
879.338 .0267423
880.007 .0267297
880.675 .0267167
881.342 .0267033
882.009 .0266894
882.676 .0266752
883.343 .0266614
884.009 .0266481
884.675 .0266352
885.340 .0266231
886.005 .0266118
886.670 .0266013
887.334 .0265916
887.998 .0265827
888.662 .0265746
889.325 .0265680
889.988 .0265631
890.650 .0265601
891.312 .0265589
891.974 .0265594
892.636 .0265610
893.297 .0265633
893.957 .0265654
894.618 .0265669
895.278 .0265672
895.937 .0265671
896.596 .0265661
897.255 .0265646
897.914 .0265631
898.572 .0265621
899.230 .0265613
899.887 .0265603
900.544 .0265584
901.201 .0265552
901.857 .0265500
902.513 .0265426
903.168 .0265331
903.823 .0265224
904.478 .0265109
905.132 .0264992
905.786 .0264879
906.440 .0264776
907.093 .0264673
907.746 .0264574
908.399 .0264471
909.051 .0264359
909.703 .0264234
910.354 .0264103
911.005 .0263968
911.656 .0263837
912.306 .0263712
912.956 .0263596
913.605 .0263486
914.254 .0263380
914.903 .0263270
915.551 .0263154
916.199 .0263035
916.847 .0262912
917.494 .0262785
918.141 .0262666
918.788 .0262554
919.434 .0262460
920.079 .0262379
920.725 .0262308
921.370 .0262237
922.014 .0262166
922.658 .0262083
923.302 .0261986
923.946 .0261878
924.589 .0261762
925.231 .0261641
925.873 .0261520
926.515 .0261399
927.157 .0261284
927.798 .0261172
928.439 .0261057
929.079 .0260933
929.719 .0260800
930.359 .0260653
930.998 .0260497
931.637 .0260335
932.275 .0260177
932.913 .0260027
933.551 .0259891
934.188 .0259775
934.825 .0259675
935.462 .0259595
936.098 .0259532
936.733 .0259485
937.369 .0259446
938.004 .0259414
938.638 .0259389
939.273 .0259373
939.907 .0259364
940.540 .0259371
941.173 .0259382
941.806 .0259406
942.438 .0259435
943.070 .0259465
943.702 .0259490
944.333 .0259507
944.964 .0259511
945.594 .0259499
946.224 .0259475
946.854 .0259446
947.483 .0259408
948.112 .0259377
948.741 .0259351
949.369 .0259326
949.996 .0259299
950.624 .0259271
951.251 .0259230
951.878 .0259182
952.504 .0259122
953.130 .0259051
953.755 .0258972
954.380 .0258893
955.005 .0258810
955.629 .0258729
956.253 .0258652
956.877 .0258577
957.500 .0258498
958.123 .0258419
958.746 .0258328
959.368 .0258230
959.990 .0258127
960.611 .0258020
961.232 .0257915
961.853 .0257815
962.473 .0257723
963.093 .0257638
963.712 .0257564
964.331 .0257500
964.950 .0257443
965.569 .0257392
966.187 .0257344
966.804 .0257303
967.422 .0257264
968.039 .0257222
968.655 .0257183
969.272 .0257138
969.887 .0257084
970.503 .0257013
971.118 .0256930
971.733 .0256835
972.347 .0256734
972.961 .0256631
973.575 .0256532
974.188 .0256439
974.801 .0256349
975.414 .0256252
976.026 .0256153
976.638 .0256046
977.250 .0255928
977.861 .0255799
978.472 .0255665
979.083 .0255531
979.693 .0255399
980.303 .0255277
980.912 .0255165
981.521 .0255064
982.130 .0254964
982.738 .0254861
983.346 .0254749
983.954 .0254624
984.562 .0254479
985.169 .0254320
985.775 .0254147
986.382 .0253967
986.988 .0253787
987.594 .0253613
988.199 .0253448
988.804 .0253300
989.409 .0253161
990.013 .0253037
990.617 .0252920
991.221 .0252812
991.824 .0252706
992.427 .0252609
993.030 .0252518
993.632 .0252435
994.234 .0252364
994.836 .0252305
995.438 .0252251
996.039 .0252205
996.640 .0252161
997.240 .0252118
997.840 .0252074
998.440 .0252029
999.040 .0251977
999.639 .0251919
1000.238 .0251851
1000.836 .0251775
1001.435 .0251691
1002.033 .0251605
1002.630 .0251508
1003.228 .0251406
1003.825 .0251305
1004.422 .0251202
1005.018 .0251106
1005.614 .0251021
1006.210 .0250946
1006.806 .0250882
1007.401 .0250823
1007.996 .0250761
1008.591 .0250692
1009.186 .0250626
1009.780 .0250556
1010.374 .0250489
1010.967 .0250423
1011.561 .0250362
1012.154 .0250303
1012.746 .0250250
1013.339 .0250195
1013.931 .0250129
1014.523 .0250058
1015.115 .0249969
1015.706 .0249868
1016.298 .0249756
1016.888 .0249641
1017.479 .0249532
1018.069 .0249432
1018.660 .0249345
1019.250 .0249261
1019.839 .0249185
1020.429 .0249112
1021.018 .0249041
1021.607 .0248978
1022.195 .0248914
1022.784 .0248862
1023.372 .0248824
1023.960 .0248807
1024.547 .0248804
1025.135 .0248818
1025.722 .0248851
1026.309 .0248891
1026.896 .0248935
1027.483 .0248971
1028.069 .0249001
1028.655 .0249032
1029.241 .0249060
1029.827 .0249084
1030.412 .0249108
1030.997 .0249136
1031.582 .0249154
1032.167 .0249166
1032.752 .0249170
1033.336 .0249162
1033.921 .0249150
1034.505 .0249131
1035.089 .0249105
1035.672 .0249071
1036.256 .0249034
1036.839 .0248992
1037.422 .0248950
1038.005 .0248910
1038.588 .0248869
1039.171 .0248833
1039.753 .0248817
1040.335 .0248810
1040.918 .0248819
1041.500 .0248841
1042.081 .0248876
1042.663 .0248908
1043.244 .0248937
1043.826 .0248956
1044.407 .0248970
1044.988 .0248978
1045.569 .0248976
1046.150 .0248969
1046.730 .0248961
1047.311 .0248944
1047.891 .0248919
1048.471 .0248887
1049.052 .0248848
1049.632 .0248784
1050.211 .0248710
1050.791 .0248614
1051.371 .0248511
1051.950 .0248408
1052.530 .0248306
1053.109 .0248210
1053.688 .0248123
1054.268 .0248046
1054.847 .0247980
1055.426 .0247926
1056.005 .0247889
1056.583 .0247859
1057.162 .0247849
1057.741 .0247854
1058.319 .0247875
1058.898 .0247911
1059.476 .0247966
1060.055 .0248028
1060.633 .0248105
1061.211 .0248187
1061.790 .0248275
1062.368 .0248369
1062.946 .0248464
1063.524 .0248555
1064.102 .0248639
1064.680 .0248707
1065.258 .0248767
1065.836 .0248814
1066.414 .0248857
1066.992 .0248891
1067.570 .0248929
1068.148 .0248967
1068.726 .0249009
1069.304 .0249061
1069.882 .0249110
1070.460 .0249145
1071.038 .0249166
1071.616 .0249166
1072.194 .0249164
1072.772 .0249165
1073.350 .0249170
1073.928 .0249181
1074.506 .0249208
1075.084 .0249240
1075.662 .0249269
1076.240 .0249297
1076.819 .0249325
1077.397 .0249353
1077.976 .0249370
1078.554 .0249386
1079.133 .0249408
1079.711 .0249449
1080.290 .0249520
1080.869 .0249604
1081.448 .0249700
1082.027 .0249796
1082.606 .0249888
1083.185 .0249980
1083.764 .0250080
1084.343 .0250204
1084.923 .0250359
1085.502 .0250559
1086.082 .0250798
1086.662 .0251064
1087.242 .0251344
1087.822 .0251629
1088.402 .0251890
1088.983 .0252111
1089.563 .0252288
1090.144 .0252430
1090.725 .0252568
1091.306 .0252709
1091.887 .0252877
1092.469 .0253087
1093.050 .0253332
1093.632 .0253604
1094.214 .0253871
1094.796 .0254130
1095.379 .0254361
1095.961 .0254571
1096.544 .0254753
1097.127 .0254918
1097.710 .0255085
1098.294 .0255280
1098.877 .0255508
1099.461 .0255774
1100.046 .0256065
1100.630 .0256375
1101.215 .0256696
1101.800 .0257007
1102.385 .0257267
1102.970 .0257503
1103.556 .0257688
1104.142 .0257846
1104.728 .0257978
1105.315 .0258102
1105.902 .0258214
1106.489 .0258334
1107.077 .0258461
1107.664 .0258579
1108.253 .0258674
1108.841 .0258747
1109.430 .0258801
1110.019 .0258841
1110.609 .0258866
1111.198 .0258910
1111.789 .0258989
1112.379 .0259164
1112.970 .0259399
1113.561 .0259697
1114.153 .0260081
1114.745 .0260524
1115.338 .0261010
1115.931 .0261505
1116.524 .0262029
1117.117 .0262570
1117.712 .0263140
1118.306 .0263755
1118.901 .0264425
1119.496 .0265147
1120.092 .0265910
1120.689 .0266694
1121.285 .0267494
1121.882 .0268280
1122.480 .0269036
1123.078 .0269752
1123.677 .0270455
1124.276 .0271116
1124.875 .0271761
1125.476 .0272389
1126.076 .0273052
1126.677 .0273735
1127.279 .0274421
1127.881 .0275115
1128.484 .0275833
1129.087 .0276515
1129.691 .0277194
1130.295 .0277859
1130.900 .0278537
1131.505 .0279176
1132.111 .0279791
1132.718 .0280388
1133.325 .0281002
1133.933 .0281649
1134.541 .0282344
1135.150 .0283108
1135.760 .0283974
1136.370 .0284912
1136.981 .0285894
1137.592 .0286912
1138.204 .0287955
1138.817 .0288976
1139.431 .0289929
1140.045 .0290915
1140.660 .0291906
1141.275 .0292988
1141.891 .0294141
1142.508 .0293877
1143.126 .0297684
1143.744 .0298017
1144.363 .0300419
1144.983 .0301023
