Measurement Sequence started on: 15-12-46-377
Integration time: 28
Scans to Average: 2 
>>>>>Begin Spectral Data<<<<<
432.689 .0000100
433.621 .0000100
434.552 .0000100
435.482 .0000100
436.410 .0000100
437.337 .0000100
438.262 .0281222
439.187 .0595462
440.110 .0985942
441.031 .1425545
441.952 .1852014
442.871 .2186987
443.789 .2369634
444.705 .2378922
445.621 .2240946
446.535 .2012354
447.447 .1754330
448.359 .1359906
449.269 .1165041
450.178 .1042069
451.086 .0955441
451.993 .0888699
452.898 .0835474
453.803 .0791501
454.706 .0754925
455.608 .0723474
456.508 .0695986
457.408 .0672025
458.306 .0651069
459.204 .0632430
460.100 .0615833
460.995 .0601017
461.888 .0587652
462.781 .0575531
463.673 .0564491
464.563 .0554408
465.452 .0545147
466.340 .0536512
467.228 .0528587
468.114 .0521218
468.999 .0514496
469.882 .0508177
470.765 .0502315
471.647 .0496887
472.528 .0491824
473.407 .0487137
474.286 .0482918
475.163 .0479215
476.040 .0476010
476.915 .0473263
477.790 .0470926
478.663 .0468907
479.535 .0467145
480.407 .0465589
481.277 .0464153
482.147 .0462895
483.015 .0461810
483.883 .0460957
484.749 .0460356
485.615 .0459992
486.479 .0459910
487.343 .0460064
488.206 .0460418
489.067 .0460896
489.928 .0461459
490.788 .0462098
491.647 .0462842
492.505 .0463713
493.362 .0464710
494.218 .0465903
495.073 .0467352
495.928 .0469120
496.781 .0471147
497.634 .0473451
498.486 .0475967
499.337 .0478742
500.187 .0481890
501.036 .0485265
501.884 .0488956
502.731 .0492962
503.578 .0497290
504.424 .0501785
505.268 .0506464
506.113 .0511273
506.956 .0516229
507.798 .0521485
508.640 .0527031
509.480 .0533012
510.320 .0539682
511.160 .0547206
511.998 .0555716
512.836 .0565472
513.672 .0576415
514.508 .0588457
515.344 .0601841
516.178 .0616733
517.012 .0633132
517.845 .0651562
518.677 .0672512
519.508 .0696262
520.339 .0723539
521.169 .0755120
521.998 .0791026
522.826 .0831997
523.654 .0878117
524.481 .0929253
525.307 .0985941
526.133 .1047783
526.958 .1113935
527.782 .1184245
528.605 .1257480
529.428 .1331960
530.250 .1402053
531.072 .1465827
531.892 .1518205
532.712 .1556516
533.532 .1578455
534.350 .1581561
535.168 .1565740
535.986 .1532708
536.802 .1484105
537.618 .1423509
538.434 .1353755
539.249 .1280145
540.063 .1204483
540.876 .1130326
541.689 .1059106
542.501 .0992797
543.313 .0932742
544.124 .0879396
544.934 .0831816
545.744 .0789568
546.553 .0752033
547.361 .0719264
548.169 .0690868
548.976 .0666051
549.783 .0644694
550.589 .0626226
551.395 .0609822
552.200 .0595427
553.004 .0582370
553.808 .0570325
554.611 .0559185
555.414 .0548867
556.216 .0539110
557.018 .0529997
557.819 .0521339
558.619 .0513120
559.419 .0505372
560.218 .0498176
561.017 .0491179
561.815 .0484440
562.613 .0477869
563.410 .0471329
564.207 .0464737
565.003 .0458199
565.799 .0451579
566.594 .0445004
567.388 .0438541
568.182 .0432191
568.976 .0425955
569.769 .0420009
570.562 .0414262
571.354 .0408751
572.145 .0403541
572.936 .0398545
573.727 .0393684
574.517 .0389061
575.307 .0384599
576.096 .0380324
576.885 .0376217
577.673 .0372349
578.461 .0368691
579.248 .0365292
580.035 .0362106
580.821 .0359112
581.607 .0356356
582.392 .0353814
583.177 .0351454
583.962 .0349297
584.746 .0347341
585.529 .0345578
586.313 .0343978
587.095 .0342549
587.878 .0341274
588.660 .0340133
589.441 .0339097
590.222 .0338138
591.003 .0337246
591.783 .0336406
592.563 .0335606
593.342 .0334841
594.121 .0334108
594.899 .0333405
595.678 .0332735
596.455 .0332101
597.233 .0331502
598.009 .0330950
598.786 .0330434
599.562 .0329944
600.338 .0329488
601.113 .0329041
601.888 .0328598
602.663 .0328153
603.437 .0327708
604.211 .0327249
604.984 .0326787
605.757 .0326324
606.530 .0325867
607.302 .0325429
608.074 .0325018
608.845 .0324622
609.616 .0324245
610.387 .0323881
611.158 .0323516
611.928 .0323144
612.697 .0322762
613.467 .0322369
614.236 .0321971
615.004 .0321573
615.773 .0321192
616.541 .0320841
617.308 .0320528
618.076 .0320258
618.843 .0320023
619.609 .0319819
620.375 .0319628
621.141 .0319433
621.907 .0319225
622.672 .0319001
623.437 .0318754
624.202 .0318486
624.966 .0318209
625.730 .0317947
626.493 .0317702
627.257 .0317482
628.020 .0317295
628.782 .0317128
629.545 .0316965
630.307 .0316793
631.068 .0316599
631.830 .0316378
632.591 .0316123
633.352 .0315843
634.112 .0315548
634.872 .0315255
635.632 .0314976
636.392 .0314714
637.151 .0314478
637.910 .0314266
638.668 .0314056
639.427 .0313842
640.185 .0313618
640.943 .0313378
641.700 .0313120
642.457 .0312851
643.214 .0312581
643.971 .0312315
644.727 .0312066
645.483 .0311834
646.239 .0311620
646.994 .0311418
647.750 .0311217
648.505 .0311008
649.259 .0310790
650.014 .0310558
650.768 .0310309
651.521 .0310055
652.275 .0309800
653.028 .0309546
653.781 .0309297
654.534 .0309058
655.286 .0308828
656.039 .0308606
656.791 .0308389
657.542 .0308162
658.294 .0307935
659.045 .0307712
659.796 .0307487
660.546 .0307268
661.297 .0307052
662.047 .0306840
662.796 .0306626
663.546 .0306410
664.295 .0306186
665.044 .0305955
665.793 .0305725
666.542 .0305492
667.290 .0305255
668.038 .0305020
668.786 .0304788
669.533 .0304561
670.281 .0304345
671.028 .0304133
671.774 .0303922
672.521 .0303714
673.267 .0303504
674.013 .0303296
674.759 .0303087
675.505 .0302882
676.250 .0302680
676.995 .0302483
677.740 .0302287
678.484 .0302093
679.229 .0301899
679.973 .0301703
680.717 .0301507
681.460 .0301304
682.204 .0301088
682.947 .0300863
683.690 .0300636
684.433 .0300403
685.175 .0300170
685.917 .0299945
686.659 .0299723
687.401 .0299514
688.142 .0299313
688.884 .0299117
689.625 .0298927
690.365 .0298738
691.106 .0298540
691.846 .0298333
692.586 .0298123
693.326 .0297904
694.066 .0297683
694.805 .0297472
695.545 .0297268
696.284 .0297068
697.022 .0296877
697.761 .0296690
698.499 .0296506
699.237 .0296322
699.975 .0296138
700.713 .0295954
701.450 .0295781
702.187 .0295614
702.924 .0295459
703.661 .0295319
704.397 .0295198
705.133 .0295087
705.869 .0294987
706.605 .0294899
707.341 .0294816
708.076 .0294734
708.811 .0294651
709.546 .0294562
710.281 .0294469
711.015 .0294365
711.749 .0294253
712.483 .0294133
713.217 .0294004
713.950 .0293865
714.684 .0293715
715.417 .0293555
716.150 .0293387
716.882 .0293209
717.615 .0293023
718.347 .0292830
719.079 .0292627
719.811 .0292420
720.542 .0292209
721.273 .0291999
722.005 .0291790
722.735 .0291584
723.466 .0291384
724.196 .0291188
724.927 .0290990
725.656 .0290794
726.386 .0290593
727.116 .0290394
727.845 .0290193
728.574 .0289990
729.303 .0289786
730.031 .0289591
730.760 .0289404
731.488 .0289229
732.216 .0289065
732.944 .0288912
733.671 .0288770
734.398 .0288633
735.125 .0288498
735.852 .0288362
736.579 .0288223
737.305 .0288088
738.031 .0287952
738.757 .0287820
739.483 .0287689
740.208 .0287562
740.933 .0287436
741.658 .0287305
742.383 .0287168
743.108 .0287024
743.832 .0286871
744.556 .0286712
745.280 .0286547
746.004 .0286377
746.727 .0286212
747.450 .0286055
748.173 .0285904
748.896 .0285764
749.618 .0285630
750.340 .0285502
751.062 .0285376
751.784 .0285254
752.506 .0285130
753.227 .0285001
753.948 .0284871
754.669 .0284730
755.389 .0284584
756.110 .0284436
756.830 .0284286
757.550 .0284142
758.269 .0284002
758.989 .0283866
759.708 .0283731
760.427 .0283606
761.146 .0283480
761.864 .0283350
762.582 .0283215
763.300 .0283075
764.018 .0282927
764.736 .0282779
765.453 .0282634
766.170 .0282494
766.887 .0282363
767.603 .0282242
768.320 .0282122
769.036 .0282007
769.751 .0281887
770.467 .0281760
771.182 .0281624
771.897 .0281477
772.612 .0281318
773.327 .0281162
774.041 .0281014
774.755 .0280878
775.469 .0280759
776.183 .0280663
776.896 .0280584
777.609 .0280522
778.322 .0280472
779.035 .0280425
779.747 .0280379
780.459 .0280334
781.171 .0280283
781.882 .0280233
782.594 .0280188
783.305 .0280152
784.016 .0280128
784.726 .0280119
785.436 .0280114
786.147 .0280114
786.856 .0280114
787.566 .0280109
788.275 .0280094
788.984 .0280071
789.693 .0280040
790.401 .0280007
791.110 .0279974
791.818 .0279943
792.525 .0279915
793.233 .0279892
793.940 .0279866
794.647 .0279835
795.353 .0279796
796.060 .0279747
796.766 .0279686
797.472 .0279613
798.177 .0279532
798.883 .0279445
799.588 .0279352
800.292 .0279258
800.997 .0279163
801.701 .0279069
802.405 .0278975
803.109 .0278885
803.812 .0278796
804.515 .0278708
805.218 .0278619
805.921 .0278528
806.623 .0278431
807.325 .0278332
808.027 .0278229
808.728 .0278122
809.429 .0278010
810.130 .0277893
810.831 .0277768
811.531 .0277639
812.231 .0277502
812.931 .0277353
813.630 .0277192
814.330 .0277023
815.029 .0276844
815.727 .0276658
816.426 .0276473
817.124 .0276289
817.821 .0276110
818.519 .0275941
819.216 .0275780
819.913 .0275628
820.609 .0275483
821.306 .0275343
822.002 .0275207
822.697 .0275076
823.393 .0274953
824.088 .0274834
824.783 .0274724
825.477 .0274620
826.171 .0274519
826.865 .0274422
827.559 .0274325
828.252 .0274229
828.945 .0274132
829.638 .0274027
830.330 .0273920
831.023 .0273807
831.714 .0273695
832.406 .0273584
833.097 .0273477
833.788 .0273369
834.479 .0273259
835.169 .0273149
835.859 .0273038
836.548 .0272927
837.238 .0272817
837.927 .0272707
838.615 .0272596
839.304 .0272487
839.992 .0272376
840.680 .0272266
841.367 .0272161
842.054 .0272055
842.741 .0271949
843.428 .0271838
844.114 .0271731
844.800 .0271623
845.485 .0271520
846.170 .0271419
846.855 .0271320
847.540 .0271219
848.224 .0271114
848.908 .0271002
849.592 .0270884
850.275 .0270757
850.958 .0270619
851.641 .0270471
852.323 .0270314
853.005 .0270147
853.687 .0269973
854.368 .0269792
855.049 .0269610
855.730 .0269417
856.410 .0269220
857.090 .0269018
857.769 .0268812
858.449 .0268602
859.128 .0268394
859.806 .0268184
860.485 .0267976
861.163 .0267771
861.840 .0267575
862.518 .0267386
863.195 .0267210
863.871 .0267042
864.548 .0266888
865.224 .0266750
865.899 .0266624
866.574 .0266508
867.249 .0266402
867.924 .0266304
868.598 .0266208
869.272 .0266114
869.946 .0266028
870.619 .0265943
871.292 .0265866
871.964 .0265794
872.636 .0265725
873.308 .0265658
873.979 .0265592
874.651 .0265523
875.321 .0265450
875.992 .0265373
876.662 .0265293
877.331 .0265213
878.001 .0265139
878.670 .0265072
879.338 .0265011
880.007 .0264963
880.675 .0264924
881.342 .0264883
882.009 .0264844
882.676 .0264803
883.343 .0264764
884.009 .0264730
884.675 .0264704
885.340 .0264692
886.005 .0264697
886.670 .0264725
887.334 .0264771
887.998 .0264827
888.662 .0264893
889.325 .0264959
889.988 .0265023
890.650 .0265081
891.312 .0265131
891.974 .0265184
892.636 .0265241
893.297 .0265311
893.957 .0265393
894.618 .0265488
895.278 .0265598
895.937 .0265720
896.596 .0265846
897.255 .0265972
897.914 .0266092
898.572 .0266204
899.230 .0266307
899.887 .0266398
900.544 .0266476
901.201 .0266544
901.857 .0266605
902.513 .0266656
903.168 .0266690
903.823 .0266706
904.478 .0266699
905.132 .0266665
905.786 .0266607
906.440 .0266517
907.093 .0266397
907.746 .0266250
908.399 .0266087
909.051 .0265901
909.703 .0265704
910.354 .0265502
911.005 .0265298
911.656 .0265099
912.306 .0264902
912.956 .0264711
913.605 .0264527
914.254 .0264354
914.903 .0264188
915.551 .0264028
916.199 .0263886
916.847 .0263755
917.494 .0263642
918.141 .0263545
918.788 .0263468
919.434 .0263401
920.079 .0263343
920.725 .0263286
921.370 .0263223
922.014 .0263153
922.658 .0263070
923.302 .0262974
923.946 .0262863
924.589 .0262740
925.231 .0262602
925.873 .0262455
926.515 .0262304
927.157 .0262146
927.798 .0261979
928.439 .0261800
929.079 .0261612
929.719 .0261409
930.359 .0261193
930.998 .0260966
931.637 .0260726
932.275 .0260483
932.913 .0260238
933.551 .0259995
934.188 .0259762
934.825 .0259542
935.462 .0259334
936.098 .0259143
936.733 .0258968
937.369 .0258805
938.004 .0258654
938.638 .0258512
939.273 .0258380
939.907 .0258251
940.540 .0258128
941.173 .0258010
941.806 .0257905
942.438 .0257815
943.070 .0257734
943.702 .0257664
944.333 .0257599
944.964 .0257531
945.594 .0257457
946.224 .0257372
946.854 .0257276
947.483 .0257167
948.112 .0257044
948.741 .0256912
949.369 .0256768
949.996 .0256616
950.624 .0256457
951.251 .0256292
951.878 .0256119
952.504 .0255935
953.130 .0255748
953.755 .0255560
954.380 .0255374
955.005 .0255195
955.629 .0255022
956.253 .0254858
956.877 .0254699
957.500 .0254539
958.123 .0254377
958.746 .0254209
959.368 .0254033
959.990 .0253848
960.611 .0253659
961.232 .0253466
961.853 .0253273
962.473 .0253089
963.093 .0252915
963.712 .0252745
964.331 .0252579
964.950 .0252411
965.569 .0252239
966.187 .0252066
966.804 .0251885
967.422 .0251704
968.039 .0251527
968.655 .0251356
969.272 .0251189
969.887 .0251035
970.503 .0250893
971.118 .0250767
971.733 .0250651
972.347 .0250544
972.961 .0250439
973.575 .0250334
974.188 .0250216
974.801 .0250083
975.414 .0249936
976.026 .0249773
976.638 .0249592
977.250 .0249401
977.861 .0249206
978.472 .0249016
979.083 .0248832
979.693 .0248658
980.303 .0248491
980.912 .0248330
981.521 .0248166
982.130 .0248000
982.738 .0247832
983.346 .0247663
983.954 .0247494
984.562 .0247324
985.169 .0247158
985.775 .0246996
986.382 .0246842
986.988 .0246696
987.594 .0246559
988.199 .0246430
988.804 .0246307
989.409 .0246190
990.013 .0246084
990.617 .0245981
991.221 .0245878
991.824 .0245773
992.427 .0245671
993.030 .0245565
993.632 .0245463
994.234 .0245369
994.836 .0245290
995.438 .0245226
996.039 .0245180
996.640 .0245147
997.240 .0245129
997.840 .0245127
998.440 .0245133
999.040 .0245140
999.639 .0245148
1000.238 .0245151
1000.836 .0245152
1001.435 .0245146
1002.033 .0245138
1002.630 .0245128
1003.228 .0245120
1003.825 .0245113
1004.422 .0245113
1005.018 .0245119
1005.614 .0245134
1006.210 .0245158
1006.806 .0245189
1007.401 .0245225
1007.996 .0245261
1008.591 .0245297
1009.186 .0245339
1009.780 .0245383
1010.374 .0245434
1010.967 .0245489
1011.561 .0245556
1012.154 .0245629
1012.746 .0245708
1013.339 .0245789
1013.931 .0245872
1014.523 .0245955
1015.115 .0246034
1015.706 .0246113
1016.298 .0246188
1016.888 .0246264
1017.479 .0246336
1018.069 .0246414
1018.660 .0246495
1019.250 .0246579
1019.839 .0246669
1020.429 .0246766
1021.018 .0246870
1021.607 .0246986
1022.195 .0247112
1022.784 .0247249
1023.372 .0247398
1023.960 .0247556
1024.547 .0247714
1025.135 .0247881
1025.722 .0248049
1026.309 .0248222
1026.896 .0248406
1027.483 .0248605
1028.069 .0248812
1028.655 .0249029
1029.241 .0249250
1029.827 .0249469
1030.412 .0249683
1030.997 .0249890
1031.582 .0250083
1032.167 .0250265
1032.752 .0250441
1033.336 .0250618
1033.921 .0250796
1034.505 .0250986
1035.089 .0251177
1035.672 .0251367
1036.256 .0251553
1036.839 .0251722
1037.422 .0251872
1038.005 .0252007
1038.588 .0252136
1039.171 .0252267
1039.753 .0252399
1040.335 .0252540
1040.918 .0252687
1041.500 .0252842
1042.081 .0253002
1042.663 .0253154
1043.244 .0253295
1043.826 .0253424
1044.407 .0253531
1044.988 .0253632
1045.569 .0253716
1046.150 .0253791
1046.730 .0253862
1047.311 .0253929
1047.891 .0253987
1048.471 .0254030
1049.052 .0254064
1049.632 .0254103
1050.211 .0254150
1050.791 .0254208
1051.371 .0254284
1051.950 .0254394
1052.530 .0254534
1053.109 .0254688
1053.688 .0254845
1054.268 .0255001
1054.847 .0255140
1055.426 .0255256
1056.005 .0255342
1056.583 .0255407
1057.162 .0255456
1057.741 .0255496
1058.319 .0255542
1058.898 .0255592
1059.476 .0255648
1060.055 .0255709
1060.633 .0255777
1061.211 .0255837
1061.790 .0255882
1062.368 .0255916
1062.946 .0255939
1063.524 .0255960
1064.102 .0255984
1064.680 .0256011
1065.258 .0256059
1065.836 .0256130
1066.414 .0256226
1066.992 .0256342
1067.570 .0256481
1068.148 .0256624
1068.726 .0256757
1069.304 .0256883
1069.882 .0256987
1070.460 .0257062
1071.038 .0257124
1071.616 .0257163
1072.194 .0257193
1072.772 .0257226
1073.350 .0257269
1073.928 .0257323
1074.506 .0257398
1075.084 .0257489
1075.662 .0257578
1076.240 .0257671
1076.819 .0257755
1077.397 .0257815
1077.976 .0257860
1078.554 .0257892
1079.133 .0257914
1079.711 .0257923
1080.290 .0257929
1080.869 .0257912
1081.448 .0257888
1082.027 .0257837
1082.606 .0257770
1083.185 .0257699
1083.764 .0257652
1084.343 .0257635
1084.923 .0257648
1085.502 .0257701
1086.082 .0257800
1086.662 .0257935
1087.242 .0258095
1087.822 .0258264
1088.402 .0258440
1088.983 .0258616
1089.563 .0258809
1090.144 .0258999
1090.725 .0259208
1091.306 .0259421
1091.887 .0259642
1092.469 .0259845
1093.050 .0260020
1093.632 .0260149
1094.214 .0260238
1094.796 .0260303
1095.379 .0260360
1095.961 .0260407
1096.544 .0260460
1097.127 .0260528
1097.710 .0260641
1098.294 .0260790
1098.877 .0260951
1099.461 .0261132
1100.046 .0261344
1100.630 .0261577
1101.215 .0261846
1101.800 .0262131
1102.385 .0262452
1102.970 .0262807
1103.556 .0263176
1104.142 .0263521
1104.728 .0263839
1105.315 .0264120
1105.902 .0264345
1106.489 .0264514
1107.077 .0264634
1107.664 .0264694
1108.253 .0264707
1108.841 .0264679
1109.430 .0264615
1110.019 .0264511
1110.609 .0264387
1111.198 .0264244
1111.789 .0264143
1112.379 .0264067
1112.970 .0264032
1113.561 .0264045
1114.153 .0264113
1114.745 .0264230
1115.338 .0264374
1115.931 .0264534
1116.524 .0264714
1117.117 .0264931
1117.712 .0265192
1118.306 .0265464
1118.901 .0265806
1119.496 .0266169
1120.092 .0266579
1120.689 .0267009
1121.285 .0267458
1121.882 .0267874
1122.480 .0268285
1123.078 .0268671
1123.677 .0269030
1124.276 .0269382
1124.875 .0269743
1125.476 .0270108
1126.076 .0270541
1126.677 .0271010
1127.279 .0271502
1127.881 .0272005
1128.484 .0272528
1129.087 .0272989
1129.691 .0273415
1130.295 .0273753
1130.900 .0274023
1131.505 .0274207
1132.111 .0274375
1132.718 .0274522
1133.325 .0274734
1133.933 .0275027
1134.541 .0275419
1135.150 .0275921
1135.760 .0276557
1136.370 .0277260
1136.981 .0278081
1137.592 .0278946
1138.204 .0279906
1138.817 .0280905
1139.431 .0282063
1140.045 .0283386
1140.660 .0284839
1141.275 .0286476
1141.891 .0288207
1142.508 .0290734
1143.126 .0293606
1143.744 .0293049
1144.363 .0296034
1144.983 .0296564
