Measurement Sequence started on: 15-12-46-377
Integration time: 28
Scans to Average: 2 
>>>>>Begin Spectral Data<<<<<
432.689 .0000100
433.621 .0000100
434.552 .0000100
435.482 .0000100
436.410 .0000100
437.337 .0000100
438.262 .0271126
439.187 .0574649
440.110 .0952651
441.031 .1379120
441.952 .1793379
442.871 .2119921
443.789 .2298843
444.705 .2309754
445.621 .2177275
446.535 .1955491
447.447 .1703725
448.359 .1319602
449.269 .1127334
450.178 .1004749
451.086 .0918418
451.993 .0852888
452.898 .0801616
453.803 .0760656
454.706 .0727171
455.608 .0698893
456.508 .0674550
457.408 .0653576
458.306 .0635053
459.204 .0618642
460.100 .0603872
460.995 .0590615
461.888 .0578880
462.781 .0568252
463.673 .0558632
464.563 .0549826
465.452 .0541609
466.340 .0533765
467.228 .0526188
468.114 .0518986
468.999 .0512114
469.882 .0505618
470.765 .0499597
471.647 .0494098
472.528 .0489035
473.407 .0484516
474.286 .0480505
475.163 .0476977
476.040 .0473899
476.915 .0471099
477.790 .0468651
478.663 .0466615
479.535 .0465020
480.407 .0463837
481.277 .0463095
482.147 .0462804
483.015 .0462831
483.883 .0463099
484.749 .0463546
485.615 .0464085
486.479 .0464755
487.343 .0465536
488.206 .0466340
489.067 .0467194
489.928 .0468083
490.788 .0469003
491.647 .0469998
492.505 .0470961
493.362 .0471926
494.218 .0472821
495.073 .0473776
495.928 .0474818
496.781 .0475960
497.634 .0477313
498.486 .0478959
499.337 .0480869
500.187 .0483030
501.036 .0485426
501.884 .0488132
502.731 .0491150
503.578 .0494465
504.424 .0498144
505.268 .0502156
506.113 .0506578
506.956 .0511401
507.798 .0516508
508.640 .0522078
509.480 .0528039
510.320 .0534518
511.160 .0541618
511.998 .0549385
512.836 .0558091
513.672 .0567781
514.508 .0578713
515.344 .0590859
516.178 .0604538
517.012 .0620054
517.845 .0637682
518.677 .0657649
519.508 .0680220
520.339 .0706082
521.169 .0735940
521.998 .0770118
522.826 .0808959
523.654 .0852863
524.481 .0902042
525.307 .0956566
526.133 .1016255
526.958 .1080192
527.782 .1148208
528.605 .1218936
529.428 .1291021
530.250 .1358842
531.072 .1420669
531.892 .1472900
532.712 .1512515
533.532 .1537620
534.350 .1545932
535.168 .1537128
535.986 .1511891
536.802 .1471459
537.618 .1418462
538.434 .1354962
539.249 .1286460
540.063 .1214039
540.876 .1141569
541.689 .1071647
542.501 .1006187
543.313 .0946870
544.124 .0894176
544.934 .0847542
545.744 .0805836
546.553 .0768459
547.361 .0735278
548.169 .0705776
548.976 .0679466
549.783 .0655996
550.589 .0635069
551.395 .0616279
552.200 .0599402
553.004 .0583841
553.808 .0569623
554.611 .0556558
555.414 .0544465
556.216 .0533338
557.018 .0523077
557.819 .0513647
558.619 .0504751
559.419 .0496500
560.218 .0488824
561.017 .0481576
561.815 .0474603
562.613 .0467940
563.410 .0461500
564.207 .0455266
565.003 .0449217
565.799 .0443396
566.594 .0437759
567.388 .0432391
568.182 .0427195
568.976 .0422164
569.769 .0417263
570.562 .0412486
571.354 .0407764
572.145 .0403172
572.936 .0398630
573.727 .0394174
574.517 .0389770
575.307 .0385504
576.096 .0381338
576.885 .0377292
577.673 .0373394
578.461 .0369649
579.248 .0366055
580.035 .0362658
580.821 .0359426
581.607 .0356379
582.392 .0353498
583.177 .0350802
583.962 .0348289
584.746 .0345966
585.529 .0343842
586.313 .0341938
587.095 .0340233
587.878 .0338699
588.660 .0337317
589.441 .0336065
590.222 .0334939
591.003 .0333923
591.783 .0332991
592.563 .0332140
593.342 .0331386
594.121 .0330686
594.899 .0330035
595.678 .0329442
596.455 .0328898
597.233 .0328379
598.009 .0327891
598.786 .0327426
599.562 .0326977
600.338 .0326553
601.113 .0326150
601.888 .0325761
602.663 .0325393
603.437 .0325039
604.211 .0324687
604.984 .0324350
605.757 .0324017
606.530 .0323683
607.302 .0323359
608.074 .0323057
608.845 .0322769
609.616 .0322494
610.387 .0322239
611.158 .0321991
611.928 .0321738
612.697 .0321478
613.467 .0321201
614.236 .0320906
615.004 .0320598
615.773 .0320284
616.541 .0319970
617.308 .0319671
618.076 .0319385
618.843 .0319117
619.609 .0318868
620.375 .0318631
621.141 .0318392
621.907 .0318143
622.672 .0317888
623.437 .0317623
624.202 .0317357
624.966 .0317100
625.730 .0316856
626.493 .0316632
627.257 .0316426
628.020 .0316232
628.782 .0316040
629.545 .0315832
630.307 .0315597
631.068 .0315330
631.830 .0315028
632.591 .0314687
633.352 .0314327
634.112 .0313957
634.872 .0313587
635.632 .0313216
636.392 .0312846
637.151 .0312473
637.910 .0312096
638.668 .0311714
639.427 .0311320
640.185 .0310920
640.943 .0310527
641.700 .0310137
642.457 .0309769
643.214 .0309422
643.971 .0309105
644.727 .0308813
645.483 .0308553
646.239 .0308310
646.994 .0308079
647.750 .0307856
648.505 .0307640
649.259 .0307420
650.014 .0307204
650.768 .0306982
651.521 .0306757
652.275 .0306536
653.028 .0306319
653.781 .0306105
654.534 .0305903
655.286 .0305699
656.039 .0305495
656.791 .0305280
657.542 .0305047
658.294 .0304793
659.045 .0304521
659.796 .0304238
660.546 .0303949
661.297 .0303665
662.047 .0303388
662.796 .0303120
663.546 .0302872
664.295 .0302629
665.044 .0302380
665.793 .0302128
666.542 .0301862
667.290 .0301586
668.038 .0301309
668.786 .0301033
669.533 .0300774
670.281 .0300541
671.028 .0300330
671.774 .0300144
672.521 .0299982
673.267 .0299841
674.013 .0299709
674.759 .0299587
675.505 .0299470
676.250 .0299347
676.995 .0299228
677.740 .0299113
678.484 .0299001
679.229 .0298892
679.973 .0298785
680.717 .0298681
681.460 .0298582
682.204 .0298482
682.947 .0298384
683.690 .0298284
684.433 .0298182
685.175 .0298067
685.917 .0297942
686.659 .0297811
687.401 .0297675
688.142 .0297535
688.884 .0297393
689.625 .0297249
690.365 .0297102
691.106 .0296951
691.846 .0296797
692.586 .0296635
693.326 .0296464
694.066 .0296285
694.805 .0296101
695.545 .0295915
696.284 .0295730
697.022 .0295549
697.761 .0295377
698.499 .0295208
699.237 .0295041
699.975 .0294872
700.713 .0294704
701.450 .0294541
702.187 .0294382
702.924 .0294234
703.661 .0294098
704.397 .0293975
705.133 .0293869
705.869 .0293776
706.605 .0293689
707.341 .0293603
708.076 .0293512
708.811 .0293413
709.546 .0293299
710.281 .0293177
711.015 .0293048
711.749 .0292911
712.483 .0292772
713.217 .0292627
713.950 .0292472
714.684 .0292307
715.417 .0292129
716.150 .0291937
716.882 .0291732
717.615 .0291519
718.347 .0291300
719.079 .0291080
719.811 .0290864
720.542 .0290651
721.273 .0290437
722.005 .0290223
722.735 .0290003
723.466 .0289772
724.196 .0289533
724.927 .0289282
725.656 .0289018
726.386 .0288746
727.116 .0288468
727.845 .0288185
728.574 .0287900
729.303 .0287620
730.031 .0287344
730.760 .0287080
731.488 .0286827
732.216 .0286584
732.944 .0286362
733.671 .0286154
734.398 .0285961
735.125 .0285781
735.852 .0285616
736.579 .0285461
737.305 .0285318
738.031 .0285191
738.757 .0285076
739.483 .0284971
740.208 .0284876
740.933 .0284783
741.658 .0284687
742.383 .0284582
743.108 .0284459
743.832 .0284319
744.556 .0284162
745.280 .0283984
746.004 .0283792
746.727 .0283593
747.450 .0283391
748.173 .0283185
748.896 .0282986
749.618 .0282793
750.340 .0282604
751.062 .0282424
751.784 .0282251
752.506 .0282085
753.227 .0281931
753.948 .0281785
754.669 .0281647
755.389 .0281515
756.110 .0281385
756.830 .0281253
757.550 .0281123
758.269 .0280992
758.989 .0280856
759.708 .0280716
760.427 .0280577
761.146 .0280433
761.864 .0280285
762.582 .0280136
763.300 .0279982
764.018 .0279826
764.736 .0279664
765.453 .0279497
766.170 .0279327
766.887 .0279154
767.603 .0278982
768.320 .0278812
769.036 .0278646
769.751 .0278487
770.467 .0278330
771.182 .0278181
771.897 .0278034
772.612 .0277889
773.327 .0277746
774.041 .0277607
774.755 .0277470
775.469 .0277340
776.183 .0277217
776.896 .0277109
777.609 .0277013
778.322 .0276935
779.035 .0276868
779.747 .0276817
780.459 .0276776
781.171 .0276746
781.882 .0276721
782.594 .0276708
783.305 .0276698
784.016 .0276695
784.726 .0276698
785.436 .0276704
786.147 .0276710
786.856 .0276719
787.566 .0276726
788.275 .0276730
788.984 .0276729
789.693 .0276724
790.401 .0276710
791.110 .0276688
791.818 .0276656
792.525 .0276613
793.233 .0276564
793.940 .0276508
794.647 .0276446
795.353 .0276386
796.060 .0276332
796.766 .0276281
797.472 .0276235
798.177 .0276194
798.883 .0276153
799.588 .0276109
800.292 .0276068
800.997 .0276025
801.701 .0275982
802.405 .0275947
803.109 .0275920
803.812 .0275898
804.515 .0275889
805.218 .0275880
805.921 .0275869
806.623 .0275856
807.325 .0275836
808.027 .0275806
808.728 .0275771
809.429 .0275731
810.130 .0275684
810.831 .0275636
811.531 .0275588
812.231 .0275528
812.931 .0275463
813.630 .0275387
814.330 .0275297
815.029 .0275197
815.727 .0275090
816.426 .0274982
817.124 .0274878
817.821 .0274780
818.519 .0274692
819.216 .0274615
819.913 .0274547
820.609 .0274482
821.306 .0274421
822.002 .0274364
822.697 .0274311
823.393 .0274262
824.088 .0274222
824.783 .0274192
825.477 .0274170
826.171 .0274156
826.865 .0274153
827.559 .0274156
828.252 .0274163
828.945 .0274170
829.638 .0274174
830.330 .0274169
831.023 .0274155
831.714 .0274133
832.406 .0274107
833.097 .0274076
833.788 .0274039
834.479 .0273999
835.169 .0273964
835.859 .0273934
836.548 .0273905
837.238 .0273880
837.927 .0273858
838.615 .0273832
839.304 .0273802
839.992 .0273765
840.680 .0273730
841.367 .0273692
842.054 .0273653
842.741 .0273608
843.428 .0273564
844.114 .0273519
844.800 .0273469
845.485 .0273413
846.170 .0273349
846.855 .0273275
847.540 .0273187
848.224 .0273094
848.908 .0272994
849.592 .0272884
850.275 .0272764
850.958 .0272630
851.641 .0272481
852.323 .0272314
853.005 .0272129
853.687 .0271927
854.368 .0271715
855.049 .0271494
855.730 .0271267
856.410 .0271041
857.090 .0270820
857.769 .0270598
858.449 .0270371
859.128 .0270139
859.806 .0269891
860.485 .0269633
861.163 .0269366
861.840 .0269092
862.518 .0268817
863.195 .0268545
863.871 .0268276
864.548 .0268013
865.224 .0267762
865.899 .0267517
866.574 .0267279
867.249 .0267046
867.924 .0266811
868.598 .0266580
869.272 .0266355
869.946 .0266139
870.619 .0265930
871.292 .0265737
871.964 .0265548
872.636 .0265363
873.308 .0265187
873.979 .0265016
874.651 .0264852
875.321 .0264694
875.992 .0264544
876.662 .0264399
877.331 .0264260
878.001 .0264126
878.670 .0263990
879.338 .0263860
880.007 .0263727
880.675 .0263587
881.342 .0263444
882.009 .0263301
882.676 .0263155
883.343 .0263010
884.009 .0262868
884.675 .0262725
885.340 .0262582
886.005 .0262439
886.670 .0262294
887.334 .0262153
887.998 .0262016
888.662 .0261884
889.325 .0261759
889.988 .0261646
890.650 .0261542
891.312 .0261449
891.974 .0261366
892.636 .0261288
893.297 .0261212
893.957 .0261134
894.618 .0261056
895.278 .0260976
895.937 .0260899
896.596 .0260826
897.255 .0260757
897.914 .0260694
898.572 .0260639
899.230 .0260590
899.887 .0260544
900.544 .0260491
901.201 .0260432
901.857 .0260359
902.513 .0260267
903.168 .0260154
903.823 .0260019
904.478 .0259866
905.132 .0259694
905.786 .0259509
906.440 .0259318
907.093 .0259118
907.746 .0258917
908.399 .0258715
909.051 .0258511
909.703 .0258301
910.354 .0258081
911.005 .0257855
911.656 .0257626
912.306 .0257394
912.956 .0257161
913.605 .0256937
914.254 .0256731
914.903 .0256543
915.551 .0256375
916.199 .0256234
916.847 .0256115
917.494 .0256010
918.141 .0255915
918.788 .0255820
919.434 .0255731
920.079 .0255633
920.725 .0255532
921.370 .0255427
922.014 .0255320
922.658 .0255208
923.302 .0255092
923.946 .0254975
924.589 .0254856
925.231 .0254727
925.873 .0254596
926.515 .0254460
927.157 .0254324
927.798 .0254178
928.439 .0254030
929.079 .0253879
929.719 .0253724
930.359 .0253559
930.998 .0253390
931.637 .0253212
932.275 .0253034
932.913 .0252856
933.551 .0252681
934.188 .0252513
934.825 .0252361
935.462 .0252216
936.098 .0252083
936.733 .0251964
937.369 .0251858
938.004 .0251759
938.638 .0251674
939.273 .0251600
939.907 .0251542
940.540 .0251500
941.173 .0251479
941.806 .0251478
942.438 .0251503
943.070 .0251544
943.702 .0251598
944.333 .0251661
944.964 .0251729
945.594 .0251790
946.224 .0251847
946.854 .0251900
947.483 .0251949
948.112 .0251993
948.741 .0252039
949.369 .0252089
949.996 .0252147
950.624 .0252209
951.251 .0252272
951.878 .0252338
952.504 .0252402
953.130 .0252453
953.755 .0252499
954.380 .0252539
955.005 .0252573
955.629 .0252604
956.253 .0252637
956.877 .0252677
957.500 .0252727
958.123 .0252785
958.746 .0252845
959.368 .0252908
959.990 .0252974
960.611 .0253037
961.232 .0253097
961.853 .0253159
962.473 .0253218
963.093 .0253278
963.712 .0253336
964.331 .0253392
964.950 .0253445
965.569 .0253500
966.187 .0253555
966.804 .0253610
967.422 .0253667
968.039 .0253724
968.655 .0253783
969.272 .0253843
969.887 .0253901
970.503 .0253954
971.118 .0253999
971.733 .0254036
972.347 .0254066
972.961 .0254092
973.575 .0254117
974.188 .0254145
974.801 .0254176
975.414 .0254206
976.026 .0254230
976.638 .0254249
977.250 .0254262
977.861 .0254269
978.472 .0254271
979.083 .0254269
979.693 .0254264
980.303 .0254257
980.912 .0254242
981.521 .0254224
982.130 .0254197
982.738 .0254162
983.346 .0254112
983.954 .0254044
984.562 .0253968
985.169 .0253884
985.775 .0253798
986.382 .0253716
986.988 .0253640
987.594 .0253577
988.199 .0253518
988.804 .0253467
989.409 .0253419
990.013 .0253377
990.617 .0253343
991.221 .0253313
991.824 .0253290
992.427 .0253282
993.030 .0253288
993.632 .0253314
994.234 .0253364
994.836 .0253433
995.438 .0253512
996.039 .0253597
996.640 .0253678
997.240 .0253748
997.840 .0253810
998.440 .0253868
999.040 .0253918
999.639 .0253967
1000.238 .0254006
1000.836 .0254036
1001.435 .0254060
1002.033 .0254077
1002.630 .0254076
1003.228 .0254065
1003.825 .0254042
1004.422 .0254007
1005.018 .0253970
1005.614 .0253941
1006.210 .0253926
1006.806 .0253930
1007.401 .0253949
1007.996 .0253978
1008.591 .0254012
1009.186 .0254055
1009.780 .0254090
1010.374 .0254127
1010.967 .0254163
1011.561 .0254196
1012.154 .0254227
1012.746 .0254264
1013.339 .0254302
1013.931 .0254339
1014.523 .0254379
1015.115 .0254407
1015.706 .0254417
1016.298 .0254416
1016.888 .0254397
1017.479 .0254368
1018.069 .0254327
1018.660 .0254277
1019.250 .0254211
1019.839 .0254140
1020.429 .0254058
1021.018 .0253963
1021.607 .0253867
1022.195 .0253771
1022.784 .0253679
1023.372 .0253602
1023.960 .0253545
1024.547 .0253512
1025.135 .0253509
1025.722 .0253540
1026.309 .0253592
1026.896 .0253661
1027.483 .0253738
1028.069 .0253815
1028.655 .0253887
1029.241 .0253953
1029.827 .0254015
1030.412 .0254077
1030.997 .0254144
1031.582 .0254215
1032.167 .0254287
1032.752 .0254363
1033.336 .0254439
1033.921 .0254508
1034.505 .0254563
1035.089 .0254600
1035.672 .0254614
1036.256 .0254609
1036.839 .0254591
1037.422 .0254564
1038.005 .0254537
1038.588 .0254519
1039.171 .0254509
1039.753 .0254510
1040.335 .0254522
1040.918 .0254544
1041.500 .0254563
1042.081 .0254578
1042.663 .0254580
1043.244 .0254559
1043.826 .0254518
1044.407 .0254457
1044.988 .0254378
1045.569 .0254286
1046.150 .0254176
1046.730 .0254047
1047.311 .0253902
1047.891 .0253745
1048.471 .0253561
1049.052 .0253360
1049.632 .0253142
1050.211 .0252914
1050.791 .0252667
1051.371 .0252415
1051.950 .0252164
1052.530 .0251923
1053.109 .0251703
1053.688 .0251498
1054.268 .0251318
1054.847 .0251157
1055.426 .0251012
1056.005 .0250879
1056.583 .0250760
1057.162 .0250653
1057.741 .0250551
1058.319 .0250465
1058.898 .0250400
1059.476 .0250343
1060.055 .0250299
1060.633 .0250266
1061.211 .0250232
1061.790 .0250185
1062.368 .0250115
1062.946 .0250011
1063.524 .0249877
1064.102 .0249712
1064.680 .0249524
1065.258 .0249319
1065.836 .0249112
1066.414 .0248902
1066.992 .0248693
1067.570 .0248502
1068.148 .0248320
1068.726 .0248142
1069.304 .0247990
1069.882 .0247859
1070.460 .0247755
1071.038 .0247682
1071.616 .0247640
1072.194 .0247641
1072.772 .0247668
1073.350 .0247703
1073.928 .0247736
1074.506 .0247767
1075.084 .0247793
1075.662 .0247807
1076.240 .0247832
1076.819 .0247856
1077.397 .0247879
1077.976 .0247902
1078.554 .0247916
1079.133 .0247916
1079.711 .0247896
1080.290 .0247846
1080.869 .0247775
1081.448 .0247696
1082.027 .0247605
1082.606 .0247508
1083.185 .0247431
1083.764 .0247368
1084.343 .0247311
1084.923 .0247254
1085.502 .0247197
1086.082 .0247131
1086.662 .0247077
1087.242 .0247024
1087.822 .0246980
1088.402 .0246952
1088.983 .0246948
1089.563 .0246938
1090.144 .0246925
1090.725 .0246909
1091.306 .0246869
1091.887 .0246810
1092.469 .0246753
1093.050 .0246700
1093.632 .0246666
1094.214 .0246655
1094.796 .0246683
1095.379 .0246751
1095.961 .0246869
1096.544 .0247008
1097.127 .0247152
1097.710 .0247316
1098.294 .0247473
1098.877 .0247613
1099.461 .0247745
1100.046 .0247875
1100.630 .0247986
1101.215 .0248089
1101.800 .0248182
1102.385 .0248257
1102.970 .0248328
1103.556 .0248395
1104.142 .0248455
1104.728 .0248520
1105.315 .0248559
1105.902 .0248575
1106.489 .0248586
1107.077 .0248598
1107.664 .0248587
1108.253 .0248590
1108.841 .0248630
1109.430 .0248701
1110.019 .0248821
1110.609 .0248991
1111.198 .0249233
1111.789 .0249523
1112.379 .0249843
1112.970 .0250157
1113.561 .0250476
1114.153 .0250783
1114.745 .0251055
1115.338 .0251330
1115.931 .0251618
1116.524 .0251918
1117.117 .0252284
1117.712 .0252694
1118.306 .0253171
1118.901 .0253672
1119.496 .0254191
1120.092 .0254700
1120.689 .0255200
1121.285 .0255643
1121.882 .0256045
1122.480 .0256461
1123.078 .0256931
1123.677 .0257462
1124.276 .0258112
1124.875 .0258889
1125.476 .0259781
1126.076 .0260729
1126.677 .0261671
1127.279 .0262555
1127.881 .0263392
1128.484 .0264129
1129.087 .0264766
1129.691 .0265374
1130.295 .0265986
1130.900 .0266633
1131.505 .0267350
1132.111 .0268149
1132.718 .0268986
1133.325 .0269844
1133.933 .0270688
1134.541 .0271503
1135.150 .0272290
1135.760 .0273060
1136.370 .0273827
1136.981 .0274653
1137.592 .0275526
1138.204 .0276455
1138.817 .0277445
1139.431 .0278564
1140.045 .0279773
1140.660 .0281116
1141.275 .0282383
1141.891 .0283629
1142.508 .0285690
1143.126 .0287366
1143.744 .0290016
1144.363 .0286483
1144.983 .0287290
