Measurement Sequence started on: 15-12-46-377
Integration time: 28
Scans to Average: 2 
>>>>>Begin Spectral Data<<<<<
432.689 .0000100
433.621 .0000100
434.552 .0000100
435.482 .0000100
436.410 .0000100
437.337 .0000100
438.262 .0284895
439.187 .0602171
440.110 .0997130
441.031 .1441638
441.952 .1872463
442.871 .2209981
443.789 .2392581
444.705 .2399099
445.621 .2255892
446.535 .2020520
447.447 .1755136
448.359 .1351970
449.269 .1152274
450.178 .1025626
451.086 .0937024
451.993 .0869874
452.898 .0817410
453.803 .0774821
454.706 .0739731
455.608 .0709820
456.508 .0683694
457.408 .0660965
458.306 .0640814
459.204 .0622801
460.100 .0606634
460.995 .0592384
461.888 .0579448
462.781 .0567856
463.673 .0557372
464.563 .0547895
465.452 .0539207
466.340 .0531115
467.228 .0523651
468.114 .0516791
468.999 .0510449
469.882 .0504580
470.765 .0499290
471.647 .0494634
472.528 .0490481
473.407 .0486841
474.286 .0483742
475.163 .0481107
476.040 .0478893
476.915 .0477080
477.790 .0475577
478.663 .0474420
479.535 .0473477
480.407 .0472728
481.277 .0472233
482.147 .0471886
483.015 .0471691
483.883 .0471620
484.749 .0471673
485.615 .0471793
486.479 .0472014
487.343 .0472302
488.206 .0472686
489.067 .0473107
489.928 .0473564
490.788 .0474007
491.647 .0474466
492.505 .0474965
493.362 .0475506
494.218 .0476152
495.073 .0476921
495.928 .0477905
496.781 .0479163
497.634 .0480698
498.486 .0482590
499.337 .0484782
500.187 .0487195
501.036 .0489758
501.884 .0492466
502.731 .0495266
503.578 .0498145
504.424 .0501196
505.268 .0504385
506.113 .0507919
506.956 .0511732
507.798 .0516023
508.640 .0520893
509.480 .0526496
510.320 .0532834
511.160 .0539967
511.998 .0548046
512.836 .0557097
513.672 .0567176
514.508 .0578412
515.344 .0590869
516.178 .0604894
517.012 .0620830
517.845 .0639166
518.677 .0660445
519.508 .0685014
520.339 .0713310
521.169 .0746097
521.998 .0783515
522.826 .0825702
523.654 .0872815
524.481 .0924705
525.307 .0981912
526.133 .1044305
526.958 .1111335
527.782 .1183049
528.605 .1258457
529.428 .1336901
530.250 .1413064
531.072 .1483683
531.892 .1545395
532.712 .1593633
533.532 .1626081
534.350 .1639467
535.168 .1632797
535.986 .1607141
536.802 .1564131
537.618 .1506920
538.434 .1438194
539.249 .1363483
540.063 .1285397
540.876 .1206719
541.689 .1130497
542.501 .1058212
543.313 .0991795
544.124 .0931821
544.934 .0878086
545.744 .0829628
546.553 .0786484
547.361 .0748348
548.169 .0714981
548.976 .0685673
549.783 .0659805
550.589 .0637139
551.395 .0617046
552.200 .0599167
553.004 .0583139
553.808 .0568558
554.611 .0555559
555.414 .0543680
556.216 .0532906
557.018 .0523161
557.819 .0514366
558.619 .0506090
559.419 .0498290
560.218 .0490810
561.017 .0483622
561.815 .0476639
562.613 .0469795
563.410 .0463083
564.207 .0456531
565.003 .0450187
565.799 .0444022
566.594 .0438056
567.388 .0432378
568.182 .0426901
568.976 .0421598
569.769 .0416435
570.562 .0411328
571.354 .0406319
572.145 .0401448
572.936 .0396726
573.727 .0392096
574.517 .0387585
575.307 .0383185
576.096 .0378999
576.885 .0375001
577.673 .0371205
578.461 .0367623
579.248 .0364275
580.035 .0361124
580.821 .0358171
581.607 .0355423
582.392 .0352904
583.177 .0350588
583.962 .0348509
584.746 .0346638
585.529 .0345007
586.313 .0343584
587.095 .0342357
587.878 .0341275
588.660 .0340336
589.441 .0339507
590.222 .0338734
591.003 .0338028
591.783 .0337349
592.563 .0336664
593.342 .0335994
594.121 .0335305
594.899 .0334604
595.678 .0333897
596.455 .0333199
597.233 .0332501
598.009 .0331805
598.786 .0331124
599.562 .0330450
600.338 .0329790
601.113 .0329146
601.888 .0328519
602.663 .0327906
603.437 .0327320
604.211 .0326747
604.984 .0326202
605.757 .0325703
606.530 .0325237
607.302 .0324815
608.074 .0324429
608.845 .0324082
609.616 .0323758
610.387 .0323455
611.158 .0323176
611.928 .0322908
612.697 .0322653
613.467 .0322402
614.236 .0322163
615.004 .0321928
615.773 .0321692
616.541 .0321452
617.308 .0321217
618.076 .0320976
618.843 .0320727
619.609 .0320480
620.375 .0320229
621.141 .0319974
621.907 .0319726
622.672 .0319473
623.437 .0319234
624.202 .0319004
624.966 .0318785
625.730 .0318577
626.493 .0318390
627.257 .0318211
628.020 .0318047
628.782 .0317897
629.545 .0317754
630.307 .0317603
631.068 .0317456
631.830 .0317305
632.591 .0317144
633.352 .0316983
634.112 .0316817
634.872 .0316634
635.632 .0316442
636.392 .0316225
637.151 .0315991
637.910 .0315741
638.668 .0315474
639.427 .0315189
640.185 .0314905
640.943 .0314623
641.700 .0314346
642.457 .0314085
643.214 .0313841
643.971 .0313599
644.727 .0313360
645.483 .0313113
646.239 .0312856
646.994 .0312594
647.750 .0312330
648.505 .0312062
649.259 .0311806
650.014 .0311561
650.768 .0311321
651.521 .0311087
652.275 .0310856
653.028 .0310614
653.781 .0310353
654.534 .0310074
655.286 .0309777
656.039 .0309461
656.791 .0309145
657.542 .0308824
658.294 .0308505
659.045 .0308198
659.796 .0307893
660.546 .0307581
661.297 .0307266
662.047 .0306938
662.796 .0306588
663.546 .0306215
664.295 .0305829
665.044 .0305426
665.793 .0305025
666.542 .0304632
667.290 .0304251
668.038 .0303890
668.786 .0303554
669.533 .0303227
670.281 .0302919
671.028 .0302631
671.774 .0302352
672.521 .0302084
673.267 .0301837
674.013 .0301607
674.759 .0301398
675.505 .0301214
676.250 .0301057
676.995 .0300922
677.740 .0300806
678.484 .0300693
679.229 .0300583
679.973 .0300475
680.717 .0300363
681.460 .0300247
682.204 .0300134
682.947 .0300028
683.690 .0299925
684.433 .0299833
685.175 .0299751
685.917 .0299675
686.659 .0299600
687.401 .0299524
688.142 .0299443
688.884 .0299359
689.625 .0299270
690.365 .0299179
691.106 .0299087
691.846 .0298998
692.586 .0298902
693.326 .0298799
694.066 .0298686
694.805 .0298559
695.545 .0298409
696.284 .0298240
697.022 .0298054
697.761 .0297861
698.499 .0297663
699.237 .0297472
699.975 .0297289
700.713 .0297122
701.450 .0296970
702.187 .0296829
702.924 .0296697
703.661 .0296574
704.397 .0296451
705.133 .0296332
705.869 .0296219
706.605 .0296114
707.341 .0296014
708.076 .0295925
708.811 .0295845
709.546 .0295771
710.281 .0295697
711.015 .0295620
711.749 .0295532
712.483 .0295432
713.217 .0295308
713.950 .0295155
714.684 .0294978
715.417 .0294781
716.150 .0294564
716.882 .0294338
717.615 .0294105
718.347 .0293868
719.079 .0293631
719.811 .0293399
720.542 .0293165
721.273 .0292928
722.005 .0292686
722.735 .0292430
723.466 .0292166
724.196 .0291890
724.927 .0291602
725.656 .0291308
726.386 .0291012
727.116 .0290714
727.845 .0290413
728.574 .0290112
729.303 .0289808
730.031 .0289503
730.760 .0289196
731.488 .0288883
732.216 .0288573
732.944 .0288271
733.671 .0287982
734.398 .0287703
735.125 .0287443
735.852 .0287196
736.579 .0286967
737.305 .0286748
738.031 .0286541
738.757 .0286344
739.483 .0286154
740.208 .0285972
740.933 .0285801
741.658 .0285637
742.383 .0285484
743.108 .0285332
743.832 .0285187
744.556 .0285039
745.280 .0284886
746.004 .0284721
746.727 .0284552
747.450 .0284379
748.173 .0284202
748.896 .0284027
749.618 .0283863
750.340 .0283714
751.062 .0283583
751.784 .0283469
752.506 .0283370
753.227 .0283283
753.948 .0283204
754.669 .0283129
755.389 .0283058
756.110 .0282993
756.830 .0282933
757.550 .0282886
758.269 .0282848
758.989 .0282819
759.708 .0282795
760.427 .0282780
761.146 .0282768
761.864 .0282753
762.582 .0282727
763.300 .0282698
764.018 .0282664
764.736 .0282628
765.453 .0282590
766.170 .0282561
766.887 .0282537
767.603 .0282524
768.320 .0282513
769.036 .0282508
769.751 .0282501
770.467 .0282495
771.182 .0282483
771.897 .0282467
772.612 .0282449
773.327 .0282434
774.041 .0282426
774.755 .0282431
775.469 .0282443
776.183 .0282467
776.896 .0282494
777.609 .0282527
778.322 .0282556
779.035 .0282582
779.747 .0282601
780.459 .0282618
781.171 .0282637
781.882 .0282659
782.594 .0282690
783.305 .0282733
784.016 .0282786
784.726 .0282846
785.436 .0282902
786.147 .0282949
786.856 .0282985
787.566 .0283003
788.275 .0283004
788.984 .0282994
789.693 .0282973
790.401 .0282942
791.110 .0282900
791.818 .0282850
792.525 .0282788
793.233 .0282713
793.940 .0282623
794.647 .0282518
795.353 .0282403
796.060 .0282278
796.766 .0282141
797.472 .0282000
798.177 .0281853
798.883 .0281697
799.588 .0281531
800.292 .0281355
800.997 .0281169
801.701 .0280972
802.405 .0280769
803.109 .0280567
803.812 .0280361
804.515 .0280153
805.218 .0279937
805.921 .0279713
806.623 .0279479
807.325 .0279232
808.027 .0278972
808.728 .0278698
809.429 .0278417
810.130 .0278130
810.831 .0277839
811.531 .0277549
812.231 .0277257
812.931 .0276961
813.630 .0276657
814.330 .0276346
815.029 .0276024
815.727 .0275700
816.426 .0275379
817.124 .0275059
817.821 .0274743
818.519 .0274434
819.216 .0274131
819.913 .0273834
820.609 .0273540
821.306 .0273250
822.002 .0272966
822.697 .0272690
823.393 .0272425
824.088 .0272173
824.783 .0271934
825.477 .0271711
826.171 .0271498
826.865 .0271298
827.559 .0271106
828.252 .0270919
828.945 .0270737
829.638 .0270557
830.330 .0270381
831.023 .0270203
831.714 .0270024
832.406 .0269850
833.097 .0269671
833.788 .0269490
834.479 .0269306
835.169 .0269120
835.859 .0268937
836.548 .0268757
837.238 .0268586
837.927 .0268428
838.615 .0268282
839.304 .0268151
839.992 .0268034
840.680 .0267935
841.367 .0267852
842.054 .0267782
842.741 .0267732
843.428 .0267701
844.114 .0267690
844.800 .0267701
845.485 .0267728
846.170 .0267770
846.855 .0267823
847.540 .0267880
848.224 .0267942
848.908 .0268004
849.592 .0268064
850.275 .0268117
850.958 .0268163
851.641 .0268200
852.323 .0268226
853.005 .0268246
853.687 .0268257
854.368 .0268262
855.049 .0268263
855.730 .0268261
856.410 .0268262
857.090 .0268271
857.769 .0268287
858.449 .0268309
859.128 .0268339
859.806 .0268376
860.485 .0268421
861.163 .0268475
861.840 .0268539
862.518 .0268613
863.195 .0268693
863.871 .0268781
864.548 .0268874
865.224 .0268969
865.899 .0269061
866.574 .0269150
867.249 .0269235
867.924 .0269311
868.598 .0269385
869.272 .0269461
869.946 .0269547
870.619 .0269643
871.292 .0269746
871.964 .0269857
872.636 .0269970
873.308 .0270081
873.979 .0270186
874.651 .0270278
875.321 .0270363
875.992 .0270439
876.662 .0270510
877.331 .0270579
878.001 .0270649
878.670 .0270717
879.338 .0270782
880.007 .0270841
880.675 .0270888
881.342 .0270919
882.009 .0270936
882.676 .0270941
883.343 .0270937
884.009 .0270928
884.675 .0270920
885.340 .0270912
886.005 .0270912
886.670 .0270912
887.334 .0270909
887.998 .0270904
888.662 .0270897
889.325 .0270886
889.988 .0270875
890.650 .0270866
891.312 .0270856
891.974 .0270848
892.636 .0270840
893.297 .0270824
893.957 .0270803
894.618 .0270766
895.278 .0270715
895.937 .0270651
896.596 .0270578
897.255 .0270499
897.914 .0270421
898.572 .0270346
899.230 .0270273
899.887 .0270194
900.544 .0270104
901.201 .0269997
901.857 .0269872
902.513 .0269721
903.168 .0269542
903.823 .0269338
904.478 .0269113
905.132 .0268866
905.786 .0268600
906.440 .0268315
907.093 .0268016
907.746 .0267701
908.399 .0267367
909.051 .0267016
909.703 .0266650
910.354 .0266272
911.005 .0265886
911.656 .0265495
912.306 .0265099
912.956 .0264704
913.605 .0264314
914.254 .0263933
914.903 .0263564
915.551 .0263208
916.199 .0262869
916.847 .0262545
917.494 .0262235
918.141 .0261931
918.788 .0261631
919.434 .0261336
920.079 .0261036
920.725 .0260731
921.370 .0260420
922.014 .0260104
922.658 .0259785
923.302 .0259458
923.946 .0259126
924.589 .0258788
925.231 .0258441
925.873 .0258081
926.515 .0257711
927.157 .0257333
927.798 .0256946
928.439 .0256556
929.079 .0256164
929.719 .0255774
930.359 .0255385
930.998 .0255000
931.637 .0254615
932.275 .0254237
932.913 .0253864
933.551 .0253495
934.188 .0253138
934.825 .0252794
935.462 .0252458
936.098 .0252136
936.733 .0251822
937.369 .0251514
938.004 .0251211
938.638 .0250909
939.273 .0250611
939.907 .0250320
940.540 .0250044
941.173 .0249785
941.806 .0249553
942.438 .0249348
943.070 .0249166
943.702 .0249006
944.333 .0248860
944.964 .0248724
945.594 .0248594
946.224 .0248468
946.854 .0248351
947.483 .0248245
948.112 .0248153
948.741 .0248072
949.369 .0248009
949.996 .0247953
950.624 .0247903
951.251 .0247852
951.878 .0247794
952.504 .0247727
953.130 .0247656
953.755 .0247581
954.380 .0247502
955.005 .0247431
955.629 .0247366
956.253 .0247303
956.877 .0247248
957.500 .0247198
958.123 .0247151
958.746 .0247110
959.368 .0247078
959.990 .0247052
960.611 .0247035
961.232 .0247032
961.853 .0247037
962.473 .0247055
963.093 .0247082
963.712 .0247111
964.331 .0247143
964.950 .0247183
965.569 .0247224
966.187 .0247272
966.804 .0247340
967.422 .0247425
968.039 .0247523
968.655 .0247637
969.272 .0247760
969.887 .0247890
970.503 .0248023
971.118 .0248154
971.733 .0248285
972.347 .0248421
972.961 .0248554
973.575 .0248689
974.188 .0248829
974.801 .0248973
975.414 .0249113
976.026 .0249254
976.638 .0249391
977.250 .0249521
977.861 .0249645
978.472 .0249769
979.083 .0249894
979.693 .0250015
980.303 .0250125
980.912 .0250227
981.521 .0250316
982.130 .0250387
982.738 .0250442
983.346 .0250490
983.954 .0250535
984.562 .0250582
985.169 .0250630
985.775 .0250685
986.382 .0250754
986.988 .0250829
987.594 .0250902
988.199 .0250974
988.804 .0251046
989.409 .0251116
990.013 .0251196
990.617 .0251290
991.221 .0251399
991.824 .0251532
992.427 .0251692
993.030 .0251872
993.632 .0252073
994.234 .0252294
994.836 .0252525
995.438 .0252765
996.039 .0253011
996.640 .0253247
997.240 .0253477
997.840 .0253707
998.440 .0253922
999.040 .0254122
999.639 .0254316
1000.238 .0254495
1000.836 .0254666
1001.435 .0254836
1002.033 .0254999
1002.630 .0255155
1003.228 .0255312
1003.825 .0255463
1004.422 .0255603
1005.018 .0255741
1005.614 .0255877
1006.210 .0256005
1006.806 .0256136
1007.401 .0256265
1007.996 .0256392
1008.591 .0256526
1009.186 .0256670
1009.780 .0256809
1010.374 .0256944
1010.967 .0257071
1011.561 .0257186
1012.154 .0257290
1012.746 .0257379
1013.339 .0257455
1013.931 .0257515
1014.523 .0257566
1015.115 .0257598
1015.706 .0257620
1016.298 .0257643
1016.888 .0257667
1017.479 .0257693
1018.069 .0257722
1018.660 .0257750
1019.250 .0257772
1019.839 .0257788
1020.429 .0257795
1021.018 .0257791
1021.607 .0257773
1022.195 .0257743
1022.784 .0257711
1023.372 .0257681
1023.960 .0257664
1024.547 .0257660
1025.135 .0257668
1025.722 .0257683
1026.309 .0257693
1026.896 .0257696
1027.483 .0257686
1028.069 .0257672
1028.655 .0257651
1029.241 .0257630
1029.827 .0257616
1030.412 .0257611
1030.997 .0257623
1031.582 .0257655
1032.167 .0257697
1032.752 .0257735
1033.336 .0257761
1033.921 .0257761
1034.505 .0257728
1035.089 .0257656
1035.672 .0257550
1036.256 .0257419
1036.839 .0257263
1037.422 .0257096
1038.005 .0256913
1038.588 .0256731
1039.171 .0256551
1039.753 .0256375
1040.335 .0256202
1040.918 .0256014
1041.500 .0255814
1042.081 .0255599
1042.663 .0255375
1043.244 .0255145
1043.826 .0254909
1044.407 .0254687
1044.988 .0254484
1045.569 .0254292
1046.150 .0254113
1046.730 .0253944
1047.311 .0253781
1047.891 .0253614
1048.471 .0253428
1049.052 .0253223
1049.632 .0253000
1050.211 .0252766
1050.791 .0252533
1051.371 .0252302
1051.950 .0252086
1052.530 .0251877
1053.109 .0251683
1053.688 .0251498
1054.268 .0251312
1054.847 .0251126
1055.426 .0250944
1056.005 .0250765
1056.583 .0250595
1057.162 .0250424
1057.741 .0250267
1058.319 .0250124
1058.898 .0249988
1059.476 .0249836
1060.055 .0249668
1060.633 .0249482
1061.211 .0249278
1061.790 .0249055
1062.368 .0248837
1062.946 .0248622
1063.524 .0248441
1064.102 .0248283
1064.680 .0248147
1065.258 .0248020
1065.836 .0247893
1066.414 .0247740
1066.992 .0247571
1067.570 .0247378
1068.148 .0247168
1068.726 .0246952
1069.304 .0246759
1069.882 .0246588
1070.460 .0246446
1071.038 .0246318
1071.616 .0246205
1072.194 .0246083
1072.772 .0245945
1073.350 .0245771
1073.928 .0245563
1074.506 .0245334
1075.084 .0245092
1075.662 .0244837
1076.240 .0244600
1076.819 .0244374
1077.397 .0244170
1077.976 .0243987
1078.554 .0243831
1079.133 .0243696
1079.711 .0243588
1080.290 .0243517
1080.869 .0243472
1081.448 .0243450
1082.027 .0243434
1082.606 .0243408
1083.185 .0243372
1083.764 .0243326
1084.343 .0243260
1084.923 .0243201
1085.502 .0243160
1086.082 .0243134
1086.662 .0243140
1087.242 .0243175
1087.822 .0243214
1088.402 .0243251
1088.983 .0243272
1089.563 .0243254
1090.144 .0243191
1090.725 .0243103
1091.306 .0242981
1091.887 .0242883
1092.469 .0242822
1093.050 .0242809
1093.632 .0242867
1094.214 .0243002
1094.796 .0243185
1095.379 .0243394
1095.961 .0243619
1096.544 .0243840
1097.127 .0244039
1097.710 .0244227
1098.294 .0244389
1098.877 .0244549
1099.461 .0244727
1100.046 .0244926
1100.630 .0245169
1101.215 .0245449
1101.800 .0245743
1102.385 .0246041
1102.970 .0246336
1103.556 .0246595
1104.142 .0246803
1104.728 .0246975
1105.315 .0247125
1105.902 .0247247
1106.489 .0247375
1107.077 .0247503
1107.664 .0247671
1108.253 .0247881
1108.841 .0248127
1109.430 .0248390
1110.019 .0248667
1110.609 .0248939
1111.198 .0249206
1111.789 .0249464
1112.379 .0249730
1112.970 .0249990
1113.561 .0250284
1114.153 .0250619
1114.745 .0250979
1115.338 .0251384
1115.931 .0251860
1116.524 .0252400
1117.117 .0253035
1117.712 .0253749
1118.306 .0254538
1118.901 .0255402
1119.496 .0256326
1120.092 .0257271
1120.689 .0258216
1121.285 .0259161
1121.882 .0260076
1122.480 .0260968
1123.078 .0261837
1123.677 .0262683
1124.276 .0263508
1124.875 .0264382
1125.476 .0265258
1126.076 .0266155
1126.677 .0267057
1127.279 .0267917
1127.881 .0268730
1128.484 .0269492
1129.087 .0270157
1129.691 .0270757
1130.295 .0271331
1130.900 .0271903
1131.505 .0272484
1132.111 .0273174
1132.718 .0273941
1133.325 .0274832
1133.933 .0275765
1134.541 .0276756
1135.150 .0277697
1135.760 .0278646
1136.370 .0279565
1136.981 .0280450
1137.592 .0281340
1138.204 .0282264
1138.817 .0283275
1139.431 .0284374
1140.045 .0285522
1140.660 .0286776
1141.275 .0288263
1141.891 .0290015
1142.508 .0291018
1143.126 .0291762
1143.744 .0293036
1144.363 .0300587
1144.983 .0304014
