Measurement Sequence started on: 15-12-46-377
Integration time: 28
Scans to Average: 2 
>>>>>Begin Spectral Data<<<<<
432.689 .0000100
433.621 .0000100
434.552 .0000100
435.482 .0000100
436.410 .0000100
437.337 .0000100
438.262 .0277587
439.187 .0588020
440.110 .0974822
441.031 .1411723
441.952 .1836972
442.871 .2173311
443.789 .2360454
444.705 .2376775
445.621 .2247516
446.535 .2027646
447.447 .1777132
448.359 .1390478
449.269 .1199220
450.178 .1077418
451.086 .0990812
451.993 .0923962
452.898 .0870526
453.803 .0826129
454.706 .0789212
455.608 .0757275
456.508 .0729310
457.408 .0704916
458.306 .0683313
459.204 .0664106
460.100 .0646953
460.995 .0631555
461.888 .0617714
462.781 .0605162
463.673 .0593704
464.563 .0583097
465.452 .0573267
466.340 .0564010
467.228 .0555388
468.114 .0547468
468.999 .0540300
469.882 .0533655
470.765 .0527594
471.647 .0522102
472.528 .0517047
473.407 .0512429
474.286 .0508166
475.163 .0504212
476.040 .0500614
476.915 .0497364
477.790 .0494465
478.663 .0491965
479.535 .0489936
480.407 .0488274
481.277 .0486928
482.147 .0485835
483.015 .0484895
483.883 .0484041
484.749 .0483317
485.615 .0482747
486.479 .0482294
487.343 .0482057
488.206 .0481975
489.067 .0482045
489.928 .0482279
490.788 .0482703
491.647 .0483254
492.505 .0483955
493.362 .0484806
494.218 .0485753
495.073 .0486888
495.928 .0488302
496.781 .0489993
497.634 .0492113
498.486 .0494694
499.337 .0497762
500.187 .0501278
501.036 .0505285
501.884 .0509602
502.731 .0514287
503.578 .0519263
504.424 .0524415
505.268 .0529659
506.113 .0535017
506.956 .0540597
507.798 .0546509
508.640 .0552910
509.480 .0559917
510.320 .0567765
511.160 .0576571
511.998 .0586211
512.836 .0596749
513.672 .0608159
514.508 .0620254
515.344 .0633025
516.178 .0646834
517.012 .0661816
517.845 .0678599
518.677 .0697878
519.508 .0719941
520.339 .0745845
521.169 .0775921
521.998 .0810680
522.826 .0850535
523.654 .0896016
524.481 .0946954
525.307 .1003603
526.133 .1066573
526.958 .1135148
527.782 .1208636
528.605 .1286110
529.428 .1365975
530.250 .1442735
531.072 .1513835
531.892 .1574537
532.712 .1621739
533.532 .1652984
534.350 .1665339
535.168 .1658001
535.986 .1631813
536.802 .1588861
537.618 .1531425
538.434 .1462384
539.249 .1387588
540.063 .1308649
540.876 .1230018
541.689 .1153623
542.501 .1082097
543.313 .1017010
544.124 .0958709
544.934 .0906793
545.744 .0860138
546.553 .0818443
547.361 .0781318
548.169 .0748355
548.976 .0719087
549.783 .0692905
550.589 .0669661
551.395 .0648586
552.200 .0629642
553.004 .0612249
553.808 .0596264
554.611 .0581619
555.414 .0568327
556.216 .0556213
557.018 .0545404
557.819 .0535781
558.619 .0527130
559.419 .0519360
560.218 .0512212
561.017 .0505455
561.815 .0498839
562.613 .0492300
563.410 .0485689
564.207 .0478912
565.003 .0472149
565.799 .0465361
566.594 .0458683
567.388 .0452251
568.182 .0446000
568.976 .0440006
569.769 .0434241
570.562 .0428671
571.354 .0423205
572.145 .0417930
572.936 .0412827
573.727 .0407837
574.517 .0403025
575.307 .0398422
576.096 .0394024
576.885 .0389881
577.673 .0385960
578.461 .0382253
579.248 .0378737
580.035 .0375394
580.821 .0372128
581.607 .0368960
582.392 .0365909
583.177 .0362983
583.962 .0360229
584.746 .0357689
585.529 .0355379
586.313 .0353315
587.095 .0351514
587.878 .0349934
588.660 .0348541
589.441 .0347291
590.222 .0346123
591.003 .0345037
591.783 .0344003
592.563 .0343016
593.342 .0342087
594.121 .0341235
594.899 .0340472
595.678 .0339774
596.455 .0339152
597.233 .0338570
598.009 .0338026
598.786 .0337492
599.562 .0336954
600.338 .0336405
601.113 .0335850
601.888 .0335301
602.663 .0334779
603.437 .0334298
604.211 .0333860
604.984 .0333463
605.757 .0333104
606.530 .0332764
607.302 .0332438
608.074 .0332115
608.845 .0331800
609.616 .0331485
610.387 .0331181
611.158 .0330888
611.928 .0330610
612.697 .0330349
613.467 .0330104
614.236 .0329888
615.004 .0329698
615.773 .0329531
616.541 .0329401
617.308 .0329310
618.076 .0329258
618.843 .0329232
619.609 .0329230
620.375 .0329236
621.141 .0329238
621.907 .0329223
622.672 .0329185
623.437 .0329130
624.202 .0329052
624.966 .0328956
625.730 .0328847
626.493 .0328729
627.257 .0328586
628.020 .0328409
628.782 .0328193
629.545 .0327924
630.307 .0327598
631.068 .0327215
631.830 .0326787
632.591 .0326330
633.352 .0325857
634.112 .0325382
634.872 .0324912
635.632 .0324465
636.392 .0324024
637.151 .0323601
637.910 .0323183
638.668 .0322769
639.427 .0322357
640.185 .0321952
640.943 .0321559
641.700 .0321181
642.457 .0320818
643.214 .0320472
643.971 .0320134
644.727 .0319812
645.483 .0319486
646.239 .0319161
646.994 .0318830
647.750 .0318498
648.505 .0318159
649.259 .0317823
650.014 .0317490
650.768 .0317163
651.521 .0316843
652.275 .0316529
653.028 .0316207
653.781 .0315874
654.534 .0315531
655.286 .0315174
656.039 .0314803
656.791 .0314430
657.542 .0314048
658.294 .0313671
659.045 .0313304
659.796 .0312950
660.546 .0312608
661.297 .0312275
662.047 .0311949
662.796 .0311621
663.546 .0311297
664.295 .0310970
665.044 .0310641
665.793 .0310321
666.542 .0310009
667.290 .0309707
668.038 .0309417
668.786 .0309144
669.533 .0308891
670.281 .0308658
671.028 .0308443
671.774 .0308243
672.521 .0308062
673.267 .0307899
674.013 .0307746
674.759 .0307598
675.505 .0307457
676.250 .0307316
676.995 .0307178
677.740 .0307048
678.484 .0306925
679.229 .0306821
679.973 .0306736
680.717 .0306672
681.460 .0306616
682.204 .0306564
682.947 .0306511
683.690 .0306450
684.433 .0306378
685.175 .0306293
685.917 .0306199
686.659 .0306108
687.401 .0306027
688.142 .0305958
688.884 .0305904
689.625 .0305861
690.365 .0305819
691.106 .0305771
691.846 .0305706
692.586 .0305620
693.326 .0305518
694.066 .0305400
694.805 .0305274
695.545 .0305141
696.284 .0305009
697.022 .0304878
697.761 .0304753
698.499 .0304624
699.237 .0304489
699.975 .0304343
700.713 .0304189
701.450 .0304023
702.187 .0303850
702.924 .0303672
703.661 .0303496
704.397 .0303321
705.133 .0303153
705.869 .0302987
706.605 .0302834
707.341 .0302682
708.076 .0302537
708.811 .0302395
709.546 .0302248
710.281 .0302093
711.015 .0301936
711.749 .0301769
712.483 .0301594
713.217 .0301407
713.950 .0301210
714.684 .0301003
715.417 .0300790
716.150 .0300570
716.882 .0300341
717.615 .0300107
718.347 .0299865
719.079 .0299614
719.811 .0299360
720.542 .0299098
721.273 .0298828
722.005 .0298549
722.735 .0298263
723.466 .0297970
724.196 .0297670
724.927 .0297364
725.656 .0297060
726.386 .0296756
727.116 .0296452
727.845 .0296150
728.574 .0295851
729.303 .0295559
730.031 .0295273
730.760 .0294987
731.488 .0294705
732.216 .0294431
732.944 .0294167
733.671 .0293910
734.398 .0293667
735.125 .0293437
735.852 .0293214
736.579 .0293001
737.305 .0292797
738.031 .0292597
738.757 .0292406
739.483 .0292222
740.208 .0292042
740.933 .0291867
741.658 .0291692
742.383 .0291515
743.108 .0291336
743.832 .0291155
744.556 .0290964
745.280 .0290762
746.004 .0290558
746.727 .0290350
747.450 .0290137
748.173 .0289925
748.896 .0289712
749.618 .0289492
750.340 .0289268
751.062 .0289044
751.784 .0288823
752.506 .0288607
753.227 .0288398
753.948 .0288196
754.669 .0288008
755.389 .0287831
756.110 .0287659
756.830 .0287492
757.550 .0287329
758.269 .0287162
758.989 .0286987
759.708 .0286811
760.427 .0286635
761.146 .0286466
761.864 .0286307
762.582 .0286155
763.300 .0286008
764.018 .0285867
764.736 .0285723
765.453 .0285578
766.170 .0285428
766.887 .0285273
767.603 .0285113
768.320 .0284956
769.036 .0284800
769.751 .0284654
770.467 .0284517
771.182 .0284399
771.897 .0284293
772.612 .0284200
773.327 .0284115
774.041 .0284043
774.755 .0283980
775.469 .0283925
776.183 .0283877
776.896 .0283839
777.609 .0283809
778.322 .0283794
779.035 .0283784
779.747 .0283792
780.459 .0283815
781.171 .0283854
781.882 .0283901
782.594 .0283960
783.305 .0284025
784.016 .0284099
784.726 .0284178
785.436 .0284261
786.147 .0284345
786.856 .0284432
787.566 .0284518
788.275 .0284603
788.984 .0284683
789.693 .0284758
790.401 .0284828
791.110 .0284894
791.818 .0284948
792.525 .0284995
793.233 .0285036
793.940 .0285076
794.647 .0285111
795.353 .0285139
796.060 .0285159
796.766 .0285174
797.472 .0285180
798.177 .0285176
798.883 .0285163
799.588 .0285143
800.292 .0285116
800.997 .0285085
801.701 .0285045
802.405 .0284998
803.109 .0284947
803.812 .0284891
804.515 .0284825
805.218 .0284750
805.921 .0284667
806.623 .0284579
807.325 .0284486
808.027 .0284387
808.728 .0284278
809.429 .0284165
810.130 .0284045
810.831 .0283922
811.531 .0283796
812.231 .0283673
812.931 .0283547
813.630 .0283422
814.330 .0283294
815.029 .0283163
815.727 .0283025
816.426 .0282885
817.124 .0282735
817.821 .0282576
818.519 .0282408
819.216 .0282232
819.913 .0282051
820.609 .0281869
821.306 .0281684
822.002 .0281503
822.697 .0281322
823.393 .0281143
824.088 .0280962
824.783 .0280784
825.477 .0280609
826.171 .0280439
826.865 .0280277
827.559 .0280126
828.252 .0279987
828.945 .0279859
829.638 .0279741
830.330 .0279632
831.023 .0279531
831.714 .0279434
832.406 .0279339
833.097 .0279240
833.788 .0279136
834.479 .0279029
835.169 .0278916
835.859 .0278795
836.548 .0278669
837.238 .0278534
837.927 .0278390
838.615 .0278236
839.304 .0278072
839.992 .0277899
840.680 .0277719
841.367 .0277530
842.054 .0277332
842.741 .0277133
843.428 .0276934
844.114 .0276737
844.800 .0276550
845.485 .0276365
846.170 .0276180
846.855 .0275996
847.540 .0275806
848.224 .0275607
848.908 .0275400
849.592 .0275185
850.275 .0274956
850.958 .0274718
851.641 .0274473
852.323 .0274214
853.005 .0273951
853.687 .0273686
854.368 .0273413
855.049 .0273136
855.730 .0272854
856.410 .0272561
857.090 .0272262
857.769 .0271954
858.449 .0271638
859.128 .0271318
859.806 .0270999
860.485 .0270685
861.163 .0270374
861.840 .0270079
862.518 .0269795
863.195 .0269519
863.871 .0269255
864.548 .0268998
865.224 .0268743
865.899 .0268490
866.574 .0268236
867.249 .0267981
867.924 .0267726
868.598 .0267477
869.272 .0267233
869.946 .0267000
870.619 .0266781
871.292 .0266572
871.964 .0266376
872.636 .0266193
873.308 .0266018
873.979 .0265849
874.651 .0265686
875.321 .0265526
875.992 .0265373
876.662 .0265227
877.331 .0265093
878.001 .0264973
878.670 .0264872
879.338 .0264783
880.007 .0264712
880.675 .0264655
881.342 .0264607
882.009 .0264563
882.676 .0264522
883.343 .0264479
884.009 .0264436
884.675 .0264389
885.340 .0264345
886.005 .0264304
886.670 .0264273
887.334 .0264250
887.998 .0264237
888.662 .0264236
889.325 .0264241
889.988 .0264248
890.650 .0264263
891.312 .0264280
891.974 .0264302
892.636 .0264332
893.297 .0264374
893.957 .0264428
894.618 .0264496
895.278 .0264575
895.937 .0264667
896.596 .0264772
897.255 .0264883
897.914 .0264993
898.572 .0265102
899.230 .0265204
899.887 .0265293
900.544 .0265367
901.201 .0265431
901.857 .0265478
902.513 .0265511
903.168 .0265532
903.823 .0265541
904.478 .0265542
905.132 .0265533
905.786 .0265514
906.440 .0265485
907.093 .0265440
907.746 .0265377
908.399 .0265297
909.051 .0265205
909.703 .0265100
910.354 .0264989
911.005 .0264879
911.656 .0264781
912.306 .0264692
912.956 .0264623
913.605 .0264571
914.254 .0264532
914.903 .0264507
915.551 .0264486
916.199 .0264473
916.847 .0264463
917.494 .0264454
918.141 .0264451
918.788 .0264455
919.434 .0264470
920.079 .0264488
920.725 .0264514
921.370 .0264544
922.014 .0264570
922.658 .0264590
923.302 .0264600
923.946 .0264599
924.589 .0264584
925.231 .0264554
925.873 .0264510
926.515 .0264456
927.157 .0264395
927.798 .0264324
928.439 .0264253
929.079 .0264177
929.719 .0264100
930.359 .0264020
930.998 .0263941
931.637 .0263862
932.275 .0263780
932.913 .0263699
933.551 .0263622
934.188 .0263547
934.825 .0263479
935.462 .0263414
936.098 .0263359
936.733 .0263311
937.369 .0263270
938.004 .0263232
938.638 .0263202
939.273 .0263173
939.907 .0263150
940.540 .0263131
941.173 .0263117
941.806 .0263111
942.438 .0263115
943.070 .0263129
943.702 .0263148
944.333 .0263166
944.964 .0263186
945.594 .0263202
946.224 .0263220
946.854 .0263241
947.483 .0263265
948.112 .0263295
948.741 .0263329
949.369 .0263362
949.996 .0263393
950.624 .0263421
951.251 .0263442
951.878 .0263456
952.504 .0263465
953.130 .0263471
953.755 .0263473
954.380 .0263478
955.005 .0263482
955.629 .0263479
956.253 .0263463
956.877 .0263434
957.500 .0263387
958.123 .0263328
958.746 .0263255
959.368 .0263176
959.990 .0263091
960.611 .0263006
961.232 .0262921
961.853 .0262837
962.473 .0262751
963.093 .0262659
963.712 .0262552
964.331 .0262435
964.950 .0262305
965.569 .0262166
966.187 .0262020
966.804 .0261875
967.422 .0261731
968.039 .0261590
968.655 .0261447
969.272 .0261305
969.887 .0261153
970.503 .0260994
971.118 .0260823
971.733 .0260642
972.347 .0260452
972.961 .0260260
973.575 .0260068
974.188 .0259880
974.801 .0259694
975.414 .0259511
976.026 .0259326
976.638 .0259142
977.250 .0258953
977.861 .0258757
978.472 .0258553
979.083 .0258346
979.693 .0258129
980.303 .0257911
980.912 .0257686
981.521 .0257459
982.130 .0257230
982.738 .0256995
983.346 .0256754
983.954 .0256504
984.562 .0256242
985.169 .0255968
985.775 .0255683
986.382 .0255393
986.988 .0255095
987.594 .0254794
988.199 .0254488
988.804 .0254180
989.409 .0253872
990.013 .0253562
990.617 .0253259
991.221 .0252968
991.824 .0252685
992.427 .0252414
993.030 .0252159
993.632 .0251924
994.234 .0251706
994.836 .0251503
995.438 .0251309
996.039 .0251122
996.640 .0250936
997.240 .0250756
997.840 .0250583
998.440 .0250420
999.040 .0250262
999.639 .0250107
1000.238 .0249956
1000.836 .0249800
1001.435 .0249636
1002.033 .0249463
1002.630 .0249275
1003.228 .0249077
1003.825 .0248864
1004.422 .0248645
1005.018 .0248429
1005.614 .0248220
1006.210 .0248023
1006.806 .0247838
1007.401 .0247671
1007.996 .0247517
1008.591 .0247377
1009.186 .0247252
1009.780 .0247141
1010.374 .0247042
1010.967 .0246953
1011.561 .0246874
1012.154 .0246808
1012.746 .0246749
1013.339 .0246695
1013.931 .0246645
1014.523 .0246601
1015.115 .0246556
1015.706 .0246503
1016.298 .0246442
1016.888 .0246373
1017.479 .0246293
1018.069 .0246200
1018.660 .0246102
1019.250 .0246001
1019.839 .0245901
1020.429 .0245803
1021.018 .0245711
1021.607 .0245626
1022.195 .0245543
1022.784 .0245464
1023.372 .0245392
1023.960 .0245326
1024.547 .0245260
1025.135 .0245197
1025.722 .0245147
1026.309 .0245110
1026.896 .0245086
1027.483 .0245073
1028.069 .0245079
1028.655 .0245102
1029.241 .0245131
1029.827 .0245166
1030.412 .0245206
1030.997 .0245248
1031.582 .0245284
1032.167 .0245316
1032.752 .0245342
1033.336 .0245361
1033.921 .0245377
1034.505 .0245392
1035.089 .0245405
1035.672 .0245413
1036.256 .0245421
1036.839 .0245426
1037.422 .0245425
1038.005 .0245424
1038.588 .0245415
1039.171 .0245410
1039.753 .0245406
1040.335 .0245405
1040.918 .0245402
1041.500 .0245407
1042.081 .0245416
1042.663 .0245424
1043.244 .0245431
1043.826 .0245442
1044.407 .0245447
1044.988 .0245451
1045.569 .0245457
1046.150 .0245455
1046.730 .0245446
1047.311 .0245436
1047.891 .0245415
1048.471 .0245380
1049.052 .0245339
1049.632 .0245301
1050.211 .0245261
1050.791 .0245231
1051.371 .0245213
1051.950 .0245208
1052.530 .0245213
1053.109 .0245222
1053.688 .0245225
1054.268 .0245228
1054.847 .0245235
1055.426 .0245243
1056.005 .0245257
1056.583 .0245299
1057.162 .0245356
1057.741 .0245421
1058.319 .0245512
1058.898 .0245619
1059.476 .0245727
1060.055 .0245845
1060.633 .0245971
1061.211 .0246108
1061.790 .0246257
1062.368 .0246429
1062.946 .0246613
1063.524 .0246819
1064.102 .0247042
1064.680 .0247260
1065.258 .0247478
1065.836 .0247698
1066.414 .0247902
1066.992 .0248088
1067.570 .0248262
1068.148 .0248398
1068.726 .0248493
1069.304 .0248562
1069.882 .0248597
1070.460 .0248605
1071.038 .0248597
1071.616 .0248592
1072.194 .0248601
1072.772 .0248640
1073.350 .0248721
1073.928 .0248833
1074.506 .0248991
1075.084 .0249164
1075.662 .0249325
1076.240 .0249470
1076.819 .0249599
1077.397 .0249713
1077.976 .0249829
1078.554 .0249960
1079.133 .0250118
1079.711 .0250296
1080.290 .0250494
1080.869 .0250690
1081.448 .0250860
1082.027 .0250989
1082.606 .0251074
1083.185 .0251091
1083.764 .0251077
1084.343 .0251039
1084.923 .0251018
1085.502 .0251037
1086.082 .0251108
1086.662 .0251237
1087.242 .0251409
1087.822 .0251620
1088.402 .0251844
1088.983 .0252065
1089.563 .0252282
1090.144 .0252491
1090.725 .0252707
1091.306 .0252938
1091.887 .0253206
1092.469 .0253519
1093.050 .0253878
1093.632 .0254267
1094.214 .0254655
1094.796 .0255022
1095.379 .0255354
1095.961 .0255650
1096.544 .0255885
1097.127 .0256088
1097.710 .0256269
1098.294 .0256428
1098.877 .0256576
1099.461 .0256726
1100.046 .0256858
1100.630 .0256972
1101.215 .0257077
1101.800 .0257157
1102.385 .0257219
1102.970 .0257266
1103.556 .0257303
1104.142 .0257360
1104.728 .0257448
1105.315 .0257566
1105.902 .0257709
1106.489 .0257914
1107.077 .0258162
1107.664 .0258435
1108.253 .0258754
1108.841 .0259133
1109.430 .0259572
1110.019 .0260084
1110.609 .0260665
1111.198 .0261306
1111.789 .0262018
1112.379 .0262764
1112.970 .0263546
1113.561 .0264334
1114.153 .0265105
1114.745 .0265875
1115.338 .0266626
1115.931 .0267370
1116.524 .0268098
1117.117 .0268833
1117.712 .0269595
1118.306 .0270380
1118.901 .0271163
1119.496 .0271943
1120.092 .0272717
1120.689 .0273456
1121.285 .0274137
1121.882 .0274747
1122.480 .0275311
1123.078 .0275836
1123.677 .0276366
1124.276 .0276915
1124.875 .0277476
1125.476 .0278123
1126.076 .0278829
1126.677 .0279588
1127.279 .0280373
1127.881 .0281155
1128.484 .0281928
1129.087 .0282683
1129.691 .0283407
1130.295 .0284093
1130.900 .0284805
1131.505 .0285561
1132.111 .0286361
1132.718 .0287243
1133.325 .0288215
1133.933 .0289270
1134.541 .0290398
1135.150 .0291574
1135.760 .0292736
1136.370 .0293902
1136.981 .0295055
1137.592 .0296160
1138.204 .0297248
1138.817 .0298321
1139.431 .0299428
1140.045 .0300586
1140.660 .0301790
1141.275 .0303040
1141.891 .0304465
1142.508 .0306256
1143.126 .0307542
1143.744 .0308508
1144.363 .0309903
1144.983 .0314467
