Measurement Sequence started on: 15-12-46-377
Integration time: 28
Scans to Average: 2 
>>>>>Begin Spectral Data<<<<<
432.689 .0000100
433.621 .0000100
434.552 .0000100
435.482 .0000100
436.410 .0000100
437.337 .0000100
438.262 .0305974
439.187 .0647840
440.110 .1073504
441.031 .1553138
441.952 .2018309
442.871 .2384055
443.789 .2583801
444.705 .2594725
445.621 .2444689
446.535 .2195191
447.447 .1912908
448.359 .1481772
449.269 .1267214
450.178 .1130041
451.086 .1032622
451.993 .0957348
452.898 .0896697
453.803 .0846356
454.706 .0804125
455.608 .0768049
456.508 .0736795
457.408 .0709700
458.306 .0685976
459.204 .0665124
460.100 .0646467
460.995 .0629713
461.888 .0614651
462.781 .0601078
463.673 .0588668
464.563 .0577508
465.452 .0567308
466.340 .0557802
467.228 .0549211
468.114 .0541378
468.999 .0534332
469.882 .0527937
470.765 .0522094
471.647 .0516900
472.528 .0512232
473.407 .0508113
474.286 .0504415
475.163 .0501258
476.040 .0498583
476.915 .0496214
477.790 .0494126
478.663 .0492287
479.535 .0490700
480.407 .0489386
481.277 .0488275
482.147 .0487370
483.015 .0486650
483.883 .0486122
484.749 .0485708
485.615 .0485371
486.479 .0485046
487.343 .0484787
488.206 .0484550
489.067 .0484315
489.928 .0484127
490.788 .0484056
491.647 .0484243
492.505 .0484739
493.362 .0485541
494.218 .0486656
495.073 .0488033
495.928 .0489672
496.781 .0491422
497.634 .0493414
498.486 .0495609
499.337 .0498120
500.187 .0500938
501.036 .0504140
501.884 .0507731
502.731 .0511729
503.578 .0516164
504.424 .0520972
505.268 .0526040
506.113 .0531393
506.956 .0536925
507.798 .0542797
508.640 .0548955
509.480 .0555647
510.320 .0563040
511.160 .0571351
511.998 .0580645
512.836 .0591042
513.672 .0602562
514.508 .0615512
515.344 .0629903
516.178 .0646079
517.012 .0664299
517.845 .0684966
518.677 .0708379
519.508 .0734815
520.339 .0764661
521.169 .0798384
521.998 .0836256
522.826 .0879027
523.654 .0927148
524.481 .0981187
525.307 .1041887
526.133 .1108899
526.958 .1182031
527.782 .1260847
528.605 .1343290
529.428 .1427493
530.250 .1507336
531.072 .1579814
531.892 .1640233
532.712 .1685302
533.532 .1713192
534.350 .1721627
535.168 .1711115
535.986 .1682865
536.802 .1638131
537.618 .1580347
538.434 .1511580
539.249 .1436715
540.063 .1357374
540.876 .1276716
541.689 .1197302
542.501 .1121600
543.313 .1052168
544.124 .0989660
544.934 .0933840
545.744 .0884677
546.553 .0841012
547.361 .0802453
548.169 .0768215
548.976 .0737373
549.783 .0709741
550.589 .0684970
551.395 .0662432
552.200 .0642135
553.004 .0623847
553.808 .0607325
554.611 .0592521
555.414 .0579278
556.216 .0567265
557.018 .0556263
557.819 .0546190
558.619 .0536752
559.419 .0527748
560.218 .0519277
561.017 .0511239
561.815 .0503642
562.613 .0496494
563.410 .0489592
564.207 .0482931
565.003 .0476540
565.799 .0470298
566.594 .0464082
567.388 .0458058
568.182 .0452154
568.976 .0446356
569.769 .0440691
570.562 .0435246
571.354 .0429937
572.145 .0424793
572.936 .0419835
573.727 .0414969
574.517 .0410205
575.307 .0405547
576.096 .0401021
576.885 .0396703
577.673 .0392580
578.461 .0388668
579.248 .0384934
580.035 .0381422
580.821 .0378073
581.607 .0374831
582.392 .0371735
583.177 .0368801
583.962 .0366007
584.746 .0363393
585.529 .0360988
586.313 .0358810
587.095 .0356891
587.878 .0355231
588.660 .0353788
589.441 .0352524
590.222 .0351413
591.003 .0350419
591.783 .0349495
592.563 .0348653
593.342 .0347864
594.121 .0347114
594.899 .0346438
595.678 .0345777
596.455 .0345147
597.233 .0344545
598.009 .0343969
598.786 .0343409
599.562 .0342873
600.338 .0342354
601.113 .0341842
601.888 .0341347
602.663 .0340871
603.437 .0340399
604.211 .0339939
604.984 .0339477
605.757 .0339007
606.530 .0338525
607.302 .0338046
608.074 .0337571
608.845 .0337118
609.616 .0336687
610.387 .0336284
611.158 .0335902
611.928 .0335544
612.697 .0335195
613.467 .0334857
614.236 .0334524
615.004 .0334193
615.773 .0333861
616.541 .0333527
617.308 .0333202
618.076 .0332890
618.843 .0332587
619.609 .0332308
620.375 .0332038
621.141 .0331779
621.907 .0331531
622.672 .0331289
623.437 .0331044
624.202 .0330803
624.966 .0330551
625.730 .0330294
626.493 .0330026
627.257 .0329758
628.020 .0329482
628.782 .0329202
629.545 .0328920
630.307 .0328623
631.068 .0328313
631.830 .0327986
632.591 .0327630
633.352 .0327254
634.112 .0326853
634.872 .0326439
635.632 .0326022
636.392 .0325619
637.151 .0325235
637.910 .0324879
638.668 .0324548
639.427 .0324244
640.185 .0323950
640.943 .0323664
641.700 .0323380
642.457 .0323099
643.214 .0322817
643.971 .0322540
644.727 .0322279
645.483 .0322038
646.239 .0321813
646.994 .0321603
647.750 .0321399
648.505 .0321195
649.259 .0320980
650.014 .0320752
650.768 .0320505
651.521 .0320251
652.275 .0319989
653.028 .0319727
653.781 .0319475
654.534 .0319237
655.286 .0319010
656.039 .0318795
656.791 .0318593
657.542 .0318394
658.294 .0318202
659.045 .0318012
659.796 .0317820
660.546 .0317626
661.297 .0317424
662.047 .0317209
662.796 .0316979
663.546 .0316742
664.295 .0316489
665.044 .0316224
665.793 .0315956
666.542 .0315680
667.290 .0315406
668.038 .0315134
668.786 .0314860
669.533 .0314584
670.281 .0314312
671.028 .0314038
671.774 .0313770
672.521 .0313517
673.267 .0313281
674.013 .0313065
674.759 .0312875
675.505 .0312709
676.250 .0312554
676.995 .0312412
677.740 .0312274
678.484 .0312124
679.229 .0311965
679.973 .0311785
680.717 .0311591
681.460 .0311384
682.204 .0311166
682.947 .0310939
683.690 .0310709
684.433 .0310477
685.175 .0310237
685.917 .0309991
686.659 .0309743
687.401 .0309486
688.142 .0309225
688.884 .0308961
689.625 .0308688
690.365 .0308414
691.106 .0308142
691.846 .0307866
692.586 .0307595
693.326 .0307324
694.066 .0307057
694.805 .0306797
695.545 .0306543
696.284 .0306295
697.022 .0306052
697.761 .0305813
698.499 .0305568
699.237 .0305314
699.975 .0305056
700.713 .0304791
701.450 .0304521
702.187 .0304256
702.924 .0303992
703.661 .0303740
704.397 .0303502
705.133 .0303278
705.869 .0303069
706.605 .0302871
707.341 .0302682
708.076 .0302498
708.811 .0302316
709.546 .0302139
710.281 .0301962
711.015 .0301791
711.749 .0301625
712.483 .0301461
713.217 .0301299
713.950 .0301143
714.684 .0300991
715.417 .0300843
716.150 .0300700
716.882 .0300561
717.615 .0300424
718.347 .0300289
719.079 .0300153
719.811 .0300010
720.542 .0299864
721.273 .0299708
722.005 .0299539
722.735 .0299368
723.466 .0299197
724.196 .0299025
724.927 .0298860
725.656 .0298705
726.386 .0298553
727.116 .0298405
727.845 .0298260
728.574 .0298112
729.303 .0297958
730.031 .0297808
730.760 .0297658
731.488 .0297513
732.216 .0297377
732.944 .0297247
733.671 .0297122
734.398 .0297008
735.125 .0296896
735.852 .0296784
736.579 .0296671
737.305 .0296565
738.031 .0296456
738.757 .0296350
739.483 .0296243
740.208 .0296137
740.933 .0296032
741.658 .0295929
742.383 .0295821
743.108 .0295718
743.832 .0295621
744.556 .0295538
745.280 .0295461
746.004 .0295394
746.727 .0295333
747.450 .0295273
748.173 .0295209
748.896 .0295141
749.618 .0295063
750.340 .0294977
751.062 .0294888
751.784 .0294800
752.506 .0294706
753.227 .0294610
753.948 .0294510
754.669 .0294401
755.389 .0294276
756.110 .0294135
756.830 .0293976
757.550 .0293806
758.269 .0293630
758.989 .0293446
759.708 .0293256
760.427 .0293065
761.146 .0292869
761.864 .0292664
762.582 .0292449
763.300 .0292221
764.018 .0291982
764.736 .0291738
765.453 .0291488
766.170 .0291243
766.887 .0291003
767.603 .0290771
768.320 .0290544
769.036 .0290320
769.751 .0290101
770.467 .0289883
771.182 .0289673
771.897 .0289467
772.612 .0289271
773.327 .0289084
774.041 .0288906
774.755 .0288737
775.469 .0288577
776.183 .0288417
776.896 .0288260
777.609 .0288107
778.322 .0287952
779.035 .0287801
779.747 .0287653
780.459 .0287508
781.171 .0287372
781.882 .0287238
782.594 .0287111
783.305 .0286985
784.016 .0286864
784.726 .0286746
785.436 .0286625
786.147 .0286505
786.856 .0286383
787.566 .0286262
788.275 .0286143
788.984 .0286023
789.693 .0285907
790.401 .0285795
791.110 .0285687
791.818 .0285579
792.525 .0285470
793.233 .0285356
793.940 .0285239
794.647 .0285115
795.353 .0284987
796.060 .0284856
796.766 .0284725
797.472 .0284600
798.177 .0284482
798.883 .0284374
799.588 .0284270
800.292 .0284171
800.997 .0284075
801.701 .0283971
802.405 .0283860
803.109 .0283741
803.812 .0283617
804.515 .0283492
805.218 .0283361
805.921 .0283233
806.623 .0283107
807.325 .0282986
808.027 .0282862
808.728 .0282735
809.429 .0282605
810.130 .0282466
810.831 .0282319
811.531 .0282170
812.231 .0282017
812.931 .0281864
813.630 .0281711
814.330 .0281563
815.029 .0281417
815.727 .0281276
816.426 .0281138
817.124 .0281006
817.821 .0280879
818.519 .0280758
819.216 .0280643
819.913 .0280541
820.609 .0280450
821.306 .0280375
822.002 .0280314
822.697 .0280274
823.393 .0280251
824.088 .0280243
824.783 .0280251
825.477 .0280267
826.171 .0280290
826.865 .0280318
827.559 .0280351
828.252 .0280393
828.945 .0280439
829.638 .0280492
830.330 .0280552
831.023 .0280616
831.714 .0280681
832.406 .0280746
833.097 .0280802
833.788 .0280848
834.479 .0280879
835.169 .0280894
835.859 .0280900
836.548 .0280902
837.238 .0280908
837.927 .0280915
838.615 .0280931
839.304 .0280952
839.992 .0280973
840.680 .0280997
841.367 .0281014
842.054 .0281024
842.741 .0281026
843.428 .0281019
844.114 .0281002
844.800 .0280986
845.485 .0280966
846.170 .0280942
846.855 .0280914
847.540 .0280877
848.224 .0280828
848.908 .0280766
849.592 .0280689
850.275 .0280595
850.958 .0280482
851.641 .0280352
852.323 .0280203
853.005 .0280042
853.687 .0279864
854.368 .0279672
855.049 .0279469
855.730 .0279258
856.410 .0279032
857.090 .0278799
857.769 .0278561
858.449 .0278314
859.128 .0278059
859.806 .0277794
860.485 .0277523
861.163 .0277248
861.840 .0276968
862.518 .0276688
863.195 .0276408
863.871 .0276131
864.548 .0275857
865.224 .0275587
865.899 .0275323
866.574 .0275064
867.249 .0274811
867.924 .0274567
868.598 .0274334
869.272 .0274116
869.946 .0273913
870.619 .0273725
871.292 .0273550
871.964 .0273380
872.636 .0273211
873.308 .0273042
873.979 .0272866
874.651 .0272684
875.321 .0272501
875.992 .0272317
876.662 .0272134
877.331 .0271958
878.001 .0271790
878.670 .0271629
879.338 .0271470
880.007 .0271314
880.675 .0271156
881.342 .0270996
882.009 .0270838
882.676 .0270681
883.343 .0270529
884.009 .0270385
884.675 .0270248
885.340 .0270121
886.005 .0270005
886.670 .0269897
887.334 .0269793
887.998 .0269695
888.662 .0269600
889.325 .0269503
889.988 .0269408
890.650 .0269315
891.312 .0269223
891.974 .0269135
892.636 .0269052
893.297 .0268973
893.957 .0268899
894.618 .0268828
895.278 .0268759
895.937 .0268687
896.596 .0268616
897.255 .0268539
897.914 .0268452
898.572 .0268357
899.230 .0268255
899.887 .0268145
900.544 .0268032
901.201 .0267911
901.857 .0267780
902.513 .0267640
903.168 .0267492
903.823 .0267329
904.478 .0267156
905.132 .0266975
905.786 .0266786
906.440 .0266589
907.093 .0266393
907.746 .0266193
908.399 .0265995
909.051 .0265803
909.703 .0265610
910.354 .0265415
911.005 .0265219
911.656 .0265024
912.306 .0264834
912.956 .0264650
913.605 .0264472
914.254 .0264303
914.903 .0264146
915.551 .0264001
916.199 .0263863
916.847 .0263736
917.494 .0263621
918.141 .0263514
918.788 .0263416
919.434 .0263325
920.079 .0263240
920.725 .0263165
921.370 .0263097
922.014 .0263037
922.658 .0262975
923.302 .0262913
923.946 .0262848
924.589 .0262774
925.231 .0262690
925.873 .0262593
926.515 .0262485
927.157 .0262369
927.798 .0262246
928.439 .0262119
929.079 .0261991
929.719 .0261866
930.359 .0261742
930.998 .0261618
931.637 .0261500
932.275 .0261382
932.913 .0261266
933.551 .0261153
934.188 .0261040
934.825 .0260931
935.462 .0260830
936.098 .0260737
936.733 .0260657
937.369 .0260590
938.004 .0260539
938.638 .0260504
939.273 .0260486
939.907 .0260484
940.540 .0260500
941.173 .0260532
941.806 .0260578
942.438 .0260634
943.070 .0260702
943.702 .0260781
944.333 .0260868
944.964 .0260960
945.594 .0261056
946.224 .0261154
946.854 .0261258
947.483 .0261361
948.112 .0261464
948.741 .0261564
949.369 .0261659
949.996 .0261749
950.624 .0261832
951.251 .0261903
951.878 .0261967
952.504 .0262023
953.130 .0262072
953.755 .0262108
954.380 .0262130
955.005 .0262142
955.629 .0262147
956.253 .0262141
956.877 .0262131
957.500 .0262115
958.123 .0262107
958.746 .0262105
959.368 .0262109
959.990 .0262117
960.611 .0262125
961.232 .0262133
961.853 .0262133
962.473 .0262121
963.093 .0262101
963.712 .0262069
964.331 .0262030
964.950 .0261987
965.569 .0261942
966.187 .0261902
966.804 .0261870
967.422 .0261843
968.039 .0261818
968.655 .0261788
969.272 .0261749
969.887 .0261697
970.503 .0261632
971.118 .0261555
971.733 .0261463
972.347 .0261368
972.961 .0261273
973.575 .0261175
974.188 .0261077
974.801 .0260982
975.414 .0260885
976.026 .0260784
976.638 .0260677
977.250 .0260563
977.861 .0260447
978.472 .0260331
979.083 .0260210
979.693 .0260082
980.303 .0259947
980.912 .0259796
981.521 .0259627
982.130 .0259443
982.738 .0259243
983.346 .0259027
983.954 .0258808
984.562 .0258587
985.169 .0258367
985.775 .0258151
986.382 .0257946
986.988 .0257747
987.594 .0257553
988.199 .0257359
988.804 .0257165
989.409 .0256974
990.013 .0256787
990.617 .0256603
991.221 .0256428
991.824 .0256266
992.427 .0256115
993.030 .0255975
993.632 .0255846
994.234 .0255724
994.836 .0255600
995.438 .0255474
996.039 .0255339
996.640 .0255190
997.240 .0255029
997.840 .0254864
998.440 .0254698
999.040 .0254537
999.639 .0254380
1000.238 .0254230
1000.836 .0254087
1001.435 .0253946
1002.033 .0253807
1002.630 .0253665
1003.228 .0253524
1003.825 .0253383
1004.422 .0253248
1005.018 .0253130
1005.614 .0253028
1006.210 .0252953
1006.806 .0252901
1007.401 .0252861
1007.996 .0252823
1008.591 .0252779
1009.186 .0252723
1009.780 .0252656
1010.374 .0252575
1010.967 .0252481
1011.561 .0252382
1012.154 .0252284
1012.746 .0252185
1013.339 .0252092
1013.931 .0252007
1014.523 .0251926
1015.115 .0251841
1015.706 .0251757
1016.298 .0251670
1016.888 .0251578
1017.479 .0251484
1018.069 .0251386
1018.660 .0251278
1019.250 .0251157
1019.839 .0251018
1020.429 .0250871
1021.018 .0250726
1021.607 .0250585
1022.195 .0250456
1022.784 .0250344
1023.372 .0250252
1023.960 .0250177
1024.547 .0250112
1025.135 .0250059
1025.722 .0250012
1026.309 .0249961
1026.896 .0249915
1027.483 .0249877
1028.069 .0249850
1028.655 .0249842
1029.241 .0249859
1029.827 .0249903
1030.412 .0249964
1030.997 .0250034
1031.582 .0250105
1032.167 .0250168
1032.752 .0250220
1033.336 .0250248
1033.921 .0250255
1034.505 .0250239
1035.089 .0250198
1035.672 .0250134
1036.256 .0250061
1036.839 .0249975
1037.422 .0249882
1038.005 .0249793
1038.588 .0249712
1039.171 .0249640
1039.753 .0249581
1040.335 .0249534
1040.918 .0249509
1041.500 .0249497
1042.081 .0249487
1042.663 .0249480
1043.244 .0249488
1043.826 .0249503
1044.407 .0249522
1044.988 .0249551
1045.569 .0249586
1046.150 .0249626
1046.730 .0249667
1047.311 .0249695
1047.891 .0249713
1048.471 .0249716
1049.052 .0249696
1049.632 .0249661
1050.211 .0249625
1050.791 .0249579
1051.371 .0249545
1051.950 .0249528
1052.530 .0249528
1053.109 .0249537
1053.688 .0249549
1054.268 .0249572
1054.847 .0249605
1055.426 .0249640
1056.005 .0249664
1056.583 .0249684
1057.162 .0249711
1057.741 .0249725
1058.319 .0249738
1058.898 .0249757
1059.476 .0249772
1060.055 .0249785
1060.633 .0249791
1061.211 .0249776
1061.790 .0249767
1062.368 .0249754
1062.946 .0249735
1063.524 .0249728
1064.102 .0249729
1064.680 .0249740
1065.258 .0249763
1065.836 .0249815
1066.414 .0249885
1066.992 .0249977
1067.570 .0250109
1068.148 .0250258
1068.726 .0250434
1069.304 .0250633
1069.882 .0250832
1070.460 .0251041
1071.038 .0251248
1071.616 .0251430
1072.194 .0251586
1072.772 .0251724
1073.350 .0251832
1073.928 .0251925
1074.506 .0252008
1075.084 .0252086
1075.662 .0252160
1076.240 .0252229
1076.819 .0252277
1077.397 .0252318
1077.976 .0252365
1078.554 .0252407
1079.133 .0252451
1079.711 .0252518
1080.290 .0252615
1080.869 .0252731
1081.448 .0252885
1082.027 .0253078
1082.606 .0253307
1083.185 .0253583
1083.764 .0253874
1084.343 .0254185
1084.923 .0254518
1085.502 .0254856
1086.082 .0255194
1086.662 .0255532
1087.242 .0255869
1087.822 .0256181
1088.402 .0256462
1088.983 .0256728
1089.563 .0256957
1090.144 .0257160
1090.725 .0257348
1091.306 .0257516
1091.887 .0257676
1092.469 .0257831
1093.050 .0257969
1093.632 .0258120
1094.214 .0258271
1094.796 .0258436
1095.379 .0258613
1095.961 .0258820
1096.544 .0259054
1097.127 .0259294
1097.710 .0259555
1098.294 .0259853
1098.877 .0260153
1099.461 .0260479
1100.046 .0260797
1100.630 .0261126
1101.215 .0261460
1101.800 .0261783
1102.385 .0262090
1102.970 .0262394
1103.556 .0262666
1104.142 .0262912
1104.728 .0263128
1105.315 .0263334
1105.902 .0263539
1106.489 .0263770
1107.077 .0264024
1107.664 .0264311
1108.253 .0264637
1108.841 .0264999
1109.430 .0265381
1110.019 .0265800
1110.609 .0266220
1111.198 .0266637
1111.789 .0267080
1112.379 .0267528
1112.970 .0267980
1113.561 .0268487
1114.153 .0269014
1114.745 .0269571
1115.338 .0270166
1115.931 .0270772
1116.524 .0271368
1117.117 .0271948
1117.712 .0272507
1118.306 .0273023
1118.901 .0273516
1119.496 .0273974
1120.092 .0274395
1120.689 .0274844
1121.285 .0275288
1121.882 .0275747
1122.480 .0276272
1123.078 .0276864
1123.677 .0277479
1124.276 .0278126
1124.875 .0278792
1125.476 .0279428
1126.076 .0280035
1126.677 .0280575
1127.279 .0281078
1127.881 .0281572
1128.484 .0282028
1129.087 .0282461
1129.691 .0282926
1130.295 .0283427
1130.900 .0283918
1131.505 .0284453
1132.111 .0285035
1132.718 .0285620
1133.325 .0286259
1133.933 .0286945
1134.541 .0287737
1135.150 .0288642
1135.760 .0289651
1136.370 .0290757
1136.981 .0292034
1137.592 .0293398
1138.204 .0294863
1138.817 .0296444
1139.431 .0298218
1140.045 .0300049
1140.660 .0301959
1141.275 .0303895
1141.891 .0305835
1142.508 .0309651
1143.126 .0310149
1143.744 .0311972
1144.363 .0313054
1144.983 .0313899
