Measurement Sequence started on: 15-12-46-377
Integration time: 28
Scans to Average: 2 
>>>>>Begin Spectral Data<<<<<
432.689 .0000100
433.621 .0000100
434.552 .0000100
435.482 .0000100
436.410 .0000100
437.337 .0000100
438.262 .0269694
439.187 .0569813
440.110 .0942380
441.031 .1362093
441.952 .1768522
442.871 .2086845
443.789 .2259166
444.705 .2265913
445.621 .2132282
446.535 .1911975
447.447 .1663916
448.359 .1285466
449.269 .1099246
450.178 .0981655
451.086 .0898327
451.993 .0834651
452.898 .0784346
453.803 .0743136
454.706 .0709165
455.608 .0680405
456.508 .0656004
457.408 .0634879
458.306 .0616289
459.204 .0599738
460.100 .0584851
460.995 .0571398
461.888 .0559205
462.781 .0548064
463.673 .0537978
464.563 .0528897
465.452 .0520791
466.340 .0513421
467.228 .0506690
468.114 .0500491
468.999 .0494740
469.882 .0489194
470.765 .0484018
471.647 .0479043
472.528 .0474510
473.407 .0470497
474.286 .0466950
475.163 .0463940
476.040 .0461471
476.915 .0459478
477.790 .0457807
478.663 .0456401
479.535 .0455226
480.407 .0454132
481.277 .0453238
482.147 .0452454
483.015 .0451769
483.883 .0451281
484.749 .0450930
485.615 .0450673
486.479 .0450584
487.343 .0450615
488.206 .0450680
489.067 .0450833
489.928 .0451012
490.788 .0451197
491.647 .0451417
492.505 .0451758
493.362 .0452153
494.218 .0452622
495.073 .0453240
495.928 .0453984
496.781 .0454920
497.634 .0456202
498.486 .0457749
499.337 .0459700
500.187 .0462099
501.036 .0464887
501.884 .0467988
502.731 .0471429
503.578 .0475179
504.424 .0479123
505.268 .0483310
506.113 .0487780
506.956 .0492488
507.798 .0497778
508.640 .0503672
509.480 .0510275
510.320 .0517693
511.160 .0526027
511.998 .0535183
512.836 .0545215
513.672 .0556192
514.508 .0567884
515.344 .0580550
516.178 .0594511
517.012 .0610152
517.845 .0628025
518.677 .0648660
519.508 .0672281
520.339 .0699263
521.169 .0730225
521.998 .0765002
522.826 .0804344
523.654 .0848481
524.481 .0897724
525.307 .0952352
526.133 .1011818
526.958 .1076126
527.782 .1144200
528.605 .1215553
529.428 .1288412
530.250 .1358599
531.072 .1423499
531.892 .1478897
532.712 .1521889
533.532 .1549899
534.350 .1560162
535.168 .1552280
535.986 .1526578
536.802 .1484961
537.618 .1429772
538.434 .1364200
539.249 .1293341
540.063 .1219989
540.876 .1147080
541.689 .1076901
542.501 .1011020
543.313 .0951347
544.124 .0897806
544.934 .0849963
545.744 .0807174
546.553 .0768856
547.361 .0734667
548.169 .0703918
548.976 .0676239
549.783 .0651507
550.589 .0629296
551.395 .0609271
552.200 .0591105
553.004 .0574464
553.808 .0559127
554.611 .0545082
555.414 .0532094
556.216 .0520100
557.018 .0508976
557.819 .0498698
558.619 .0489102
559.419 .0480045
560.218 .0471566
561.017 .0463646
561.815 .0456324
562.613 .0449595
563.410 .0443375
564.207 .0437587
565.003 .0432216
565.799 .0427061
566.594 .0422049
567.388 .0417169
568.182 .0412356
568.976 .0407595
569.769 .0402972
570.562 .0398509
571.354 .0394211
572.145 .0390091
572.936 .0386150
573.727 .0382279
574.517 .0378495
575.307 .0374767
576.096 .0371049
576.885 .0367429
577.673 .0363908
578.461 .0360514
579.248 .0357317
580.035 .0354314
580.821 .0351505
581.607 .0348853
582.392 .0346375
583.177 .0344012
583.962 .0341759
584.746 .0339639
585.529 .0337632
586.313 .0335760
587.095 .0334019
587.878 .0332422
588.660 .0330956
589.441 .0329640
590.222 .0328430
591.003 .0327332
591.783 .0326330
592.563 .0325401
593.342 .0324554
594.121 .0323765
594.899 .0323055
595.678 .0322412
596.455 .0321830
597.233 .0321314
598.009 .0320853
598.786 .0320444
599.562 .0320068
600.338 .0319725
601.113 .0319396
601.888 .0319075
602.663 .0318769
603.437 .0318468
604.211 .0318171
604.984 .0317877
605.757 .0317601
606.530 .0317330
607.302 .0317070
608.074 .0316822
608.845 .0316578
609.616 .0316345
610.387 .0316112
611.158 .0315882
611.928 .0315655
612.697 .0315439
613.467 .0315234
614.236 .0315045
615.004 .0314879
615.773 .0314730
616.541 .0314603
617.308 .0314503
618.076 .0314425
618.843 .0314357
619.609 .0314294
620.375 .0314241
621.141 .0314182
621.907 .0314118
622.672 .0314036
623.437 .0313953
624.202 .0313862
624.966 .0313762
625.730 .0313654
626.493 .0313536
627.257 .0313408
628.020 .0313262
628.782 .0313092
629.545 .0312897
630.307 .0312675
631.068 .0312431
631.830 .0312156
632.591 .0311858
633.352 .0311540
634.112 .0311208
634.872 .0310863
635.632 .0310520
636.392 .0310166
637.151 .0309807
637.910 .0309455
638.668 .0309108
639.427 .0308763
640.185 .0308425
640.943 .0308093
641.700 .0307768
642.457 .0307448
643.214 .0307132
643.971 .0306814
644.727 .0306514
645.483 .0306222
646.239 .0305943
646.994 .0305683
647.750 .0305444
648.505 .0305220
649.259 .0305012
650.014 .0304815
650.768 .0304612
651.521 .0304397
652.275 .0304173
653.028 .0303932
653.781 .0303684
654.534 .0303427
655.286 .0303165
656.039 .0302907
656.791 .0302659
657.542 .0302408
658.294 .0302164
659.045 .0301931
659.796 .0301695
660.546 .0301451
661.297 .0301202
662.047 .0300951
662.796 .0300692
663.546 .0300442
664.295 .0300201
665.044 .0299973
665.793 .0299767
666.542 .0299584
667.290 .0299432
668.038 .0299311
668.786 .0299207
669.533 .0299117
670.281 .0299036
671.028 .0298963
671.774 .0298883
672.521 .0298803
673.267 .0298725
674.013 .0298649
674.759 .0298574
675.505 .0298507
676.250 .0298449
676.995 .0298402
677.740 .0298359
678.484 .0298325
679.229 .0298293
679.973 .0298257
680.717 .0298214
681.460 .0298170
682.204 .0298123
682.947 .0298075
683.690 .0298021
684.433 .0297967
685.175 .0297910
685.917 .0297851
686.659 .0297789
687.401 .0297727
688.142 .0297662
688.884 .0297590
689.625 .0297507
690.365 .0297417
691.106 .0297313
691.846 .0297195
692.586 .0297060
693.326 .0296918
694.066 .0296762
694.805 .0296594
695.545 .0296410
696.284 .0296222
697.022 .0296020
697.761 .0295807
698.499 .0295585
699.237 .0295352
699.975 .0295108
700.713 .0294860
701.450 .0294605
702.187 .0294347
702.924 .0294087
703.661 .0293827
704.397 .0293557
705.133 .0293286
705.869 .0293010
706.605 .0292734
707.341 .0292462
708.076 .0292199
708.811 .0291936
709.546 .0291679
710.281 .0291431
711.015 .0291181
711.749 .0290930
712.483 .0290676
713.217 .0290409
713.950 .0290126
714.684 .0289834
715.417 .0289533
716.150 .0289228
716.882 .0288932
717.615 .0288637
718.347 .0288345
719.079 .0288056
719.811 .0287767
720.542 .0287479
721.273 .0287197
722.005 .0286923
722.735 .0286652
723.466 .0286397
724.196 .0286159
724.927 .0285933
725.656 .0285723
726.386 .0285531
727.116 .0285349
727.845 .0285175
728.574 .0285005
729.303 .0284842
730.031 .0284693
730.760 .0284558
731.488 .0284433
732.216 .0284320
732.944 .0284218
733.671 .0284124
734.398 .0284035
735.125 .0283952
735.852 .0283874
736.579 .0283801
737.305 .0283736
738.031 .0283683
738.757 .0283640
739.483 .0283609
740.208 .0283590
740.933 .0283579
741.658 .0283566
742.383 .0283551
743.108 .0283529
743.832 .0283501
744.556 .0283465
745.280 .0283426
746.004 .0283387
746.727 .0283349
747.450 .0283317
748.173 .0283286
748.896 .0283261
749.618 .0283240
750.340 .0283218
751.062 .0283200
751.784 .0283178
752.506 .0283154
753.227 .0283123
753.948 .0283089
754.669 .0283052
755.389 .0283014
756.110 .0282977
756.830 .0282943
757.550 .0282912
758.269 .0282881
758.989 .0282852
759.708 .0282818
760.427 .0282779
761.146 .0282733
761.864 .0282676
762.582 .0282612
763.300 .0282538
764.018 .0282460
764.736 .0282377
765.453 .0282294
766.170 .0282208
766.887 .0282110
767.603 .0282007
768.320 .0281888
769.036 .0281756
769.751 .0281611
770.467 .0281457
771.182 .0281298
771.897 .0281142
772.612 .0280994
773.327 .0280853
774.041 .0280726
774.755 .0280608
775.469 .0280492
776.183 .0280382
776.896 .0280270
777.609 .0280158
778.322 .0280041
779.035 .0279927
779.747 .0279807
780.459 .0279694
781.171 .0279581
781.882 .0279465
782.594 .0279347
783.305 .0279225
784.016 .0279093
784.726 .0278950
785.436 .0278797
786.147 .0278632
786.856 .0278454
787.566 .0278267
788.275 .0278067
788.984 .0277864
789.693 .0277654
790.401 .0277444
791.110 .0277234
791.818 .0277027
792.525 .0276822
793.233 .0276620
793.940 .0276421
794.647 .0276221
795.353 .0276017
796.060 .0275802
796.766 .0275579
797.472 .0275343
798.177 .0275092
798.883 .0274828
799.588 .0274553
800.292 .0274273
800.997 .0273983
801.701 .0273689
802.405 .0273396
803.109 .0273104
803.812 .0272819
804.515 .0272536
805.218 .0272256
805.921 .0271979
806.623 .0271700
807.325 .0271422
808.027 .0271145
808.728 .0270871
809.429 .0270596
810.130 .0270332
810.831 .0270079
811.531 .0269836
812.231 .0269605
812.931 .0269386
813.630 .0269174
814.330 .0268970
815.029 .0268764
815.727 .0268559
816.426 .0268355
817.124 .0268154
817.821 .0267953
818.519 .0267765
819.216 .0267587
819.913 .0267422
820.609 .0267271
821.306 .0267139
822.002 .0267020
822.697 .0266917
823.393 .0266829
824.088 .0266754
824.783 .0266688
825.477 .0266632
826.171 .0266579
826.865 .0266536
827.559 .0266500
828.252 .0266470
828.945 .0266448
829.638 .0266435
830.330 .0266432
831.023 .0266439
831.714 .0266461
832.406 .0266498
833.097 .0266548
833.788 .0266610
834.479 .0266680
835.169 .0266759
835.859 .0266848
836.548 .0266942
837.238 .0267043
837.927 .0267145
838.615 .0267243
839.304 .0267335
839.992 .0267426
840.680 .0267511
841.367 .0267595
842.054 .0267676
842.741 .0267752
843.428 .0267824
844.114 .0267890
844.800 .0267944
845.485 .0267986
846.170 .0268014
846.855 .0268025
847.540 .0268020
848.224 .0268005
848.908 .0267988
849.592 .0267972
850.275 .0267962
850.958 .0267960
851.641 .0267961
852.323 .0267968
853.005 .0267974
853.687 .0267975
854.368 .0267969
855.049 .0267954
855.730 .0267934
856.410 .0267904
857.090 .0267873
857.769 .0267839
858.449 .0267801
859.128 .0267761
859.806 .0267714
860.485 .0267658
861.163 .0267595
861.840 .0267526
862.518 .0267451
863.195 .0267372
863.871 .0267290
864.548 .0267207
865.224 .0267122
865.899 .0267035
866.574 .0266943
867.249 .0266845
867.924 .0266746
868.598 .0266643
869.272 .0266541
869.946 .0266444
870.619 .0266355
871.292 .0266275
871.964 .0266201
872.636 .0266131
873.308 .0266064
873.979 .0265992
874.651 .0265913
875.321 .0265820
875.992 .0265713
876.662 .0265594
877.331 .0265470
878.001 .0265339
878.670 .0265207
879.338 .0265073
880.007 .0264942
880.675 .0264811
881.342 .0264681
882.009 .0264547
882.676 .0264406
883.343 .0264266
884.009 .0264119
884.675 .0263966
885.340 .0263810
886.005 .0263650
886.670 .0263488
887.334 .0263324
887.998 .0263154
888.662 .0262976
889.325 .0262792
889.988 .0262604
890.650 .0262407
891.312 .0262200
891.974 .0261987
892.636 .0261765
893.297 .0261536
893.957 .0261300
894.618 .0261055
895.278 .0260805
895.937 .0260556
896.596 .0260311
897.255 .0260069
897.914 .0259837
898.572 .0259615
899.230 .0259404
899.887 .0259202
900.544 .0259008
901.201 .0258814
901.857 .0258622
902.513 .0258427
903.168 .0258224
903.823 .0258013
904.478 .0257798
905.132 .0257572
905.786 .0257340
906.440 .0257097
907.093 .0256843
907.746 .0256575
908.399 .0256297
909.051 .0256004
909.703 .0255700
910.354 .0255383
911.005 .0255056
911.656 .0254719
912.306 .0254376
912.956 .0254028
913.605 .0253680
914.254 .0253333
914.903 .0252992
915.551 .0252653
916.199 .0252327
916.847 .0252007
917.494 .0251699
918.141 .0251397
918.788 .0251105
919.434 .0250820
920.079 .0250543
920.725 .0250275
921.370 .0250017
922.014 .0249774
922.658 .0249543
923.302 .0249324
923.946 .0249114
924.589 .0248906
925.231 .0248695
925.873 .0248479
926.515 .0248259
927.157 .0248033
927.798 .0247808
928.439 .0247587
929.079 .0247377
929.719 .0247178
930.359 .0246993
930.998 .0246823
931.637 .0246668
932.275 .0246528
932.913 .0246396
933.551 .0246270
934.188 .0246156
934.825 .0246053
935.462 .0245969
936.098 .0245905
936.733 .0245862
937.369 .0245839
938.004 .0245831
938.638 .0245834
939.273 .0245843
939.907 .0245852
940.540 .0245865
941.173 .0245878
941.806 .0245890
942.438 .0245902
943.070 .0245917
943.702 .0245936
944.333 .0245960
944.964 .0245984
945.594 .0246011
946.224 .0246037
946.854 .0246067
947.483 .0246095
948.112 .0246121
948.741 .0246149
949.369 .0246177
949.996 .0246198
950.624 .0246220
951.251 .0246241
951.878 .0246269
952.504 .0246304
953.130 .0246350
953.755 .0246408
954.380 .0246483
955.005 .0246575
955.629 .0246679
956.253 .0246791
956.877 .0246916
957.500 .0247044
958.123 .0247178
958.746 .0247315
959.368 .0247457
959.990 .0247608
960.611 .0247766
961.232 .0247932
961.853 .0248106
962.473 .0248285
963.093 .0248465
963.712 .0248640
964.331 .0248805
964.950 .0248956
965.569 .0249100
966.187 .0249238
966.804 .0249376
967.422 .0249513
968.039 .0249650
968.655 .0249788
969.272 .0249926
969.887 .0250062
970.503 .0250192
971.118 .0250320
971.733 .0250441
972.347 .0250553
972.961 .0250655
973.575 .0250749
974.188 .0250837
974.801 .0250913
975.414 .0250975
976.026 .0251021
976.638 .0251050
977.250 .0251060
977.861 .0251061
978.472 .0251055
979.083 .0251045
979.693 .0251031
980.303 .0251016
980.912 .0251002
981.521 .0250985
982.130 .0250965
982.738 .0250940
983.346 .0250909
983.954 .0250871
984.562 .0250824
985.169 .0250774
985.775 .0250724
986.382 .0250670
986.988 .0250618
987.594 .0250567
988.199 .0250519
988.804 .0250471
989.409 .0250423
990.013 .0250380
990.617 .0250338
991.221 .0250292
991.824 .0250248
992.427 .0250204
993.030 .0250164
993.632 .0250131
994.234 .0250107
994.836 .0250093
995.438 .0250087
996.039 .0250089
996.640 .0250092
997.240 .0250095
997.840 .0250093
998.440 .0250085
999.040 .0250074
999.639 .0250062
1000.238 .0250046
1000.836 .0250034
1001.435 .0250028
1002.033 .0250021
1002.630 .0250011
1003.228 .0249992
1003.825 .0249955
1004.422 .0249902
1005.018 .0249828
1005.614 .0249742
1006.210 .0249644
1006.806 .0249537
1007.401 .0249427
1007.996 .0249315
1008.591 .0249203
1009.186 .0249088
1009.780 .0248976
1010.374 .0248858
1010.967 .0248734
1011.561 .0248604
1012.154 .0248467
1012.746 .0248330
1013.339 .0248197
1013.931 .0248070
1014.523 .0247951
1015.115 .0247846
1015.706 .0247749
1016.298 .0247662
1016.888 .0247591
1017.479 .0247529
1018.069 .0247472
1018.660 .0247412
1019.250 .0247347
1019.839 .0247272
1020.429 .0247188
1021.018 .0247093
1021.607 .0246988
1022.195 .0246881
1022.784 .0246765
1023.372 .0246645
1023.960 .0246527
1024.547 .0246412
1025.135 .0246302
1025.722 .0246194
1026.309 .0246088
1026.896 .0245983
1027.483 .0245876
1028.069 .0245767
1028.655 .0245660
1029.241 .0245552
1029.827 .0245448
1030.412 .0245349
1030.997 .0245259
1031.582 .0245177
1032.167 .0245107
1032.752 .0245044
1033.336 .0244978
1033.921 .0244911
1034.505 .0244831
1035.089 .0244730
1035.672 .0244613
1036.256 .0244472
1036.839 .0244311
1037.422 .0244134
1038.005 .0243949
1038.588 .0243750
1039.171 .0243546
1039.753 .0243330
1040.335 .0243100
1040.918 .0242860
1041.500 .0242617
1042.081 .0242365
1042.663 .0242114
1043.244 .0241872
1043.826 .0241637
1044.407 .0241416
1044.988 .0241216
1045.569 .0241024
1046.150 .0240849
1046.730 .0240685
1047.311 .0240525
1047.891 .0240362
1048.471 .0240213
1049.052 .0240066
1049.632 .0239932
1050.211 .0239818
1050.791 .0239711
1051.371 .0239615
1051.950 .0239537
1052.530 .0239477
1053.109 .0239433
1053.688 .0239400
1054.268 .0239374
1054.847 .0239346
1055.426 .0239327
1056.005 .0239299
1056.583 .0239260
1057.162 .0239215
1057.741 .0239167
1058.319 .0239110
1058.898 .0239046
1059.476 .0238975
1060.055 .0238903
1060.633 .0238835
1061.211 .0238753
1061.790 .0238654
1062.368 .0238539
1062.946 .0238413
1063.524 .0238285
1064.102 .0238155
1064.680 .0238041
1065.258 .0237939
1065.836 .0237858
1066.414 .0237802
1066.992 .0237759
1067.570 .0237737
1068.148 .0237727
1068.726 .0237732
1069.304 .0237743
1069.882 .0237759
1070.460 .0237777
1071.038 .0237810
1071.616 .0237855
1072.194 .0237915
1072.772 .0237978
1073.350 .0238042
1073.928 .0238105
1074.506 .0238154
1075.084 .0238187
1075.662 .0238199
1076.240 .0238189
1076.819 .0238158
1077.397 .0238102
1077.976 .0238045
1078.554 .0237996
1079.133 .0237962
1079.711 .0237937
1080.290 .0237922
1080.869 .0237919
1081.448 .0237912
1082.027 .0237896
1082.606 .0237861
1083.185 .0237827
1083.764 .0237793
1084.343 .0237757
1084.923 .0237728
1085.502 .0237731
1086.082 .0237769
1086.662 .0237840
1087.242 .0237953
1087.822 .0238095
1088.402 .0238251
1088.983 .0238433
1089.563 .0238632
1090.144 .0238853
1090.725 .0239093
1091.306 .0239357
1091.887 .0239639
1092.469 .0239941
1093.050 .0240236
1093.632 .0240526
1094.214 .0240824
1094.796 .0241129
1095.379 .0241425
1095.961 .0241722
1096.544 .0242030
1097.127 .0242335
1097.710 .0242626
1098.294 .0242911
1098.877 .0243163
1099.461 .0243391
1100.046 .0243576
1100.630 .0243734
1101.215 .0243874
1101.800 .0244012
1102.385 .0244160
1102.970 .0244345
1103.556 .0244561
1104.142 .0244821
1104.728 .0245129
1105.315 .0245499
1105.902 .0245911
1106.489 .0246372
1107.077 .0246874
1107.664 .0247410
1108.253 .0247963
1108.841 .0248533
1109.430 .0249104
1110.019 .0249693
1110.609 .0250280
1111.198 .0250866
1111.789 .0251466
1112.379 .0252073
1112.970 .0252656
1113.561 .0253227
1114.153 .0253772
1114.745 .0254285
1115.338 .0254749
1115.931 .0255181
1116.524 .0255573
1117.117 .0255951
1117.712 .0256346
1118.306 .0256777
1118.901 .0257260
1119.496 .0257790
1120.092 .0258349
1120.689 .0258928
1121.285 .0259504
1121.882 .0260050
1122.480 .0260584
1123.078 .0261136
1123.677 .0261703
1124.276 .0262291
1124.875 .0262933
1125.476 .0263636
1126.076 .0264391
1126.677 .0265181
1127.279 .0265981
1127.881 .0266796
1128.484 .0267630
1129.087 .0268451
1129.691 .0269295
1130.295 .0270181
1130.900 .0271097
1131.505 .0272017
1132.111 .0272975
1132.718 .0273959
1133.325 .0274961
1133.933 .0276026
1134.541 .0277140
1135.150 .0278296
1135.760 .0279516
1136.370 .0280788
1136.981 .0282115
1137.592 .0283468
1138.204 .0284793
1138.817 .0286128
1139.431 .0287526
1140.045 .0289040
1140.660 .0290646
1141.275 .0292322
1141.891 .0294240
1142.508 .0296249
1143.126 .0299574
1143.744 .0300949
1144.363 .0300879
1144.983 .0306284
