Measurement Sequence started on: 15-12-46-377
Integration time: 28
Scans to Average: 2 
>>>>>Begin Spectral Data<<<<<
432.689 .0000100
433.621 .0000100
434.552 .0000100
435.482 .0000100
436.410 .0000100
437.337 .0000100
438.262 .0274164
439.187 .0580968
440.110 .0961779
441.031 .1390837
441.952 .1806495
442.871 .2132492
443.789 .2308967
444.705 .2315702
445.621 .2178130
446.535 .1951235
447.447 .1694983
448.359 .1305741
449.269 .1111091
450.178 .0987421
451.086 .0899530
451.993 .0832371
452.898 .0779331
453.803 .0736498
454.706 .0701364
455.608 .0672035
456.508 .0647223
457.408 .0626176
458.306 .0607853
459.204 .0591692
460.100 .0577447
460.995 .0564847
461.888 .0553617
462.781 .0543546
463.673 .0534487
464.563 .0526403
465.452 .0518887
466.340 .0511934
467.228 .0505355
468.114 .0499070
468.999 .0493164
469.882 .0487552
470.765 .0482242
471.647 .0477319
472.528 .0472764
473.407 .0468557
474.286 .0464737
475.163 .0461274
476.040 .0458063
476.915 .0455151
477.790 .0452603
478.663 .0450336
479.535 .0448395
480.407 .0446882
481.277 .0445617
482.147 .0444647
483.015 .0443941
483.883 .0443401
484.749 .0442994
485.615 .0442786
486.479 .0442672
487.343 .0442689
488.206 .0442933
489.067 .0443337
489.928 .0443853
490.788 .0444567
491.647 .0445421
492.505 .0446400
493.362 .0447502
494.218 .0448749
495.073 .0450107
495.928 .0451721
496.781 .0453442
497.634 .0455331
498.486 .0457341
499.337 .0459497
500.187 .0461760
501.036 .0464157
501.884 .0466733
502.731 .0469547
503.578 .0472633
504.424 .0476068
505.268 .0479874
506.113 .0484118
506.956 .0488679
507.798 .0493766
508.640 .0499342
509.480 .0505452
510.320 .0512138
511.160 .0519659
511.998 .0528093
512.836 .0537631
513.672 .0548356
514.508 .0560299
515.344 .0573577
516.178 .0588441
517.012 .0604937
517.845 .0623498
518.677 .0644364
519.508 .0667998
520.339 .0694966
521.169 .0725866
521.998 .0760710
522.826 .0800197
523.654 .0844484
524.481 .0893640
525.307 .0947458
526.133 .1005748
526.958 .1068021
527.782 .1133789
528.605 .1201476
529.428 .1270254
530.250 .1335378
531.072 .1394903
531.892 .1445252
532.712 .1483685
533.532 .1507789
534.350 .1515479
535.168 .1505962
535.986 .1480074
536.802 .1438913
537.618 .1385590
538.434 .1322155
539.249 .1253955
540.063 .1182858
540.876 .1111899
541.689 .1043319
542.501 .0979163
543.313 .0920363
544.124 .0867395
544.934 .0819668
545.744 .0776910
546.553 .0738417
547.361 .0704396
548.169 .0674514
548.976 .0648211
549.783 .0625157
550.589 .0605088
551.395 .0587136
552.200 .0571368
553.004 .0556995
553.808 .0543964
554.611 .0532324
555.414 .0521829
556.216 .0512278
557.018 .0503809
557.819 .0496238
558.619 .0489223
559.419 .0482642
560.218 .0476426
561.017 .0470112
561.815 .0463674
562.613 .0457129
563.410 .0450403
564.207 .0443574
565.003 .0436876
565.799 .0430242
566.594 .0423946
567.388 .0418021
568.182 .0412390
568.976 .0406925
569.769 .0401677
570.562 .0396528
571.354 .0391398
572.145 .0386422
572.936 .0381589
573.727 .0376913
574.517 .0372544
575.307 .0368471
576.096 .0364741
576.885 .0361285
577.673 .0358158
578.461 .0355219
579.248 .0352441
580.035 .0349768
580.821 .0347173
581.607 .0344688
582.392 .0342325
583.177 .0340129
583.962 .0338106
584.746 .0336280
585.529 .0334641
586.313 .0333166
587.095 .0331831
587.878 .0330614
588.660 .0329476
589.441 .0328402
590.222 .0327377
591.003 .0326424
591.783 .0325542
592.563 .0324747
593.342 .0324040
594.121 .0323389
594.899 .0322789
595.678 .0322228
596.455 .0321670
597.233 .0321125
598.009 .0320571
598.786 .0320018
599.562 .0319464
600.338 .0318931
601.113 .0318423
601.888 .0317954
602.663 .0317526
603.437 .0317127
604.211 .0316739
604.984 .0316353
605.757 .0315958
606.530 .0315550
607.302 .0315143
608.074 .0314743
608.845 .0314361
609.616 .0314010
610.387 .0313691
611.158 .0313406
611.928 .0313148
612.697 .0312908
613.467 .0312672
614.236 .0312436
615.004 .0312201
615.773 .0311969
616.541 .0311753
617.308 .0311561
618.076 .0311403
618.843 .0311273
619.609 .0311175
620.375 .0311098
621.141 .0311029
621.907 .0310962
622.672 .0310889
623.437 .0310809
624.202 .0310722
624.966 .0310632
625.730 .0310542
626.493 .0310464
627.257 .0310389
628.020 .0310313
628.782 .0310229
629.545 .0310130
630.307 .0310002
631.068 .0309844
631.830 .0309651
632.591 .0309426
633.352 .0309183
634.112 .0308925
634.872 .0308654
635.632 .0308385
636.392 .0308112
637.151 .0307844
637.910 .0307576
638.668 .0307309
639.427 .0307035
640.185 .0306756
640.943 .0306470
641.700 .0306173
642.457 .0305878
643.214 .0305586
643.971 .0305292
644.727 .0305012
645.483 .0304740
646.239 .0304473
646.994 .0304214
647.750 .0303965
648.505 .0303720
649.259 .0303481
650.014 .0303248
650.768 .0303011
651.521 .0302774
652.275 .0302539
653.028 .0302300
653.781 .0302060
654.534 .0301819
655.286 .0301572
656.039 .0301323
656.791 .0301076
657.542 .0300812
658.294 .0300537
659.045 .0300258
659.796 .0299963
660.546 .0299657
661.297 .0299342
662.047 .0299024
662.796 .0298703
663.546 .0298390
664.295 .0298084
665.044 .0297781
665.793 .0297486
666.542 .0297190
667.290 .0296896
668.038 .0296608
668.786 .0296322
669.533 .0296045
670.281 .0295787
671.028 .0295547
671.774 .0295314
672.521 .0295099
673.267 .0294901
674.013 .0294719
674.759 .0294546
675.505 .0294382
676.250 .0294225
676.995 .0294074
677.740 .0293930
678.484 .0293791
679.229 .0293667
679.973 .0293557
680.717 .0293455
681.460 .0293365
682.204 .0293288
682.947 .0293222
683.690 .0293166
684.433 .0293124
685.175 .0293088
685.917 .0293056
686.659 .0293021
687.401 .0292982
688.142 .0292936
688.884 .0292881
689.625 .0292812
690.365 .0292739
691.106 .0292662
691.846 .0292585
692.586 .0292508
693.326 .0292434
694.066 .0292360
694.805 .0292279
695.545 .0292189
696.284 .0292086
697.022 .0291969
697.761 .0291843
698.499 .0291702
699.237 .0291559
699.975 .0291417
700.713 .0291277
701.450 .0291144
702.187 .0291021
702.924 .0290905
703.661 .0290795
704.397 .0290685
705.133 .0290579
705.869 .0290470
706.605 .0290356
707.341 .0290236
708.076 .0290111
708.811 .0289981
709.546 .0289844
710.281 .0289702
711.015 .0289557
711.749 .0289401
712.483 .0289238
713.217 .0289062
713.950 .0288879
714.684 .0288687
715.417 .0288490
716.150 .0288289
716.882 .0288090
717.615 .0287889
718.347 .0287684
719.079 .0287479
719.811 .0287274
720.542 .0287067
721.273 .0286861
722.005 .0286658
722.735 .0286464
723.466 .0286279
724.196 .0286107
724.927 .0285940
725.656 .0285778
726.386 .0285612
727.116 .0285439
727.845 .0285249
728.574 .0285046
729.303 .0284828
730.031 .0284602
730.760 .0284375
731.488 .0284152
732.216 .0283936
732.944 .0283732
733.671 .0283532
734.398 .0283336
735.125 .0283136
735.852 .0282935
736.579 .0282733
737.305 .0282536
738.031 .0282347
738.757 .0282170
739.483 .0282007
740.208 .0281860
740.933 .0281725
741.658 .0281600
742.383 .0281479
743.108 .0281357
743.832 .0281233
744.556 .0281106
745.280 .0280975
746.004 .0280843
746.727 .0280713
747.450 .0280588
748.173 .0280458
748.896 .0280327
749.618 .0280195
750.340 .0280065
751.062 .0279937
751.784 .0279809
752.506 .0279685
753.227 .0279561
753.948 .0279436
754.669 .0279309
755.389 .0279177
756.110 .0279041
756.830 .0278902
757.550 .0278759
758.269 .0278618
758.989 .0278480
759.708 .0278341
760.427 .0278203
761.146 .0278067
761.864 .0277926
762.582 .0277779
763.300 .0277629
764.018 .0277484
764.736 .0277343
765.453 .0277210
766.170 .0277087
766.887 .0276977
767.603 .0276881
768.320 .0276790
769.036 .0276703
769.751 .0276620
770.467 .0276536
771.182 .0276453
771.897 .0276372
772.612 .0276298
773.327 .0276237
774.041 .0276188
774.755 .0276151
775.469 .0276126
776.183 .0276112
776.896 .0276105
777.609 .0276106
778.322 .0276113
779.035 .0276122
779.747 .0276137
780.459 .0276164
781.171 .0276204
781.882 .0276254
782.594 .0276312
783.305 .0276375
784.016 .0276441
784.726 .0276504
785.436 .0276558
786.147 .0276603
786.856 .0276643
787.566 .0276670
788.275 .0276685
788.984 .0276685
789.693 .0276673
790.401 .0276646
791.110 .0276604
791.818 .0276546
792.525 .0276473
793.233 .0276386
793.940 .0276292
794.647 .0276196
795.353 .0276104
796.060 .0276017
796.766 .0275940
797.472 .0275872
798.177 .0275810
798.883 .0275749
799.588 .0275690
800.292 .0275629
800.997 .0275569
801.701 .0275505
802.405 .0275441
803.109 .0275384
803.812 .0275332
804.515 .0275283
805.218 .0275235
805.921 .0275179
806.623 .0275111
807.325 .0275025
808.027 .0274923
808.728 .0274802
809.429 .0274663
810.130 .0274510
810.831 .0274348
811.531 .0274178
812.231 .0274003
812.931 .0273825
813.630 .0273640
814.330 .0273449
815.029 .0273246
815.727 .0273030
816.426 .0272807
817.124 .0272578
817.821 .0272348
818.519 .0272124
819.216 .0271912
819.913 .0271713
820.609 .0271530
821.306 .0271365
822.002 .0271213
822.697 .0271072
823.393 .0270941
824.088 .0270812
824.783 .0270687
825.477 .0270568
826.171 .0270452
826.865 .0270351
827.559 .0270258
828.252 .0270177
828.945 .0270107
829.638 .0270044
830.330 .0269983
831.023 .0269916
831.714 .0269837
832.406 .0269743
833.097 .0269630
833.788 .0269498
834.479 .0269350
835.169 .0269195
835.859 .0269038
836.548 .0268880
837.238 .0268723
837.927 .0268570
838.615 .0268413
839.304 .0268261
839.992 .0268108
840.680 .0267955
841.367 .0267806
842.054 .0267661
842.741 .0267524
843.428 .0267396
844.114 .0267275
844.800 .0267161
845.485 .0267051
846.170 .0266943
846.855 .0266829
847.540 .0266710
848.224 .0266589
848.908 .0266461
849.592 .0266327
850.275 .0266187
850.958 .0266037
851.641 .0265876
852.323 .0265703
853.005 .0265516
853.687 .0265317
854.368 .0265109
855.049 .0264899
855.730 .0264694
856.410 .0264494
857.090 .0264304
857.769 .0264124
858.449 .0263951
859.128 .0263781
859.806 .0263608
860.485 .0263439
861.163 .0263269
861.840 .0263104
862.518 .0262947
863.195 .0262803
863.871 .0262678
864.548 .0262569
865.224 .0262476
865.899 .0262395
866.574 .0262319
867.249 .0262246
867.924 .0262168
868.598 .0262090
869.272 .0262012
869.946 .0261936
870.619 .0261860
871.292 .0261790
871.964 .0261722
872.636 .0261653
873.308 .0261585
873.979 .0261515
874.651 .0261441
875.321 .0261365
875.992 .0261291
876.662 .0261220
877.331 .0261157
878.001 .0261105
878.670 .0261058
879.338 .0261023
880.007 .0260996
880.675 .0260977
881.342 .0260964
882.009 .0260964
882.676 .0260973
883.343 .0260996
884.009 .0261038
884.675 .0261093
885.340 .0261160
886.005 .0261240
886.670 .0261325
887.334 .0261412
887.998 .0261495
888.662 .0261575
889.325 .0261648
889.988 .0261722
890.650 .0261792
891.312 .0261865
891.974 .0261941
892.636 .0262021
893.297 .0262102
893.957 .0262184
894.618 .0262261
895.278 .0262330
895.937 .0262395
896.596 .0262456
897.255 .0262511
897.914 .0262562
898.572 .0262609
899.230 .0262656
899.887 .0262700
900.544 .0262732
901.201 .0262758
901.857 .0262778
902.513 .0262787
903.168 .0262782
903.823 .0262767
904.478 .0262742
905.132 .0262706
905.786 .0262661
906.440 .0262605
907.093 .0262536
907.746 .0262460
908.399 .0262372
909.051 .0262271
909.703 .0262164
910.354 .0262046
911.005 .0261918
911.656 .0261787
912.306 .0261652
912.956 .0261509
913.605 .0261366
914.254 .0261222
914.903 .0261079
915.551 .0260940
916.199 .0260817
916.847 .0260703
917.494 .0260603
918.141 .0260515
918.788 .0260436
919.434 .0260364
920.079 .0260296
920.725 .0260228
921.370 .0260162
922.014 .0260093
922.658 .0260021
923.302 .0259941
923.946 .0259858
924.589 .0259763
925.231 .0259653
925.873 .0259524
926.515 .0259372
927.157 .0259193
927.798 .0258989
928.439 .0258761
929.079 .0258514
929.719 .0258245
930.359 .0257961
930.998 .0257672
931.637 .0257380
932.275 .0257087
932.913 .0256799
933.551 .0256518
934.188 .0256248
934.825 .0255991
935.462 .0255747
936.098 .0255521
936.733 .0255318
937.369 .0255138
938.004 .0254979
938.638 .0254846
939.273 .0254736
939.907 .0254644
940.540 .0254568
941.173 .0254500
941.806 .0254436
942.438 .0254377
943.070 .0254319
943.702 .0254259
944.333 .0254201
944.964 .0254143
945.594 .0254084
946.224 .0254027
946.854 .0253971
947.483 .0253912
948.112 .0253847
948.741 .0253769
949.369 .0253676
949.996 .0253565
950.624 .0253439
951.251 .0253302
951.878 .0253159
952.504 .0253014
953.130 .0252865
953.755 .0252719
954.380 .0252570
955.005 .0252418
955.629 .0252256
956.253 .0252085
956.877 .0251902
957.500 .0251710
958.123 .0251511
958.746 .0251309
959.368 .0251109
959.990 .0250917
960.611 .0250729
961.232 .0250548
961.853 .0250366
962.473 .0250189
963.093 .0250011
963.712 .0249829
964.331 .0249639
964.950 .0249445
965.569 .0249249
966.187 .0249060
966.804 .0248878
967.422 .0248710
968.039 .0248557
968.655 .0248420
969.272 .0248293
969.887 .0248172
970.503 .0248056
971.118 .0247942
971.733 .0247834
972.347 .0247731
972.961 .0247630
973.575 .0247535
974.188 .0247449
974.801 .0247368
975.414 .0247284
976.026 .0247191
976.638 .0247088
977.250 .0246969
977.861 .0246833
978.472 .0246678
979.083 .0246513
979.693 .0246339
980.303 .0246164
980.912 .0245983
981.521 .0245800
982.130 .0245615
982.738 .0245432
983.346 .0245249
983.954 .0245065
984.562 .0244881
985.169 .0244699
985.775 .0244520
986.382 .0244347
986.988 .0244174
987.594 .0244004
988.199 .0243844
988.804 .0243695
989.409 .0243556
990.013 .0243433
990.617 .0243333
991.221 .0243255
991.824 .0243201
992.427 .0243167
993.030 .0243148
993.632 .0243145
994.234 .0243158
994.836 .0243180
995.438 .0243210
996.039 .0243250
996.640 .0243297
997.240 .0243352
997.840 .0243413
998.440 .0243478
999.040 .0243542
999.639 .0243605
1000.238 .0243654
1000.836 .0243689
1001.435 .0243711
1002.033 .0243717
1002.630 .0243711
1003.228 .0243696
1003.825 .0243681
1004.422 .0243666
1005.018 .0243654
1005.614 .0243657
1006.210 .0243674
1006.806 .0243708
1007.401 .0243745
1007.996 .0243787
1008.591 .0243831
1009.186 .0243875
1009.780 .0243914
1010.374 .0243952
1010.967 .0243994
1011.561 .0244043
1012.154 .0244101
1012.746 .0244169
1013.339 .0244247
1013.931 .0244330
1014.523 .0244406
1015.115 .0244474
1015.706 .0244525
1016.298 .0244560
1016.888 .0244585
1017.479 .0244617
1018.069 .0244656
1018.660 .0244699
1019.250 .0244757
1019.839 .0244828
1020.429 .0244908
1021.018 .0244986
1021.607 .0245057
1022.195 .0245124
1022.784 .0245186
1023.372 .0245248
1023.960 .0245314
1024.547 .0245406
1025.135 .0245529
1025.722 .0245685
1026.309 .0245872
1026.896 .0246088
1027.483 .0246325
1028.069 .0246578
1028.655 .0246837
1029.241 .0247090
1029.827 .0247339
1030.412 .0247588
1030.997 .0247832
1031.582 .0248079
1032.167 .0248317
1032.752 .0248556
1033.336 .0248781
1033.921 .0248999
1034.505 .0249203
1035.089 .0249387
1035.672 .0249556
1036.256 .0249709
1036.839 .0249843
1037.422 .0249963
1038.005 .0250077
1038.588 .0250195
1039.171 .0250318
1039.753 .0250447
1040.335 .0250576
1040.918 .0250707
1041.500 .0250831
1042.081 .0250949
1042.663 .0251045
1043.244 .0251126
1043.826 .0251185
1044.407 .0251217
1044.988 .0251237
1045.569 .0251247
1046.150 .0251255
1046.730 .0251269
1047.311 .0251287
1047.891 .0251309
1048.471 .0251334
1049.052 .0251354
1049.632 .0251370
1050.211 .0251390
1050.791 .0251405
1051.371 .0251421
1051.950 .0251456
1052.530 .0251520
1053.109 .0251610
1053.688 .0251726
1054.268 .0251866
1054.847 .0252014
1055.426 .0252158
1056.005 .0252284
1056.583 .0252382
1057.162 .0252456
1057.741 .0252502
1058.319 .0252522
1058.898 .0252540
1059.476 .0252556
1060.055 .0252575
1060.633 .0252602
1061.211 .0252636
1061.790 .0252682
1062.368 .0252726
1062.946 .0252776
1063.524 .0252836
1064.102 .0252887
1064.680 .0252928
1065.258 .0252957
1065.836 .0252984
1066.414 .0253005
1066.992 .0253023
1067.570 .0253046
1068.148 .0253072
1068.726 .0253113
1069.304 .0253170
1069.882 .0253245
1070.460 .0253343
1071.038 .0253451
1071.616 .0253541
1072.194 .0253615
1072.772 .0253665
1073.350 .0253683
1073.928 .0253690
1074.506 .0253695
1075.084 .0253700
1075.662 .0253723
1076.240 .0253774
1076.819 .0253857
1077.397 .0253973
1077.976 .0254114
1078.554 .0254259
1079.133 .0254393
1079.711 .0254505
1080.290 .0254593
1080.869 .0254653
1081.448 .0254697
1082.027 .0254725
1082.606 .0254746
1083.185 .0254776
1083.764 .0254815
1084.343 .0254863
1084.923 .0254920
1085.502 .0254972
1086.082 .0255005
1086.662 .0255019
1087.242 .0255010
1087.822 .0254990
1088.402 .0254970
1088.983 .0254967
1089.563 .0254983
1090.144 .0255025
1090.725 .0255120
1091.306 .0255241
1091.887 .0255386
1092.469 .0255545
1093.050 .0255688
1093.632 .0255808
1094.214 .0255906
1094.796 .0255993
1095.379 .0256075
1095.961 .0256172
1096.544 .0256307
1097.127 .0256460
1097.710 .0256655
1098.294 .0256878
1098.877 .0257103
1099.461 .0257319
1100.046 .0257501
1100.630 .0257633
1101.215 .0257727
1101.800 .0257794
1102.385 .0257841
1102.970 .0257886
1103.556 .0257971
1104.142 .0258087
1104.728 .0258243
1105.315 .0258421
1105.902 .0258629
1106.489 .0258835
1107.077 .0259029
1107.664 .0259190
1108.253 .0259315
1108.841 .0259413
1109.430 .0259481
1110.019 .0259539
1110.609 .0259594
1111.198 .0259658
1111.789 .0259747
1112.379 .0259839
1112.970 .0259961
1113.561 .0260086
1114.153 .0260227
1114.745 .0260392
1115.338 .0260603
1115.931 .0260836
1116.524 .0261076
1117.117 .0261338
1117.712 .0261600
1118.306 .0261842
1118.901 .0262054
1119.496 .0262257
1120.092 .0262464
1120.689 .0262697
1121.285 .0262979
1121.882 .0263294
1122.480 .0263733
1123.078 .0264256
1123.677 .0264839
1124.276 .0265447
1124.875 .0266056
1125.476 .0266624
1126.076 .0267179
1126.677 .0267731
1127.279 .0268295
1127.881 .0268882
1128.484 .0269569
1129.087 .0270339
1129.691 .0271241
1130.295 .0272259
1130.900 .0273383
1131.505 .0274568
1132.111 .0275816
1132.718 .0277018
1133.325 .0278190
1133.933 .0279322
1134.541 .0280439
1135.150 .0281512
1135.760 .0282576
1136.370 .0283609
1136.981 .0284679
1137.592 .0285767
1138.204 .0286896
1138.817 .0287997
1139.431 .0289055
1140.045 .0290089
1140.660 .0291057
1141.275 .0292040
1141.891 .0293183
1142.508 .0292761
1143.126 .0294558
1143.744 .0294940
1144.363 .0298583
1144.983 .0303602
