Measurement Sequence started on: 15-12-46-377
Integration time: 28
Scans to Average: 2 
>>>>>Begin Spectral Data<<<<<
432.689 .0000100
433.621 .0000100
434.552 .0000100
435.482 .0000100
436.410 .0000100
437.337 .0000100
438.262 .0284944
439.187 .0604196
440.110 .1000929
441.031 .1448683
441.952 .1883643
442.871 .2226550
443.789 .2415020
444.705 .2427905
445.621 .2291655
446.535 .2062805
447.447 .1803518
448.359 .1405883
449.269 .1209747
450.178 .1087015
451.086 .1000854
451.993 .0935287
452.898 .0883356
453.803 .0840868
454.706 .0805119
455.608 .0773918
456.508 .0746554
457.408 .0722206
458.306 .0700045
459.204 .0679954
460.100 .0661529
460.995 .0644661
461.888 .0629265
462.781 .0615115
463.673 .0602007
464.563 .0589971
465.452 .0578678
466.340 .0568195
467.228 .0558617
468.114 .0549949
468.999 .0542180
469.882 .0535239
470.765 .0529258
471.647 .0524026
472.528 .0519479
473.407 .0515569
474.286 .0512113
475.163 .0509123
476.040 .0506506
476.915 .0504162
477.790 .0502090
478.663 .0500240
479.535 .0498590
480.407 .0497191
481.277 .0496006
482.147 .0494917
483.015 .0493941
483.883 .0493076
484.749 .0492258
485.615 .0491446
486.479 .0490745
487.343 .0490165
488.206 .0489786
489.067 .0489656
489.928 .0489712
490.788 .0490024
491.647 .0490658
492.505 .0491533
493.362 .0492649
494.218 .0493964
495.073 .0495461
495.928 .0497223
496.781 .0499251
497.634 .0501625
498.486 .0504336
499.337 .0507477
500.187 .0511059
501.036 .0514981
501.884 .0519222
502.731 .0523761
503.578 .0528503
504.424 .0533481
505.268 .0538521
506.113 .0543715
506.956 .0549099
507.798 .0554867
508.640 .0561093
509.480 .0567863
510.320 .0575282
511.160 .0583479
511.998 .0592466
512.836 .0602535
513.672 .0613675
514.508 .0625822
515.344 .0639182
516.178 .0654037
517.012 .0670599
517.845 .0689355
518.677 .0710711
519.508 .0735213
520.339 .0763378
521.169 .0795814
521.998 .0832672
522.826 .0874644
523.654 .0922279
524.481 .0975608
525.307 .1034916
526.133 .1099804
526.958 .1169558
527.782 .1243385
528.605 .1319910
529.428 .1397964
530.250 .1471890
531.072 .1538954
531.892 .1595343
532.712 .1637812
533.532 .1664013
534.350 .1671748
535.168 .1660471
535.986 .1631179
536.802 .1585432
537.618 .1526118
538.434 .1455924
539.249 .1380538
540.063 .1302443
540.876 .1224335
541.689 .1149022
542.501 .1078537
543.313 .1014162
544.124 .0956444
544.934 .0904699
545.744 .0858308
546.553 .0816581
547.361 .0779432
548.169 .0746570
548.976 .0717274
549.783 .0691562
550.589 .0668884
551.395 .0648612
552.200 .0630572
553.004 .0614256
553.808 .0599214
554.611 .0585503
555.414 .0572908
556.216 .0561316
557.018 .0550765
557.819 .0541138
558.619 .0532254
559.419 .0523917
560.218 .0516136
561.017 .0508699
561.815 .0501443
562.613 .0494361
563.410 .0487333
564.207 .0480517
565.003 .0473895
565.799 .0467512
566.594 .0461358
567.388 .0455602
568.182 .0450117
568.976 .0444837
569.769 .0439746
570.562 .0434718
571.354 .0429722
572.145 .0424682
572.936 .0419623
573.727 .0414570
574.517 .0409572
575.307 .0404701
576.096 .0399963
576.885 .0395462
577.673 .0391236
578.461 .0387311
579.248 .0383693
580.035 .0380382
580.821 .0377301
581.607 .0374397
582.392 .0371694
583.177 .0369123
583.962 .0366720
584.746 .0364519
585.529 .0362520
586.313 .0360705
587.095 .0359079
587.878 .0357628
588.660 .0356340
589.441 .0355187
590.222 .0354118
591.003 .0353113
591.783 .0352176
592.563 .0351285
593.342 .0350431
594.121 .0349618
594.899 .0348862
595.678 .0348146
596.455 .0347476
597.233 .0346833
598.009 .0346210
598.786 .0345611
599.562 .0345031
600.338 .0344466
601.113 .0343927
601.888 .0343408
602.663 .0342915
603.437 .0342454
604.211 .0342017
604.984 .0341598
605.757 .0341199
606.530 .0340805
607.302 .0340410
608.074 .0340020
608.845 .0339633
609.616 .0339252
610.387 .0338892
611.158 .0338553
611.928 .0338231
612.697 .0337930
613.467 .0337642
614.236 .0337355
615.004 .0337065
615.773 .0336765
616.541 .0336446
617.308 .0336117
618.076 .0335783
618.843 .0335442
619.609 .0335110
620.375 .0334799
621.141 .0334498
621.907 .0334213
622.672 .0333942
623.437 .0333678
624.202 .0333410
624.966 .0333133
625.730 .0332846
626.493 .0332544
627.257 .0332228
628.020 .0331903
628.782 .0331567
629.545 .0331235
630.307 .0330893
631.068 .0330537
631.830 .0330172
632.591 .0329798
633.352 .0329414
634.112 .0329021
634.872 .0328631
635.632 .0328249
636.392 .0327874
637.151 .0327514
637.910 .0327170
638.668 .0326835
639.427 .0326507
640.185 .0326181
640.943 .0325863
641.700 .0325548
642.457 .0325244
643.214 .0324955
643.971 .0324682
644.727 .0324430
645.483 .0324188
646.239 .0323954
646.994 .0323728
647.750 .0323494
648.505 .0323257
649.259 .0323015
650.014 .0322778
650.768 .0322551
651.521 .0322337
652.275 .0322146
653.028 .0321974
653.781 .0321813
654.534 .0321656
655.286 .0321498
656.039 .0321332
656.791 .0321154
657.542 .0320961
658.294 .0320762
659.045 .0320561
659.796 .0320357
660.546 .0320161
661.297 .0319960
662.047 .0319759
662.796 .0319546
663.546 .0319319
664.295 .0319081
665.044 .0318824
665.793 .0318554
666.542 .0318274
667.290 .0317987
668.038 .0317695
668.786 .0317394
669.533 .0317098
670.281 .0316801
671.028 .0316508
671.774 .0316215
672.521 .0315935
673.267 .0315667
674.013 .0315418
674.759 .0315182
675.505 .0314958
676.250 .0314741
676.995 .0314524
677.740 .0314301
678.484 .0314073
679.229 .0313836
679.973 .0313594
680.717 .0313342
681.460 .0313094
682.204 .0312842
682.947 .0312596
683.690 .0312352
684.433 .0312106
685.175 .0311854
685.917 .0311593
686.659 .0311317
687.401 .0311031
688.142 .0310736
688.884 .0310434
689.625 .0310125
690.365 .0309815
691.106 .0309501
691.846 .0309190
692.586 .0308883
693.326 .0308582
694.066 .0308286
694.805 .0307998
695.545 .0307713
696.284 .0307430
697.022 .0307151
697.761 .0306876
698.499 .0306599
699.237 .0306327
699.975 .0306053
700.713 .0305784
701.450 .0305530
702.187 .0305296
702.924 .0305083
703.661 .0304896
704.397 .0304728
705.133 .0304577
705.869 .0304440
706.605 .0304313
707.341 .0304191
708.076 .0304073
708.811 .0303949
709.546 .0303822
710.281 .0303689
711.015 .0303553
711.749 .0303413
712.483 .0303273
713.217 .0303132
713.950 .0302985
714.684 .0302836
715.417 .0302681
716.150 .0302523
716.882 .0302365
717.615 .0302201
718.347 .0302035
719.079 .0301870
719.811 .0301706
720.542 .0301550
721.273 .0301405
722.005 .0301269
722.735 .0301146
723.466 .0301038
724.196 .0300941
724.927 .0300851
725.656 .0300771
726.386 .0300695
727.116 .0300613
727.845 .0300531
728.574 .0300436
729.303 .0300331
730.031 .0300225
730.760 .0300113
731.488 .0300000
732.216 .0299891
732.944 .0299789
733.671 .0299690
734.398 .0299598
735.125 .0299512
735.852 .0299424
736.579 .0299331
737.305 .0299240
738.031 .0299141
738.757 .0299040
739.483 .0298937
740.208 .0298835
740.933 .0298740
741.658 .0298652
742.383 .0298564
743.108 .0298480
743.832 .0298391
744.556 .0298291
745.280 .0298167
746.004 .0298026
746.727 .0297868
747.450 .0297692
748.173 .0297498
748.896 .0297297
749.618 .0297093
750.340 .0296892
751.062 .0296689
751.784 .0296491
752.506 .0296291
753.227 .0296089
753.948 .0295879
754.669 .0295660
755.389 .0295434
756.110 .0295200
756.830 .0294961
757.550 .0294720
758.269 .0294480
758.989 .0294242
759.708 .0294003
760.427 .0293770
761.146 .0293534
761.864 .0293287
762.582 .0293026
763.300 .0292757
764.018 .0292479
764.736 .0292191
765.453 .0291902
766.170 .0291618
766.887 .0291347
767.603 .0291090
768.320 .0290848
769.036 .0290624
769.751 .0290418
770.467 .0290224
771.182 .0290035
771.897 .0289854
772.612 .0289675
773.327 .0289499
774.041 .0289326
774.755 .0289156
775.469 .0288992
776.183 .0288833
776.896 .0288680
777.609 .0288534
778.322 .0288397
779.035 .0288259
779.747 .0288126
780.459 .0287999
781.171 .0287880
781.882 .0287767
782.594 .0287664
783.305 .0287576
784.016 .0287502
784.726 .0287440
785.436 .0287389
786.147 .0287346
786.856 .0287317
787.566 .0287291
788.275 .0287268
788.984 .0287248
789.693 .0287226
790.401 .0287204
791.110 .0287180
791.818 .0287152
792.525 .0287123
793.233 .0287087
793.940 .0287049
794.647 .0287007
795.353 .0286963
796.060 .0286915
796.766 .0286864
797.472 .0286811
798.177 .0286752
798.883 .0286687
799.588 .0286621
800.292 .0286557
800.997 .0286500
801.701 .0286448
802.405 .0286405
803.109 .0286367
803.812 .0286339
804.515 .0286315
805.218 .0286291
805.921 .0286264
806.623 .0286232
807.325 .0286196
808.027 .0286157
808.728 .0286119
809.429 .0286086
810.130 .0286060
810.831 .0286042
811.531 .0286026
812.231 .0286010
812.931 .0285991
813.630 .0285968
814.330 .0285941
815.029 .0285909
815.727 .0285873
816.426 .0285834
817.124 .0285799
817.821 .0285766
818.519 .0285738
819.216 .0285714
819.913 .0285692
820.609 .0285674
821.306 .0285658
822.002 .0285643
822.697 .0285630
823.393 .0285625
824.088 .0285626
824.783 .0285629
825.477 .0285637
826.171 .0285641
826.865 .0285646
827.559 .0285648
828.252 .0285646
828.945 .0285638
829.638 .0285627
830.330 .0285609
831.023 .0285585
831.714 .0285558
832.406 .0285523
833.097 .0285476
833.788 .0285424
834.479 .0285359
835.169 .0285282
835.859 .0285198
836.548 .0285107
837.238 .0285007
837.927 .0284903
838.615 .0284791
839.304 .0284674
839.992 .0284550
840.680 .0284418
841.367 .0284278
842.054 .0284134
842.741 .0283986
843.428 .0283834
844.114 .0283680
844.800 .0283526
845.485 .0283372
846.170 .0283217
846.855 .0283063
847.540 .0282902
848.224 .0282735
848.908 .0282563
849.592 .0282382
850.275 .0282193
850.958 .0281990
851.641 .0281782
852.323 .0281565
853.005 .0281336
853.687 .0281094
854.368 .0280841
855.049 .0280583
855.730 .0280316
856.410 .0280042
857.090 .0279763
857.769 .0279484
858.449 .0279204
859.128 .0278925
859.806 .0278652
860.485 .0278388
861.163 .0278129
861.840 .0277882
862.518 .0277646
863.195 .0277415
863.871 .0277187
864.548 .0276965
865.224 .0276745
865.899 .0276524
866.574 .0276300
867.249 .0276079
867.924 .0275859
868.598 .0275640
869.272 .0275419
869.946 .0275196
870.619 .0274976
871.292 .0274752
871.964 .0274521
872.636 .0274282
873.308 .0274039
873.979 .0273790
874.651 .0273535
875.321 .0273283
875.992 .0273037
876.662 .0272798
877.331 .0272569
878.001 .0272351
878.670 .0272139
879.338 .0271935
880.007 .0271735
880.675 .0271538
881.342 .0271340
882.009 .0271145
882.676 .0270955
883.343 .0270779
884.009 .0270620
884.675 .0270478
885.340 .0270354
886.005 .0270249
886.670 .0270157
887.334 .0270074
887.998 .0269998
888.662 .0269927
889.325 .0269859
889.988 .0269797
890.650 .0269741
891.312 .0269698
891.974 .0269664
892.636 .0269642
893.297 .0269630
893.957 .0269625
894.618 .0269618
895.278 .0269610
895.937 .0269602
896.596 .0269596
897.255 .0269593
897.914 .0269597
898.572 .0269609
899.230 .0269636
899.887 .0269672
900.544 .0269713
901.201 .0269760
901.857 .0269804
902.513 .0269840
903.168 .0269866
903.823 .0269879
904.478 .0269879
905.132 .0269868
905.786 .0269851
906.440 .0269828
907.093 .0269799
907.746 .0269764
908.399 .0269720
909.051 .0269670
909.703 .0269609
910.354 .0269536
911.005 .0269453
911.656 .0269366
912.306 .0269273
912.956 .0269180
913.605 .0269091
914.254 .0269012
914.903 .0268943
915.551 .0268887
916.199 .0268848
916.847 .0268823
917.494 .0268817
918.141 .0268826
918.788 .0268846
919.434 .0268876
920.079 .0268908
920.725 .0268938
921.370 .0268964
922.014 .0268984
922.658 .0268994
923.302 .0268991
923.946 .0268983
924.589 .0268965
925.231 .0268943
925.873 .0268920
926.515 .0268894
927.157 .0268864
927.798 .0268828
928.439 .0268781
929.079 .0268727
929.719 .0268663
930.359 .0268592
930.998 .0268517
931.637 .0268446
932.275 .0268379
932.913 .0268321
933.551 .0268272
934.188 .0268232
934.825 .0268196
935.462 .0268163
936.098 .0268128
936.733 .0268094
937.369 .0268060
938.004 .0268026
938.638 .0267991
939.273 .0267958
939.907 .0267927
940.540 .0267900
941.173 .0267877
941.806 .0267862
942.438 .0267850
943.070 .0267842
943.702 .0267832
944.333 .0267819
944.964 .0267806
945.594 .0267790
946.224 .0267771
946.854 .0267752
947.483 .0267737
948.112 .0267729
948.741 .0267727
949.369 .0267730
949.996 .0267738
950.624 .0267745
951.251 .0267742
951.878 .0267727
952.504 .0267699
953.130 .0267656
953.755 .0267600
954.380 .0267538
955.005 .0267467
955.629 .0267394
956.253 .0267318
956.877 .0267239
957.500 .0267154
958.123 .0267057
958.746 .0266944
959.368 .0266813
959.990 .0266673
960.611 .0266515
961.232 .0266350
961.853 .0266188
962.473 .0266033
963.093 .0265881
963.712 .0265734
964.331 .0265589
964.950 .0265447
965.569 .0265309
966.187 .0265174
966.804 .0265043
967.422 .0264924
968.039 .0264812
968.655 .0264707
969.272 .0264603
969.887 .0264500
970.503 .0264382
971.118 .0264255
971.733 .0264111
972.347 .0263945
972.961 .0263767
973.575 .0263581
974.188 .0263385
974.801 .0263186
975.414 .0262976
976.026 .0262758
976.638 .0262528
977.250 .0262289
977.861 .0262030
978.472 .0261760
979.083 .0261479
979.693 .0261186
980.303 .0260883
980.912 .0260577
981.521 .0260264
982.130 .0259954
982.738 .0259646
983.346 .0259336
983.954 .0259029
984.562 .0258733
985.169 .0258435
985.775 .0258142
986.382 .0257853
986.988 .0257565
987.594 .0257283
988.199 .0257008
988.804 .0256739
989.409 .0256478
990.013 .0256231
990.617 .0255995
991.221 .0255766
991.824 .0255554
992.427 .0255351
993.030 .0255156
993.632 .0254979
994.234 .0254807
994.836 .0254643
995.438 .0254488
996.039 .0254342
996.640 .0254194
997.240 .0254046
997.840 .0253897
998.440 .0253744
999.040 .0253586
999.639 .0253429
1000.238 .0253268
1000.836 .0253113
1001.435 .0252962
1002.033 .0252816
1002.630 .0252667
1003.228 .0252522
1003.825 .0252376
1004.422 .0252227
1005.018 .0252082
1005.614 .0251946
1006.210 .0251810
1006.806 .0251686
1007.401 .0251570
1007.996 .0251457
1008.591 .0251348
1009.186 .0251244
1009.780 .0251141
1010.374 .0251032
1010.967 .0250922
1011.561 .0250809
1012.154 .0250687
1012.746 .0250569
1013.339 .0250443
1013.931 .0250311
1014.523 .0250184
1015.115 .0250051
1015.706 .0249914
1016.298 .0249782
1016.888 .0249658
1017.479 .0249538
1018.069 .0249424
1018.660 .0249316
1019.250 .0249211
1019.839 .0249116
1020.429 .0249035
1021.018 .0248966
1021.607 .0248918
1022.195 .0248898
1022.784 .0248899
1023.372 .0248922
1023.960 .0248968
1024.547 .0249026
1025.135 .0249095
1025.722 .0249164
1026.309 .0249231
1026.896 .0249294
1027.483 .0249356
1028.069 .0249429
1028.655 .0249512
1029.241 .0249610
1029.827 .0249722
1030.412 .0249843
1030.997 .0249967
1031.582 .0250089
1032.167 .0250204
1032.752 .0250307
1033.336 .0250407
1033.921 .0250499
1034.505 .0250584
1035.089 .0250668
1035.672 .0250753
1036.256 .0250839
1036.839 .0250922
1037.422 .0251005
1038.005 .0251080
1038.588 .0251155
1039.171 .0251229
1039.753 .0251294
1040.335 .0251357
1040.918 .0251418
1041.500 .0251476
1042.081 .0251528
1042.663 .0251575
1043.244 .0251625
1043.826 .0251671
1044.407 .0251729
1044.988 .0251790
1045.569 .0251860
1046.150 .0251941
1046.730 .0252024
1047.311 .0252107
1047.891 .0252192
1048.471 .0252271
1049.052 .0252352
1049.632 .0252433
1050.211 .0252525
1050.791 .0252623
1051.371 .0252735
1051.950 .0252874
1052.530 .0253039
1053.109 .0253227
1053.688 .0253420
1054.268 .0253617
1054.847 .0253822
1055.426 .0254024
1056.005 .0254215
1056.583 .0254405
1057.162 .0254591
1057.741 .0254782
1058.319 .0254980
1058.898 .0255182
1059.476 .0255387
1060.055 .0255597
1060.633 .0255801
1061.211 .0255985
1061.790 .0256152
1062.368 .0256302
1062.946 .0256428
1063.524 .0256560
1064.102 .0256684
1064.680 .0256821
1065.258 .0256971
1065.836 .0257146
1066.414 .0257339
1066.992 .0257552
1067.570 .0257778
1068.148 .0258014
1068.726 .0258257
1069.304 .0258514
1069.882 .0258771
1070.460 .0259028
1071.038 .0259271
1071.616 .0259490
1072.194 .0259682
1072.772 .0259846
1073.350 .0259968
1073.928 .0260066
1074.506 .0260124
1075.084 .0260168
1075.662 .0260200
1076.240 .0260234
1076.819 .0260272
1077.397 .0260312
1077.976 .0260357
1078.554 .0260392
1079.133 .0260413
1079.711 .0260438
1080.290 .0260472
1080.869 .0260534
1081.448 .0260626
1082.027 .0260757
1082.606 .0260928
1083.185 .0261166
1083.764 .0261456
1084.343 .0261781
1084.923 .0262131
1085.502 .0262484
1086.082 .0262835
1086.662 .0263188
1087.242 .0263530
1087.822 .0263860
1088.402 .0264194
1088.983 .0264545
1089.563 .0264880
1090.144 .0265212
1090.725 .0265548
1091.306 .0265859
1091.887 .0266164
1092.469 .0266448
1093.050 .0266692
1093.632 .0266928
1094.214 .0267162
1094.796 .0267384
1095.379 .0267618
1095.961 .0267872
1096.544 .0268136
1097.127 .0268412
1097.710 .0268712
1098.294 .0269016
1098.877 .0269318
1099.461 .0269640
1100.046 .0269963
1100.630 .0270284
1101.215 .0270624
1101.800 .0270945
1102.385 .0271258
1102.970 .0271555
1103.556 .0271807
1104.142 .0272018
1104.728 .0272206
1105.315 .0272370
1105.902 .0272505
1106.489 .0272630
1107.077 .0272759
1107.664 .0272882
1108.253 .0273018
1108.841 .0273160
1109.430 .0273292
1110.019 .0273422
1110.609 .0273549
1111.198 .0273666
1111.789 .0273818
1112.379 .0274008
1112.970 .0274234
1113.561 .0274491
1114.153 .0274791
1114.745 .0275108
1115.338 .0275451
1115.931 .0275818
1116.524 .0276191
1117.117 .0276573
1117.712 .0276965
1118.306 .0277358
1118.901 .0277783
1119.496 .0278236
1120.092 .0278702
1120.689 .0279176
1121.285 .0279670
1121.882 .0280097
1122.480 .0280495
1123.078 .0280867
1123.677 .0281219
1124.276 .0281563
1124.875 .0281899
1125.476 .0282223
1126.076 .0282593
1126.677 .0283000
1127.279 .0283409
1127.881 .0283839
1128.484 .0284303
1129.087 .0284715
1129.691 .0285131
1130.295 .0285549
1130.900 .0286004
1131.505 .0286509
1132.111 .0287175
1132.718 .0287924
1133.325 .0288862
1133.933 .0289963
1134.541 .0291227
1135.150 .0292645
1135.760 .0294208
1136.370 .0295810
1136.981 .0297442
1137.592 .0299063
1138.204 .0300672
1138.817 .0302225
1139.431 .0303883
1140.045 .0305553
1140.660 .0307278
1141.275 .0308970
1141.891 .0310563
1142.508 .0314348
1143.126 .0315507
1143.744 .0316116
1144.363 .0315811
1144.983 .0314767
