Measurement Sequence started on: 15-12-46-377
Integration time: 28
Scans to Average: 2 
>>>>>Begin Spectral Data<<<<<
432.689 .0000100
433.621 .0000100
434.552 .0000100
435.482 .0000100
436.410 .0000100
437.337 .0000100
438.262 .0264960
439.187 .0562144
440.110 .0931843
441.031 .1349366
441.952 .1755677
442.871 .2076515
443.789 .2253949
444.705 .2267797
445.621 .2141878
446.535 .1929048
447.447 .1686845
448.359 .1314763
449.269 .1129102
450.178 .1010982
451.086 .0926829
451.993 .0861854
452.898 .0810452
453.803 .0768563
454.706 .0733918
455.608 .0704707
456.508 .0679560
457.408 .0657918
458.306 .0638867
459.204 .0621753
460.100 .0606195
460.995 .0591954
461.888 .0578985
462.781 .0566989
463.673 .0556079
464.563 .0546345
465.452 .0537497
466.340 .0529394
467.228 .0521941
468.114 .0515059
468.999 .0508664
469.882 .0502634
470.765 .0496976
471.647 .0491646
472.528 .0486694
473.407 .0482137
474.286 .0478095
475.163 .0474564
476.040 .0471613
476.915 .0469116
477.790 .0467012
478.663 .0465208
479.535 .0463657
480.407 .0462355
481.277 .0461285
482.147 .0460425
483.015 .0459754
483.883 .0459246
484.749 .0458962
485.615 .0458929
486.479 .0459101
487.343 .0459470
488.206 .0459972
489.067 .0460513
489.928 .0461056
490.788 .0461625
491.647 .0462208
492.505 .0462870
493.362 .0463678
494.218 .0464612
495.073 .0465707
495.928 .0467092
496.781 .0468689
497.634 .0470526
498.486 .0472604
499.337 .0474875
500.187 .0477132
501.036 .0479562
501.884 .0482084
502.731 .0484808
503.578 .0487836
504.424 .0491214
505.268 .0494838
506.113 .0498860
506.956 .0503267
507.798 .0507961
508.640 .0513032
509.480 .0518585
510.320 .0524637
511.160 .0531411
511.998 .0539047
512.836 .0547845
513.672 .0557985
514.508 .0569922
515.344 .0583498
516.178 .0598827
517.012 .0616126
517.845 .0635383
518.677 .0656836
519.508 .0680665
520.339 .0707116
521.169 .0737128
521.998 .0771317
522.826 .0810422
523.654 .0854716
524.481 .0904284
525.307 .0959524
526.133 .1019528
526.958 .1083477
527.782 .1150344
528.605 .1218899
529.428 .1288631
530.250 .1354921
531.072 .1415518
531.892 .1467722
532.712 .1508648
533.532 .1536712
534.350 .1549698
535.168 .1546342
535.986 .1526566
536.802 .1491288
537.618 .1442300
538.434 .1381297
539.249 .1313171
540.063 .1240368
540.876 .1166076
541.689 .1093436
542.501 .1024407
543.313 .0961108
544.124 .0904961
544.934 .0855516
545.744 .0811786
546.553 .0773069
547.361 .0738883
548.169 .0708558
548.976 .0681599
549.783 .0657586
550.589 .0636151
551.395 .0616816
552.200 .0599347
553.004 .0583469
553.808 .0569160
554.611 .0556436
555.414 .0545187
556.216 .0535284
557.018 .0526447
557.819 .0518377
558.619 .0510771
559.419 .0503497
560.218 .0496503
561.017 .0489582
561.815 .0482889
562.613 .0476304
563.410 .0469829
564.207 .0463443
565.003 .0457257
565.799 .0451273
566.594 .0445433
567.388 .0439825
568.182 .0434389
568.976 .0429063
569.769 .0423876
570.562 .0418796
571.354 .0413798
572.145 .0408927
572.936 .0404148
573.727 .0399393
574.517 .0394721
575.307 .0390134
576.096 .0385651
576.885 .0381332
577.673 .0377217
578.461 .0373277
579.248 .0369524
580.035 .0365994
580.821 .0362620
581.607 .0359400
582.392 .0356370
583.177 .0353522
583.962 .0350866
584.746 .0348438
585.529 .0346238
586.313 .0344282
587.095 .0342588
587.878 .0341117
588.660 .0339837
589.441 .0338724
590.222 .0337738
591.003 .0336851
591.783 .0336055
592.563 .0335337
593.342 .0334687
594.121 .0334099
594.899 .0333577
595.678 .0333103
596.455 .0332678
597.233 .0332285
598.009 .0331915
598.786 .0331563
599.562 .0331207
600.338 .0330843
601.113 .0330471
601.888 .0330089
602.663 .0329693
603.437 .0329287
604.211 .0328881
604.984 .0328478
605.757 .0328078
606.530 .0327683
607.302 .0327292
608.074 .0326902
608.845 .0326503
609.616 .0326094
610.387 .0325688
611.158 .0325285
611.928 .0324892
612.697 .0324520
613.467 .0324178
614.236 .0323877
615.004 .0323605
615.773 .0323365
616.541 .0323147
617.308 .0322937
618.076 .0322727
618.843 .0322513
619.609 .0322295
620.375 .0322077
621.141 .0321859
621.907 .0321652
622.672 .0321452
623.437 .0321256
624.202 .0321058
624.966 .0320849
625.730 .0320629
626.493 .0320381
627.257 .0320106
628.020 .0319815
628.782 .0319509
629.545 .0319194
630.307 .0318877
631.068 .0318569
631.830 .0318276
632.591 .0317992
633.352 .0317725
634.112 .0317471
634.872 .0317230
635.632 .0317001
636.392 .0316781
637.151 .0316567
637.910 .0316356
638.668 .0316141
639.427 .0315922
640.185 .0315701
640.943 .0315476
641.700 .0315245
642.457 .0315018
643.214 .0314802
643.971 .0314591
644.727 .0314385
645.483 .0314191
646.239 .0314005
646.994 .0313824
647.750 .0313644
648.505 .0313462
649.259 .0313285
650.014 .0313114
650.768 .0312944
651.521 .0312779
652.275 .0312626
653.028 .0312477
653.781 .0312333
654.534 .0312185
655.286 .0312032
656.039 .0311865
656.791 .0311689
657.542 .0311495
658.294 .0311283
659.045 .0311059
659.796 .0310828
660.546 .0310587
661.297 .0310345
662.047 .0310093
662.796 .0309827
663.546 .0309554
664.295 .0309273
665.044 .0308976
665.793 .0308681
666.542 .0308382
667.290 .0308090
668.038 .0307808
668.786 .0307537
669.533 .0307274
670.281 .0307026
671.028 .0306793
671.774 .0306561
672.521 .0306333
673.267 .0306117
674.013 .0305909
674.759 .0305716
675.505 .0305540
676.250 .0305376
676.995 .0305223
677.740 .0305083
678.484 .0304946
679.229 .0304810
679.973 .0304678
680.717 .0304544
681.460 .0304412
682.204 .0304283
682.947 .0304157
683.690 .0304033
684.433 .0303911
685.175 .0303785
685.917 .0303652
686.659 .0303509
687.401 .0303357
688.142 .0303199
688.884 .0303042
689.625 .0302885
690.365 .0302730
691.106 .0302574
691.846 .0302418
692.586 .0302256
693.326 .0302089
694.066 .0301915
694.805 .0301731
695.545 .0301540
696.284 .0301339
697.022 .0301134
697.761 .0300921
698.499 .0300701
699.237 .0300477
699.975 .0300246
700.713 .0300016
701.450 .0299787
702.187 .0299564
702.924 .0299357
703.661 .0299167
704.397 .0298994
705.133 .0298837
705.869 .0298692
706.605 .0298550
707.341 .0298410
708.076 .0298267
708.811 .0298119
709.546 .0297968
710.281 .0297816
711.015 .0297666
711.749 .0297520
712.483 .0297377
713.217 .0297234
713.950 .0297092
714.684 .0296949
715.417 .0296797
716.150 .0296635
716.882 .0296468
717.615 .0296291
718.347 .0296111
719.079 .0295931
719.811 .0295753
720.542 .0295581
721.273 .0295417
722.005 .0295257
722.735 .0295105
723.466 .0294959
724.196 .0294817
724.927 .0294671
725.656 .0294521
726.386 .0294360
727.116 .0294188
727.845 .0294010
728.574 .0293823
729.303 .0293630
730.031 .0293444
730.760 .0293262
731.488 .0293084
732.216 .0292921
732.944 .0292771
733.671 .0292635
734.398 .0292513
735.125 .0292403
735.852 .0292304
736.579 .0292217
737.305 .0292142
738.031 .0292081
738.757 .0292032
739.483 .0291991
740.208 .0291950
740.933 .0291914
741.658 .0291873
742.383 .0291822
743.108 .0291763
743.832 .0291696
744.556 .0291619
745.280 .0291531
746.004 .0291434
746.727 .0291334
747.450 .0291228
748.173 .0291112
748.896 .0290987
749.618 .0290857
750.340 .0290714
751.062 .0290565
751.784 .0290413
752.506 .0290261
753.227 .0290108
753.948 .0289960
754.669 .0289820
755.389 .0289686
756.110 .0289557
756.830 .0289429
757.550 .0289304
758.269 .0289180
758.989 .0289050
759.708 .0288916
760.427 .0288780
761.146 .0288644
761.864 .0288499
762.582 .0288352
763.300 .0288206
764.018 .0288062
764.736 .0287920
765.453 .0287784
766.170 .0287657
766.887 .0287534
767.603 .0287416
768.320 .0287302
769.036 .0287186
769.751 .0287065
770.467 .0286935
771.182 .0286798
771.897 .0286652
772.612 .0286506
773.327 .0286358
774.041 .0286223
774.755 .0286101
775.469 .0285991
776.183 .0285895
776.896 .0285811
777.609 .0285731
778.322 .0285651
779.035 .0285565
779.747 .0285474
780.459 .0285378
781.171 .0285286
781.882 .0285197
782.594 .0285122
783.305 .0285060
784.016 .0285013
784.726 .0284974
785.436 .0284937
786.147 .0284892
786.856 .0284835
787.566 .0284761
788.275 .0284665
788.984 .0284555
789.693 .0284432
790.401 .0284297
791.110 .0284162
791.818 .0284026
792.525 .0283891
793.233 .0283755
793.940 .0283616
794.647 .0283468
795.353 .0283315
796.060 .0283155
796.766 .0282990
797.472 .0282829
798.177 .0282674
798.883 .0282523
799.588 .0282378
800.292 .0282246
800.997 .0282122
801.701 .0282007
802.405 .0281898
803.109 .0281792
803.812 .0281689
804.515 .0281586
805.218 .0281482
805.921 .0281379
806.623 .0281274
807.325 .0281167
808.027 .0281057
808.728 .0280945
809.429 .0280827
810.130 .0280705
810.831 .0280582
811.531 .0280456
812.231 .0280322
812.931 .0280181
813.630 .0280034
814.330 .0279886
815.029 .0279737
815.727 .0279589
816.426 .0279448
817.124 .0279315
817.821 .0279190
818.519 .0279072
819.216 .0278961
819.913 .0278855
820.609 .0278750
821.306 .0278644
822.002 .0278538
822.697 .0278435
823.393 .0278338
824.088 .0278254
824.783 .0278187
825.477 .0278137
826.171 .0278105
826.865 .0278092
827.559 .0278098
828.252 .0278112
828.945 .0278130
829.638 .0278147
830.330 .0278161
831.023 .0278169
831.714 .0278173
832.406 .0278178
833.097 .0278186
833.788 .0278198
834.479 .0278217
835.169 .0278241
835.859 .0278272
836.548 .0278301
837.238 .0278322
837.927 .0278331
838.615 .0278325
839.304 .0278297
839.992 .0278257
840.680 .0278206
841.367 .0278151
842.054 .0278097
842.741 .0278048
843.428 .0278007
844.114 .0277974
844.800 .0277948
845.485 .0277919
846.170 .0277882
846.855 .0277832
847.540 .0277763
848.224 .0277673
848.908 .0277564
849.592 .0277442
850.275 .0277307
850.958 .0277163
851.641 .0277010
852.323 .0276852
853.005 .0276690
853.687 .0276521
854.368 .0276346
855.049 .0276162
855.730 .0275973
856.410 .0275772
857.090 .0275566
857.769 .0275358
858.449 .0275154
859.128 .0274952
859.806 .0274758
860.485 .0274578
861.163 .0274411
861.840 .0274257
862.518 .0274114
863.195 .0273975
863.871 .0273840
864.548 .0273703
865.224 .0273561
865.899 .0273416
866.574 .0273268
867.249 .0273113
867.924 .0272954
868.598 .0272794
869.272 .0272633
869.946 .0272468
870.619 .0272303
871.292 .0272134
871.964 .0271957
872.636 .0271776
873.308 .0271588
873.979 .0271394
874.651 .0271201
875.321 .0271007
875.992 .0270816
876.662 .0270630
877.331 .0270454
878.001 .0270292
878.670 .0270144
879.338 .0270011
880.007 .0269891
880.675 .0269784
881.342 .0269690
882.009 .0269605
882.676 .0269532
883.343 .0269469
884.009 .0269413
884.675 .0269364
885.340 .0269318
886.005 .0269277
886.670 .0269240
887.334 .0269208
887.998 .0269178
888.662 .0269151
889.325 .0269121
889.988 .0269093
890.650 .0269067
891.312 .0269039
891.974 .0269015
892.636 .0268988
893.297 .0268960
893.957 .0268932
894.618 .0268900
895.278 .0268868
895.937 .0268833
896.596 .0268803
897.255 .0268770
897.914 .0268737
898.572 .0268703
899.230 .0268665
899.887 .0268626
900.544 .0268582
901.201 .0268527
901.857 .0268465
902.513 .0268397
903.168 .0268315
903.823 .0268220
904.478 .0268117
905.132 .0267998
905.786 .0267872
906.440 .0267740
907.093 .0267605
907.746 .0267465
908.399 .0267330
909.051 .0267196
909.703 .0267065
910.354 .0266942
911.005 .0266817
911.656 .0266689
912.306 .0266562
912.956 .0266428
913.605 .0266284
914.254 .0266141
914.903 .0266001
915.551 .0265860
916.199 .0265729
916.847 .0265602
917.494 .0265479
918.141 .0265363
918.788 .0265251
919.434 .0265136
920.079 .0265020
920.725 .0264897
921.370 .0264768
922.014 .0264634
922.658 .0264499
923.302 .0264364
923.946 .0264235
924.589 .0264111
925.231 .0263989
925.873 .0263871
926.515 .0263756
927.157 .0263640
927.798 .0263524
928.439 .0263400
929.079 .0263269
929.719 .0263125
930.359 .0262971
930.998 .0262810
931.637 .0262649
932.275 .0262490
932.913 .0262338
933.551 .0262199
934.188 .0262071
934.825 .0261954
935.462 .0261847
936.098 .0261751
936.733 .0261661
937.369 .0261581
938.004 .0261510
938.638 .0261449
939.273 .0261403
939.907 .0261374
940.540 .0261364
941.173 .0261377
941.806 .0261408
942.438 .0261450
943.070 .0261499
943.702 .0261550
944.333 .0261592
944.964 .0261620
945.594 .0261637
946.224 .0261636
946.854 .0261623
947.483 .0261604
948.112 .0261577
948.741 .0261547
949.369 .0261513
949.996 .0261471
950.624 .0261420
951.251 .0261355
951.878 .0261273
952.504 .0261172
953.130 .0261058
953.755 .0260930
954.380 .0260801
955.005 .0260675
955.629 .0260561
956.253 .0260459
956.877 .0260377
957.500 .0260305
958.123 .0260243
958.746 .0260184
959.368 .0260124
959.990 .0260056
960.611 .0259981
961.232 .0259895
961.853 .0259813
962.473 .0259738
963.093 .0259671
963.712 .0259611
964.331 .0259558
964.950 .0259506
965.569 .0259451
966.187 .0259390
966.804 .0259322
967.422 .0259255
968.039 .0259189
968.655 .0259127
969.272 .0259068
969.887 .0259019
970.503 .0258978
971.118 .0258941
971.733 .0258899
972.347 .0258848
972.961 .0258780
973.575 .0258697
974.188 .0258595
974.801 .0258480
975.414 .0258351
976.026 .0258213
976.638 .0258069
977.250 .0257920
977.861 .0257762
978.472 .0257601
979.083 .0257432
979.693 .0257254
980.303 .0257060
980.912 .0256850
981.521 .0256629
982.130 .0256403
982.738 .0256168
983.346 .0255934
983.954 .0255700
984.562 .0255473
985.169 .0255247
985.775 .0255022
986.382 .0254804
986.988 .0254589
987.594 .0254374
988.199 .0254165
988.804 .0253957
989.409 .0253750
990.013 .0253546
990.617 .0253347
991.221 .0253154
991.824 .0252969
992.427 .0252801
993.030 .0252653
993.632 .0252534
994.234 .0252448
994.836 .0252386
995.438 .0252350
996.039 .0252339
996.640 .0252330
997.240 .0252327
997.840 .0252323
998.440 .0252313
999.040 .0252294
999.639 .0252280
1000.238 .0252265
1000.836 .0252258
1001.435 .0252267
1002.033 .0252283
1002.630 .0252304
1003.228 .0252332
1003.825 .0252355
1004.422 .0252367
1005.018 .0252371
1005.614 .0252364
1006.210 .0252337
1006.806 .0252302
1007.401 .0252253
1007.996 .0252195
1008.591 .0252132
1009.186 .0252066
1009.780 .0251995
1010.374 .0251923
1010.967 .0251855
1011.561 .0251779
1012.154 .0251704
1012.746 .0251625
1013.339 .0251543
1013.931 .0251455
1014.523 .0251368
1015.115 .0251284
1015.706 .0251206
1016.298 .0251143
1016.888 .0251100
1017.479 .0251079
1018.069 .0251082
1018.660 .0251101
1019.250 .0251144
1019.839 .0251193
1020.429 .0251249
1021.018 .0251301
1021.607 .0251358
1022.195 .0251415
1022.784 .0251472
1023.372 .0251534
1023.960 .0251603
1024.547 .0251678
1025.135 .0251762
1025.722 .0251850
1026.309 .0251947
1026.896 .0252050
1027.483 .0252162
1028.069 .0252268
1028.655 .0252377
1029.241 .0252489
1029.827 .0252602
1030.412 .0252724
1030.997 .0252856
1031.582 .0252993
1032.167 .0253138
1032.752 .0253296
1033.336 .0253456
1033.921 .0253614
1034.505 .0253772
1035.089 .0253917
1035.672 .0254047
1036.256 .0254152
1036.839 .0254236
1037.422 .0254294
1038.005 .0254342
1038.588 .0254379
1039.171 .0254403
1039.753 .0254424
1040.335 .0254444
1040.918 .0254454
1041.500 .0254459
1042.081 .0254459
1042.663 .0254458
1043.244 .0254450
1043.826 .0254451
1044.407 .0254454
1044.988 .0254470
1045.569 .0254500
1046.150 .0254547
1046.730 .0254593
1047.311 .0254646
1047.891 .0254700
1048.471 .0254741
1049.052 .0254768
1049.632 .0254786
1050.211 .0254790
1050.791 .0254783
1051.371 .0254761
1051.950 .0254730
1052.530 .0254679
1053.109 .0254626
1053.688 .0254556
1054.268 .0254482
1054.847 .0254414
1055.426 .0254358
1056.005 .0254320
1056.583 .0254310
1057.162 .0254328
1057.741 .0254371
1058.319 .0254440
1058.898 .0254541
1059.476 .0254653
1060.055 .0254790
1060.633 .0254940
1061.211 .0255102
1061.790 .0255270
1062.368 .0255450
1062.946 .0255628
1063.524 .0255811
1064.102 .0255981
1064.680 .0256132
1065.258 .0256258
1065.836 .0256354
1066.414 .0256414
1066.992 .0256443
1067.570 .0256457
1068.148 .0256451
1068.726 .0256418
1069.304 .0256384
1069.882 .0256336
1070.460 .0256298
1071.038 .0256259
1071.616 .0256214
1072.194 .0256184
1072.772 .0256163
1073.350 .0256152
1073.928 .0256149
1074.506 .0256173
1075.084 .0256233
1075.662 .0256327
1076.240 .0256466
1076.819 .0256652
1077.397 .0256885
1077.976 .0257165
1078.554 .0257475
1079.133 .0257796
1079.711 .0258112
1080.290 .0258405
1080.869 .0258656
1081.448 .0258857
1082.027 .0259009
1082.606 .0259116
1083.185 .0259193
1083.764 .0259259
1084.343 .0259325
1084.923 .0259369
1085.502 .0259409
1086.082 .0259441
1086.662 .0259454
1087.242 .0259430
1087.822 .0259386
1088.402 .0259313
1088.983 .0259238
1089.563 .0259174
1090.144 .0259116
1090.725 .0259098
1091.306 .0259151
1091.887 .0259254
1092.469 .0259414
1093.050 .0259617
1093.632 .0259886
1094.214 .0260170
1094.796 .0260483
1095.379 .0260787
1095.961 .0261077
1096.544 .0261343
1097.127 .0261573
1097.710 .0261749
1098.294 .0261917
1098.877 .0262067
1099.461 .0262222
1100.046 .0262412
1100.630 .0262655
1101.215 .0262940
1101.800 .0263251
1102.385 .0263576
1102.970 .0263914
1103.556 .0264214
1104.142 .0264476
1104.728 .0264711
1105.315 .0264957
1105.902 .0265224
1106.489 .0265512
1107.077 .0265837
1107.664 .0266218
1108.253 .0266633
1108.841 .0267037
1109.430 .0267400
1110.019 .0267699
1110.609 .0267948
1111.198 .0268119
1111.789 .0268273
1112.379 .0268442
1112.970 .0268640
1113.561 .0268914
1114.153 .0269264
1114.745 .0269691
1115.338 .0270162
1115.931 .0270645
1116.524 .0271126
1117.117 .0271588
1117.712 .0272012
1118.306 .0272398
1118.901 .0272795
1119.496 .0273233
1120.092 .0273712
1120.689 .0274209
1121.285 .0274730
1121.882 .0275247
1122.480 .0275700
1123.078 .0276100
1123.677 .0276385
1124.276 .0276601
1124.875 .0276745
1125.476 .0276842
1126.076 .0276959
1126.677 .0277118
1127.279 .0277345
1127.881 .0277678
1128.484 .0278116
1129.087 .0278640
1129.691 .0279217
1130.295 .0279879
1130.900 .0280615
1131.505 .0281401
1132.111 .0282287
1132.718 .0283290
1133.325 .0284425
1133.933 .0285727
1134.541 .0287140
1135.150 .0288653
1135.760 .0290231
1136.370 .0291772
1136.981 .0293300
1137.592 .0294769
1138.204 .0296212
1138.817 .0297636
1139.431 .0299072
1140.045 .0300597
1140.660 .0302146
1141.275 .0303732
1141.891 .0305339
1142.508 .0307394
1143.126 .0309496
1143.744 .0309719
1144.363 .0311062
1144.983 .0312836
