Measurement Sequence started on: 15-12-46-377
Integration time: 28
Scans to Average: 2 
>>>>>Begin Spectral Data<<<<<
432.689 .0000100
433.621 .0000100
434.552 .0000100
435.482 .0000100
436.410 .0000100
437.337 .0000100
438.262 .0272817
439.187 .0576943
440.110 .0955871
441.031 .1383170
441.952 .1797922
442.871 .2124069
443.789 .2302582
444.705 .2313051
445.621 .2180559
446.535 .1959375
447.447 .1708958
448.359 .1325890
449.269 .1136579
450.178 .1016066
451.086 .0930907
451.993 .0865541
452.898 .0813635
453.803 .0770780
454.706 .0734955
455.608 .0704130
456.508 .0677504
457.408 .0654297
458.306 .0633796
459.204 .0615410
460.100 .0598735
460.995 .0583547
461.888 .0569743
462.781 .0557065
463.673 .0545420
464.563 .0534987
465.452 .0525698
466.340 .0517424
467.228 .0510244
468.114 .0503816
468.999 .0498211
469.882 .0493156
470.765 .0488585
471.647 .0484443
472.528 .0480628
473.407 .0477227
474.286 .0474263
475.163 .0471757
476.040 .0469650
476.915 .0467904
477.790 .0466564
478.663 .0465464
479.535 .0464488
480.407 .0463620
481.277 .0462715
482.147 .0461796
483.015 .0460933
483.883 .0460063
484.749 .0459315
485.615 .0458757
486.479 .0458339
487.343 .0458154
488.206 .0458166
489.067 .0458280
489.928 .0458411
490.788 .0458655
491.647 .0459023
492.505 .0459466
493.362 .0460137
494.218 .0461016
495.073 .0462104
495.928 .0463451
496.781 .0464946
497.634 .0466583
498.486 .0468433
499.337 .0470426
500.187 .0472607
501.036 .0475057
501.884 .0477892
502.731 .0481134
503.578 .0484840
504.424 .0489054
505.268 .0493703
506.113 .0498602
506.956 .0503773
507.798 .0509144
508.640 .0514818
509.480 .0520822
510.320 .0527413
511.160 .0534830
511.998 .0543111
512.836 .0552342
513.672 .0562767
514.508 .0574259
515.344 .0586985
516.178 .0601144
517.012 .0616940
517.845 .0635018
518.677 .0655806
519.508 .0679510
520.339 .0706886
521.169 .0738490
521.998 .0774578
522.826 .0815789
523.654 .0862607
524.481 .0915327
525.307 .0973991
526.133 .1039033
526.958 .1109817
527.782 .1185326
528.605 .1264164
529.428 .1344373
530.250 .1419959
531.072 .1488529
531.892 .1545106
532.712 .1586808
533.532 .1611569
534.350 .1617829
535.168 .1605105
535.986 .1574638
536.802 .1529158
537.618 .1471196
538.434 .1403384
539.249 .1330946
540.063 .1255105
540.876 .1179375
541.689 .1105783
542.501 .1036076
543.313 .0972038
544.124 .0914373
544.934 .0862933
545.744 .0816877
546.553 .0775871
547.361 .0739702
548.169 .0707943
548.976 .0679913
549.783 .0655286
550.589 .0633490
551.395 .0613995
552.200 .0596431
553.004 .0580551
553.808 .0566105
554.611 .0553035
555.414 .0541274
556.216 .0530627
557.018 .0521015
557.819 .0512308
558.619 .0504297
559.419 .0496886
560.218 .0489907
561.017 .0483084
561.815 .0476317
562.613 .0469578
563.410 .0462793
564.207 .0456025
565.003 .0449331
565.799 .0442837
566.594 .0436485
567.388 .0430423
568.182 .0424599
568.976 .0418965
569.769 .0413560
570.562 .0408354
571.354 .0403325
572.145 .0398464
572.936 .0393733
573.727 .0389160
574.517 .0384746
575.307 .0380553
576.096 .0376534
576.885 .0372706
577.673 .0369093
578.461 .0365686
579.248 .0362446
580.035 .0359424
580.821 .0356558
581.607 .0353871
582.392 .0351330
583.177 .0348953
583.962 .0346722
584.746 .0344669
585.529 .0342776
586.313 .0341053
587.095 .0339497
587.878 .0338105
588.660 .0336836
589.441 .0335716
590.222 .0334708
591.003 .0333787
591.783 .0332907
592.563 .0332064
593.342 .0331237
594.121 .0330423
594.899 .0329615
595.678 .0328836
596.455 .0328081
597.233 .0327378
598.009 .0326707
598.786 .0326090
599.562 .0325515
600.338 .0324966
601.113 .0324427
601.888 .0323893
602.663 .0323357
603.437 .0322827
604.211 .0322304
604.984 .0321816
605.757 .0321364
606.530 .0320945
607.302 .0320570
608.074 .0320242
608.845 .0319954
609.616 .0319693
610.387 .0319441
611.158 .0319185
611.928 .0318911
612.697 .0318621
613.467 .0318316
614.236 .0318008
615.004 .0317718
615.773 .0317441
616.541 .0317182
617.308 .0316938
618.076 .0316707
618.843 .0316480
619.609 .0316251
620.375 .0316008
621.141 .0315741
621.907 .0315454
622.672 .0315150
623.437 .0314838
624.202 .0314534
624.966 .0314244
625.730 .0313975
626.493 .0313734
627.257 .0313512
628.020 .0313308
628.782 .0313115
629.545 .0312924
630.307 .0312729
631.068 .0312526
631.830 .0312311
632.591 .0312089
633.352 .0311874
634.112 .0311670
634.872 .0311474
635.632 .0311305
636.392 .0311147
637.151 .0311000
637.910 .0310852
638.668 .0310691
639.427 .0310513
640.185 .0310315
640.943 .0310089
641.700 .0309843
642.457 .0309587
643.214 .0309341
643.971 .0309102
644.727 .0308887
645.483 .0308697
646.239 .0308533
646.994 .0308381
647.750 .0308237
648.505 .0308087
649.259 .0307934
650.014 .0307769
650.768 .0307596
651.521 .0307418
652.275 .0307236
653.028 .0307054
653.781 .0306872
654.534 .0306682
655.286 .0306482
656.039 .0306255
656.791 .0306007
657.542 .0305725
658.294 .0305415
659.045 .0305078
659.796 .0304723
660.546 .0304357
661.297 .0303987
662.047 .0303619
662.796 .0303255
663.546 .0302901
664.295 .0302560
665.044 .0302229
665.793 .0301920
666.542 .0301628
667.290 .0301362
668.038 .0301124
668.786 .0300916
669.533 .0300729
670.281 .0300570
671.028 .0300430
671.774 .0300305
672.521 .0300193
673.267 .0300093
674.013 .0299996
674.759 .0299900
675.505 .0299802
676.250 .0299693
676.995 .0299569
677.740 .0299435
678.484 .0299273
679.229 .0299103
679.973 .0298919
680.717 .0298722
681.460 .0298513
682.204 .0298301
682.947 .0298078
683.690 .0297850
684.433 .0297615
685.175 .0297373
685.917 .0297124
686.659 .0296877
687.401 .0296633
688.142 .0296401
688.884 .0296190
689.625 .0295998
690.365 .0295816
691.106 .0295653
691.846 .0295489
692.586 .0295326
693.326 .0295157
694.066 .0294984
694.805 .0294805
695.545 .0294620
696.284 .0294430
697.022 .0294239
697.761 .0294048
698.499 .0293859
699.237 .0293668
699.975 .0293475
700.713 .0293281
701.450 .0293089
702.187 .0292893
702.924 .0292701
703.661 .0292508
704.397 .0292316
705.133 .0292119
705.869 .0291924
706.605 .0291727
707.341 .0291529
708.076 .0291339
708.811 .0291155
709.546 .0290974
710.281 .0290802
711.015 .0290634
711.749 .0290468
712.483 .0290299
713.217 .0290124
713.950 .0289933
714.684 .0289734
715.417 .0289525
716.150 .0289313
716.882 .0289101
717.615 .0288898
718.347 .0288706
719.079 .0288524
719.811 .0288356
720.542 .0288198
721.273 .0288043
722.005 .0287892
722.735 .0287736
723.466 .0287575
724.196 .0287408
724.927 .0287235
725.656 .0287057
726.386 .0286876
727.116 .0286694
727.845 .0286510
728.574 .0286332
729.303 .0286160
730.031 .0285997
730.760 .0285840
731.488 .0285688
732.216 .0285536
732.944 .0285381
733.671 .0285227
734.398 .0285069
735.125 .0284915
735.852 .0284765
736.579 .0284625
737.305 .0284505
738.031 .0284404
738.757 .0284327
739.483 .0284265
740.208 .0284216
740.933 .0284169
741.658 .0284115
742.383 .0284050
743.108 .0283971
743.832 .0283879
744.556 .0283778
745.280 .0283672
746.004 .0283565
746.727 .0283463
747.450 .0283364
748.173 .0283264
748.896 .0283164
749.618 .0283048
750.340 .0282920
751.062 .0282772
751.784 .0282611
752.506 .0282436
753.227 .0282257
753.948 .0282079
754.669 .0281905
755.389 .0281740
756.110 .0281582
756.830 .0281430
757.550 .0281283
758.269 .0281132
758.989 .0280976
759.708 .0280811
760.427 .0280637
761.146 .0280453
761.864 .0280264
762.582 .0280070
763.300 .0279872
764.018 .0279674
764.736 .0279477
765.453 .0279280
766.170 .0279088
766.887 .0278900
767.603 .0278713
768.320 .0278535
769.036 .0278367
769.751 .0278203
770.467 .0278048
771.182 .0277901
771.897 .0277759
772.612 .0277624
773.327 .0277495
774.041 .0277373
774.755 .0277259
775.469 .0277154
776.183 .0277056
776.896 .0276970
777.609 .0276896
778.322 .0276828
779.035 .0276763
779.747 .0276703
780.459 .0276642
781.171 .0276578
781.882 .0276514
782.594 .0276448
783.305 .0276382
784.016 .0276322
784.726 .0276267
785.436 .0276221
786.147 .0276186
786.856 .0276160
787.566 .0276138
788.275 .0276114
788.984 .0276083
789.693 .0276037
790.401 .0275973
791.110 .0275891
791.818 .0275789
792.525 .0275674
793.233 .0275548
793.940 .0275415
794.647 .0275281
795.353 .0275145
796.060 .0275008
796.766 .0274867
797.472 .0274719
798.177 .0274563
798.883 .0274398
799.588 .0274235
800.292 .0274078
800.997 .0273930
801.701 .0273796
802.405 .0273677
803.109 .0273577
803.812 .0273487
804.515 .0273399
805.218 .0273313
805.921 .0273219
806.623 .0273113
807.325 .0272998
808.027 .0272873
808.728 .0272742
809.429 .0272609
810.130 .0272473
810.831 .0272333
811.531 .0272186
812.231 .0272033
812.931 .0271869
813.630 .0271690
814.330 .0271498
815.029 .0271289
815.727 .0271074
816.426 .0270858
817.124 .0270643
817.821 .0270436
818.519 .0270247
819.216 .0270074
819.913 .0269918
820.609 .0269780
821.306 .0269659
822.002 .0269553
822.697 .0269462
823.393 .0269383
824.088 .0269317
824.783 .0269261
825.477 .0269217
826.171 .0269181
826.865 .0269162
827.559 .0269149
828.252 .0269147
828.945 .0269156
829.638 .0269170
830.330 .0269187
831.023 .0269206
831.714 .0269221
832.406 .0269230
833.097 .0269227
833.788 .0269213
834.479 .0269185
835.169 .0269152
835.859 .0269109
836.548 .0269066
837.238 .0269025
837.927 .0268983
838.615 .0268938
839.304 .0268894
839.992 .0268848
840.680 .0268797
841.367 .0268741
842.054 .0268682
842.741 .0268619
843.428 .0268560
844.114 .0268506
844.800 .0268461
845.485 .0268423
846.170 .0268389
846.855 .0268350
847.540 .0268307
848.224 .0268251
848.908 .0268180
849.592 .0268096
850.275 .0268000
850.958 .0267894
851.641 .0267779
852.323 .0267656
853.005 .0267528
853.687 .0267390
854.368 .0267242
855.049 .0267080
855.730 .0266905
856.410 .0266714
857.090 .0266517
857.769 .0266319
858.449 .0266121
859.128 .0265934
859.806 .0265761
860.485 .0265607
861.163 .0265472
861.840 .0265353
862.518 .0265246
863.195 .0265147
863.871 .0265055
864.548 .0264962
865.224 .0264867
865.899 .0264776
866.574 .0264686
867.249 .0264598
867.924 .0264512
868.598 .0264426
869.272 .0264341
869.946 .0264261
870.619 .0264178
871.292 .0264094
871.964 .0264004
872.636 .0263914
873.308 .0263817
873.979 .0263718
874.651 .0263616
875.321 .0263511
875.992 .0263402
876.662 .0263295
877.331 .0263187
878.001 .0263082
878.670 .0262982
879.338 .0262891
880.007 .0262807
880.675 .0262727
881.342 .0262648
882.009 .0262574
882.676 .0262502
883.343 .0262432
884.009 .0262363
884.675 .0262296
885.340 .0262234
886.005 .0262178
886.670 .0262131
887.334 .0262095
887.998 .0262068
888.662 .0262049
889.325 .0262035
889.988 .0262024
890.650 .0262013
891.312 .0261998
891.974 .0261983
892.636 .0261968
893.297 .0261952
893.957 .0261934
894.618 .0261920
895.278 .0261905
895.937 .0261890
896.596 .0261873
897.255 .0261853
897.914 .0261828
898.572 .0261799
899.230 .0261764
899.887 .0261725
900.544 .0261680
901.201 .0261627
901.857 .0261563
902.513 .0261491
903.168 .0261404
903.823 .0261298
904.478 .0261174
905.132 .0261033
905.786 .0260873
906.440 .0260704
907.093 .0260526
907.746 .0260342
908.399 .0260157
909.051 .0259967
909.703 .0259773
910.354 .0259577
911.005 .0259380
911.656 .0259177
912.306 .0258970
912.956 .0258762
913.605 .0258552
914.254 .0258345
914.903 .0258143
915.551 .0257949
916.199 .0257765
916.847 .0257590
917.494 .0257418
918.141 .0257250
918.788 .0257088
919.434 .0256926
920.079 .0256763
920.725 .0256600
921.370 .0256438
922.014 .0256273
922.658 .0256108
923.302 .0255941
923.946 .0255776
924.589 .0255612
925.231 .0255444
925.873 .0255274
926.515 .0255098
927.157 .0254920
927.798 .0254735
928.439 .0254551
929.079 .0254366
929.719 .0254176
930.359 .0253985
930.998 .0253793
931.637 .0253600
932.275 .0253407
932.913 .0253214
933.551 .0253023
934.188 .0252835
934.825 .0252652
935.462 .0252476
936.098 .0252309
936.733 .0252155
937.369 .0252010
938.004 .0251870
938.638 .0251730
939.273 .0251589
939.907 .0251444
940.540 .0251299
941.173 .0251157
941.806 .0251023
942.438 .0250899
943.070 .0250787
943.702 .0250687
944.333 .0250595
944.964 .0250511
945.594 .0250433
946.224 .0250351
946.854 .0250274
947.483 .0250199
948.112 .0250128
948.741 .0250062
949.369 .0250006
949.996 .0249956
950.624 .0249911
951.251 .0249869
951.878 .0249819
952.504 .0249761
953.130 .0249694
953.755 .0249613
954.380 .0249518
955.005 .0249415
955.629 .0249305
956.253 .0249186
956.877 .0249067
957.500 .0248948
958.123 .0248829
958.746 .0248710
959.368 .0248590
959.990 .0248468
960.611 .0248347
961.232 .0248229
961.853 .0248112
962.473 .0248007
963.093 .0247911
963.712 .0247821
964.331 .0247736
964.950 .0247657
965.569 .0247581
966.187 .0247508
966.804 .0247439
967.422 .0247374
968.039 .0247316
968.655 .0247264
969.272 .0247211
969.887 .0247160
970.503 .0247105
971.118 .0247039
971.733 .0246962
972.347 .0246877
972.961 .0246782
973.575 .0246682
974.188 .0246581
974.801 .0246485
975.414 .0246400
976.026 .0246320
976.638 .0246241
977.250 .0246162
977.861 .0246081
978.472 .0245986
979.083 .0245881
979.693 .0245769
980.303 .0245652
980.912 .0245535
981.521 .0245421
982.130 .0245313
982.738 .0245213
983.346 .0245121
983.954 .0245030
984.562 .0244944
985.169 .0244859
985.775 .0244770
986.382 .0244682
986.988 .0244596
987.594 .0244513
988.199 .0244433
988.804 .0244358
989.409 .0244286
990.013 .0244220
990.617 .0244154
991.221 .0244094
991.824 .0244043
992.427 .0244007
993.030 .0243985
993.632 .0243981
994.234 .0243994
994.836 .0244021
995.438 .0244057
996.039 .0244098
996.640 .0244133
997.240 .0244165
997.840 .0244188
998.440 .0244198
999.040 .0244197
999.639 .0244192
1000.238 .0244187
1000.836 .0244186
1001.435 .0244187
1002.033 .0244189
1002.630 .0244182
1003.228 .0244166
1003.825 .0244131
1004.422 .0244082
1005.018 .0244024
1005.614 .0243960
1006.210 .0243893
1006.806 .0243837
1007.401 .0243796
1007.996 .0243776
1008.591 .0243781
1009.186 .0243812
1009.780 .0243856
1010.374 .0243906
1010.967 .0243951
1011.561 .0243994
1012.154 .0244025
1012.746 .0244049
1013.339 .0244065
1013.931 .0244084
1014.523 .0244104
1015.115 .0244125
1015.706 .0244150
1016.298 .0244186
1016.888 .0244228
1017.479 .0244268
1018.069 .0244304
1018.660 .0244337
1019.250 .0244364
1019.839 .0244389
1020.429 .0244415
1021.018 .0244455
1021.607 .0244504
1022.195 .0244567
1022.784 .0244640
1023.372 .0244726
1023.960 .0244820
1024.547 .0244918
1025.135 .0245024
1025.722 .0245120
1026.309 .0245204
1026.896 .0245283
1027.483 .0245356
1028.069 .0245427
1028.655 .0245499
1029.241 .0245574
1029.827 .0245648
1030.412 .0245729
1030.997 .0245812
1031.582 .0245901
1032.167 .0246003
1032.752 .0246113
1033.336 .0246231
1033.921 .0246363
1034.505 .0246506
1035.089 .0246647
1035.672 .0246799
1036.256 .0246952
1036.839 .0247097
1037.422 .0247237
1038.005 .0247372
1038.588 .0247504
1039.171 .0247631
1039.753 .0247754
1040.335 .0247869
1040.918 .0247973
1041.500 .0248068
1042.081 .0248143
1042.663 .0248210
1043.244 .0248264
1043.826 .0248300
1044.407 .0248324
1044.988 .0248345
1045.569 .0248362
1046.150 .0248376
1046.730 .0248384
1047.311 .0248395
1047.891 .0248403
1048.471 .0248408
1049.052 .0248415
1049.632 .0248424
1050.211 .0248450
1050.791 .0248476
1051.371 .0248505
1051.950 .0248542
1052.530 .0248580
1053.109 .0248619
1053.688 .0248639
1054.268 .0248649
1054.847 .0248645
1055.426 .0248623
1056.005 .0248593
1056.583 .0248561
1057.162 .0248529
1057.741 .0248499
1058.319 .0248476
1058.898 .0248462
1059.476 .0248448
1060.055 .0248433
1060.633 .0248420
1061.211 .0248403
1061.790 .0248387
1062.368 .0248371
1062.946 .0248360
1063.524 .0248380
1064.102 .0248408
1064.680 .0248459
1065.258 .0248536
1065.836 .0248635
1066.414 .0248745
1066.992 .0248852
1067.570 .0248958
1068.148 .0249043
1068.726 .0249110
1069.304 .0249159
1069.882 .0249183
1070.460 .0249197
1071.038 .0249195
1071.616 .0249186
1072.194 .0249175
1072.772 .0249155
1073.350 .0249123
1073.928 .0249094
1074.506 .0249061
1075.084 .0249018
1075.662 .0248974
1076.240 .0248952
1076.819 .0248948
1077.397 .0248953
1077.976 .0248987
1078.554 .0249039
1079.133 .0249106
1079.711 .0249186
1080.290 .0249265
1080.869 .0249352
1081.448 .0249430
1082.027 .0249504
1082.606 .0249564
1083.185 .0249631
1083.764 .0249697
1084.343 .0249760
1084.923 .0249831
1085.502 .0249911
1086.082 .0249980
1086.662 .0250048
1087.242 .0250115
1087.822 .0250171
1088.402 .0250215
1088.983 .0250266
1089.563 .0250309
1090.144 .0250381
1090.725 .0250472
1091.306 .0250579
1091.887 .0250705
1092.469 .0250865
1093.050 .0251040
1093.632 .0251232
1094.214 .0251452
1094.796 .0251685
1095.379 .0251931
1095.961 .0252208
1096.544 .0252498
1097.127 .0252813
1097.710 .0253138
1098.294 .0253462
1098.877 .0253766
1099.461 .0254070
1100.046 .0254350
1100.630 .0254602
1101.215 .0254850
1101.800 .0255080
1102.385 .0255280
1102.970 .0255445
1103.556 .0255571
1104.142 .0255657
1104.728 .0255690
1105.315 .0255676
1105.902 .0255610
1106.489 .0255519
1107.077 .0255410
1107.664 .0255301
1108.253 .0255202
1108.841 .0255129
1109.430 .0255067
1110.019 .0254993
1110.609 .0254927
1111.198 .0254857
1111.789 .0254807
1112.379 .0254798
1112.970 .0254857
1113.561 .0255003
1114.153 .0255212
1114.745 .0255519
1115.338 .0255879
1115.931 .0256283
1116.524 .0256715
1117.117 .0257151
1117.712 .0257603
1118.306 .0258080
1118.901 .0258615
1119.496 .0259199
1120.092 .0259862
1120.689 .0260588
1121.285 .0261322
1121.882 .0262045
1122.480 .0262712
1123.078 .0263313
1123.677 .0263847
1124.276 .0264355
1124.875 .0264838
1125.476 .0265330
1126.076 .0265857
1126.677 .0266424
1127.279 .0267026
1127.881 .0267660
1128.484 .0268289
1129.087 .0268903
1129.691 .0269499
1130.295 .0270076
1130.900 .0270651
1131.505 .0271262
1132.111 .0271948
1132.718 .0272723
1133.325 .0273565
1133.933 .0274456
1134.541 .0275357
1135.150 .0276257
1135.760 .0277114
1136.370 .0277934
1136.981 .0278709
1137.592 .0279450
1138.204 .0280226
1138.817 .0281068
1139.431 .0282029
1140.045 .0283148
1140.660 .0284369
1141.275 .0285822
1141.891 .0287425
1142.508 .0288976
1143.126 .0291220
1143.744 .0290747
1144.363 .0295931
1144.983 .0297726
