Measurement Sequence started on: 15-12-46-377
Integration time: 28
Scans to Average: 2 
>>>>>Begin Spectral Data<<<<<
432.689 .0000100
433.621 .0000100
434.552 .0000100
435.482 .0000100
436.410 .0000100
437.337 .0000100
438.262 .0272430
439.187 .0576339
440.110 .0954926
441.031 .1382046
441.952 .1796869
442.871 .2123940
443.789 .2303942
444.705 .2316700
445.621 .2186974
446.535 .1968815
447.447 .1721225
448.359 .1340597
449.269 .1152647
450.178 .1032925
451.086 .0947948
451.993 .0882646
452.898 .0830586
453.803 .0788022
454.706 .0752635
455.608 .0722569
456.508 .0696770
457.408 .0674349
458.306 .0654434
459.204 .0636464
460.100 .0620066
460.995 .0605147
461.888 .0591537
462.781 .0579060
463.673 .0567618
464.563 .0557316
465.452 .0547799
466.340 .0538901
467.228 .0530732
468.114 .0523158
468.999 .0516128
469.882 .0509533
470.765 .0503463
471.647 .0497937
472.528 .0492944
473.407 .0488547
474.286 .0484700
475.163 .0481460
476.040 .0478711
476.915 .0476343
477.790 .0474306
478.663 .0472587
479.535 .0471099
480.407 .0469826
481.277 .0468790
482.147 .0468005
483.015 .0467403
483.883 .0466958
484.749 .0466726
485.615 .0466556
486.479 .0466443
487.343 .0466380
488.206 .0466304
489.067 .0466226
489.928 .0466171
490.788 .0466192
491.647 .0466331
492.505 .0466707
493.362 .0467325
494.218 .0468150
495.073 .0469298
495.928 .0470685
496.781 .0472202
497.634 .0473943
498.486 .0475937
499.337 .0478146
500.187 .0480676
501.036 .0483501
501.884 .0486636
502.731 .0490195
503.578 .0494196
504.424 .0498504
505.268 .0503069
506.113 .0508008
506.956 .0513133
507.798 .0518516
508.640 .0524202
509.480 .0530317
510.320 .0536988
511.160 .0544339
511.998 .0552423
512.836 .0561379
513.672 .0571340
514.508 .0582285
515.344 .0594286
516.178 .0607699
517.012 .0622623
517.845 .0639411
518.677 .0658290
519.508 .0679606
520.339 .0703525
521.169 .0730553
521.998 .0760754
522.826 .0794645
523.654 .0832262
524.481 .0874393
525.307 .0921661
526.133 .0974226
526.958 .1032264
527.782 .1095270
528.605 .1162377
529.428 .1231762
530.250 .1298272
531.072 .1359927
531.892 .1412483
532.712 .1453489
533.532 .1480399
534.350 .1491498
535.168 .1486597
535.986 .1466221
536.802 .1431784
537.618 .1385648
538.434 .1329965
539.249 .1268791
540.063 .1203328
540.876 .1137019
541.689 .1072054
542.501 .1010132
543.313 .0952978
544.124 .0901247
544.934 .0854396
545.744 .0812242
546.553 .0774099
547.361 .0740265
548.169 .0710409
548.976 .0684021
549.783 .0660745
550.589 .0640171
551.395 .0622042
552.200 .0605856
553.004 .0591166
553.808 .0577965
554.611 .0565734
555.414 .0554416
556.216 .0544024
557.018 .0534514
557.819 .0525809
558.619 .0517843
559.419 .0510419
560.218 .0503497
561.017 .0496780
561.815 .0490146
562.613 .0483454
563.410 .0476806
564.207 .0470179
565.003 .0463534
565.799 .0456939
566.594 .0450440
567.388 .0444063
568.182 .0437849
568.976 .0431763
569.769 .0425837
570.562 .0420084
571.354 .0414561
572.145 .0409234
572.936 .0404113
573.727 .0399215
574.517 .0394569
575.307 .0390073
576.096 .0385730
576.885 .0381521
577.673 .0377432
578.461 .0373545
579.248 .0369805
580.035 .0366259
580.821 .0362942
581.607 .0359829
582.392 .0356893
583.177 .0354115
583.962 .0351520
584.746 .0349103
585.529 .0346859
586.313 .0344812
587.095 .0342933
587.878 .0341250
588.660 .0339757
589.441 .0338428
590.222 .0337250
591.003 .0336213
591.783 .0335251
592.563 .0334367
593.342 .0333541
594.121 .0332760
594.899 .0332033
595.678 .0331361
596.455 .0330733
597.233 .0330148
598.009 .0329595
598.786 .0329075
599.562 .0328583
600.338 .0328115
601.113 .0327653
601.888 .0327196
602.663 .0326737
603.437 .0326272
604.211 .0325795
604.984 .0325326
605.757 .0324873
606.530 .0324439
607.302 .0324024
608.074 .0323636
608.845 .0323282
609.616 .0322962
610.387 .0322666
611.158 .0322393
611.928 .0322131
612.697 .0321879
613.467 .0321632
614.236 .0321394
615.004 .0321163
615.773 .0320949
616.541 .0320748
617.308 .0320565
618.076 .0320400
618.843 .0320241
619.609 .0320095
620.375 .0319959
621.141 .0319821
621.907 .0319675
622.672 .0319516
623.437 .0319354
624.202 .0319181
624.966 .0318997
625.730 .0318802
626.493 .0318597
627.257 .0318389
628.020 .0318181
628.782 .0317969
629.545 .0317755
630.307 .0317537
631.068 .0317306
631.830 .0317065
632.591 .0316804
633.352 .0316530
634.112 .0316246
634.872 .0315961
635.632 .0315679
636.392 .0315396
637.151 .0315130
637.910 .0314874
638.668 .0314620
639.427 .0314370
640.185 .0314111
640.943 .0313848
641.700 .0313581
642.457 .0313308
643.214 .0313032
643.971 .0312760
644.727 .0312497
645.483 .0312239
646.239 .0311988
646.994 .0311740
647.750 .0311494
648.505 .0311251
649.259 .0311011
650.014 .0310765
650.768 .0310522
651.521 .0310286
652.275 .0310054
653.028 .0309837
653.781 .0309632
654.534 .0309437
655.286 .0309250
656.039 .0309065
656.791 .0308873
657.542 .0308667
658.294 .0308447
659.045 .0308213
659.796 .0307963
660.546 .0307695
661.297 .0307410
662.047 .0307119
662.796 .0306825
663.546 .0306532
664.295 .0306242
665.044 .0305954
665.793 .0305669
666.542 .0305379
667.290 .0305085
668.038 .0304792
668.786 .0304502
669.533 .0304216
670.281 .0303937
671.028 .0303676
671.774 .0303426
672.521 .0303190
673.267 .0302966
674.013 .0302748
674.759 .0302527
675.505 .0302295
676.250 .0302052
676.995 .0301807
677.740 .0301559
678.484 .0301307
679.229 .0301063
679.973 .0300824
680.717 .0300589
681.460 .0300353
682.204 .0300114
682.947 .0299874
683.690 .0299626
684.433 .0299376
685.175 .0299129
685.917 .0298890
686.659 .0298668
687.401 .0298461
688.142 .0298275
688.884 .0298096
689.625 .0297916
690.365 .0297734
691.106 .0297539
691.846 .0297336
692.586 .0297123
693.326 .0296908
694.066 .0296699
694.805 .0296504
695.545 .0296316
696.284 .0296133
697.022 .0295948
697.761 .0295748
698.499 .0295530
699.237 .0295290
699.975 .0295032
700.713 .0294768
701.450 .0294511
702.187 .0294271
702.924 .0294053
703.661 .0293866
704.397 .0293701
705.133 .0293555
705.869 .0293415
706.605 .0293276
707.341 .0293131
708.076 .0292979
708.811 .0292824
709.546 .0292672
710.281 .0292529
711.015 .0292397
711.749 .0292277
712.483 .0292167
713.217 .0292054
713.950 .0291936
714.684 .0291801
715.417 .0291653
716.150 .0291487
716.882 .0291307
717.615 .0291120
718.347 .0290935
719.079 .0290757
719.811 .0290587
720.542 .0290431
721.273 .0290286
722.005 .0290143
722.735 .0290002
723.466 .0289861
724.196 .0289718
724.927 .0289571
725.656 .0289425
726.386 .0289282
727.116 .0289145
727.845 .0289014
728.574 .0288890
729.303 .0288773
730.031 .0288661
730.760 .0288550
731.488 .0288435
732.216 .0288321
732.944 .0288209
733.671 .0288104
734.398 .0288010
735.125 .0287931
735.852 .0287870
736.579 .0287826
737.305 .0287796
738.031 .0287779
738.757 .0287765
739.483 .0287749
740.208 .0287723
740.933 .0287687
741.658 .0287636
742.383 .0287571
743.108 .0287495
743.832 .0287413
744.556 .0287326
745.280 .0287238
746.004 .0287152
746.727 .0287070
747.450 .0286991
748.173 .0286913
748.896 .0286832
749.618 .0286747
750.340 .0286651
751.062 .0286548
751.784 .0286441
752.506 .0286333
753.227 .0286230
753.948 .0286133
754.669 .0286049
755.389 .0285978
756.110 .0285913
756.830 .0285849
757.550 .0285776
758.269 .0285689
758.989 .0285582
759.708 .0285448
760.427 .0285289
761.146 .0285109
761.864 .0284915
762.582 .0284710
763.300 .0284498
764.018 .0284285
764.736 .0284076
765.453 .0283865
766.170 .0283656
766.887 .0283444
767.603 .0283229
768.320 .0283014
769.036 .0282794
769.751 .0282573
770.467 .0282355
771.182 .0282139
771.897 .0281927
772.612 .0281723
773.327 .0281530
774.041 .0281346
774.755 .0281175
775.469 .0281016
776.183 .0280869
776.896 .0280731
777.609 .0280603
778.322 .0280476
779.035 .0280352
779.747 .0280231
780.459 .0280110
781.171 .0279992
781.882 .0279878
782.594 .0279761
783.305 .0279648
784.016 .0279540
784.726 .0279436
785.436 .0279330
786.147 .0279227
786.856 .0279127
787.566 .0279027
788.275 .0278926
788.984 .0278823
789.693 .0278719
790.401 .0278615
791.110 .0278503
791.818 .0278385
792.525 .0278261
793.233 .0278133
793.940 .0278000
794.647 .0277860
795.353 .0277714
796.060 .0277559
796.766 .0277394
797.472 .0277220
798.177 .0277037
798.883 .0276844
799.588 .0276645
800.292 .0276447
800.997 .0276252
801.701 .0276059
802.405 .0275870
803.109 .0275687
803.812 .0275506
804.515 .0275323
805.218 .0275136
805.921 .0274943
806.623 .0274749
807.325 .0274549
808.027 .0274348
808.728 .0274147
809.429 .0273949
810.130 .0273750
810.831 .0273554
811.531 .0273359
812.231 .0273156
812.931 .0272946
813.630 .0272731
814.330 .0272512
815.029 .0272297
815.727 .0272089
816.426 .0271895
817.124 .0271715
817.821 .0271552
818.519 .0271404
819.216 .0271271
819.913 .0271151
820.609 .0271037
821.306 .0270929
822.002 .0270827
822.697 .0270732
823.393 .0270650
824.088 .0270584
824.783 .0270535
825.477 .0270498
826.171 .0270472
826.865 .0270454
827.559 .0270440
828.252 .0270426
828.945 .0270410
829.638 .0270392
830.330 .0270373
831.023 .0270355
831.714 .0270338
832.406 .0270328
833.097 .0270323
833.788 .0270317
834.479 .0270310
835.169 .0270298
835.859 .0270281
836.548 .0270257
837.238 .0270227
837.927 .0270193
838.615 .0270156
839.304 .0270116
839.992 .0270073
840.680 .0270032
841.367 .0269995
842.054 .0269962
842.741 .0269936
843.428 .0269921
844.114 .0269918
844.800 .0269929
845.485 .0269955
846.170 .0269991
846.855 .0270033
847.540 .0270073
848.224 .0270109
848.908 .0270139
849.592 .0270161
850.275 .0270175
850.958 .0270181
851.641 .0270182
852.323 .0270175
853.005 .0270163
853.687 .0270140
854.368 .0270109
855.049 .0270068
855.730 .0270012
856.410 .0269945
857.090 .0269863
857.769 .0269770
858.449 .0269666
859.128 .0269555
859.806 .0269438
860.485 .0269319
861.163 .0269200
861.840 .0269089
862.518 .0268985
863.195 .0268891
863.871 .0268807
864.548 .0268734
865.224 .0268669
865.899 .0268607
866.574 .0268545
867.249 .0268488
867.924 .0268430
868.598 .0268379
869.272 .0268330
869.946 .0268294
870.619 .0268268
871.292 .0268256
871.964 .0268256
872.636 .0268263
873.308 .0268273
873.979 .0268285
874.651 .0268288
875.321 .0268281
875.992 .0268259
876.662 .0268227
877.331 .0268186
878.001 .0268142
878.670 .0268094
879.338 .0268049
880.007 .0268011
880.675 .0267979
881.342 .0267952
882.009 .0267929
882.676 .0267906
883.343 .0267880
884.009 .0267846
884.675 .0267803
885.340 .0267751
886.005 .0267696
886.670 .0267646
887.334 .0267603
887.998 .0267569
888.662 .0267551
889.325 .0267549
889.988 .0267562
890.650 .0267579
891.312 .0267596
891.974 .0267613
892.636 .0267623
893.297 .0267627
893.957 .0267624
894.618 .0267622
895.278 .0267627
895.937 .0267633
896.596 .0267645
897.255 .0267661
897.914 .0267675
898.572 .0267683
899.230 .0267678
899.887 .0267661
900.544 .0267624
901.201 .0267564
901.857 .0267490
902.513 .0267397
903.168 .0267287
903.823 .0267160
904.478 .0267014
905.132 .0266844
905.786 .0266652
906.440 .0266434
907.093 .0266194
907.746 .0265935
908.399 .0265663
909.051 .0265380
909.703 .0265093
910.354 .0264806
911.005 .0264514
911.656 .0264220
912.306 .0263927
912.956 .0263627
913.605 .0263327
914.254 .0263029
914.903 .0262739
915.551 .0262462
916.199 .0262204
916.847 .0261963
917.494 .0261743
918.141 .0261539
918.788 .0261348
919.434 .0261164
920.079 .0260982
920.725 .0260798
921.370 .0260610
922.014 .0260416
922.658 .0260218
923.302 .0260012
923.946 .0259801
924.589 .0259580
925.231 .0259350
925.873 .0259108
926.515 .0258853
927.157 .0258585
927.798 .0258307
928.439 .0258014
929.079 .0257713
929.719 .0257399
930.359 .0257077
930.998 .0256752
931.637 .0256426
932.275 .0256104
932.913 .0255788
933.551 .0255482
934.188 .0255183
934.825 .0254894
935.462 .0254610
936.098 .0254330
936.733 .0254052
937.369 .0253778
938.004 .0253508
938.638 .0253242
939.273 .0252985
939.907 .0252745
940.540 .0252525
941.173 .0252328
941.806 .0252148
942.438 .0251984
943.070 .0251835
943.702 .0251693
944.333 .0251550
944.964 .0251411
945.594 .0251273
946.224 .0251142
946.854 .0251014
947.483 .0250893
948.112 .0250782
948.741 .0250683
949.369 .0250591
949.996 .0250502
950.624 .0250411
951.251 .0250316
951.878 .0250213
952.504 .0250102
953.130 .0249982
953.755 .0249856
954.380 .0249726
955.005 .0249592
955.629 .0249457
956.253 .0249316
956.877 .0249169
957.500 .0249017
958.123 .0248861
958.746 .0248694
959.368 .0248516
959.990 .0248330
960.611 .0248141
961.232 .0247951
961.853 .0247759
962.473 .0247573
963.093 .0247396
963.712 .0247225
964.331 .0247054
964.950 .0246886
965.569 .0246725
966.187 .0246572
966.804 .0246433
967.422 .0246311
968.039 .0246208
968.655 .0246127
969.272 .0246061
969.887 .0246012
970.503 .0245974
971.118 .0245937
971.733 .0245894
972.347 .0245843
972.961 .0245785
973.575 .0245709
974.188 .0245626
974.801 .0245535
975.414 .0245439
976.026 .0245335
976.638 .0245221
977.250 .0245099
977.861 .0244979
978.472 .0244861
979.083 .0244741
979.693 .0244621
980.303 .0244504
980.912 .0244390
981.521 .0244277
982.130 .0244170
982.738 .0244070
983.346 .0243974
983.954 .0243890
984.562 .0243812
985.169 .0243739
985.775 .0243679
986.382 .0243624
986.988 .0243571
987.594 .0243518
988.199 .0243463
988.804 .0243408
989.409 .0243354
990.013 .0243311
990.617 .0243273
991.221 .0243238
991.824 .0243218
992.427 .0243206
993.030 .0243200
993.632 .0243209
994.234 .0243231
994.836 .0243268
995.438 .0243321
996.039 .0243389
996.640 .0243471
997.240 .0243567
997.840 .0243680
998.440 .0243796
999.040 .0243911
999.639 .0244027
1000.238 .0244137
1000.836 .0244240
1001.435 .0244344
1002.033 .0244440
1002.630 .0244530
1003.228 .0244619
1003.825 .0244702
1004.422 .0244781
1005.018 .0244860
1005.614 .0244945
1006.210 .0245033
1006.806 .0245132
1007.401 .0245237
1007.996 .0245345
1008.591 .0245467
1009.186 .0245596
1009.780 .0245728
1010.374 .0245864
1010.967 .0246004
1011.561 .0246141
1012.154 .0246280
1012.746 .0246422
1013.339 .0246564
1013.931 .0246709
1014.523 .0246852
1015.115 .0246982
1015.706 .0247107
1016.298 .0247225
1016.888 .0247334
1017.479 .0247439
1018.069 .0247540
1018.660 .0247634
1019.250 .0247725
1019.839 .0247814
1020.429 .0247902
1021.018 .0247986
1021.607 .0248071
1022.195 .0248152
1022.784 .0248236
1023.372 .0248326
1023.960 .0248430
1024.547 .0248557
1025.135 .0248709
1025.722 .0248883
1026.309 .0249073
1026.896 .0249278
1027.483 .0249488
1028.069 .0249699
1028.655 .0249901
1029.241 .0250091
1029.827 .0250274
1030.412 .0250448
1030.997 .0250624
1031.582 .0250805
1032.167 .0250995
1032.752 .0251200
1033.336 .0251413
1033.921 .0251626
1034.505 .0251825
1035.089 .0252010
1035.672 .0252172
1036.256 .0252314
1036.839 .0252441
1037.422 .0252561
1038.005 .0252684
1038.588 .0252826
1039.171 .0252988
1039.753 .0253173
1040.335 .0253377
1040.918 .0253592
1041.500 .0253803
1042.081 .0254009
1042.663 .0254186
1043.244 .0254344
1043.826 .0254483
1044.407 .0254613
1044.988 .0254733
1045.569 .0254853
1046.150 .0254973
1046.730 .0255093
1047.311 .0255213
1047.891 .0255329
1048.471 .0255429
1049.052 .0255522
1049.632 .0255601
1050.211 .0255669
1050.791 .0255726
1051.371 .0255783
1051.950 .0255843
1052.530 .0255914
1053.109 .0255995
1053.688 .0256082
1054.268 .0256180
1054.847 .0256289
1055.426 .0256403
1056.005 .0256517
1056.583 .0256635
1057.162 .0256746
1057.741 .0256846
1058.319 .0256931
1058.898 .0257001
1059.476 .0257049
1060.055 .0257080
1060.633 .0257094
1061.211 .0257096
1061.790 .0257089
1062.368 .0257079
1062.946 .0257059
1063.524 .0257038
1064.102 .0257011
1064.680 .0256974
1065.258 .0256932
1065.836 .0256886
1066.414 .0256828
1066.992 .0256766
1067.570 .0256713
1068.148 .0256673
1068.726 .0256642
1069.304 .0256639
1069.882 .0256655
1070.460 .0256680
1071.038 .0256711
1071.616 .0256739
1072.194 .0256763
1072.772 .0256782
1073.350 .0256794
1073.928 .0256795
1074.506 .0256801
1075.084 .0256817
1075.662 .0256832
1076.240 .0256852
1076.819 .0256882
1077.397 .0256910
1077.976 .0256939
1078.554 .0256969
1079.133 .0257002
1079.711 .0257040
1080.290 .0257093
1080.869 .0257148
1081.448 .0257203
1082.027 .0257253
1082.606 .0257285
1083.185 .0257301
1083.764 .0257303
1084.343 .0257301
1084.923 .0257306
1085.502 .0257326
1086.082 .0257370
1086.662 .0257437
1087.242 .0257538
1087.822 .0257649
1088.402 .0257767
1088.983 .0257880
1089.563 .0257963
1090.144 .0258024
1090.725 .0258081
1091.306 .0258140
1091.887 .0258218
1092.469 .0258337
1093.050 .0258500
1093.632 .0258695
1094.214 .0258906
1094.796 .0259106
1095.379 .0259277
1095.961 .0259422
1096.544 .0259524
1097.127 .0259569
1097.710 .0259603
1098.294 .0259653
1098.877 .0259720
1099.461 .0259829
1100.046 .0259982
1100.630 .0260160
1101.215 .0260351
1101.800 .0260529
1102.385 .0260669
1102.970 .0260771
1103.556 .0260854
1104.142 .0260904
1104.728 .0260935
1105.315 .0260981
1105.902 .0261054
1106.489 .0261151
1107.077 .0261287
1107.664 .0261439
1108.253 .0261601
1108.841 .0261776
1109.430 .0261959
1110.019 .0262141
1110.609 .0262349
1111.198 .0262592
1111.789 .0262891
1112.379 .0263244
1112.970 .0263642
1113.561 .0264068
1114.153 .0264523
1114.745 .0264978
1115.338 .0265428
1115.931 .0265858
1116.524 .0266286
1117.117 .0266700
1117.712 .0267100
1118.306 .0267467
1118.901 .0267814
1119.496 .0268111
1120.092 .0268369
1120.689 .0268562
1121.285 .0268705
1121.882 .0268772
1122.480 .0268827
1123.078 .0268887
1123.677 .0268963
1124.276 .0269062
1124.875 .0269227
1125.476 .0269452
1126.076 .0269732
1126.677 .0270048
1127.279 .0270407
1127.881 .0270808
1128.484 .0271264
1129.087 .0271733
1129.691 .0272273
1130.295 .0272883
1130.900 .0273588
1131.505 .0274350
1132.111 .0275186
1132.718 .0276076
1133.325 .0276998
1133.933 .0277905
1134.541 .0278810
1135.150 .0279682
1135.760 .0280520
1136.370 .0281341
1136.981 .0282185
1137.592 .0283031
1138.204 .0283900
1138.817 .0284809
1139.431 .0285743
1140.045 .0286695
1140.660 .0287566
1141.275 .0288609
1141.891 .0289882
1142.508 .0290426
1143.126 .0291746
1143.744 .0289388
1144.363 .0297373
1144.983 .0302641
