Measurement Sequence started on: 15-12-46-377
Integration time: 28
Scans to Average: 2 
>>>>>Begin Spectral Data<<<<<
432.689 .0000100
433.621 .0000100
434.552 .0000100
435.482 .0000100
436.410 .0000100
437.337 .0000100
438.262 .0262618
439.187 .0555835
440.110 .0920103
441.031 .1330833
441.952 .1729550
442.871 .2043428
443.789 .2215508
444.705 .2226040
445.621 .2099399
446.535 .1887806
447.447 .1647991
448.359 .1280059
449.269 .1097643
450.178 .0981657
451.086 .0898924
451.993 .0835079
452.898 .0784402
453.803 .0743257
454.706 .0709726
455.608 .0681496
456.508 .0657500
457.408 .0636914
458.306 .0618671
459.204 .0602262
460.100 .0587184
460.995 .0573267
461.888 .0560468
462.781 .0548659
463.673 .0537774
464.563 .0527928
465.452 .0518773
466.340 .0510179
467.228 .0502179
468.114 .0494638
468.999 .0487469
469.882 .0480595
470.765 .0474099
471.647 .0467957
472.528 .0462216
473.407 .0457038
474.286 .0452413
475.163 .0448501
476.040 .0445258
476.915 .0442618
477.790 .0440553
478.663 .0439046
479.535 .0437946
480.407 .0437229
481.277 .0436867
482.147 .0436758
483.015 .0436929
483.883 .0437366
484.749 .0438049
485.615 .0438976
486.479 .0440142
487.343 .0441490
488.206 .0442884
489.067 .0444243
489.928 .0445498
490.788 .0446622
491.647 .0447671
492.505 .0448604
493.362 .0449488
494.218 .0450414
495.073 .0451446
495.928 .0452674
496.781 .0454068
497.634 .0455651
498.486 .0457429
499.337 .0459388
500.187 .0461569
501.036 .0463939
501.884 .0466585
502.731 .0469545
503.578 .0472951
504.424 .0476742
505.268 .0480852
506.113 .0485391
506.956 .0490331
507.798 .0495693
508.640 .0501414
509.480 .0507460
510.320 .0513967
511.160 .0521021
511.998 .0528734
512.836 .0537339
513.672 .0547158
514.508 .0558244
515.344 .0570809
516.178 .0585003
517.012 .0600969
517.845 .0618836
518.677 .0638896
519.508 .0661533
520.339 .0687082
521.169 .0716401
521.998 .0749595
522.826 .0787620
523.654 .0830962
524.481 .0879552
525.307 .0933854
526.133 .0993559
526.958 .1057723
527.782 .1125606
528.605 .1195566
529.428 .1267085
530.250 .1335199
531.072 .1398785
531.892 .1453901
532.712 .1498328
533.532 .1529254
534.350 .1544241
535.168 .1541590
535.986 .1521829
536.802 .1485058
537.618 .1433639
538.434 .1369616
539.249 .1298752
540.063 .1223177
540.876 .1147413
541.689 .1073619
542.501 .1004869
543.313 .0942065
544.124 .0885972
544.934 .0835635
545.744 .0790882
546.553 .0750837
547.361 .0715292
548.169 .0683751
548.976 .0655866
549.783 .0631111
550.589 .0609573
551.395 .0590341
552.200 .0573492
553.004 .0558520
553.808 .0545205
554.611 .0533269
555.414 .0522721
556.216 .0513181
557.018 .0504435
557.819 .0496273
558.619 .0488520
559.419 .0480911
560.218 .0473469
561.017 .0466197
561.815 .0459163
562.613 .0452436
563.410 .0446042
564.207 .0439880
565.003 .0434115
565.799 .0428592
566.594 .0423197
567.388 .0417894
568.182 .0412620
568.976 .0407330
569.769 .0402072
570.562 .0396991
571.354 .0392084
572.145 .0387447
572.936 .0383093
573.727 .0378939
574.517 .0375016
575.307 .0371194
576.096 .0367447
576.885 .0363766
577.673 .0360159
578.461 .0356596
579.248 .0353130
580.035 .0349818
580.821 .0346680
581.607 .0343713
582.392 .0340916
583.177 .0338305
583.962 .0335879
584.746 .0333641
585.529 .0331546
586.313 .0329618
587.095 .0327869
587.878 .0326281
588.660 .0324872
589.441 .0323592
590.222 .0322446
591.003 .0321441
591.783 .0320546
592.563 .0319752
593.342 .0319068
594.121 .0318453
594.899 .0317901
595.678 .0317404
596.455 .0316952
597.233 .0316520
598.009 .0316120
598.786 .0315753
599.562 .0315394
600.338 .0315052
601.113 .0314719
601.888 .0314388
602.663 .0314069
603.437 .0313767
604.211 .0313468
604.984 .0313178
605.757 .0312908
606.530 .0312639
607.302 .0312374
608.074 .0312128
608.845 .0311889
609.616 .0311638
610.387 .0311389
611.158 .0311140
611.928 .0310882
612.697 .0310625
613.467 .0310380
614.236 .0310143
615.004 .0309926
615.773 .0309730
616.541 .0309544
617.308 .0309379
618.076 .0309247
618.843 .0309131
619.609 .0309031
620.375 .0308952
621.141 .0308884
621.907 .0308815
622.672 .0308765
623.437 .0308719
624.202 .0308663
624.966 .0308604
625.730 .0308541
626.493 .0308456
627.257 .0308355
628.020 .0308231
628.782 .0308083
629.545 .0307910
630.307 .0307707
631.068 .0307464
631.830 .0307196
632.591 .0306914
633.352 .0306612
634.112 .0306296
634.872 .0305985
635.632 .0305664
636.392 .0305345
637.151 .0305030
637.910 .0304721
638.668 .0304418
639.427 .0304122
640.185 .0303831
640.943 .0303544
641.700 .0303258
642.457 .0302970
643.214 .0302681
643.971 .0302388
644.727 .0302086
645.483 .0301780
646.239 .0301480
646.994 .0301183
647.750 .0300895
648.505 .0300624
649.259 .0300365
650.014 .0300121
650.768 .0299881
651.521 .0299641
652.275 .0299405
653.028 .0299165
653.781 .0298917
654.534 .0298671
655.286 .0298428
656.039 .0298183
656.791 .0297945
657.542 .0297712
658.294 .0297477
659.045 .0297243
659.796 .0297004
660.546 .0296755
661.297 .0296496
662.047 .0296232
662.796 .0295962
663.546 .0295699
664.295 .0295445
665.044 .0295201
665.793 .0294973
666.542 .0294767
667.290 .0294576
668.038 .0294402
668.786 .0294242
669.533 .0294095
670.281 .0293951
671.028 .0293816
671.774 .0293684
672.521 .0293563
673.267 .0293449
674.013 .0293348
674.759 .0293252
675.505 .0293161
676.250 .0293071
676.995 .0292977
677.740 .0292880
678.484 .0292784
679.229 .0292685
679.973 .0292592
680.717 .0292507
681.460 .0292435
682.204 .0292370
682.947 .0292317
683.690 .0292268
684.433 .0292218
685.175 .0292160
685.917 .0292096
686.659 .0292024
687.401 .0291953
688.142 .0291881
688.884 .0291806
689.625 .0291727
690.365 .0291643
691.106 .0291548
691.846 .0291439
692.586 .0291311
693.326 .0291166
694.066 .0291003
694.805 .0290826
695.545 .0290633
696.284 .0290433
697.022 .0290231
697.761 .0290030
698.499 .0289830
699.237 .0289634
699.975 .0289444
700.713 .0289260
701.450 .0289087
702.187 .0288922
702.924 .0288758
703.661 .0288597
704.397 .0288435
705.133 .0288268
705.869 .0288095
706.605 .0287920
707.341 .0287744
708.076 .0287572
708.811 .0287406
709.546 .0287244
710.281 .0287083
711.015 .0286924
711.749 .0286760
712.483 .0286582
713.217 .0286394
713.950 .0286193
714.684 .0285979
715.417 .0285757
716.150 .0285528
716.882 .0285294
717.615 .0285058
718.347 .0284823
719.079 .0284584
719.811 .0284343
720.542 .0284106
721.273 .0283870
722.005 .0283637
722.735 .0283411
723.466 .0283188
724.196 .0282970
724.927 .0282750
725.656 .0282522
726.386 .0282289
727.116 .0282050
727.845 .0281814
728.574 .0281578
729.303 .0281354
730.031 .0281146
730.760 .0280954
731.488 .0280779
732.216 .0280613
732.944 .0280455
733.671 .0280299
734.398 .0280136
735.125 .0279964
735.852 .0279786
736.579 .0279604
737.305 .0279428
738.031 .0279265
738.757 .0279117
739.483 .0278989
740.208 .0278881
740.933 .0278788
741.658 .0278703
742.383 .0278623
743.108 .0278540
743.832 .0278451
744.556 .0278360
745.280 .0278260
746.004 .0278155
746.727 .0278054
747.450 .0277957
748.173 .0277866
748.896 .0277780
749.618 .0277700
750.340 .0277626
751.062 .0277557
751.784 .0277489
752.506 .0277415
753.227 .0277339
753.948 .0277255
754.669 .0277159
755.389 .0277053
756.110 .0276939
756.830 .0276819
757.550 .0276699
758.269 .0276583
758.989 .0276473
759.708 .0276369
760.427 .0276276
761.146 .0276188
761.864 .0276104
762.582 .0276018
763.300 .0275926
764.018 .0275832
764.736 .0275736
765.453 .0275638
766.170 .0275544
766.887 .0275461
767.603 .0275388
768.320 .0275323
769.036 .0275269
769.751 .0275215
770.467 .0275161
771.182 .0275103
771.897 .0275038
772.612 .0274968
773.327 .0274895
774.041 .0274824
774.755 .0274761
775.469 .0274707
776.183 .0274666
776.896 .0274637
777.609 .0274620
778.322 .0274609
779.035 .0274605
779.747 .0274604
780.459 .0274607
781.171 .0274611
781.882 .0274617
782.594 .0274626
783.305 .0274639
784.016 .0274655
784.726 .0274673
785.436 .0274693
786.147 .0274709
786.856 .0274717
787.566 .0274712
788.275 .0274691
788.984 .0274655
789.693 .0274605
790.401 .0274544
791.110 .0274474
791.818 .0274399
792.525 .0274322
793.233 .0274244
793.940 .0274166
794.647 .0274085
795.353 .0274000
796.060 .0273911
796.766 .0273811
797.472 .0273701
798.177 .0273587
798.883 .0273468
799.588 .0273348
800.292 .0273230
800.997 .0273112
801.701 .0272989
802.405 .0272862
803.109 .0272726
803.812 .0272578
804.515 .0272421
805.218 .0272252
805.921 .0272074
806.623 .0271889
807.325 .0271701
808.027 .0271508
808.728 .0271310
809.429 .0271105
810.130 .0270887
810.831 .0270658
811.531 .0270417
812.231 .0270162
812.931 .0269898
813.630 .0269629
814.330 .0269359
815.029 .0269091
815.727 .0268831
816.426 .0268576
817.124 .0268331
817.821 .0268092
818.519 .0267861
819.216 .0267639
819.913 .0267426
820.609 .0267226
821.306 .0267038
822.002 .0266866
822.697 .0266702
823.393 .0266554
824.088 .0266417
824.783 .0266286
825.477 .0266160
826.171 .0266036
826.865 .0265918
827.559 .0265807
828.252 .0265702
828.945 .0265603
829.638 .0265509
830.330 .0265418
831.023 .0265318
831.714 .0265216
832.406 .0265108
833.097 .0264991
833.788 .0264871
834.479 .0264756
835.169 .0264645
835.859 .0264544
836.548 .0264461
837.238 .0264397
837.927 .0264344
838.615 .0264300
839.304 .0264256
839.992 .0264212
840.680 .0264164
841.367 .0264111
842.054 .0264050
842.741 .0263989
843.428 .0263928
844.114 .0263868
844.800 .0263810
845.485 .0263752
846.170 .0263689
846.855 .0263614
847.540 .0263529
848.224 .0263430
848.908 .0263322
849.592 .0263210
850.275 .0263094
850.958 .0262975
851.641 .0262857
852.323 .0262741
853.005 .0262623
853.687 .0262505
854.368 .0262389
855.049 .0262267
855.730 .0262148
856.410 .0262028
857.090 .0261913
857.769 .0261802
858.449 .0261701
859.128 .0261604
859.806 .0261510
860.485 .0261422
861.163 .0261337
861.840 .0261254
862.518 .0261171
863.195 .0261086
863.871 .0260996
864.548 .0260903
865.224 .0260813
865.899 .0260724
866.574 .0260645
867.249 .0260573
867.924 .0260515
868.598 .0260467
869.272 .0260429
869.946 .0260401
870.619 .0260377
871.292 .0260356
871.964 .0260330
872.636 .0260301
873.308 .0260272
873.979 .0260243
874.651 .0260217
875.321 .0260194
875.992 .0260174
876.662 .0260159
877.331 .0260144
878.001 .0260132
878.670 .0260120
879.338 .0260106
880.007 .0260092
880.675 .0260078
881.342 .0260066
882.009 .0260059
882.676 .0260056
883.343 .0260062
884.009 .0260076
884.675 .0260092
885.340 .0260115
886.005 .0260147
886.670 .0260188
887.334 .0260239
887.998 .0260296
888.662 .0260357
889.325 .0260416
889.988 .0260474
890.650 .0260525
891.312 .0260571
891.974 .0260618
892.636 .0260660
893.297 .0260708
893.957 .0260763
894.618 .0260824
895.278 .0260893
895.937 .0260967
896.596 .0261041
897.255 .0261105
897.914 .0261157
898.572 .0261198
899.230 .0261230
899.887 .0261256
900.544 .0261281
901.201 .0261304
901.857 .0261330
902.513 .0261352
903.168 .0261362
903.823 .0261355
904.478 .0261326
905.132 .0261270
905.786 .0261181
906.440 .0261062
907.093 .0260919
907.746 .0260758
908.399 .0260585
909.051 .0260406
909.703 .0260224
910.354 .0260043
911.005 .0259862
911.656 .0259679
912.306 .0259495
912.956 .0259307
913.605 .0259114
914.254 .0258917
914.903 .0258716
915.551 .0258513
916.199 .0258310
916.847 .0258115
917.494 .0257924
918.141 .0257739
918.788 .0257560
919.434 .0257387
920.079 .0257211
920.725 .0257029
921.370 .0256840
922.014 .0256640
922.658 .0256426
923.302 .0256201
923.946 .0255967
924.589 .0255725
925.231 .0255475
925.873 .0255220
926.515 .0254955
927.157 .0254682
927.798 .0254400
928.439 .0254110
929.079 .0253816
929.719 .0253522
930.359 .0253229
930.998 .0252945
931.637 .0252673
932.275 .0252411
932.913 .0252154
933.551 .0251905
934.188 .0251660
934.825 .0251419
935.462 .0251187
936.098 .0250968
936.733 .0250768
937.369 .0250589
938.004 .0250433
938.638 .0250298
939.273 .0250179
939.907 .0250071
940.540 .0249967
941.173 .0249865
941.806 .0249764
942.438 .0249666
943.070 .0249568
943.702 .0249473
944.333 .0249377
944.964 .0249281
945.594 .0249179
946.224 .0249070
946.854 .0248954
947.483 .0248833
948.112 .0248705
948.741 .0248573
949.369 .0248439
949.996 .0248302
950.624 .0248160
951.251 .0248014
951.878 .0247861
952.504 .0247701
953.130 .0247536
953.755 .0247369
954.380 .0247199
955.005 .0247031
955.629 .0246861
956.253 .0246693
956.877 .0246525
957.500 .0246354
958.123 .0246175
958.746 .0245994
959.368 .0245808
959.990 .0245620
960.611 .0245436
961.232 .0245262
961.853 .0245100
962.473 .0244956
963.093 .0244828
963.712 .0244714
964.331 .0244609
964.950 .0244513
965.569 .0244419
966.187 .0244329
966.804 .0244242
967.422 .0244157
968.039 .0244077
968.655 .0244006
969.272 .0243937
969.887 .0243872
970.503 .0243809
971.118 .0243743
971.733 .0243675
972.347 .0243599
972.961 .0243519
973.575 .0243430
974.188 .0243335
974.801 .0243237
975.414 .0243135
976.026 .0243034
976.638 .0242937
977.250 .0242846
977.861 .0242765
978.472 .0242697
979.083 .0242640
979.693 .0242589
980.303 .0242537
980.912 .0242479
981.521 .0242415
982.130 .0242334
982.738 .0242240
983.346 .0242129
983.954 .0242006
984.562 .0241875
985.169 .0241735
985.775 .0241598
986.382 .0241467
986.988 .0241344
987.594 .0241226
988.199 .0241109
988.804 .0240999
989.409 .0240890
990.013 .0240787
990.617 .0240697
991.221 .0240620
991.824 .0240561
992.427 .0240527
993.030 .0240524
993.632 .0240549
994.234 .0240609
994.836 .0240689
995.438 .0240789
996.039 .0240900
996.640 .0241011
997.240 .0241116
997.840 .0241217
998.440 .0241315
999.040 .0241409
999.639 .0241502
1000.238 .0241598
1000.836 .0241694
1001.435 .0241796
1002.033 .0241890
1002.630 .0241976
1003.228 .0242051
1003.825 .0242114
1004.422 .0242162
1005.018 .0242208
1005.614 .0242253
1006.210 .0242309
1006.806 .0242380
1007.401 .0242464
1007.996 .0242563
1008.591 .0242672
1009.186 .0242781
1009.780 .0242885
1010.374 .0242979
1010.967 .0243065
1011.561 .0243138
1012.154 .0243209
1012.746 .0243278
1013.339 .0243348
1013.931 .0243427
1014.523 .0243513
1015.115 .0243595
1015.706 .0243676
1016.298 .0243749
1016.888 .0243817
1017.479 .0243880
1018.069 .0243944
1018.660 .0244015
1019.250 .0244103
1019.839 .0244209
1020.429 .0244329
1021.018 .0244462
1021.607 .0244614
1022.195 .0244775
1022.784 .0244946
1023.372 .0245125
1023.960 .0245313
1024.547 .0245512
1025.135 .0245727
1025.722 .0245954
1026.309 .0246189
1026.896 .0246429
1027.483 .0246669
1028.069 .0246896
1028.655 .0247104
1029.241 .0247286
1029.827 .0247453
1030.412 .0247607
1030.997 .0247751
1031.582 .0247882
1032.167 .0248007
1032.752 .0248128
1033.336 .0248243
1033.921 .0248342
1034.505 .0248428
1035.089 .0248494
1035.672 .0248538
1036.256 .0248555
1036.839 .0248559
1037.422 .0248555
1038.005 .0248556
1038.588 .0248568
1039.171 .0248597
1039.753 .0248641
1040.335 .0248707
1040.918 .0248786
1041.500 .0248875
1042.081 .0248973
1042.663 .0249067
1043.244 .0249152
1043.826 .0249229
1044.407 .0249298
1044.988 .0249367
1045.569 .0249434
1046.150 .0249514
1046.730 .0249594
1047.311 .0249682
1047.891 .0249774
1048.471 .0249862
1049.052 .0249950
1049.632 .0250036
1050.211 .0250116
1050.791 .0250190
1051.371 .0250261
1051.950 .0250337
1052.530 .0250418
1053.109 .0250516
1053.688 .0250627
1054.268 .0250744
1054.847 .0250859
1055.426 .0250976
1056.005 .0251085
1056.583 .0251190
1057.162 .0251277
1057.741 .0251350
1058.319 .0251410
1058.898 .0251457
1059.476 .0251483
1060.055 .0251490
1060.633 .0251481
1061.211 .0251451
1061.790 .0251396
1062.368 .0251333
1062.946 .0251257
1063.524 .0251180
1064.102 .0251107
1064.680 .0251041
1065.258 .0250980
1065.836 .0250928
1066.414 .0250879
1066.992 .0250843
1067.570 .0250820
1068.148 .0250798
1068.726 .0250771
1069.304 .0250752
1069.882 .0250734
1070.460 .0250700
1071.038 .0250659
1071.616 .0250617
1072.194 .0250565
1072.772 .0250511
1073.350 .0250458
1073.928 .0250405
1074.506 .0250359
1075.084 .0250329
1075.662 .0250307
1076.240 .0250292
1076.819 .0250271
1077.397 .0250248
1077.976 .0250218
1078.554 .0250195
1079.133 .0250163
1079.711 .0250133
1080.290 .0250127
1080.869 .0250151
1081.448 .0250182
1082.027 .0250233
1082.606 .0250296
1083.185 .0250363
1083.764 .0250423
1084.343 .0250469
1084.923 .0250490
1085.502 .0250496
1086.082 .0250478
1086.662 .0250453
1087.242 .0250406
1087.822 .0250372
1088.402 .0250328
1088.983 .0250301
1089.563 .0250291
1090.144 .0250295
1090.725 .0250315
1091.306 .0250356
1091.887 .0250408
1092.469 .0250460
1093.050 .0250502
1093.632 .0250524
1094.214 .0250548
1094.796 .0250571
1095.379 .0250580
1095.961 .0250610
1096.544 .0250653
1097.127 .0250716
1097.710 .0250786
1098.294 .0250873
1098.877 .0250962
1099.461 .0251047
1100.046 .0251121
1100.630 .0251174
1101.215 .0251230
1101.800 .0251279
1102.385 .0251332
1102.970 .0251395
1103.556 .0251473
1104.142 .0251542
1104.728 .0251601
1105.315 .0251658
1105.902 .0251694
1106.489 .0251716
1107.077 .0251719
1107.664 .0251724
1108.253 .0251749
1108.841 .0251779
1109.430 .0251835
1110.019 .0251916
1110.609 .0252014
1111.198 .0252079
1111.789 .0252147
1112.379 .0252206
1112.970 .0252266
1113.561 .0252339
1114.153 .0252436
1114.745 .0252581
1115.338 .0252779
1115.931 .0253033
1116.524 .0253344
1117.117 .0253739
1117.712 .0254179
1118.306 .0254628
1118.901 .0255093
1119.496 .0255531
1120.092 .0255936
1120.689 .0256296
1121.285 .0256648
1121.882 .0256980
1122.480 .0257301
1123.078 .0257634
1123.677 .0257995
1124.276 .0258414
1124.875 .0258844
1125.476 .0259293
1126.076 .0259749
1126.677 .0260177
1127.279 .0260568
1127.881 .0260946
1128.484 .0261342
1129.087 .0261781
1129.691 .0262316
1130.295 .0262948
1130.900 .0263692
1131.505 .0264523
1132.111 .0265386
1132.718 .0266272
1133.325 .0267146
1133.933 .0267968
1134.541 .0268715
1135.150 .0269466
1135.760 .0270245
1136.370 .0271096
1136.981 .0272092
1137.592 .0273211
1138.204 .0274460
1138.817 .0275796
1139.431 .0277224
1140.045 .0278810
1140.660 .0280564
1141.275 .0282610
1141.891 .0284963
1142.508 .0285461
1143.126 .0289937
1143.744 .0292571
1144.363 .0298344
1144.983 .0301968
