Measurement Sequence started on: 15-12-46-377
Integration time: 28
Scans to Average: 2 
>>>>>Begin Spectral Data<<<<<
432.689 .0000100
433.621 .0000100
434.552 .0000100
435.482 .0000100
436.410 .0000100
437.337 .0000100
438.262 .0284529
439.187 .0603124
440.110 .0999618
441.031 .1447168
441.952 .1882064
442.871 .2224801
443.789 .2412930
444.705 .2425035
445.621 .2286978
446.535 .2055546
447.447 .1792675
448.359 .1391108
449.269 .1190728
450.178 .1063411
451.086 .0973416
451.993 .0904746
452.898 .0850666
453.803 .0806705
454.706 .0770197
455.608 .0738925
456.508 .0711776
457.408 .0688231
458.306 .0667062
459.204 .0648139
460.100 .0630952
460.995 .0615322
461.888 .0601081
462.781 .0588066
463.673 .0576110
464.563 .0565136
465.452 .0555009
466.340 .0545544
467.228 .0536804
468.114 .0528759
468.999 .0521284
469.882 .0514332
470.765 .0507981
471.647 .0502286
472.528 .0497107
473.407 .0492594
474.286 .0488700
475.163 .0485400
476.040 .0482639
476.915 .0480303
477.790 .0478323
478.663 .0476639
479.535 .0475206
480.407 .0473988
481.277 .0472934
482.147 .0472007
483.015 .0471225
483.883 .0470610
484.749 .0470140
485.615 .0469858
486.479 .0469707
487.343 .0469762
488.206 .0469960
489.067 .0470234
489.928 .0470543
490.788 .0470873
491.647 .0471262
492.505 .0471698
493.362 .0472302
494.218 .0473033
495.073 .0473977
495.928 .0475267
496.781 .0476850
497.634 .0478764
498.486 .0481006
499.337 .0483603
500.187 .0486511
501.036 .0489707
501.884 .0493137
502.731 .0496838
503.578 .0500907
504.424 .0505306
505.268 .0509979
506.113 .0515010
506.956 .0520443
507.798 .0526215
508.640 .0532468
509.480 .0539228
510.320 .0546570
511.160 .0554636
511.998 .0563357
512.836 .0572860
513.672 .0583347
514.508 .0594847
515.344 .0607691
516.178 .0622217
517.012 .0638770
517.845 .0657823
518.677 .0679821
519.508 .0705087
520.339 .0733878
521.169 .0766964
521.998 .0804485
522.826 .0846808
523.654 .0894292
524.481 .0946804
525.307 .1005010
526.133 .1068610
526.958 .1137004
527.782 .1209237
528.605 .1283676
529.428 .1358267
530.250 .1427335
531.072 .1488630
531.892 .1538371
532.712 .1574045
533.532 .1594384
534.350 .1597817
535.168 .1584035
535.986 .1554172
536.802 .1509994
537.618 .1453901
538.434 .1388385
539.249 .1317503
540.063 .1243555
540.876 .1169758
541.689 .1098568
542.501 .1031996
543.313 .0971604
544.124 .0918309
544.934 .0870977
545.744 .0828718
546.553 .0790861
547.361 .0757146
548.169 .0727457
548.976 .0700568
549.783 .0676467
550.589 .0654789
551.395 .0634894
552.200 .0616618
553.004 .0599800
553.808 .0584397
554.611 .0570458
555.414 .0557824
556.216 .0546329
557.018 .0535960
557.819 .0526497
558.619 .0517778
559.419 .0509588
560.218 .0501893
561.017 .0494518
561.815 .0487298
562.613 .0480282
563.410 .0473397
564.207 .0466706
565.003 .0460195
565.799 .0453887
566.594 .0447752
567.388 .0441841
568.182 .0436116
568.976 .0430528
569.769 .0425153
570.562 .0419918
571.354 .0414846
572.145 .0409895
572.936 .0405064
573.727 .0400376
574.517 .0395758
575.307 .0391270
576.096 .0386856
576.885 .0382609
577.673 .0378541
578.461 .0374686
579.248 .0371061
580.035 .0367673
580.821 .0364568
581.607 .0361673
582.392 .0358990
583.177 .0356500
583.962 .0354200
584.746 .0352076
585.529 .0350117
586.313 .0348343
587.095 .0346729
587.878 .0345290
588.660 .0344002
589.441 .0342843
590.222 .0341796
591.003 .0340859
591.783 .0340009
592.563 .0339211
593.342 .0338474
594.121 .0337739
594.899 .0337016
595.678 .0336298
596.455 .0335571
597.233 .0334835
598.009 .0334099
598.786 .0333371
599.562 .0332646
600.338 .0331946
601.113 .0331280
601.888 .0330651
602.663 .0330056
603.437 .0329498
604.211 .0328964
604.984 .0328455
605.757 .0327977
606.530 .0327510
607.302 .0327065
608.074 .0326643
608.845 .0326246
609.616 .0325871
610.387 .0325524
611.158 .0325206
611.928 .0324915
612.697 .0324652
613.467 .0324397
614.236 .0324139
615.004 .0323878
615.773 .0323615
616.541 .0323340
617.308 .0323054
618.076 .0322771
618.843 .0322495
619.609 .0322242
620.375 .0322014
621.141 .0321806
621.907 .0321617
622.672 .0321436
623.437 .0321252
624.202 .0321053
624.966 .0320841
625.730 .0320610
626.493 .0320369
627.257 .0320124
628.020 .0319880
628.782 .0319638
629.545 .0319399
630.307 .0319162
631.068 .0318914
631.830 .0318643
632.591 .0318339
633.352 .0318005
634.112 .0317648
634.872 .0317275
635.632 .0316903
636.392 .0316540
637.151 .0316198
637.910 .0315880
638.668 .0315580
639.427 .0315297
640.185 .0315022
640.943 .0314746
641.700 .0314460
642.457 .0314170
643.214 .0313874
643.971 .0313573
644.727 .0313289
645.483 .0313026
646.239 .0312780
646.994 .0312552
647.750 .0312337
648.505 .0312128
649.259 .0311925
650.014 .0311717
650.768 .0311495
651.521 .0311265
652.275 .0311031
653.028 .0310787
653.781 .0310544
654.534 .0310309
655.286 .0310078
656.039 .0309854
656.791 .0309639
657.542 .0309418
658.294 .0309197
659.045 .0308974
659.796 .0308742
660.546 .0308509
661.297 .0308276
662.047 .0308041
662.796 .0307811
663.546 .0307589
664.295 .0307373
665.044 .0307161
665.793 .0306964
666.542 .0306769
667.290 .0306578
668.038 .0306385
668.786 .0306184
669.533 .0305980
670.281 .0305775
671.028 .0305565
671.774 .0305357
672.521 .0305157
673.267 .0304969
674.013 .0304791
674.759 .0304624
675.505 .0304467
676.250 .0304315
676.995 .0304159
677.740 .0303997
678.484 .0303821
679.229 .0303642
679.973 .0303453
680.717 .0303265
681.460 .0303080
682.204 .0302900
682.947 .0302724
683.690 .0302551
684.433 .0302378
685.175 .0302194
685.917 .0301995
686.659 .0301784
687.401 .0301557
688.142 .0301321
688.884 .0301073
689.625 .0300826
690.365 .0300580
691.106 .0300337
691.846 .0300092
692.586 .0299844
693.326 .0299591
694.066 .0299337
694.805 .0299074
695.545 .0298811
696.284 .0298553
697.022 .0298299
697.761 .0298053
698.499 .0297814
699.237 .0297579
699.975 .0297346
700.713 .0297112
701.450 .0296882
702.187 .0296649
702.924 .0296423
703.661 .0296206
704.397 .0295999
705.133 .0295812
705.869 .0295638
706.605 .0295476
707.341 .0295325
708.076 .0295181
708.811 .0295034
709.546 .0294884
710.281 .0294732
711.015 .0294578
711.749 .0294418
712.483 .0294258
713.217 .0294093
713.950 .0293925
714.684 .0293759
715.417 .0293588
716.150 .0293419
716.882 .0293254
717.615 .0293090
718.347 .0292931
719.079 .0292773
719.811 .0292611
720.542 .0292442
721.273 .0292264
722.005 .0292074
722.735 .0291869
723.466 .0291657
724.196 .0291443
724.927 .0291229
725.656 .0291023
726.386 .0290824
727.116 .0290634
727.845 .0290445
728.574 .0290252
729.303 .0290051
730.031 .0289842
730.760 .0289626
731.488 .0289407
732.216 .0289195
732.944 .0288992
733.671 .0288805
734.398 .0288632
735.125 .0288476
735.852 .0288335
736.579 .0288204
737.305 .0288087
738.031 .0287977
738.757 .0287874
739.483 .0287778
740.208 .0287688
740.933 .0287603
741.658 .0287519
742.383 .0287432
743.108 .0287337
743.832 .0287235
744.556 .0287124
745.280 .0287006
746.004 .0286888
746.727 .0286775
747.450 .0286665
748.173 .0286554
748.896 .0286447
749.618 .0286332
750.340 .0286212
751.062 .0286084
751.784 .0285943
752.506 .0285795
753.227 .0285645
753.948 .0285495
754.669 .0285350
755.389 .0285221
756.110 .0285105
756.830 .0285000
757.550 .0284906
758.269 .0284816
758.989 .0284726
759.708 .0284639
760.427 .0284549
761.146 .0284451
761.864 .0284349
762.582 .0284248
763.300 .0284139
764.018 .0284031
764.736 .0283922
765.453 .0283811
766.170 .0283696
766.887 .0283575
767.603 .0283447
768.320 .0283313
769.036 .0283173
769.751 .0283030
770.467 .0282875
771.182 .0282719
771.897 .0282560
772.612 .0282399
773.327 .0282241
774.041 .0282091
774.755 .0281943
775.469 .0281809
776.183 .0281687
776.896 .0281577
777.609 .0281477
778.322 .0281394
779.035 .0281321
779.747 .0281258
780.459 .0281203
781.171 .0281164
781.882 .0281135
782.594 .0281122
783.305 .0281120
784.016 .0281130
784.726 .0281150
785.436 .0281171
786.147 .0281186
786.856 .0281194
787.566 .0281188
788.275 .0281169
788.984 .0281134
789.693 .0281087
790.401 .0281028
791.110 .0280959
791.818 .0280880
792.525 .0280790
793.233 .0280684
793.940 .0280560
794.647 .0280420
795.353 .0280262
796.060 .0280090
796.766 .0279910
797.472 .0279728
798.177 .0279550
798.883 .0279377
799.588 .0279209
800.292 .0279049
800.997 .0278897
801.701 .0278753
802.405 .0278615
803.109 .0278483
803.812 .0278361
804.515 .0278251
805.218 .0278148
805.921 .0278052
806.623 .0277959
807.325 .0277871
808.027 .0277778
808.728 .0277678
809.429 .0277567
810.130 .0277443
810.831 .0277315
811.531 .0277177
812.231 .0277032
812.931 .0276886
813.630 .0276733
814.330 .0276580
815.029 .0276422
815.727 .0276257
816.426 .0276085
817.124 .0275909
817.821 .0275729
818.519 .0275545
819.216 .0275364
819.913 .0275189
820.609 .0275020
821.306 .0274866
822.002 .0274724
822.697 .0274593
823.393 .0274477
824.088 .0274369
824.783 .0274266
825.477 .0274167
826.171 .0274067
826.865 .0273966
827.559 .0273864
828.252 .0273765
828.945 .0273665
829.638 .0273569
830.330 .0273478
831.023 .0273388
831.714 .0273302
832.406 .0273218
833.097 .0273132
833.788 .0273040
834.479 .0272939
835.169 .0272828
835.859 .0272710
836.548 .0272582
837.238 .0272449
837.927 .0272314
838.615 .0272180
839.304 .0272049
839.992 .0271920
840.680 .0271798
841.367 .0271680
842.054 .0271570
842.741 .0271464
843.428 .0271361
844.114 .0271269
844.800 .0271180
845.485 .0271099
846.170 .0271022
846.855 .0270943
847.540 .0270861
848.224 .0270772
848.908 .0270675
849.592 .0270568
850.275 .0270453
850.958 .0270331
851.641 .0270206
852.323 .0270077
853.005 .0269942
853.687 .0269801
854.368 .0269652
855.049 .0269496
855.730 .0269329
856.410 .0269155
857.090 .0268976
857.769 .0268797
858.449 .0268622
859.128 .0268454
859.806 .0268302
860.485 .0268163
861.163 .0268038
861.840 .0267928
862.518 .0267824
863.195 .0267721
863.871 .0267620
864.548 .0267512
865.224 .0267401
865.899 .0267282
866.574 .0267158
867.249 .0267032
867.924 .0266904
868.598 .0266776
869.272 .0266647
869.946 .0266526
870.619 .0266411
871.292 .0266299
871.964 .0266198
872.636 .0266101
873.308 .0266009
873.979 .0265921
874.651 .0265835
875.321 .0265751
875.992 .0265673
876.662 .0265597
877.331 .0265535
878.001 .0265483
878.670 .0265442
879.338 .0265413
880.007 .0265395
880.675 .0265384
881.342 .0265372
882.009 .0265359
882.676 .0265346
883.343 .0265326
884.009 .0265307
884.675 .0265285
885.340 .0265267
886.005 .0265252
886.670 .0265238
887.334 .0265227
887.998 .0265218
888.662 .0265204
889.325 .0265188
889.988 .0265171
890.650 .0265151
891.312 .0265132
891.974 .0265117
892.636 .0265108
893.297 .0265108
893.957 .0265116
894.618 .0265129
895.278 .0265148
895.937 .0265173
896.596 .0265198
897.255 .0265225
897.914 .0265254
898.572 .0265280
899.230 .0265304
899.887 .0265324
900.544 .0265336
901.201 .0265339
901.857 .0265335
902.513 .0265316
903.168 .0265282
903.823 .0265234
904.478 .0265170
905.132 .0265088
905.786 .0264989
906.440 .0264872
907.093 .0264741
907.746 .0264600
908.399 .0264449
909.051 .0264293
909.703 .0264139
910.354 .0263985
911.005 .0263835
911.656 .0263688
912.306 .0263544
912.956 .0263398
913.605 .0263254
914.254 .0263113
914.903 .0262977
915.551 .0262849
916.199 .0262730
916.847 .0262623
917.494 .0262530
918.141 .0262448
918.788 .0262372
919.434 .0262306
920.079 .0262241
920.725 .0262177
921.370 .0262113
922.014 .0262049
922.658 .0261984
923.302 .0261912
923.946 .0261833
924.589 .0261745
925.231 .0261644
925.873 .0261531
926.515 .0261403
927.157 .0261262
927.798 .0261105
928.439 .0260936
929.079 .0260754
929.719 .0260563
930.359 .0260364
930.998 .0260159
931.637 .0259951
932.275 .0259746
932.913 .0259545
933.551 .0259350
934.188 .0259171
934.825 .0259006
935.462 .0258854
936.098 .0258719
936.733 .0258598
937.369 .0258491
938.004 .0258395
938.638 .0258308
939.273 .0258228
939.907 .0258156
940.540 .0258087
941.173 .0258016
941.806 .0257953
942.438 .0257890
943.070 .0257824
943.702 .0257756
944.333 .0257681
944.964 .0257596
945.594 .0257504
946.224 .0257404
946.854 .0257294
947.483 .0257179
948.112 .0257058
948.741 .0256929
949.369 .0256799
949.996 .0256669
950.624 .0256534
951.251 .0256404
951.878 .0256278
952.504 .0256149
953.130 .0256023
953.755 .0255900
954.380 .0255776
955.005 .0255654
955.629 .0255527
956.253 .0255397
956.877 .0255266
957.500 .0255133
958.123 .0254991
958.746 .0254846
959.368 .0254695
959.990 .0254538
960.611 .0254371
961.232 .0254200
961.853 .0254025
962.473 .0253854
963.093 .0253688
963.712 .0253524
964.331 .0253363
964.950 .0253206
965.569 .0253055
966.187 .0252910
966.804 .0252770
967.422 .0252638
968.039 .0252519
968.655 .0252409
969.272 .0252312
969.887 .0252227
970.503 .0252147
971.118 .0252069
971.733 .0251987
972.347 .0251890
972.961 .0251780
973.575 .0251658
974.188 .0251520
974.801 .0251371
975.414 .0251218
976.026 .0251063
976.638 .0250912
977.250 .0250771
977.861 .0250639
978.472 .0250506
979.083 .0250377
979.693 .0250241
980.303 .0250092
980.912 .0249932
981.521 .0249762
982.130 .0249583
982.738 .0249404
983.346 .0249222
983.954 .0249040
984.562 .0248860
985.169 .0248682
985.775 .0248497
986.382 .0248301
986.988 .0248095
987.594 .0247877
988.199 .0247652
988.804 .0247423
989.409 .0247199
990.013 .0246989
990.617 .0246794
991.221 .0246617
991.824 .0246463
992.427 .0246330
993.030 .0246214
993.632 .0246118
994.234 .0246037
994.836 .0245969
995.438 .0245913
996.039 .0245870
996.640 .0245839
997.240 .0245819
997.840 .0245809
998.440 .0245803
999.040 .0245804
999.639 .0245804
1000.238 .0245792
1000.836 .0245770
1001.435 .0245735
1002.033 .0245685
1002.630 .0245618
1003.228 .0245541
1003.825 .0245455
1004.422 .0245365
1005.018 .0245279
1005.614 .0245197
1006.210 .0245124
1006.806 .0245064
1007.401 .0245009
1007.996 .0244956
1008.591 .0244907
1009.186 .0244860
1009.780 .0244817
1010.374 .0244775
1010.967 .0244739
1011.561 .0244716
1012.154 .0244701
1012.746 .0244698
1013.339 .0244699
1013.931 .0244706
1014.523 .0244714
1015.115 .0244717
1015.706 .0244713
1016.298 .0244698
1016.888 .0244676
1017.479 .0244650
1018.069 .0244617
1018.660 .0244587
1019.250 .0244562
1019.839 .0244544
1020.429 .0244537
1021.018 .0244549
1021.607 .0244572
1022.195 .0244616
1022.784 .0244680
1023.372 .0244767
1023.960 .0244867
1024.547 .0244985
1025.135 .0245111
1025.722 .0245241
1026.309 .0245374
1026.896 .0245505
1027.483 .0245626
1028.069 .0245744
1028.655 .0245853
1029.241 .0245954
1029.827 .0246046
1030.412 .0246135
1030.997 .0246219
1031.582 .0246301
1032.167 .0246371
1032.752 .0246436
1033.336 .0246490
1033.921 .0246537
1034.505 .0246576
1035.089 .0246608
1035.672 .0246637
1036.256 .0246660
1036.839 .0246677
1037.422 .0246694
1038.005 .0246709
1038.588 .0246728
1039.171 .0246748
1039.753 .0246784
1040.335 .0246833
1040.918 .0246891
1041.500 .0246960
1042.081 .0247038
1042.663 .0247117
1043.244 .0247194
1043.826 .0247262
1044.407 .0247317
1044.988 .0247365
1045.569 .0247403
1046.150 .0247438
1046.730 .0247473
1047.311 .0247519
1047.891 .0247575
1048.471 .0247637
1049.052 .0247710
1049.632 .0247784
1050.211 .0247860
1050.791 .0247933
1051.371 .0247996
1051.950 .0248053
1052.530 .0248098
1053.109 .0248145
1053.688 .0248196
1054.268 .0248259
1054.847 .0248340
1055.426 .0248441
1056.005 .0248561
1056.583 .0248695
1057.162 .0248836
1057.741 .0248973
1058.319 .0249104
1058.898 .0249230
1059.476 .0249335
1060.055 .0249428
1060.633 .0249513
1061.211 .0249594
1061.790 .0249679
1062.368 .0249778
1062.946 .0249882
1063.524 .0250001
1064.102 .0250132
1064.680 .0250264
1065.258 .0250390
1065.836 .0250518
1066.414 .0250635
1066.992 .0250738
1067.570 .0250848
1068.148 .0250952
1068.726 .0251049
1069.304 .0251157
1069.882 .0251260
1070.460 .0251354
1071.038 .0251442
1071.616 .0251521
1072.194 .0251590
1072.772 .0251654
1073.350 .0251719
1073.928 .0251782
1074.506 .0251868
1075.084 .0251986
1075.662 .0252123
1076.240 .0252293
1076.819 .0252505
1077.397 .0252725
1077.976 .0252957
1078.554 .0253183
1079.133 .0253389
1079.711 .0253566
1080.290 .0253719
1080.869 .0253836
1081.448 .0253929
1082.027 .0254002
1082.606 .0254055
1083.185 .0254096
1083.764 .0254142
1084.343 .0254174
1084.923 .0254197
1085.502 .0254223
1086.082 .0254247
1086.662 .0254263
1087.242 .0254289
1087.822 .0254333
1088.402 .0254408
1088.983 .0254514
1089.563 .0254667
1090.144 .0254868
1090.725 .0255135
1091.306 .0255440
1091.887 .0255784
1092.469 .0256154
1093.050 .0256540
1093.632 .0256905
1094.214 .0257243
1094.796 .0257554
1095.379 .0257835
1095.961 .0258074
1096.544 .0258285
1097.127 .0258462
1097.710 .0258620
1098.294 .0258758
1098.877 .0258909
1099.461 .0259061
1100.046 .0259232
1100.630 .0259419
1101.215 .0259638
1101.800 .0259871
1102.385 .0260129
1102.970 .0260378
1103.556 .0260630
1104.142 .0260897
1104.728 .0261156
1105.315 .0261402
1105.902 .0261670
1106.489 .0261951
1107.077 .0262252
1107.664 .0262564
1108.253 .0262888
1108.841 .0263196
1109.430 .0263502
1110.019 .0263766
1110.609 .0263968
1111.198 .0264141
1111.789 .0264302
1112.379 .0264433
1112.970 .0264586
1113.561 .0264770
1114.153 .0264973
1114.745 .0265224
1115.338 .0265502
1115.931 .0265786
1116.524 .0266073
1117.117 .0266366
1117.712 .0266652
1118.306 .0266943
1118.901 .0267257
1119.496 .0267561
1120.092 .0267893
1120.689 .0268253
1121.285 .0268601
1121.882 .0268944
1122.480 .0269317
1123.078 .0269718
1123.677 .0270147
1124.276 .0270643
1124.875 .0271193
1125.476 .0271818
1126.076 .0272532
1126.677 .0273278
1127.279 .0274051
1127.881 .0274840
1128.484 .0275621
1129.087 .0276326
1129.691 .0276997
1130.295 .0277626
1130.900 .0278216
1131.505 .0278784
1132.111 .0279353
1132.718 .0279919
1133.325 .0280503
1133.933 .0281119
1134.541 .0281688
1135.150 .0282245
1135.760 .0282794
1136.370 .0283312
1136.981 .0283852
1137.592 .0284422
1138.204 .0285065
1138.817 .0285825
1139.431 .0286732
1140.045 .0287800
1140.660 .0288986
1141.275 .0290461
1141.891 .0292136
1142.508 .0293524
1143.126 .0295248
1143.744 .0295959
1144.363 .0301540
1144.983 .0304169
