Measurement Sequence started on: 15-12-46-377
Integration time: 28
Scans to Average: 2 
>>>>>Begin Spectral Data<<<<<
432.689 .0000100
433.621 .0000100
434.552 .0000100
435.482 .0000100
436.410 .0000100
437.337 .0000100
438.262 .0285990
439.187 .0605142
440.110 .0999992
441.031 .1444865
441.952 .1875632
442.871 .2212867
443.789 .2394640
444.705 .2400557
445.621 .2257117
446.535 .2022003
447.447 .1757330
448.359 .1354283
449.269 .1154818
450.178 .1029530
451.086 .0940519
451.993 .0872539
452.898 .0819013
453.803 .0775977
454.706 .0740721
455.608 .0711391
456.508 .0686266
457.408 .0664789
458.306 .0646033
459.204 .0629349
460.100 .0614459
460.995 .0600964
461.888 .0588567
462.781 .0577205
463.673 .0566610
464.563 .0556842
465.452 .0547675
466.340 .0539137
467.228 .0531219
468.114 .0523862
468.999 .0516952
469.882 .0510463
470.765 .0504439
471.647 .0498969
472.528 .0493848
473.407 .0489157
474.286 .0484954
475.163 .0481250
476.040 .0478061
476.915 .0475343
477.790 .0473077
478.663 .0471223
479.535 .0469671
480.407 .0468459
481.277 .0467453
482.147 .0466670
483.015 .0466029
483.883 .0465574
484.749 .0465254
485.615 .0465099
486.479 .0465054
487.343 .0465278
488.206 .0465679
489.067 .0466210
489.928 .0466821
490.788 .0467549
491.647 .0468310
492.505 .0469110
493.362 .0469995
494.218 .0471084
495.073 .0472316
495.928 .0473871
496.781 .0475622
497.634 .0477799
498.486 .0480250
499.337 .0482959
500.187 .0485823
501.036 .0488858
501.884 .0491924
502.731 .0495090
503.578 .0498427
504.424 .0501939
505.268 .0505593
506.113 .0509565
506.956 .0513862
507.798 .0518636
508.640 .0523791
509.480 .0529466
510.320 .0535614
511.160 .0542501
511.998 .0550007
512.836 .0558278
513.672 .0567609
514.508 .0578118
515.344 .0589975
516.178 .0603477
517.012 .0618843
517.845 .0636391
518.677 .0656429
519.508 .0679369
520.339 .0705379
521.169 .0734885
521.998 .0768007
522.826 .0805118
523.654 .0846714
524.481 .0892888
525.307 .0943881
526.133 .0999208
526.958 .1059105
527.782 .1122410
528.605 .1188097
529.428 .1255390
530.250 .1319600
531.072 .1378787
531.892 .1430021
532.712 .1470361
533.532 .1498118
534.350 .1511725
535.168 .1510225
535.986 .1493671
536.802 .1463504
537.618 .1421238
538.434 .1368494
539.249 .1309668
540.063 .1246144
540.876 .1180593
541.689 .1115808
542.501 .1053536
543.313 .0995188
544.124 .0942235
544.934 .0894068
545.744 .0850261
546.553 .0810533
547.361 .0774606
548.169 .0742092
548.976 .0712537
549.783 .0685588
550.589 .0661024
551.395 .0638734
552.200 .0618576
553.004 .0600118
553.808 .0583443
554.611 .0568677
555.414 .0555494
556.216 .0543722
557.018 .0533228
557.819 .0523732
558.619 .0515066
559.419 .0507032
560.218 .0499473
561.017 .0492251
561.815 .0485267
562.613 .0478411
563.410 .0471600
564.207 .0464881
565.003 .0458260
565.799 .0451716
566.594 .0445228
567.388 .0438929
568.182 .0432752
568.976 .0426733
569.769 .0420964
570.562 .0415416
571.354 .0410025
572.145 .0404864
572.936 .0399871
573.727 .0395085
574.517 .0390503
575.307 .0386151
576.096 .0382028
576.885 .0378178
577.673 .0374563
578.461 .0371150
579.248 .0367922
580.035 .0364920
580.821 .0362045
581.607 .0359280
582.392 .0356636
583.177 .0354109
583.962 .0351700
584.746 .0349449
585.529 .0347345
586.313 .0345417
587.095 .0343648
587.878 .0342052
588.660 .0340607
589.441 .0339303
590.222 .0338126
591.003 .0337059
591.783 .0336068
592.563 .0335152
593.342 .0334289
594.121 .0333470
594.899 .0332699
595.678 .0331974
596.455 .0331285
597.233 .0330634
598.009 .0330012
598.786 .0329425
599.562 .0328860
600.338 .0328323
601.113 .0327810
601.888 .0327319
602.663 .0326848
603.437 .0326398
604.211 .0325950
604.984 .0325517
605.757 .0325092
606.530 .0324674
607.302 .0324266
608.074 .0323879
608.845 .0323498
609.616 .0323130
610.387 .0322774
611.158 .0322435
611.928 .0322100
612.697 .0321779
613.467 .0321458
614.236 .0321142
615.004 .0320828
615.773 .0320515
616.541 .0320207
617.308 .0319918
618.076 .0319640
618.843 .0319376
619.609 .0319127
620.375 .0318894
621.141 .0318660
621.907 .0318433
622.672 .0318203
623.437 .0317972
624.202 .0317735
624.966 .0317491
625.730 .0317235
626.493 .0316976
627.257 .0316708
628.020 .0316422
628.782 .0316124
629.545 .0315816
630.307 .0315497
631.068 .0315171
631.830 .0314849
632.591 .0314531
633.352 .0314215
634.112 .0313913
634.872 .0313620
635.632 .0313340
636.392 .0313071
637.151 .0312813
637.910 .0312574
638.668 .0312347
639.427 .0312136
640.185 .0311929
640.943 .0311739
641.700 .0311557
642.457 .0311374
643.214 .0311187
643.971 .0311003
644.727 .0310817
645.483 .0310636
646.239 .0310453
646.994 .0310275
647.750 .0310101
648.505 .0309929
649.259 .0309759
650.014 .0309594
650.768 .0309423
651.521 .0309255
652.275 .0309078
653.028 .0308900
653.781 .0308709
654.534 .0308514
655.286 .0308312
656.039 .0308098
656.791 .0307872
657.542 .0307625
658.294 .0307361
659.045 .0307095
659.796 .0306818
660.546 .0306536
661.297 .0306259
662.047 .0305981
662.796 .0305703
663.546 .0305427
664.295 .0305155
665.044 .0304880
665.793 .0304609
666.542 .0304346
667.290 .0304084
668.038 .0303836
668.786 .0303606
669.533 .0303386
670.281 .0303183
671.028 .0302989
671.774 .0302797
672.521 .0302607
673.267 .0302421
674.013 .0302231
674.759 .0302042
675.505 .0301857
676.250 .0301671
676.995 .0301483
677.740 .0301303
678.484 .0301116
679.229 .0300925
679.973 .0300729
680.717 .0300527
681.460 .0300319
682.204 .0300109
682.947 .0299899
683.690 .0299696
684.433 .0299497
685.175 .0299307
685.917 .0299115
686.659 .0298925
687.401 .0298730
688.142 .0298526
688.884 .0298313
689.625 .0298095
690.365 .0297871
691.106 .0297650
691.846 .0297436
692.586 .0297230
693.326 .0297027
694.066 .0296827
694.805 .0296631
695.545 .0296431
696.284 .0296220
697.022 .0295996
697.761 .0295763
698.499 .0295522
699.237 .0295274
699.975 .0295023
700.713 .0294775
701.450 .0294532
702.187 .0294296
702.924 .0294061
703.661 .0293835
704.397 .0293619
705.133 .0293413
705.869 .0293217
706.605 .0293035
707.341 .0292860
708.076 .0292694
708.811 .0292534
709.546 .0292378
710.281 .0292218
711.015 .0292058
711.749 .0291891
712.483 .0291719
713.217 .0291538
713.950 .0291348
714.684 .0291150
715.417 .0290944
716.150 .0290730
716.882 .0290508
717.615 .0290278
718.347 .0290046
719.079 .0289810
719.811 .0289573
720.542 .0289341
721.273 .0289114
722.005 .0288891
722.735 .0288673
723.466 .0288466
724.196 .0288271
724.927 .0288086
725.656 .0287915
726.386 .0287758
727.116 .0287611
727.845 .0287472
728.574 .0287332
729.303 .0287188
730.031 .0287042
730.760 .0286892
731.488 .0286738
732.216 .0286589
732.944 .0286448
733.671 .0286319
734.398 .0286205
735.125 .0286103
735.852 .0286004
736.579 .0285907
737.305 .0285812
738.031 .0285711
738.757 .0285612
739.483 .0285516
740.208 .0285430
740.933 .0285362
741.658 .0285310
742.383 .0285270
743.108 .0285240
743.832 .0285218
744.556 .0285189
745.280 .0285149
746.004 .0285099
746.727 .0285036
747.450 .0284971
748.173 .0284897
748.896 .0284822
749.618 .0284748
750.340 .0284676
751.062 .0284598
751.784 .0284517
752.506 .0284427
753.227 .0284323
753.948 .0284209
754.669 .0284090
755.389 .0283963
756.110 .0283838
756.830 .0283714
757.550 .0283593
758.269 .0283471
758.989 .0283351
759.708 .0283225
760.427 .0283103
761.146 .0282981
761.864 .0282856
762.582 .0282734
763.300 .0282615
764.018 .0282501
764.736 .0282387
765.453 .0282277
766.170 .0282164
766.887 .0282045
767.603 .0281921
768.320 .0281786
769.036 .0281645
769.751 .0281502
770.467 .0281358
771.182 .0281213
771.897 .0281072
772.612 .0280937
773.327 .0280808
774.041 .0280687
774.755 .0280567
775.469 .0280446
776.183 .0280323
776.896 .0280200
777.609 .0280075
778.322 .0279951
779.035 .0279830
779.747 .0279715
780.459 .0279606
781.171 .0279503
781.882 .0279404
782.594 .0279310
783.305 .0279219
784.016 .0279130
784.726 .0279040
785.436 .0278950
786.147 .0278859
786.856 .0278770
787.566 .0278682
788.275 .0278594
788.984 .0278503
789.693 .0278410
790.401 .0278308
791.110 .0278196
791.818 .0278071
792.525 .0277933
793.233 .0277785
793.940 .0277630
794.647 .0277472
795.353 .0277312
796.060 .0277155
796.766 .0277002
797.472 .0276846
798.177 .0276685
798.883 .0276511
799.588 .0276327
800.292 .0276130
800.997 .0275930
801.701 .0275727
802.405 .0275535
803.109 .0275356
803.812 .0275191
804.515 .0275040
805.218 .0274901
805.921 .0274760
806.623 .0274613
807.325 .0274453
808.027 .0274275
808.728 .0274074
809.429 .0273861
810.130 .0273632
810.831 .0273400
811.531 .0273169
812.231 .0272941
812.931 .0272714
813.630 .0272493
814.330 .0272272
815.029 .0272050
815.727 .0271829
816.426 .0271608
817.124 .0271380
817.821 .0271152
818.519 .0270926
819.216 .0270706
819.913 .0270496
820.609 .0270303
821.306 .0270125
822.002 .0269973
822.697 .0269844
823.393 .0269738
824.088 .0269654
824.783 .0269584
825.477 .0269522
826.171 .0269460
826.865 .0269399
827.559 .0269342
828.252 .0269288
828.945 .0269247
829.638 .0269219
830.330 .0269209
831.023 .0269213
831.714 .0269229
832.406 .0269251
833.097 .0269274
833.788 .0269287
834.479 .0269290
835.169 .0269278
835.859 .0269263
836.548 .0269246
837.238 .0269233
837.927 .0269226
838.615 .0269226
839.304 .0269229
839.992 .0269231
840.680 .0269230
841.367 .0269221
842.054 .0269201
842.741 .0269174
843.428 .0269143
844.114 .0269111
844.800 .0269083
845.485 .0269060
846.170 .0269039
846.855 .0269017
847.540 .0268983
848.224 .0268938
848.908 .0268885
849.592 .0268823
850.275 .0268755
850.958 .0268687
851.641 .0268624
852.323 .0268565
853.005 .0268512
853.687 .0268459
854.368 .0268406
855.049 .0268354
855.730 .0268296
856.410 .0268230
857.090 .0268164
857.769 .0268094
858.449 .0268023
859.128 .0267957
859.806 .0267891
860.485 .0267829
861.163 .0267771
861.840 .0267715
862.518 .0267655
863.195 .0267592
863.871 .0267525
864.548 .0267453
865.224 .0267379
865.899 .0267299
866.574 .0267217
867.249 .0267136
867.924 .0267056
868.598 .0266980
869.272 .0266911
869.946 .0266854
870.619 .0266806
871.292 .0266767
871.964 .0266733
872.636 .0266705
873.308 .0266678
873.979 .0266650
874.651 .0266621
875.321 .0266587
875.992 .0266552
876.662 .0266523
877.331 .0266501
878.001 .0266489
878.670 .0266488
879.338 .0266494
880.007 .0266506
880.675 .0266517
881.342 .0266520
882.009 .0266514
882.676 .0266498
883.343 .0266467
884.009 .0266423
884.675 .0266371
885.340 .0266315
886.005 .0266254
886.670 .0266196
887.334 .0266143
887.998 .0266092
888.662 .0266042
889.325 .0265992
889.988 .0265939
890.650 .0265886
891.312 .0265829
891.974 .0265770
892.636 .0265714
893.297 .0265667
893.957 .0265623
894.618 .0265584
895.278 .0265551
895.937 .0265520
896.596 .0265487
897.255 .0265451
897.914 .0265402
898.572 .0265344
899.230 .0265275
899.887 .0265192
900.544 .0265096
901.201 .0264988
901.857 .0264869
902.513 .0264737
903.168 .0264592
903.823 .0264429
904.478 .0264252
905.132 .0264061
905.786 .0263854
906.440 .0263635
907.093 .0263402
907.746 .0263158
908.399 .0262909
909.051 .0262654
909.703 .0262398
910.354 .0262141
911.005 .0261892
911.656 .0261646
912.306 .0261407
912.956 .0261173
913.605 .0260941
914.254 .0260715
914.903 .0260489
915.551 .0260257
916.199 .0260027
916.847 .0259797
917.494 .0259572
918.141 .0259354
918.788 .0259146
919.434 .0258946
920.079 .0258755
920.725 .0258561
921.370 .0258360
922.014 .0258147
922.658 .0257919
923.302 .0257669
923.946 .0257404
924.589 .0257122
925.231 .0256830
925.873 .0256539
926.515 .0256249
927.157 .0255957
927.798 .0255666
928.439 .0255366
929.079 .0255057
929.719 .0254736
930.359 .0254406
930.998 .0254070
931.637 .0253740
932.275 .0253415
932.913 .0253099
933.551 .0252798
934.188 .0252511
934.825 .0252237
935.462 .0251978
936.098 .0251729
936.733 .0251491
937.369 .0251263
938.004 .0251049
938.638 .0250843
939.273 .0250651
939.907 .0250472
940.540 .0250304
941.173 .0250145
941.806 .0249996
942.438 .0249857
943.070 .0249730
943.702 .0249612
944.333 .0249496
944.964 .0249384
945.594 .0249277
946.224 .0249166
946.854 .0249057
947.483 .0248954
948.112 .0248860
948.741 .0248775
949.369 .0248702
949.996 .0248637
950.624 .0248580
951.251 .0248530
951.878 .0248481
952.504 .0248429
953.130 .0248365
953.755 .0248290
954.380 .0248203
955.005 .0248105
955.629 .0247995
956.253 .0247877
956.877 .0247759
957.500 .0247638
958.123 .0247511
958.746 .0247382
959.368 .0247254
959.990 .0247130
960.611 .0247005
961.232 .0246884
961.853 .0246770
962.473 .0246659
963.093 .0246554
963.712 .0246453
964.331 .0246360
964.950 .0246270
965.569 .0246190
966.187 .0246127
966.804 .0246081
967.422 .0246056
968.039 .0246051
968.655 .0246063
969.272 .0246087
969.887 .0246118
970.503 .0246147
971.118 .0246174
971.733 .0246197
972.347 .0246211
972.961 .0246217
973.575 .0246225
974.188 .0246232
974.801 .0246233
975.414 .0246239
976.026 .0246241
976.638 .0246233
977.250 .0246216
977.861 .0246186
978.472 .0246144
979.083 .0246087
979.693 .0246019
980.303 .0245938
980.912 .0245857
981.521 .0245784
982.130 .0245716
982.738 .0245659
983.346 .0245620
983.954 .0245588
984.562 .0245565
985.169 .0245549
985.775 .0245534
986.382 .0245520
986.988 .0245510
987.594 .0245503
988.199 .0245500
988.804 .0245511
989.409 .0245538
990.013 .0245580
990.617 .0245639
991.221 .0245709
991.824 .0245785
992.427 .0245871
993.030 .0245962
993.632 .0246053
994.234 .0246149
994.836 .0246248
995.438 .0246351
996.039 .0246460
996.640 .0246571
997.240 .0246687
997.840 .0246804
998.440 .0246921
999.040 .0247028
999.639 .0247132
1000.238 .0247231
1000.836 .0247327
1001.435 .0247424
1002.033 .0247520
1002.630 .0247611
1003.228 .0247704
1003.825 .0247797
1004.422 .0247891
1005.018 .0247987
1005.614 .0248095
1006.210 .0248206
1006.806 .0248329
1007.401 .0248455
1007.996 .0248592
1008.591 .0248734
1009.186 .0248884
1009.780 .0249027
1010.374 .0249165
1010.967 .0249291
1011.561 .0249404
1012.154 .0249504
1012.746 .0249600
1013.339 .0249689
1013.931 .0249781
1014.523 .0249869
1015.115 .0249960
1015.706 .0250047
1016.298 .0250137
1016.888 .0250227
1017.479 .0250325
1018.069 .0250420
1018.660 .0250518
1019.250 .0250620
1019.839 .0250731
1020.429 .0250847
1021.018 .0250970
1021.607 .0251095
1022.195 .0251217
1022.784 .0251335
1023.372 .0251445
1023.960 .0251557
1024.547 .0251674
1025.135 .0251799
1025.722 .0251929
1026.309 .0252069
1026.896 .0252215
1027.483 .0252364
1028.069 .0252516
1028.655 .0252670
1029.241 .0252817
1029.827 .0252960
1030.412 .0253099
1030.997 .0253244
1031.582 .0253386
1032.167 .0253534
1032.752 .0253687
1033.336 .0253849
1033.921 .0254003
1034.505 .0254147
1035.089 .0254277
1035.672 .0254390
1036.256 .0254476
1036.839 .0254538
1037.422 .0254576
1038.005 .0254601
1038.588 .0254606
1039.171 .0254597
1039.753 .0254584
1040.335 .0254570
1040.918 .0254546
1041.500 .0254519
1042.081 .0254486
1042.663 .0254447
1043.244 .0254394
1043.826 .0254337
1044.407 .0254278
1044.988 .0254217
1045.569 .0254163
1046.150 .0254116
1046.730 .0254071
1047.311 .0254030
1047.891 .0253981
1048.471 .0253940
1049.052 .0253903
1049.632 .0253862
1050.211 .0253824
1050.791 .0253785
1051.371 .0253760
1051.950 .0253742
1052.530 .0253731
1053.109 .0253737
1053.688 .0253745
1054.268 .0253753
1054.847 .0253759
1055.426 .0253764
1056.005 .0253774
1056.583 .0253786
1057.162 .0253801
1057.741 .0253817
1058.319 .0253825
1058.898 .0253831
1059.476 .0253819
1060.055 .0253785
1060.633 .0253727
1061.211 .0253633
1061.790 .0253506
1062.368 .0253352
1062.946 .0253169
1063.524 .0252975
1064.102 .0252764
1064.680 .0252545
1065.258 .0252317
1065.836 .0252085
1066.414 .0251853
1066.992 .0251625
1067.570 .0251412
1068.148 .0251217
1068.726 .0251030
1069.304 .0250869
1069.882 .0250714
1070.460 .0250569
1071.038 .0250424
1071.616 .0250285
1072.194 .0250150
1072.772 .0250019
1073.350 .0249887
1073.928 .0249765
1074.506 .0249659
1075.084 .0249561
1075.662 .0249460
1076.240 .0249364
1076.819 .0249271
1077.397 .0249181
1077.976 .0249084
1078.554 .0248994
1079.133 .0248901
1079.711 .0248825
1080.290 .0248754
1080.869 .0248684
1081.448 .0248625
1082.027 .0248571
1082.606 .0248521
1083.185 .0248474
1083.764 .0248439
1084.343 .0248414
1084.923 .0248405
1085.502 .0248418
1086.082 .0248450
1086.662 .0248499
1087.242 .0248558
1087.822 .0248630
1088.402 .0248703
1088.983 .0248792
1089.563 .0248877
1090.144 .0248970
1090.725 .0249084
1091.306 .0249196
1091.887 .0249322
1092.469 .0249454
1093.050 .0249602
1093.632 .0249750
1094.214 .0249899
1094.796 .0250054
1095.379 .0250212
1095.961 .0250382
1096.544 .0250550
1097.127 .0250699
1097.710 .0250843
1098.294 .0250961
1098.877 .0251050
1099.461 .0251128
1100.046 .0251193
1100.630 .0251246
1101.215 .0251300
1101.800 .0251337
1102.385 .0251360
1102.970 .0251363
1103.556 .0251358
1104.142 .0251323
1104.728 .0251272
1105.315 .0251225
1105.902 .0251167
1106.489 .0251132
1107.077 .0251131
1107.664 .0251146
1108.253 .0251201
1108.841 .0251280
1109.430 .0251378
1110.019 .0251502
1110.609 .0251656
1111.198 .0251842
1111.789 .0252079
1112.379 .0252389
1112.970 .0252727
1113.561 .0253103
1114.153 .0253524
1114.745 .0253959
1115.338 .0254387
1115.931 .0254810
1116.524 .0255208
1117.117 .0255602
1117.712 .0255984
1118.306 .0256392
1118.901 .0256846
1119.496 .0257339
1120.092 .0257859
1120.689 .0258393
1121.285 .0258929
1121.882 .0259423
1122.480 .0259862
1123.078 .0260292
1123.677 .0260677
1124.276 .0261040
1124.875 .0261349
1125.476 .0261646
1126.076 .0261947
1126.677 .0262228
1127.279 .0262520
1127.881 .0262860
1128.484 .0263220
1129.087 .0263584
1129.691 .0264004
1130.295 .0264480
1130.900 .0265003
1131.505 .0265574
1132.111 .0266193
1132.718 .0266877
1133.325 .0267635
1133.933 .0268463
1134.541 .0269381
1135.150 .0270475
1135.760 .0271695
1136.370 .0272973
1136.981 .0274334
1137.592 .0275714
1138.204 .0277109
1138.817 .0278474
1139.431 .0279834
1140.045 .0281224
1140.660 .0282567
1141.275 .0283927
1141.891 .0284921
1142.508 .0287241
1143.126 .0289770
1143.744 .0288724
1144.363 .0290588
1144.983 .0281718
