Measurement Sequence started on: 15-12-46-377
Integration time: 28
Scans to Average: 2 
>>>>>Begin Spectral Data<<<<<
432.689 .0000100
433.621 .0000100
434.552 .0000100
435.482 .0000100
436.410 .0000100
437.337 .0000100
438.262 .0288115
439.187 .0609076
440.110 .1006239
441.031 .1452440
441.952 .1883626
442.871 .2219969
443.789 .2399615
444.705 .2402462
445.621 .2256029
446.535 .2018690
447.447 .1753164
448.359 .1349752
449.269 .1152487
450.178 .1029783
451.086 .0943868
451.993 .0877954
452.898 .0825581
453.803 .0782509
454.706 .0746594
455.608 .0716107
456.508 .0689990
457.408 .0667614
458.306 .0648093
459.204 .0630962
460.100 .0615820
460.995 .0602190
461.888 .0589858
462.781 .0578415
463.673 .0567795
464.563 .0557853
465.452 .0548469
466.340 .0539572
467.228 .0531432
468.114 .0523937
468.999 .0517159
469.882 .0510949
470.765 .0505286
471.647 .0500143
472.528 .0495426
473.407 .0491073
474.286 .0486966
475.163 .0483086
476.040 .0479486
476.915 .0476054
477.790 .0472864
478.663 .0469881
479.535 .0467225
480.407 .0464977
481.277 .0463104
482.147 .0461581
483.015 .0460391
483.883 .0459500
484.749 .0458782
485.615 .0458168
486.479 .0457622
487.343 .0457105
488.206 .0456644
489.067 .0456272
489.928 .0455995
490.788 .0455832
491.647 .0455904
492.505 .0456226
493.362 .0456781
494.218 .0457532
495.073 .0458386
495.928 .0459347
496.781 .0460314
497.634 .0461378
498.486 .0462552
499.337 .0464000
500.187 .0465863
501.036 .0468167
501.884 .0471039
502.731 .0474539
503.578 .0478706
504.424 .0483500
505.268 .0488732
506.113 .0494365
506.956 .0500267
507.798 .0506589
508.640 .0513292
509.480 .0520479
510.320 .0528366
511.160 .0537252
511.998 .0547119
512.836 .0557972
513.672 .0569950
514.508 .0582998
515.344 .0597076
516.178 .0612295
517.012 .0629034
517.845 .0647654
518.677 .0668552
519.508 .0692293
520.339 .0719336
521.169 .0750477
521.998 .0785867
522.826 .0826032
523.654 .0871395
524.481 .0921962
525.307 .0977746
526.133 .1038724
526.958 .1104365
527.782 .1173754
528.605 .1245538
529.428 .1319207
530.250 .1389849
531.072 .1454231
531.892 .1508320
532.712 .1549369
533.532 .1575283
534.350 .1583793
535.168 .1573557
535.986 .1545709
536.802 .1502805
537.618 .1447377
538.434 .1381364
539.249 .1310491
540.063 .1237408
540.876 .1164663
541.689 .1094280
542.501 .1027862
543.313 .0966948
544.124 .0912178
544.934 .0863021
545.744 .0818367
546.553 .0777877
547.361 .0741867
548.169 .0709838
548.976 .0681434
549.783 .0656519
550.589 .0634376
551.395 .0614898
552.200 .0597809
553.004 .0582451
553.808 .0568383
554.611 .0555561
555.414 .0544067
556.216 .0533598
557.018 .0524011
557.819 .0515325
558.619 .0507374
559.419 .0500184
560.218 .0493584
561.017 .0487365
561.815 .0481534
562.613 .0475919
563.410 .0470283
564.207 .0464623
565.003 .0458769
565.799 .0452816
566.594 .0446732
567.388 .0440698
568.182 .0434844
568.976 .0429087
569.769 .0423552
570.562 .0418263
571.354 .0413107
572.145 .0408061
572.936 .0403042
573.727 .0398094
574.517 .0393166
575.307 .0388301
576.096 .0383513
576.885 .0378913
577.673 .0374570
578.461 .0370517
579.248 .0366737
580.035 .0363295
580.821 .0360137
581.607 .0357164
582.392 .0354386
583.177 .0351817
583.962 .0349432
584.746 .0347270
585.529 .0345297
586.313 .0343540
587.095 .0341980
587.878 .0340592
588.660 .0339344
589.441 .0338210
590.222 .0337163
591.003 .0336188
591.783 .0335270
592.563 .0334410
593.342 .0333595
594.121 .0332825
594.899 .0332111
595.678 .0331447
596.455 .0330815
597.233 .0330216
598.009 .0329632
598.786 .0329060
599.562 .0328495
600.338 .0327933
601.113 .0327382
601.888 .0326842
602.663 .0326320
603.437 .0325815
604.211 .0325326
604.984 .0324857
605.757 .0324405
606.530 .0323972
607.302 .0323557
608.074 .0323157
608.845 .0322771
609.616 .0322394
610.387 .0322025
611.158 .0321664
611.928 .0321306
612.697 .0320951
613.467 .0320605
614.236 .0320262
615.004 .0319932
615.773 .0319619
616.541 .0319324
617.308 .0319041
618.076 .0318779
618.843 .0318531
619.609 .0318293
620.375 .0318075
621.141 .0317869
621.907 .0317672
622.672 .0317497
623.437 .0317329
624.202 .0317168
624.966 .0317019
625.730 .0316873
626.493 .0316722
627.257 .0316564
628.020 .0316394
628.782 .0316201
629.545 .0315993
630.307 .0315772
631.068 .0315523
631.830 .0315257
632.591 .0314976
633.352 .0314672
634.112 .0314359
634.872 .0314039
635.632 .0313704
636.392 .0313375
637.151 .0313043
637.910 .0312718
638.668 .0312395
639.427 .0312090
640.185 .0311792
640.943 .0311500
641.700 .0311225
642.457 .0310959
643.214 .0310705
643.971 .0310467
644.727 .0310237
645.483 .0310022
646.239 .0309811
646.994 .0309600
647.750 .0309376
648.505 .0309149
649.259 .0308909
650.014 .0308656
650.768 .0308390
651.521 .0308120
652.275 .0307844
653.028 .0307573
653.781 .0307307
654.534 .0307042
655.286 .0306783
656.039 .0306527
656.791 .0306267
657.542 .0305999
658.294 .0305723
659.045 .0305438
659.796 .0305146
660.546 .0304860
661.297 .0304571
662.047 .0304290
662.796 .0304016
663.546 .0303748
664.295 .0303485
665.044 .0303226
665.793 .0302973
666.542 .0302727
667.290 .0302501
668.038 .0302291
668.786 .0302094
669.533 .0301916
670.281 .0301761
671.028 .0301614
671.774 .0301473
672.521 .0301335
673.267 .0301200
674.013 .0301073
674.759 .0300946
675.505 .0300820
676.250 .0300698
676.995 .0300578
677.740 .0300455
678.484 .0300318
679.229 .0300176
679.973 .0300018
680.717 .0299843
681.460 .0299656
682.204 .0299464
682.947 .0299270
683.690 .0299079
684.433 .0298898
685.175 .0298726
685.917 .0298558
686.659 .0298394
687.401 .0298229
688.142 .0298067
688.884 .0297906
689.625 .0297741
690.365 .0297573
691.106 .0297415
691.846 .0297262
692.586 .0297110
693.326 .0296962
694.066 .0296820
694.805 .0296676
695.545 .0296527
696.284 .0296372
697.022 .0296212
697.761 .0296051
698.499 .0295887
699.237 .0295722
699.975 .0295559
700.713 .0295399
701.450 .0295244
702.187 .0295093
702.924 .0294949
703.661 .0294807
704.397 .0294664
705.133 .0294523
705.869 .0294381
706.605 .0294239
707.341 .0294096
708.076 .0293956
708.811 .0293822
709.546 .0293692
710.281 .0293561
711.015 .0293428
711.749 .0293290
712.483 .0293144
713.217 .0292988
713.950 .0292821
714.684 .0292640
715.417 .0292452
716.150 .0292254
716.882 .0292048
717.615 .0291836
718.347 .0291621
719.079 .0291403
719.811 .0291186
720.542 .0290967
721.273 .0290748
722.005 .0290535
722.735 .0290330
723.466 .0290136
724.196 .0289951
724.927 .0289770
725.656 .0289592
726.386 .0289417
727.116 .0289240
727.845 .0289058
728.574 .0288869
729.303 .0288678
730.031 .0288482
730.760 .0288286
731.488 .0288086
732.216 .0287887
732.944 .0287697
733.671 .0287503
734.398 .0287307
735.125 .0287112
735.852 .0286918
736.579 .0286727
737.305 .0286546
738.031 .0286378
738.757 .0286219
739.483 .0286076
740.208 .0285947
740.933 .0285826
741.658 .0285716
742.383 .0285610
743.108 .0285504
743.832 .0285398
744.556 .0285290
745.280 .0285173
746.004 .0285055
746.727 .0284935
747.450 .0284808
748.173 .0284672
748.896 .0284525
749.618 .0284365
750.340 .0284190
751.062 .0284009
751.784 .0283818
752.506 .0283621
753.227 .0283424
753.948 .0283225
754.669 .0283027
755.389 .0282831
756.110 .0282632
756.830 .0282426
757.550 .0282217
758.269 .0282001
758.989 .0281776
759.708 .0281554
760.427 .0281338
761.146 .0281134
761.864 .0280942
762.582 .0280764
763.300 .0280599
764.018 .0280446
764.736 .0280300
765.453 .0280149
766.170 .0279996
766.887 .0279838
767.603 .0279676
768.320 .0279512
769.036 .0279353
769.751 .0279202
770.467 .0279060
771.182 .0278925
771.897 .0278790
772.612 .0278656
773.327 .0278520
774.041 .0278383
774.755 .0278243
775.469 .0278109
776.183 .0277981
776.896 .0277868
777.609 .0277776
778.322 .0277700
779.035 .0277645
779.747 .0277610
780.459 .0277589
781.171 .0277580
781.882 .0277577
782.594 .0277579
783.305 .0277589
784.016 .0277608
784.726 .0277634
785.436 .0277665
786.147 .0277704
786.856 .0277747
787.566 .0277789
788.275 .0277827
788.984 .0277855
789.693 .0277871
790.401 .0277878
791.110 .0277870
791.818 .0277849
792.525 .0277819
793.233 .0277788
793.940 .0277755
794.647 .0277719
795.353 .0277681
796.060 .0277640
796.766 .0277593
797.472 .0277539
798.177 .0277473
798.883 .0277402
799.588 .0277323
800.292 .0277242
800.997 .0277157
801.701 .0277074
802.405 .0276996
803.109 .0276929
803.812 .0276870
804.515 .0276819
805.218 .0276762
805.921 .0276706
806.623 .0276646
807.325 .0276583
808.027 .0276515
808.728 .0276445
809.429 .0276373
810.130 .0276299
810.831 .0276220
811.531 .0276142
812.231 .0276057
812.931 .0275968
813.630 .0275870
814.330 .0275756
815.029 .0275629
815.727 .0275491
816.426 .0275346
817.124 .0275202
817.821 .0275060
818.519 .0274928
819.216 .0274806
819.913 .0274698
820.609 .0274601
821.306 .0274512
822.002 .0274432
822.697 .0274359
823.393 .0274288
824.088 .0274222
824.783 .0274163
825.477 .0274118
826.171 .0274081
826.865 .0274055
827.559 .0274038
828.252 .0274023
828.945 .0274006
829.638 .0273980
830.330 .0273941
831.023 .0273890
831.714 .0273827
832.406 .0273753
833.097 .0273671
833.788 .0273583
834.479 .0273494
835.169 .0273409
835.859 .0273325
836.548 .0273241
837.238 .0273155
837.927 .0273069
838.615 .0272980
839.304 .0272887
839.992 .0272791
840.680 .0272695
841.367 .0272601
842.054 .0272503
842.741 .0272400
843.428 .0272295
844.114 .0272184
844.800 .0272066
845.485 .0271939
846.170 .0271797
846.855 .0271640
847.540 .0271473
848.224 .0271296
848.908 .0271109
849.592 .0270917
850.275 .0270719
850.958 .0270517
851.641 .0270310
852.323 .0270097
853.005 .0269878
853.687 .0269655
854.368 .0269427
855.049 .0269192
855.730 .0268950
856.410 .0268703
857.090 .0268455
857.769 .0268207
858.449 .0267960
859.128 .0267716
859.806 .0267472
860.485 .0267236
861.163 .0267006
861.840 .0266782
862.518 .0266560
863.195 .0266341
863.871 .0266117
864.548 .0265886
865.224 .0265650
865.899 .0265409
866.574 .0265168
867.249 .0264933
867.924 .0264705
868.598 .0264487
869.272 .0264285
869.946 .0264096
870.619 .0263914
871.292 .0263743
871.964 .0263572
872.636 .0263400
873.308 .0263224
873.979 .0263050
874.651 .0262877
875.321 .0262714
875.992 .0262565
876.662 .0262429
877.331 .0262306
878.001 .0262198
878.670 .0262095
879.338 .0261999
880.007 .0261906
880.675 .0261810
881.342 .0261707
882.009 .0261601
882.676 .0261489
883.343 .0261377
884.009 .0261265
884.675 .0261160
885.340 .0261060
886.005 .0260970
886.670 .0260890
887.334 .0260823
887.998 .0260768
888.662 .0260722
889.325 .0260681
889.988 .0260646
890.650 .0260611
891.312 .0260578
891.974 .0260546
892.636 .0260525
893.297 .0260516
893.957 .0260521
894.618 .0260539
895.278 .0260569
895.937 .0260610
896.596 .0260653
897.255 .0260695
897.914 .0260728
898.572 .0260753
899.230 .0260771
899.887 .0260778
900.544 .0260782
901.201 .0260781
901.857 .0260779
902.513 .0260773
903.168 .0260758
903.823 .0260732
904.478 .0260693
905.132 .0260637
905.786 .0260564
906.440 .0260477
907.093 .0260375
907.746 .0260263
908.399 .0260141
909.051 .0260015
909.703 .0259880
910.354 .0259739
911.005 .0259601
911.656 .0259464
912.306 .0259328
912.956 .0259197
913.605 .0259070
914.254 .0258951
914.903 .0258837
915.551 .0258731
916.199 .0258631
916.847 .0258540
917.494 .0258459
918.141 .0258382
918.788 .0258318
919.434 .0258268
920.079 .0258226
920.725 .0258195
921.370 .0258169
922.014 .0258139
922.658 .0258103
923.302 .0258061
923.946 .0258010
924.589 .0257949
925.231 .0257881
925.873 .0257811
926.515 .0257736
927.157 .0257663
927.798 .0257587
928.439 .0257512
929.079 .0257436
929.719 .0257355
930.359 .0257270
930.998 .0257183
931.637 .0257098
932.275 .0257019
932.913 .0256948
933.551 .0256888
934.188 .0256840
934.825 .0256806
935.462 .0256782
936.098 .0256768
936.733 .0256762
937.369 .0256762
938.004 .0256770
938.638 .0256781
939.273 .0256792
939.907 .0256807
940.540 .0256828
941.173 .0256847
941.806 .0256870
942.438 .0256893
943.070 .0256915
943.702 .0256936
944.333 .0256956
944.964 .0256968
945.594 .0256979
946.224 .0256988
946.854 .0256999
947.483 .0257011
948.112 .0257029
948.741 .0257048
949.369 .0257068
949.996 .0257089
950.624 .0257106
951.251 .0257114
951.878 .0257121
952.504 .0257120
953.130 .0257107
953.755 .0257085
954.380 .0257063
955.005 .0257034
955.629 .0257005
956.253 .0256971
956.877 .0256937
957.500 .0256897
958.123 .0256851
958.746 .0256790
959.368 .0256715
959.990 .0256635
960.611 .0256543
961.232 .0256442
961.853 .0256346
962.473 .0256254
963.093 .0256172
963.712 .0256099
964.331 .0256031
964.950 .0255961
965.569 .0255892
966.187 .0255822
966.804 .0255749
967.422 .0255679
968.039 .0255616
968.655 .0255560
969.272 .0255518
969.887 .0255487
970.503 .0255459
971.118 .0255438
971.733 .0255419
972.347 .0255393
972.961 .0255359
973.575 .0255314
974.188 .0255258
974.801 .0255191
975.414 .0255113
976.026 .0255022
976.638 .0254914
977.250 .0254796
977.861 .0254662
978.472 .0254515
979.083 .0254356
979.693 .0254191
980.303 .0254017
980.912 .0253839
981.521 .0253653
982.130 .0253463
982.738 .0253265
983.346 .0253063
983.954 .0252850
984.562 .0252633
985.169 .0252414
985.775 .0252196
986.382 .0251980
986.988 .0251779
987.594 .0251585
988.199 .0251400
988.804 .0251221
989.409 .0251049
990.013 .0250877
990.617 .0250706
991.221 .0250536
991.824 .0250372
992.427 .0250214
993.030 .0250069
993.632 .0249934
994.234 .0249816
994.836 .0249708
995.438 .0249608
996.039 .0249513
996.640 .0249417
997.240 .0249313
997.840 .0249199
998.440 .0249076
999.040 .0248946
999.639 .0248807
1000.238 .0248666
1000.836 .0248523
1001.435 .0248387
1002.033 .0248252
1002.630 .0248122
1003.228 .0247995
1003.825 .0247873
1004.422 .0247750
1005.018 .0247630
1005.614 .0247516
1006.210 .0247406
1006.806 .0247300
1007.401 .0247205
1007.996 .0247114
1008.591 .0247033
1009.186 .0246957
1009.780 .0246885
1010.374 .0246812
1010.967 .0246737
1011.561 .0246651
1012.154 .0246560
1012.746 .0246466
1013.339 .0246369
1013.931 .0246270
1014.523 .0246176
1015.115 .0246086
1015.706 .0246004
1016.298 .0245931
1016.888 .0245869
1017.479 .0245813
1018.069 .0245762
1018.660 .0245704
1019.250 .0245640
1019.839 .0245570
1020.429 .0245489
1021.018 .0245406
1021.607 .0245326
1022.195 .0245245
1022.784 .0245173
1023.372 .0245110
1023.960 .0245055
1024.547 .0245015
1025.135 .0244981
1025.722 .0244949
1026.309 .0244913
1026.896 .0244880
1027.483 .0244842
1028.069 .0244810
1028.655 .0244786
1029.241 .0244769
1029.827 .0244761
1030.412 .0244775
1030.997 .0244792
1031.582 .0244816
1032.167 .0244852
1032.752 .0244879
1033.336 .0244898
1033.921 .0244913
1034.505 .0244912
1035.089 .0244907
1035.672 .0244897
1036.256 .0244886
1036.839 .0244868
1037.422 .0244852
1038.005 .0244838
1038.588 .0244825
1039.171 .0244822
1039.753 .0244824
1040.335 .0244829
1040.918 .0244846
1041.500 .0244874
1042.081 .0244901
1042.663 .0244927
1043.244 .0244948
1043.826 .0244952
1044.407 .0244938
1044.988 .0244906
1045.569 .0244859
1046.150 .0244808
1046.730 .0244754
1047.311 .0244703
1047.891 .0244656
1048.471 .0244614
1049.052 .0244575
1049.632 .0244536
1050.211 .0244490
1050.791 .0244435
1051.371 .0244360
1051.950 .0244280
1052.530 .0244191
1053.109 .0244102
1053.688 .0244019
1054.268 .0243942
1054.847 .0243873
1055.426 .0243809
1056.005 .0243745
1056.583 .0243699
1057.162 .0243658
1057.741 .0243626
1058.319 .0243604
1058.898 .0243594
1059.476 .0243595
1060.055 .0243608
1060.633 .0243622
1061.211 .0243638
1061.790 .0243649
1062.368 .0243669
1062.946 .0243682
1063.524 .0243716
1064.102 .0243767
1064.680 .0243840
1065.258 .0243927
1065.836 .0244027
1066.414 .0244120
1066.992 .0244216
1067.570 .0244296
1068.148 .0244372
1068.726 .0244438
1069.304 .0244509
1069.882 .0244580
1070.460 .0244676
1071.038 .0244780
1071.616 .0244907
1072.194 .0245035
1072.772 .0245178
1073.350 .0245311
1073.928 .0245440
1074.506 .0245550
1075.084 .0245649
1075.662 .0245727
1076.240 .0245798
1076.819 .0245854
1077.397 .0245917
1077.976 .0245976
1078.554 .0246046
1079.133 .0246107
1079.711 .0246167
1080.290 .0246213
1080.869 .0246246
1081.448 .0246261
1082.027 .0246272
1082.606 .0246274
1083.185 .0246288
1083.764 .0246329
1084.343 .0246403
1084.923 .0246514
1085.502 .0246674
1086.082 .0246875
1086.662 .0247100
1087.242 .0247341
1087.822 .0247595
1088.402 .0247848
1088.983 .0248105
1089.563 .0248353
1090.144 .0248597
1090.725 .0248844
1091.306 .0249095
1091.887 .0249352
1092.469 .0249603
1093.050 .0249864
1093.632 .0250106
1094.214 .0250331
1094.796 .0250554
1095.379 .0250777
1095.961 .0250998
1096.544 .0251226
1097.127 .0251463
1097.710 .0251676
1098.294 .0251886
1098.877 .0252097
1099.461 .0252292
1100.046 .0252487
1100.630 .0252697
1101.215 .0252917
1101.800 .0253145
1102.385 .0253406
1102.970 .0253676
1103.556 .0253957
1104.142 .0254262
1104.728 .0254559
1105.315 .0254836
1105.902 .0255119
1106.489 .0255408
1107.077 .0255688
1107.664 .0255990
1108.253 .0256314
1108.841 .0256639
1109.430 .0256994
1110.019 .0257374
1110.609 .0257797
1111.198 .0258253
1111.789 .0258783
1112.379 .0259353
1112.970 .0259969
1113.561 .0260642
1114.153 .0261338
1114.745 .0262038
1115.338 .0262759
1115.931 .0263445
1116.524 .0264082
1117.117 .0264688
1117.712 .0265306
1118.306 .0265881
1118.901 .0266445
1119.496 .0266997
1120.092 .0267561
1120.689 .0268106
1121.285 .0268652
1121.882 .0269154
1122.480 .0269653
1123.078 .0270141
1123.677 .0270597
1124.276 .0271043
1124.875 .0271547
1125.476 .0272045
1126.076 .0272571
1126.677 .0273132
1127.279 .0273751
1127.881 .0274386
1128.484 .0275090
1129.087 .0275831
1129.691 .0276638
1130.295 .0277466
1130.900 .0278291
1131.505 .0279061
1132.111 .0279812
1132.718 .0280481
1133.325 .0281061
1133.933 .0281608
1134.541 .0282134
1135.150 .0282642
1135.760 .0283223
1136.370 .0283856
1136.981 .0284574
1137.592 .0285331
1138.204 .0286100
1138.817 .0286845
1139.431 .0287579
1140.045 .0288381
1140.660 .0289274
1141.275 .0290250
1141.891 .0291283
1142.508 .0291407
1143.126 .0294705
1143.744 .0296726
1144.363 .0296454
1144.983 .0295851
