Measurement Sequence started on: 15-12-46-377
Integration time: 28
Scans to Average: 2 
>>>>>Begin Spectral Data<<<<<
432.689 .0000100
433.621 .0000100
434.552 .0000100
435.482 .0000100
436.410 .0000100
437.337 .0000100
438.262 .0276388
439.187 .0585938
440.110 .0970640
441.031 .1404373
441.952 .1825027
442.871 .2155751
443.789 .2335931
444.705 .2345119
445.621 .2208790
446.535 .1982465
447.447 .1726687
448.359 .1337098
449.269 .1143947
450.178 .1022424
451.086 .0937097
451.993 .0872204
452.898 .0820684
453.803 .0778354
454.706 .0742668
455.608 .0711743
456.508 .0684669
457.408 .0661236
458.306 .0640620
459.204 .0622500
460.100 .0606814
460.995 .0593110
461.888 .0580952
462.781 .0569837
463.673 .0559634
464.563 .0550111
465.452 .0541155
466.340 .0532662
467.228 .0524567
468.114 .0517040
468.999 .0510065
469.882 .0503513
470.765 .0497470
471.647 .0491934
472.528 .0486860
473.407 .0482219
474.286 .0478120
475.163 .0474455
476.040 .0471282
476.915 .0468581
477.790 .0466320
478.663 .0464389
479.535 .0462791
480.407 .0461448
481.277 .0460312
482.147 .0459482
483.015 .0458938
483.883 .0458659
484.749 .0458717
485.615 .0459047
486.479 .0459612
487.343 .0460330
488.206 .0461188
489.067 .0461986
489.928 .0462698
490.788 .0463306
491.647 .0463823
492.505 .0464420
493.362 .0465157
494.218 .0466044
495.073 .0467193
495.928 .0468678
496.781 .0470406
497.634 .0472369
498.486 .0474638
499.337 .0477192
500.187 .0479945
501.036 .0482833
501.884 .0485873
502.731 .0489086
503.578 .0492556
504.424 .0496249
505.268 .0500174
506.113 .0504459
506.956 .0508989
507.798 .0513902
508.640 .0519176
509.480 .0524977
510.320 .0531292
511.160 .0538225
511.998 .0545862
512.836 .0554164
513.672 .0563218
514.508 .0573274
515.344 .0584498
516.178 .0597265
517.012 .0611921
517.845 .0628834
518.677 .0648475
519.508 .0671092
520.339 .0696840
521.169 .0726381
521.998 .0759989
522.826 .0798305
523.654 .0841294
524.481 .0889453
525.307 .0943217
526.133 .1002084
526.958 .1065555
527.782 .1132714
528.605 .1201852
529.428 .1271661
530.250 .1337071
531.072 .1395750
531.892 .1444587
532.712 .1481314
533.532 .1504243
534.350 .1512028
535.168 .1503987
535.986 .1480437
536.802 .1442717
537.618 .1393035
538.434 .1333059
539.249 .1267146
540.063 .1197350
540.876 .1126975
541.689 .1058709
542.501 .0994850
543.313 .0936983
544.124 .0886155
544.934 .0841683
545.744 .0802240
546.553 .0767049
547.361 .0735679
548.169 .0707616
548.976 .0682180
549.783 .0658968
550.589 .0638039
551.395 .0618818
552.200 .0601339
553.004 .0585370
553.808 .0570827
554.611 .0557584
555.414 .0545625
556.216 .0534730
557.018 .0524916
557.819 .0515983
558.619 .0507680
559.419 .0499869
560.218 .0492493
561.017 .0485307
561.815 .0478204
562.613 .0471127
563.410 .0464135
564.207 .0457158
565.003 .0450431
565.799 .0443922
566.594 .0437700
567.388 .0431811
568.182 .0426222
568.976 .0420835
569.769 .0415689
570.562 .0410663
571.354 .0405712
572.145 .0400845
572.936 .0396105
573.727 .0391422
574.517 .0386919
575.307 .0382621
576.096 .0378559
576.885 .0374683
577.673 .0371052
578.461 .0367585
579.248 .0364321
580.035 .0361212
580.821 .0358273
581.607 .0355495
582.392 .0352927
583.177 .0350540
583.962 .0348347
584.746 .0346367
585.529 .0344594
586.313 .0342988
587.095 .0341531
587.878 .0340181
588.660 .0338937
589.441 .0337780
590.222 .0336723
591.003 .0335769
591.783 .0334918
592.563 .0334157
593.342 .0333482
594.121 .0332875
594.899 .0332304
595.678 .0331763
596.455 .0331232
597.233 .0330719
598.009 .0330203
598.786 .0329696
599.562 .0329210
600.338 .0328756
601.113 .0328327
601.888 .0327913
602.663 .0327501
603.437 .0327093
604.211 .0326669
604.984 .0326227
605.757 .0325760
606.530 .0325289
607.302 .0324808
608.074 .0324338
608.845 .0323879
609.616 .0323443
610.387 .0323031
611.158 .0322653
611.928 .0322290
612.697 .0321939
613.467 .0321601
614.236 .0321271
615.004 .0320947
615.773 .0320633
616.541 .0320326
617.308 .0320037
618.076 .0319764
618.843 .0319508
619.609 .0319257
620.375 .0319012
621.141 .0318767
621.907 .0318513
622.672 .0318250
623.437 .0317967
624.202 .0317669
624.966 .0317357
625.730 .0317033
626.493 .0316698
627.257 .0316362
628.020 .0316030
628.782 .0315711
629.545 .0315401
630.307 .0315096
631.068 .0314803
631.830 .0314521
632.591 .0314238
633.352 .0313962
634.112 .0313684
634.872 .0313414
635.632 .0313146
636.392 .0312886
637.151 .0312630
637.910 .0312384
638.668 .0312155
639.427 .0311936
640.185 .0311724
640.943 .0311527
641.700 .0311334
642.457 .0311148
643.214 .0310960
643.971 .0310769
644.727 .0310579
645.483 .0310390
646.239 .0310202
646.994 .0310017
647.750 .0309839
648.505 .0309678
649.259 .0309526
650.014 .0309381
650.768 .0309246
651.521 .0309108
652.275 .0308963
653.028 .0308808
653.781 .0308643
654.534 .0308464
655.286 .0308276
656.039 .0308083
656.791 .0307885
657.542 .0307677
658.294 .0307473
659.045 .0307264
659.796 .0307054
660.546 .0306843
661.297 .0306625
662.047 .0306402
662.796 .0306181
663.546 .0305964
664.295 .0305750
665.044 .0305542
665.793 .0305349
666.542 .0305164
667.290 .0304995
668.038 .0304835
668.786 .0304684
669.533 .0304542
670.281 .0304408
671.028 .0304278
671.774 .0304147
672.521 .0304020
673.267 .0303888
674.013 .0303757
674.759 .0303622
675.505 .0303479
676.250 .0303326
676.995 .0303167
677.740 .0302996
678.484 .0302814
679.229 .0302622
679.973 .0302421
680.717 .0302212
681.460 .0301998
682.204 .0301771
682.947 .0301542
683.690 .0301317
684.433 .0301097
685.175 .0300876
685.917 .0300667
686.659 .0300464
687.401 .0300268
688.142 .0300080
688.884 .0299895
689.625 .0299712
690.365 .0299534
691.106 .0299346
691.846 .0299150
692.586 .0298941
693.326 .0298723
694.066 .0298489
694.805 .0298250
695.545 .0298001
696.284 .0297748
697.022 .0297497
697.761 .0297252
698.499 .0297009
699.237 .0296771
699.975 .0296537
700.713 .0296302
701.450 .0296071
702.187 .0295842
702.924 .0295619
703.661 .0295408
704.397 .0295207
705.133 .0295014
705.869 .0294830
706.605 .0294654
707.341 .0294480
708.076 .0294304
708.811 .0294121
709.546 .0293923
710.281 .0293717
711.015 .0293496
711.749 .0293264
712.483 .0293023
713.217 .0292780
713.950 .0292531
714.684 .0292278
715.417 .0292025
716.150 .0291774
716.882 .0291526
717.615 .0291284
718.347 .0291048
719.079 .0290822
719.811 .0290608
720.542 .0290410
721.273 .0290227
722.005 .0290057
722.735 .0289892
723.466 .0289736
724.196 .0289580
724.927 .0289423
725.656 .0289260
726.386 .0289094
727.116 .0288927
727.845 .0288755
728.574 .0288577
729.303 .0288403
730.031 .0288234
730.760 .0288075
731.488 .0287921
732.216 .0287781
732.944 .0287652
733.671 .0287532
734.398 .0287420
735.125 .0287316
735.852 .0287220
736.579 .0287133
737.305 .0287051
738.031 .0286979
738.757 .0286914
739.483 .0286854
740.208 .0286798
740.933 .0286749
741.658 .0286703
742.383 .0286655
743.108 .0286605
743.832 .0286559
744.556 .0286511
745.280 .0286461
746.004 .0286407
746.727 .0286355
747.450 .0286300
748.173 .0286240
748.896 .0286173
749.618 .0286107
750.340 .0286040
751.062 .0285973
751.784 .0285907
752.506 .0285842
753.227 .0285774
753.948 .0285703
754.669 .0285627
755.389 .0285544
756.110 .0285456
756.830 .0285359
757.550 .0285257
758.269 .0285156
758.989 .0285057
759.708 .0284960
760.427 .0284869
761.146 .0284781
761.864 .0284688
762.582 .0284593
763.300 .0284496
764.018 .0284393
764.736 .0284287
765.453 .0284181
766.170 .0284075
766.887 .0283971
767.603 .0283870
768.320 .0283768
769.036 .0283667
769.751 .0283567
770.467 .0283459
771.182 .0283346
771.897 .0283234
772.612 .0283122
773.327 .0283015
774.041 .0282911
774.755 .0282813
775.469 .0282720
776.183 .0282638
776.896 .0282562
777.609 .0282490
778.322 .0282425
779.035 .0282366
779.747 .0282311
780.459 .0282261
781.171 .0282213
781.882 .0282169
782.594 .0282128
783.305 .0282087
784.016 .0282043
784.726 .0281993
785.436 .0281939
786.147 .0281880
786.856 .0281811
787.566 .0281732
788.275 .0281642
788.984 .0281543
789.693 .0281439
790.401 .0281327
791.110 .0281210
791.818 .0281094
792.525 .0280979
793.233 .0280868
793.940 .0280756
794.647 .0280641
795.353 .0280523
796.060 .0280405
796.766 .0280284
797.472 .0280161
798.177 .0280037
798.883 .0279917
799.588 .0279795
800.292 .0279676
800.997 .0279556
801.701 .0279428
802.405 .0279293
803.109 .0279146
803.812 .0278977
804.515 .0278789
805.218 .0278576
805.921 .0278341
806.623 .0278086
807.325 .0277816
808.027 .0277528
808.728 .0277234
809.429 .0276938
810.130 .0276638
810.831 .0276342
811.531 .0276049
812.231 .0275760
812.931 .0275473
813.630 .0275191
814.330 .0274913
815.029 .0274642
815.727 .0274381
816.426 .0274131
817.124 .0273896
817.821 .0273673
818.519 .0273465
819.216 .0273272
819.913 .0273091
820.609 .0272918
821.306 .0272751
822.002 .0272590
822.697 .0272434
823.393 .0272284
824.088 .0272134
824.783 .0271987
825.477 .0271845
826.171 .0271708
826.865 .0271578
827.559 .0271459
828.252 .0271350
828.945 .0271248
829.638 .0271156
830.330 .0271070
831.023 .0270985
831.714 .0270902
832.406 .0270816
833.097 .0270722
833.788 .0270620
834.479 .0270515
835.169 .0270406
835.859 .0270301
836.548 .0270197
837.238 .0270091
837.927 .0269980
838.615 .0269867
839.304 .0269746
839.992 .0269616
840.680 .0269480
841.367 .0269336
842.054 .0269189
842.741 .0269043
843.428 .0268901
844.114 .0268767
844.800 .0268644
845.485 .0268530
846.170 .0268417
846.855 .0268307
847.540 .0268197
848.224 .0268088
848.908 .0267981
849.592 .0267874
850.275 .0267768
850.958 .0267665
851.641 .0267570
852.323 .0267478
853.005 .0267392
853.687 .0267312
854.368 .0267235
855.049 .0267159
855.730 .0267084
856.410 .0267011
857.090 .0266940
857.769 .0266872
858.449 .0266804
859.128 .0266737
859.806 .0266672
860.485 .0266608
861.163 .0266546
861.840 .0266486
862.518 .0266425
863.195 .0266360
863.871 .0266293
864.548 .0266222
865.224 .0266148
865.899 .0266072
866.574 .0265995
867.249 .0265921
867.924 .0265846
868.598 .0265774
869.272 .0265707
869.946 .0265647
870.619 .0265594
871.292 .0265543
871.964 .0265498
872.636 .0265460
873.308 .0265427
873.979 .0265402
874.651 .0265389
875.321 .0265387
875.992 .0265399
876.662 .0265427
877.331 .0265468
878.001 .0265519
878.670 .0265581
879.338 .0265648
880.007 .0265723
880.675 .0265804
881.342 .0265886
882.009 .0265975
882.676 .0266074
883.343 .0266179
884.009 .0266288
884.675 .0266398
885.340 .0266507
886.005 .0266606
886.670 .0266700
887.334 .0266785
887.998 .0266861
888.662 .0266935
889.325 .0267006
889.988 .0267078
890.650 .0267156
891.312 .0267236
891.974 .0267319
892.636 .0267407
893.297 .0267491
893.957 .0267569
894.618 .0267645
895.278 .0267717
895.937 .0267785
896.596 .0267849
897.255 .0267911
897.914 .0267967
898.572 .0268016
899.230 .0268058
899.887 .0268090
900.544 .0268113
901.201 .0268118
901.857 .0268111
902.513 .0268087
903.168 .0268051
903.823 .0267999
904.478 .0267940
905.132 .0267874
905.786 .0267800
906.440 .0267719
907.093 .0267628
907.746 .0267528
908.399 .0267416
909.051 .0267288
909.703 .0267148
910.354 .0266991
911.005 .0266823
911.656 .0266647
912.306 .0266469
912.956 .0266294
913.605 .0266122
914.254 .0265956
914.903 .0265797
915.551 .0265642
916.199 .0265496
916.847 .0265350
917.494 .0265211
918.141 .0265074
918.788 .0264938
919.434 .0264805
920.079 .0264676
920.725 .0264554
921.370 .0264440
922.014 .0264331
922.658 .0264226
923.302 .0264115
923.946 .0263992
924.589 .0263847
925.231 .0263677
925.873 .0263478
926.515 .0263253
927.157 .0263001
927.798 .0262734
928.439 .0262458
929.079 .0262181
929.719 .0261904
930.359 .0261635
930.998 .0261367
931.637 .0261099
932.275 .0260825
932.913 .0260545
933.551 .0260255
934.188 .0259965
934.825 .0259680
935.462 .0259410
936.098 .0259157
936.733 .0258928
937.369 .0258718
938.004 .0258528
938.638 .0258349
939.273 .0258172
939.907 .0257999
940.540 .0257829
941.173 .0257658
941.806 .0257498
942.438 .0257350
943.070 .0257222
943.702 .0257113
944.333 .0257018
944.964 .0256932
945.594 .0256852
946.224 .0256764
946.854 .0256671
947.483 .0256567
948.112 .0256456
948.741 .0256327
949.369 .0256190
949.996 .0256047
950.624 .0255892
951.251 .0255730
951.878 .0255559
952.504 .0255374
953.130 .0255179
953.755 .0254967
954.380 .0254742
955.005 .0254503
955.629 .0254254
956.253 .0253985
956.877 .0253709
957.500 .0253425
958.123 .0253134
958.746 .0252841
959.368 .0252555
959.990 .0252274
960.611 .0252001
961.232 .0251738
961.853 .0251484
962.473 .0251240
963.093 .0251003
963.712 .0250765
964.331 .0250532
964.950 .0250298
965.569 .0250073
966.187 .0249855
966.804 .0249655
967.422 .0249473
968.039 .0249308
968.655 .0249160
969.272 .0249022
969.887 .0248890
970.503 .0248758
971.118 .0248626
971.733 .0248487
972.347 .0248338
972.961 .0248182
973.575 .0248023
974.188 .0247859
974.801 .0247689
975.414 .0247516
976.026 .0247332
976.638 .0247141
977.250 .0246942
977.861 .0246732
978.472 .0246516
979.083 .0246297
979.693 .0246071
980.303 .0245841
980.912 .0245608
981.521 .0245374
982.130 .0245141
982.738 .0244919
983.346 .0244705
983.954 .0244499
984.562 .0244306
985.169 .0244122
985.775 .0243940
986.382 .0243761
986.988 .0243579
987.594 .0243395
988.199 .0243213
988.804 .0243035
989.409 .0242862
990.013 .0242704
990.617 .0242561
991.221 .0242431
991.824 .0242312
992.427 .0242207
993.030 .0242106
993.632 .0242011
994.234 .0241924
994.836 .0241844
995.438 .0241775
996.039 .0241720
996.640 .0241678
997.240 .0241655
997.840 .0241649
998.440 .0241658
999.040 .0241673
999.639 .0241698
1000.238 .0241724
1000.836 .0241752
1001.435 .0241778
1002.033 .0241801
1002.630 .0241825
1003.228 .0241854
1003.825 .0241886
1004.422 .0241924
1005.018 .0241972
1005.614 .0242029
1006.210 .0242089
1006.806 .0242145
1007.401 .0242191
1007.996 .0242220
1008.591 .0242234
1009.186 .0242233
1009.780 .0242218
1010.374 .0242197
1010.967 .0242171
1011.561 .0242153
1012.154 .0242145
1012.746 .0242142
1013.339 .0242146
1013.931 .0242155
1014.523 .0242166
1015.115 .0242176
1015.706 .0242186
1016.298 .0242205
1016.888 .0242242
1017.479 .0242302
1018.069 .0242386
1018.660 .0242492
1019.250 .0242625
1019.839 .0242780
1020.429 .0242943
1021.018 .0243120
1021.607 .0243296
1022.195 .0243471
1022.784 .0243643
1023.372 .0243810
1023.960 .0243976
1024.547 .0244140
1025.135 .0244302
1025.722 .0244462
1026.309 .0244625
1026.896 .0244795
1027.483 .0244967
1028.069 .0245151
1028.655 .0245347
1029.241 .0245552
1029.827 .0245763
1030.412 .0245979
1030.997 .0246196
1031.582 .0246413
1032.167 .0246622
1032.752 .0246830
1033.336 .0247034
1033.921 .0247238
1034.505 .0247444
1035.089 .0247652
1035.672 .0247860
1036.256 .0248064
1036.839 .0248259
1037.422 .0248445
1038.005 .0248615
1038.588 .0248768
1039.171 .0248900
1039.753 .0249021
1040.335 .0249133
1040.918 .0249230
1041.500 .0249319
1042.081 .0249404
1042.663 .0249476
1043.244 .0249550
1043.826 .0249620
1044.407 .0249690
1044.988 .0249761
1045.569 .0249839
1046.150 .0249920
1046.730 .0249999
1047.311 .0250082
1047.891 .0250157
1048.471 .0250228
1049.052 .0250297
1049.632 .0250361
1050.211 .0250431
1050.791 .0250518
1051.371 .0250620
1051.950 .0250733
1052.530 .0250867
1053.109 .0251005
1053.688 .0251139
1054.268 .0251268
1054.847 .0251390
1055.426 .0251503
1056.005 .0251616
1056.583 .0251741
1057.162 .0251870
1057.741 .0252025
1058.319 .0252198
1058.898 .0252385
1059.476 .0252583
1060.055 .0252788
1060.633 .0252992
1061.211 .0253190
1061.790 .0253400
1062.368 .0253614
1062.946 .0253840
1063.524 .0254091
1064.102 .0254351
1064.680 .0254622
1065.258 .0254894
1065.836 .0255157
1066.414 .0255393
1066.992 .0255599
1067.570 .0255768
1068.148 .0255908
1068.726 .0256021
1069.304 .0256119
1069.882 .0256201
1070.460 .0256283
1071.038 .0256370
1071.616 .0256450
1072.194 .0256526
1072.772 .0256593
1073.350 .0256645
1073.928 .0256682
1074.506 .0256699
1075.084 .0256705
1075.662 .0256709
1076.240 .0256722
1076.819 .0256750
1077.397 .0256798
1077.976 .0256869
1078.554 .0256955
1079.133 .0257045
1079.711 .0257138
1080.290 .0257231
1080.869 .0257321
1081.448 .0257419
1082.027 .0257517
1082.606 .0257629
1083.185 .0257755
1083.764 .0257892
1084.343 .0258039
1084.923 .0258187
1085.502 .0258326
1086.082 .0258453
1086.662 .0258573
1087.242 .0258681
1087.822 .0258787
1088.402 .0258907
1088.983 .0259038
1089.563 .0259165
1090.144 .0259296
1090.725 .0259434
1091.306 .0259554
1091.887 .0259667
1092.469 .0259780
1093.050 .0259887
1093.632 .0260017
1094.214 .0260178
1094.796 .0260375
1095.379 .0260611
1095.961 .0260893
1096.544 .0261201
1097.127 .0261524
1097.710 .0261849
1098.294 .0262164
1098.877 .0262459
1099.461 .0262765
1100.046 .0263064
1100.630 .0263342
1101.215 .0263643
1101.800 .0263955
1102.385 .0264259
1102.970 .0264559
1103.556 .0264834
1104.142 .0265097
1104.728 .0265330
1105.315 .0265541
1105.902 .0265737
1106.489 .0265923
1107.077 .0266105
1107.664 .0266285
1108.253 .0266463
1108.841 .0266647
1109.430 .0266815
1110.019 .0266967
1110.609 .0267112
1111.198 .0267248
1111.789 .0267389
1112.379 .0267525
1112.970 .0267685
1113.561 .0267878
1114.153 .0268072
1114.745 .0268283
1115.338 .0268507
1115.931 .0268733
1116.524 .0268972
1117.117 .0269230
1117.712 .0269501
1118.306 .0269796
1118.901 .0270138
1119.496 .0270488
1120.092 .0270833
1120.689 .0271174
1121.285 .0271479
1121.882 .0271735
1122.480 .0271959
1123.078 .0272152
1123.677 .0272341
1124.276 .0272542
1124.875 .0272780
1125.476 .0273033
1126.076 .0273317
1126.677 .0273627
1127.279 .0273945
1127.881 .0274290
1128.484 .0274669
1129.087 .0275082
1129.691 .0275583
1130.295 .0276214
1130.900 .0276993
1131.505 .0277904
1132.111 .0278946
1132.718 .0280098
1133.325 .0281280
1133.933 .0282453
1134.541 .0283598
1135.150 .0284681
1135.760 .0285753
1136.370 .0286814
1136.981 .0287909
1137.592 .0289062
1138.204 .0290289
1138.817 .0291623
1139.431 .0292953
1140.045 .0294320
1140.660 .0295717
1141.275 .0297193
1141.891 .0298789
1142.508 .0298946
1143.126 .0300756
1143.744 .0303026
1144.363 .0306975
1144.983 .0309893
