Measurement Sequence started on: 15-12-46-377
Integration time: 28
Scans to Average: 2 
>>>>>Begin Spectral Data<<<<<
432.689 .0000100
433.621 .0000100
434.552 .0000100
435.482 .0000100
436.410 .0000100
437.337 .0000100
438.262 .0292779
439.187 .0619563
440.110 .1024822
441.031 .1481252
441.952 .1923045
442.871 .2268758
443.789 .2455192
444.705 .2461177
445.621 .2314185
446.535 .2072996
447.447 .1801575
448.359 .1388989
449.269 .1184964
450.178 .1056471
451.086 .0965627
451.993 .0896117
452.898 .0841059
453.803 .0795879
454.706 .0758304
455.608 .0726335
456.508 .0698953
457.408 .0675356
458.306 .0654489
459.204 .0635972
460.100 .0619423
460.995 .0604495
461.888 .0591186
462.781 .0579182
463.673 .0568444
464.563 .0558986
465.452 .0550616
466.340 .0543074
467.228 .0536446
468.114 .0530466
468.999 .0525059
469.882 .0520057
470.765 .0515454
471.647 .0511226
472.528 .0507316
473.407 .0503794
474.286 .0500675
475.163 .0497936
476.040 .0495628
476.915 .0493553
477.790 .0491807
478.663 .0490253
479.535 .0488831
480.407 .0487575
481.277 .0486430
482.147 .0485421
483.015 .0484559
483.883 .0483846
484.749 .0483303
485.615 .0482945
486.479 .0482693
487.343 .0482648
488.206 .0482767
489.067 .0483020
489.928 .0483379
490.788 .0483856
491.647 .0484460
492.505 .0485150
493.362 .0485948
494.218 .0486864
495.073 .0487914
495.928 .0489193
496.781 .0490575
497.634 .0492232
498.486 .0494170
499.337 .0496490
500.187 .0499181
501.036 .0502307
501.884 .0505801
502.731 .0509734
503.578 .0514047
504.424 .0518750
505.268 .0523779
506.113 .0529152
506.956 .0534776
507.798 .0540739
508.640 .0547126
509.480 .0553905
510.320 .0561249
511.160 .0569348
511.998 .0578159
512.836 .0587936
513.672 .0598625
514.508 .0610422
515.344 .0623316
516.178 .0637663
517.012 .0653717
517.845 .0671850
518.677 .0692536
519.508 .0716088
520.339 .0743200
521.169 .0774688
521.998 .0810837
522.826 .0852069
523.654 .0899243
524.481 .0952300
525.307 .1011526
526.133 .1076772
526.958 .1146738
527.782 .1221076
528.605 .1297523
529.428 .1374711
530.250 .1446653
531.072 .1511307
531.892 .1564857
532.712 .1603492
533.532 .1626137
534.350 .1630708
535.168 .1616455
535.986 .1585262
536.802 .1538534
537.618 .1479460
538.434 .1410567
539.249 .1337488
540.063 .1261543
540.876 .1186398
541.689 .1114255
542.501 .1046582
543.313 .0984876
544.124 .0930027
544.934 .0880872
545.744 .0836905
546.553 .0797828
547.361 .0763120
548.169 .0732577
548.976 .0705661
549.783 .0681675
550.589 .0660508
551.395 .0641224
552.200 .0623724
553.004 .0607473
553.808 .0592448
554.611 .0578448
555.414 .0565546
556.216 .0553736
557.018 .0543056
557.819 .0533537
558.619 .0524936
559.419 .0517084
560.218 .0509924
561.017 .0503090
561.815 .0496324
562.613 .0489527
563.410 .0482655
564.207 .0475745
565.003 .0468959
565.799 .0462325
566.594 .0455891
567.388 .0449908
568.182 .0444176
568.976 .0438537
569.769 .0432999
570.562 .0427558
571.354 .0422050
572.145 .0416549
572.936 .0411051
573.727 .0405629
574.517 .0400390
575.307 .0395454
576.096 .0390828
576.885 .0386583
577.673 .0382700
578.461 .0379107
579.248 .0375744
580.035 .0372589
580.821 .0369507
581.607 .0366592
582.392 .0363835
583.177 .0361249
583.962 .0358824
584.746 .0356633
585.529 .0354654
586.313 .0352896
587.095 .0351340
587.878 .0349973
588.660 .0348748
589.441 .0347653
590.222 .0346625
591.003 .0345694
591.783 .0344836
592.563 .0344046
593.342 .0343324
594.121 .0342674
594.899 .0342087
595.678 .0341559
596.455 .0341063
597.233 .0340619
598.009 .0340179
598.786 .0339755
599.562 .0339330
600.338 .0338906
601.113 .0338473
601.888 .0338025
602.663 .0337574
603.437 .0337121
604.211 .0336655
604.984 .0336184
605.757 .0335713
606.530 .0335254
607.302 .0334801
608.074 .0334362
608.845 .0333945
609.616 .0333558
610.387 .0333186
611.158 .0332836
611.928 .0332502
612.697 .0332186
613.467 .0331886
614.236 .0331594
615.004 .0331316
615.773 .0331052
616.541 .0330804
617.308 .0330572
618.076 .0330359
618.843 .0330157
619.609 .0329961
620.375 .0329763
621.141 .0329552
621.907 .0329322
622.672 .0329076
623.437 .0328804
624.202 .0328513
624.966 .0328207
625.730 .0327889
626.493 .0327559
627.257 .0327230
628.020 .0326894
628.782 .0326551
629.545 .0326193
630.307 .0325816
631.068 .0325411
631.830 .0324982
632.591 .0324523
633.352 .0324043
634.112 .0323547
634.872 .0323041
635.632 .0322532
636.392 .0322034
637.151 .0321553
637.910 .0321089
638.668 .0320641
639.427 .0320211
640.185 .0319788
640.943 .0319380
641.700 .0318981
642.457 .0318605
643.214 .0318257
643.971 .0317935
644.727 .0317644
645.483 .0317386
646.239 .0317154
646.994 .0316945
647.750 .0316749
648.505 .0316564
649.259 .0316378
650.014 .0316189
650.768 .0315993
651.521 .0315800
652.275 .0315608
653.028 .0315418
653.781 .0315223
654.534 .0315019
655.286 .0314798
656.039 .0314554
656.791 .0314291
657.542 .0314010
658.294 .0313719
659.045 .0313435
659.796 .0313161
660.546 .0312915
661.297 .0312695
662.047 .0312502
662.796 .0312329
663.546 .0312166
664.295 .0312002
665.044 .0311823
665.793 .0311634
666.542 .0311439
667.290 .0311240
668.038 .0311042
668.786 .0310852
669.533 .0310673
670.281 .0310506
671.028 .0310346
671.774 .0310183
672.521 .0310017
673.267 .0309845
674.013 .0309658
674.759 .0309467
675.505 .0309273
676.250 .0309086
676.995 .0308909
677.740 .0308753
678.484 .0308614
679.229 .0308490
679.973 .0308382
680.717 .0308281
681.460 .0308182
682.204 .0308085
682.947 .0307983
683.690 .0307880
684.433 .0307776
685.175 .0307665
685.917 .0307546
686.659 .0307423
687.401 .0307287
688.142 .0307144
688.884 .0306989
689.625 .0306818
690.365 .0306631
691.106 .0306428
691.846 .0306215
692.586 .0305993
693.326 .0305768
694.066 .0305545
694.805 .0305318
695.545 .0305092
696.284 .0304858
697.022 .0304616
697.761 .0304365
698.499 .0304099
699.237 .0303825
699.975 .0303541
700.713 .0303254
701.450 .0302975
702.187 .0302707
702.924 .0302452
703.661 .0302210
704.397 .0301977
705.133 .0301748
705.869 .0301517
706.605 .0301283
707.341 .0301042
708.076 .0300799
708.811 .0300554
709.546 .0300306
710.281 .0300060
711.015 .0299820
711.749 .0299576
712.483 .0299334
713.217 .0299084
713.950 .0298825
714.684 .0298548
715.417 .0298257
716.150 .0297954
716.882 .0297642
717.615 .0297325
718.347 .0297011
719.079 .0296696
719.811 .0296384
720.542 .0296069
721.273 .0295756
722.005 .0295444
722.735 .0295139
723.466 .0294838
724.196 .0294551
724.927 .0294277
725.656 .0294015
726.386 .0293765
727.116 .0293525
727.845 .0293296
728.574 .0293071
729.303 .0292851
730.031 .0292636
730.760 .0292426
731.488 .0292221
732.216 .0292027
732.944 .0291847
733.671 .0291678
734.398 .0291521
735.125 .0291377
735.852 .0291247
736.579 .0291125
737.305 .0291014
738.031 .0290910
738.757 .0290812
739.483 .0290718
740.208 .0290619
740.933 .0290525
741.658 .0290434
742.383 .0290343
743.108 .0290254
743.832 .0290168
744.556 .0290088
745.280 .0290012
746.004 .0289942
746.727 .0289878
747.450 .0289819
748.173 .0289757
748.896 .0289692
749.618 .0289624
750.340 .0289556
751.062 .0289486
751.784 .0289419
752.506 .0289356
753.227 .0289290
753.948 .0289222
754.669 .0289154
755.389 .0289082
756.110 .0289013
756.830 .0288943
757.550 .0288873
758.269 .0288808
758.989 .0288748
759.708 .0288686
760.427 .0288621
761.146 .0288552
761.864 .0288475
762.582 .0288385
763.300 .0288289
764.018 .0288195
764.736 .0288105
765.453 .0288029
766.170 .0287965
766.887 .0287909
767.603 .0287863
768.320 .0287819
769.036 .0287774
769.751 .0287724
770.467 .0287669
771.182 .0287607
771.897 .0287542
772.612 .0287481
773.327 .0287423
774.041 .0287364
774.755 .0287306
775.469 .0287244
776.183 .0287175
776.896 .0287098
777.609 .0287012
778.322 .0286924
779.035 .0286842
779.747 .0286767
780.459 .0286702
781.171 .0286648
781.882 .0286605
782.594 .0286566
783.305 .0286528
784.016 .0286490
784.726 .0286451
785.436 .0286414
786.147 .0286383
786.856 .0286362
787.566 .0286347
788.275 .0286336
788.984 .0286323
789.693 .0286303
790.401 .0286262
791.110 .0286197
791.818 .0286107
792.525 .0285991
793.233 .0285857
793.940 .0285708
794.647 .0285546
795.353 .0285379
796.060 .0285207
796.766 .0285029
797.472 .0284837
798.177 .0284631
798.883 .0284407
799.588 .0284168
800.292 .0283917
800.997 .0283659
801.701 .0283395
802.405 .0283136
803.109 .0282882
803.812 .0282634
804.515 .0282391
805.218 .0282148
805.921 .0281901
806.623 .0281650
807.325 .0281393
808.027 .0281126
808.728 .0280850
809.429 .0280570
810.130 .0280282
810.831 .0279989
811.531 .0279687
812.231 .0279377
812.931 .0279060
813.630 .0278736
814.330 .0278408
815.029 .0278078
815.727 .0277748
816.426 .0277420
817.124 .0277095
817.821 .0276774
818.519 .0276456
819.216 .0276148
819.913 .0275851
820.609 .0275567
821.306 .0275299
822.002 .0275058
822.697 .0274844
823.393 .0274666
824.088 .0274518
824.783 .0274395
825.477 .0274291
826.171 .0274202
826.865 .0274119
827.559 .0274043
828.252 .0273971
828.945 .0273903
829.638 .0273839
830.330 .0273785
831.023 .0273737
831.714 .0273698
832.406 .0273664
833.097 .0273631
833.788 .0273591
834.479 .0273543
835.169 .0273482
835.859 .0273417
836.548 .0273348
837.238 .0273279
837.927 .0273208
838.615 .0273138
839.304 .0273070
839.992 .0273002
840.680 .0272935
841.367 .0272871
842.054 .0272809
842.741 .0272749
843.428 .0272696
844.114 .0272646
844.800 .0272605
845.485 .0272566
846.170 .0272525
846.855 .0272479
847.540 .0272422
848.224 .0272355
848.908 .0272285
849.592 .0272212
850.275 .0272141
850.958 .0272070
851.641 .0272007
852.323 .0271946
853.005 .0271888
853.687 .0271822
854.368 .0271750
855.049 .0271666
855.730 .0271573
856.410 .0271465
857.090 .0271351
857.769 .0271234
858.449 .0271119
859.128 .0271012
859.806 .0270915
860.485 .0270826
861.163 .0270752
861.840 .0270689
862.518 .0270631
863.195 .0270578
863.871 .0270525
864.548 .0270471
865.224 .0270422
865.899 .0270376
866.574 .0270336
867.249 .0270309
867.924 .0270299
868.598 .0270306
869.272 .0270332
869.946 .0270373
870.619 .0270420
871.292 .0270478
871.964 .0270540
872.636 .0270600
873.308 .0270659
873.979 .0270721
874.651 .0270784
875.321 .0270852
875.992 .0270925
876.662 .0271001
877.331 .0271085
878.001 .0271165
878.670 .0271239
879.338 .0271301
880.007 .0271355
880.675 .0271399
881.342 .0271434
882.009 .0271464
882.676 .0271490
883.343 .0271510
884.009 .0271529
884.675 .0271543
885.340 .0271554
886.005 .0271559
886.670 .0271563
887.334 .0271565
887.998 .0271572
888.662 .0271581
889.325 .0271595
889.988 .0271615
890.650 .0271646
891.312 .0271676
891.974 .0271711
892.636 .0271750
893.297 .0271795
893.957 .0271846
894.618 .0271901
895.278 .0271957
895.937 .0272017
896.596 .0272081
897.255 .0272139
897.914 .0272191
898.572 .0272239
899.230 .0272271
899.887 .0272291
900.544 .0272298
901.201 .0272291
901.857 .0272270
902.513 .0272236
903.168 .0272181
903.823 .0272105
904.478 .0272010
905.132 .0271888
905.786 .0271740
906.440 .0271571
907.093 .0271374
907.746 .0271151
908.399 .0270912
909.051 .0270657
909.703 .0270385
910.354 .0270107
911.005 .0269821
911.656 .0269530
912.306 .0269239
912.956 .0268947
913.605 .0268656
914.254 .0268370
914.903 .0268087
915.551 .0267798
916.199 .0267515
916.847 .0267235
917.494 .0266954
918.141 .0266676
918.788 .0266403
919.434 .0266131
920.079 .0265858
920.725 .0265590
921.370 .0265319
922.014 .0265048
922.658 .0264779
923.302 .0264500
923.946 .0264218
924.589 .0263928
925.231 .0263628
925.873 .0263320
926.515 .0263005
927.157 .0262680
927.798 .0262343
928.439 .0262003
929.079 .0261659
929.719 .0261308
930.359 .0260957
930.998 .0260601
931.637 .0260237
932.275 .0259868
932.913 .0259490
933.551 .0259104
934.188 .0258715
934.825 .0258323
935.462 .0257931
936.098 .0257549
936.733 .0257182
937.369 .0256833
938.004 .0256505
938.638 .0256201
939.273 .0255919
939.907 .0255655
940.540 .0255416
941.173 .0255197
941.806 .0255001
942.438 .0254827
943.070 .0254666
943.702 .0254519
944.333 .0254376
944.964 .0254240
945.594 .0254105
946.224 .0253972
946.854 .0253842
947.483 .0253712
948.112 .0253583
948.741 .0253458
949.369 .0253331
949.996 .0253204
950.624 .0253070
951.251 .0252924
951.878 .0252764
952.504 .0252592
953.130 .0252406
953.755 .0252212
954.380 .0252010
955.005 .0251807
955.629 .0251603
956.253 .0251403
956.877 .0251207
957.500 .0251016
958.123 .0250833
958.746 .0250651
959.368 .0250468
959.990 .0250290
960.611 .0250108
961.232 .0249930
961.853 .0249757
962.473 .0249594
963.093 .0249437
963.712 .0249287
964.331 .0249153
964.950 .0249031
965.569 .0248924
966.187 .0248831
966.804 .0248750
967.422 .0248687
968.039 .0248634
968.655 .0248591
969.272 .0248554
969.887 .0248522
970.503 .0248490
971.118 .0248455
971.733 .0248416
972.347 .0248373
972.961 .0248327
973.575 .0248281
974.188 .0248237
974.801 .0248194
975.414 .0248152
976.026 .0248113
976.638 .0248075
977.250 .0248034
977.861 .0247986
978.472 .0247931
979.083 .0247864
979.693 .0247794
980.303 .0247714
980.912 .0247626
981.521 .0247537
982.130 .0247447
982.738 .0247358
983.346 .0247269
983.954 .0247185
984.562 .0247108
985.169 .0247035
985.775 .0246971
986.382 .0246912
986.988 .0246866
987.594 .0246829
988.199 .0246803
988.804 .0246790
989.409 .0246784
990.013 .0246787
990.617 .0246794
991.221 .0246807
991.824 .0246832
992.427 .0246870
993.030 .0246923
993.632 .0246994
994.234 .0247087
994.836 .0247196
995.438 .0247311
996.039 .0247434
996.640 .0247557
997.240 .0247668
997.840 .0247773
998.440 .0247870
999.040 .0247960
999.639 .0248054
1000.238 .0248155
1000.836 .0248265
1001.435 .0248390
1002.033 .0248523
1002.630 .0248657
1003.228 .0248791
1003.825 .0248925
1004.422 .0249050
1005.018 .0249173
1005.614 .0249300
1006.210 .0249426
1006.806 .0249561
1007.401 .0249708
1007.996 .0249860
1008.591 .0250021
1009.186 .0250186
1009.780 .0250353
1010.374 .0250519
1010.967 .0250686
1011.561 .0250855
1012.154 .0251033
1012.746 .0251218
1013.339 .0251405
1013.931 .0251589
1014.523 .0251767
1015.115 .0251930
1015.706 .0252079
1016.298 .0252213
1016.888 .0252335
1017.479 .0252454
1018.069 .0252580
1018.660 .0252710
1019.250 .0252852
1019.839 .0253003
1020.429 .0253162
1021.018 .0253321
1021.607 .0253478
1022.195 .0253628
1022.784 .0253779
1023.372 .0253937
1023.960 .0254105
1024.547 .0254287
1025.135 .0254492
1025.722 .0254717
1026.309 .0254961
1026.896 .0255213
1027.483 .0255474
1028.069 .0255729
1028.655 .0255976
1029.241 .0256208
1029.827 .0256428
1030.412 .0256631
1030.997 .0256828
1031.582 .0257018
1032.167 .0257202
1032.752 .0257385
1033.336 .0257573
1033.921 .0257760
1034.505 .0257947
1035.089 .0258121
1035.672 .0258279
1036.256 .0258409
1036.839 .0258514
1037.422 .0258590
1038.005 .0258647
1038.588 .0258690
1039.171 .0258729
1039.753 .0258774
1040.335 .0258835
1040.918 .0258910
1041.500 .0259000
1042.081 .0259096
1042.663 .0259194
1043.244 .0259283
1043.826 .0259355
1044.407 .0259407
1044.988 .0259454
1045.569 .0259490
1046.150 .0259528
1046.730 .0259576
1047.311 .0259631
1047.891 .0259691
1048.471 .0259758
1049.052 .0259822
1049.632 .0259869
1050.211 .0259900
1050.791 .0259906
1051.371 .0259881
1051.950 .0259830
1052.530 .0259749
1053.109 .0259649
1053.688 .0259543
1054.268 .0259431
1054.847 .0259317
1055.426 .0259211
1056.005 .0259126
1056.583 .0259049
1057.162 .0258987
1057.741 .0258928
1058.319 .0258881
1058.898 .0258838
1059.476 .0258798
1060.055 .0258764
1060.633 .0258749
1061.211 .0258748
1061.790 .0258772
1062.368 .0258818
1062.946 .0258886
1063.524 .0258961
1064.102 .0259048
1064.680 .0259120
1065.258 .0259182
1065.836 .0259210
1066.414 .0259211
1066.992 .0259181
1067.570 .0259136
1068.148 .0259055
1068.726 .0258965
1069.304 .0258879
1069.882 .0258793
1070.460 .0258701
1071.038 .0258610
1071.616 .0258507
1072.194 .0258401
1072.772 .0258272
1073.350 .0258140
1073.928 .0258011
1074.506 .0257906
1075.084 .0257805
1075.662 .0257724
1076.240 .0257661
1076.819 .0257615
1077.397 .0257569
1077.976 .0257541
1078.554 .0257515
1079.133 .0257494
1079.711 .0257475
1080.290 .0257469
1080.869 .0257474
1081.448 .0257487
1082.027 .0257490
1082.606 .0257489
1083.185 .0257472
1083.764 .0257435
1084.343 .0257376
1084.923 .0257304
1085.502 .0257232
1086.082 .0257151
1086.662 .0257051
1087.242 .0256931
1087.822 .0256787
1088.402 .0256609
1088.983 .0256395
1089.563 .0256145
1090.144 .0255875
1090.725 .0255594
1091.306 .0255334
1091.887 .0255101
1092.469 .0254912
1093.050 .0254764
1093.632 .0254650
1094.214 .0254549
1094.796 .0254468
1095.379 .0254394
1095.961 .0254358
1096.544 .0254362
1097.127 .0254433
1097.710 .0254568
1098.294 .0254773
1098.877 .0255021
1099.461 .0255304
1100.046 .0255583
1100.630 .0255833
1101.215 .0256011
1101.800 .0256135
1102.385 .0256187
1102.970 .0256184
1103.556 .0256154
1104.142 .0256113
1104.728 .0256059
1105.315 .0256010
1105.902 .0255972
1106.489 .0255932
1107.077 .0255902
1107.664 .0255901
1108.253 .0255895
1108.841 .0255907
1109.430 .0255934
1110.019 .0255936
1110.609 .0255945
1111.198 .0255962
1111.789 .0255976
1112.379 .0255997
1112.970 .0256056
1113.561 .0256161
1114.153 .0256332
1114.745 .0256585
1115.338 .0256909
1115.931 .0257246
1116.524 .0257599
1117.117 .0257942
1117.712 .0258238
1118.306 .0258513
1118.901 .0258776
1119.496 .0259039
1120.092 .0259347
1120.689 .0259704
1121.285 .0260140
1121.882 .0260644
1122.480 .0261232
1123.078 .0261864
1123.677 .0262482
1124.276 .0263107
1124.875 .0263716
1125.476 .0264273
1126.076 .0264800
1126.677 .0265297
1127.279 .0265724
1127.881 .0266147
1128.484 .0266588
1129.087 .0267052
1129.691 .0267567
1130.295 .0268175
1130.900 .0268858
1131.505 .0269604
1132.111 .0270404
1132.718 .0271253
1133.325 .0272155
1133.933 .0273134
1134.541 .0274110
1135.150 .0275111
1135.760 .0276174
1136.370 .0277299
1136.981 .0278494
1137.592 .0279762
1138.204 .0281028
1138.817 .0282344
1139.431 .0283684
1140.045 .0285064
1140.660 .0286386
1141.275 .0287800
1141.891 .0289249
1142.508 .0290819
1143.126 .0293519
1143.744 .0291854
1144.363 .0295938
1144.983 .0297238
