Measurement Sequence started on: 15-12-46-377
Integration time: 28
Scans to Average: 2 
>>>>>Begin Spectral Data<<<<<
432.689 .0000100
433.621 .0000100
434.552 .0000100
435.482 .0000100
436.410 .0000100
437.337 .0000100
438.262 .0244219
439.187 .0517849
440.110 .0857338
441.031 .1239920
441.952 .1611274
442.871 .1903310
443.789 .2062817
444.705 .2071879
445.621 .1952980
446.535 .1754965
447.447 .1530775
448.359 .1187820
449.269 .1017423
450.178 .0909916
451.086 .0833580
451.993 .0774756
452.898 .0728031
453.803 .0690035
454.706 .0658776
455.608 .0632620
456.508 .0610488
457.408 .0591733
458.306 .0575274
459.204 .0560688
460.100 .0547607
460.995 .0535836
461.888 .0525100
462.781 .0515401
463.673 .0506499
464.563 .0498342
465.452 .0490825
466.340 .0483875
467.228 .0477604
468.114 .0471818
468.999 .0466488
469.882 .0461553
470.765 .0457082
471.647 .0453078
472.528 .0449481
473.407 .0446352
474.286 .0443635
475.163 .0441237
476.040 .0439174
476.915 .0437296
477.790 .0435628
478.663 .0434136
479.535 .0432803
480.407 .0431638
481.277 .0430616
482.147 .0429662
483.015 .0428878
483.883 .0428181
484.749 .0427546
485.615 .0426915
486.479 .0426309
487.343 .0425800
488.206 .0425375
489.067 .0425073
489.928 .0424891
490.788 .0424891
491.647 .0425176
492.505 .0425679
493.362 .0426468
494.218 .0427545
495.073 .0428904
495.928 .0430574
496.781 .0432481
497.634 .0434600
498.486 .0436924
499.337 .0439440
500.187 .0442159
501.036 .0445111
501.884 .0448238
502.731 .0451615
503.578 .0455247
504.424 .0459189
505.268 .0463356
506.113 .0467779
506.956 .0472443
507.798 .0477442
508.640 .0482781
509.480 .0488575
510.320 .0495044
511.160 .0502440
511.998 .0510798
512.836 .0520344
513.672 .0531125
514.508 .0543139
515.344 .0556278
516.178 .0570931
517.012 .0586885
517.845 .0604701
518.677 .0624431
519.508 .0646319
520.339 .0670603
521.169 .0698202
521.998 .0728895
522.826 .0763339
523.654 .0802100
524.481 .0844924
525.307 .0891998
526.133 .0943890
526.958 .0999475
527.782 .1058662
528.605 .1120027
529.428 .1182734
530.250 .1241573
531.072 .1295774
531.892 .1341456
532.712 .1376312
533.532 .1399219
534.350 .1408004
535.168 .1401442
535.986 .1381152
536.802 .1347727
537.618 .1303174
538.434 .1249369
539.249 .1190787
540.063 .1128279
540.876 .1065614
541.689 .1004157
542.501 .0945788
543.313 .0891842
544.124 .0843054
544.934 .0798477
545.744 .0757985
546.553 .0721503
547.361 .0688779
548.169 .0659736
548.976 .0634185
549.783 .0611584
550.589 .0592114
551.395 .0574775
552.200 .0559450
553.004 .0545543
553.808 .0532710
554.611 .0521007
555.414 .0510203
556.216 .0500159
557.018 .0491032
557.819 .0482684
558.619 .0474972
559.419 .0467776
560.218 .0461013
561.017 .0454499
561.815 .0448077
562.613 .0441607
563.410 .0434986
564.207 .0428259
565.003 .0421658
565.799 .0415131
566.594 .0408788
567.388 .0402876
568.182 .0397246
568.976 .0391940
569.769 .0386905
570.562 .0382119
571.354 .0377532
572.145 .0373104
572.936 .0368829
573.727 .0364664
574.517 .0360649
575.307 .0356860
576.096 .0353310
576.885 .0350041
577.673 .0347038
578.461 .0344255
579.248 .0341655
580.035 .0339207
580.821 .0336818
581.607 .0334509
582.392 .0332273
583.177 .0330110
583.962 .0328026
584.746 .0326086
585.529 .0324320
586.313 .0322715
587.095 .0321298
587.878 .0320048
588.660 .0318928
589.441 .0317924
590.222 .0317004
591.003 .0316162
591.783 .0315396
592.563 .0314704
593.342 .0314081
594.121 .0313509
594.899 .0313005
595.678 .0312543
596.455 .0312127
597.233 .0311752
598.009 .0311393
598.786 .0311041
599.562 .0310698
600.338 .0310361
601.113 .0310025
601.888 .0309700
602.663 .0309384
603.437 .0309073
604.211 .0308763
604.984 .0308452
605.757 .0308141
606.530 .0307834
607.302 .0307536
608.074 .0307229
608.845 .0306923
609.616 .0306620
610.387 .0306315
611.158 .0306016
611.928 .0305714
612.697 .0305414
613.467 .0305104
614.236 .0304780
615.004 .0304445
615.773 .0304099
616.541 .0303752
617.308 .0303405
618.076 .0303067
618.843 .0302742
619.609 .0302432
620.375 .0302142
621.141 .0301868
621.907 .0301613
622.672 .0301364
623.437 .0301122
624.202 .0300878
624.966 .0300639
625.730 .0300402
626.493 .0300172
627.257 .0299953
628.020 .0299745
628.782 .0299544
629.545 .0299350
630.307 .0299153
631.068 .0298963
631.830 .0298765
632.591 .0298562
633.352 .0298358
634.112 .0298151
634.872 .0297943
635.632 .0297743
636.392 .0297549
637.151 .0297367
637.910 .0297202
638.668 .0297055
639.427 .0296918
640.185 .0296799
640.943 .0296692
641.700 .0296591
642.457 .0296504
643.214 .0296423
643.971 .0296333
644.727 .0296246
645.483 .0296161
646.239 .0296072
646.994 .0295991
647.750 .0295918
648.505 .0295852
649.259 .0295798
650.014 .0295749
650.768 .0295698
651.521 .0295643
652.275 .0295589
653.028 .0295527
653.781 .0295447
654.534 .0295358
655.286 .0295253
656.039 .0295135
656.791 .0295010
657.542 .0294864
658.294 .0294698
659.045 .0294517
659.796 .0294314
660.546 .0294091
661.297 .0293842
662.047 .0293580
662.796 .0293296
663.546 .0293000
664.295 .0292694
665.044 .0292383
665.793 .0292081
666.542 .0291802
667.290 .0291537
668.038 .0291294
668.786 .0291070
669.533 .0290861
670.281 .0290661
671.028 .0290468
671.774 .0290272
672.521 .0290080
673.267 .0289886
674.013 .0289701
674.759 .0289517
675.505 .0289347
676.250 .0289182
676.995 .0289022
677.740 .0288863
678.484 .0288694
679.229 .0288514
679.973 .0288323
680.717 .0288114
681.460 .0287891
682.204 .0287657
682.947 .0287425
683.690 .0287194
684.433 .0286972
685.175 .0286758
685.917 .0286557
686.659 .0286363
687.401 .0286178
688.142 .0285997
688.884 .0285822
689.625 .0285652
690.365 .0285478
691.106 .0285295
691.846 .0285110
692.586 .0284918
693.326 .0284722
694.066 .0284525
694.805 .0284334
695.545 .0284140
696.284 .0283950
697.022 .0283765
697.761 .0283581
698.499 .0283398
699.237 .0283215
699.975 .0283027
700.713 .0282837
701.450 .0282650
702.187 .0282465
702.924 .0282288
703.661 .0282129
704.397 .0281982
705.133 .0281854
705.869 .0281750
706.605 .0281668
707.341 .0281609
708.076 .0281572
708.811 .0281553
709.546 .0281543
710.281 .0281542
711.015 .0281541
711.749 .0281533
712.483 .0281523
713.217 .0281503
713.950 .0281471
714.684 .0281427
715.417 .0281371
716.150 .0281302
716.882 .0281220
717.615 .0281125
718.347 .0281019
719.079 .0280905
719.811 .0280781
720.542 .0280651
721.273 .0280514
722.005 .0280372
722.735 .0280229
723.466 .0280081
724.196 .0279932
724.927 .0279777
725.656 .0279620
726.386 .0279461
727.116 .0279299
727.845 .0279138
728.574 .0278976
729.303 .0278815
730.031 .0278651
730.760 .0278483
731.488 .0278306
732.216 .0278118
732.944 .0277925
733.671 .0277726
734.398 .0277523
735.125 .0277315
735.852 .0277111
736.579 .0276913
737.305 .0276727
738.031 .0276549
738.757 .0276383
739.483 .0276227
740.208 .0276077
740.933 .0275931
741.658 .0275790
742.383 .0275651
743.108 .0275514
743.832 .0275375
744.556 .0275230
745.280 .0275075
746.004 .0274911
746.727 .0274730
747.450 .0274539
748.173 .0274330
748.896 .0274102
749.618 .0273860
750.340 .0273606
751.062 .0273344
751.784 .0273078
752.506 .0272811
753.227 .0272547
753.948 .0272282
754.669 .0272025
755.389 .0271770
756.110 .0271518
756.830 .0271275
757.550 .0271038
758.269 .0270812
758.989 .0270598
759.708 .0270396
760.427 .0270209
761.146 .0270037
761.864 .0269877
762.582 .0269721
763.300 .0269566
764.018 .0269410
764.736 .0269245
765.453 .0269073
766.170 .0268894
766.887 .0268708
767.603 .0268522
768.320 .0268341
769.036 .0268164
769.751 .0267995
770.467 .0267834
771.182 .0267682
771.897 .0267532
772.612 .0267383
773.327 .0267235
774.041 .0267092
774.755 .0266958
775.469 .0266840
776.183 .0266745
776.896 .0266677
777.609 .0266637
778.322 .0266624
779.035 .0266631
779.747 .0266654
780.459 .0266680
781.171 .0266703
781.882 .0266717
782.594 .0266718
783.305 .0266705
784.016 .0266684
784.726 .0266662
785.436 .0266640
786.147 .0266621
786.856 .0266603
787.566 .0266587
788.275 .0266568
788.984 .0266547
789.693 .0266520
790.401 .0266489
791.110 .0266454
791.818 .0266420
792.525 .0266396
793.233 .0266386
793.940 .0266395
794.647 .0266421
795.353 .0266466
796.060 .0266526
796.766 .0266588
797.472 .0266649
798.177 .0266705
798.883 .0266754
799.588 .0266785
800.292 .0266801
800.997 .0266798
801.701 .0266775
802.405 .0266735
803.109 .0266678
803.812 .0266604
804.515 .0266512
805.218 .0266407
805.921 .0266283
806.623 .0266148
807.325 .0266007
808.027 .0265862
808.728 .0265723
809.429 .0265589
810.130 .0265460
810.831 .0265339
811.531 .0265227
812.231 .0265120
812.931 .0265012
813.630 .0264907
814.330 .0264796
815.029 .0264679
815.727 .0264550
816.426 .0264412
817.124 .0264262
817.821 .0264099
818.519 .0263922
819.216 .0263734
819.913 .0263537
820.609 .0263329
821.306 .0263112
822.002 .0262894
822.697 .0262673
823.393 .0262454
824.088 .0262236
824.783 .0262024
825.477 .0261817
826.171 .0261614
826.865 .0261418
827.559 .0261231
828.252 .0261054
828.945 .0260884
829.638 .0260723
830.330 .0260573
831.023 .0260426
831.714 .0260282
832.406 .0260142
833.097 .0259998
833.788 .0259843
834.479 .0259677
835.169 .0259496
835.859 .0259309
836.548 .0259119
837.238 .0258929
837.927 .0258744
838.615 .0258564
839.304 .0258389
839.992 .0258216
840.680 .0258041
841.367 .0257862
842.054 .0257672
842.741 .0257469
843.428 .0257252
844.114 .0257026
844.800 .0256796
845.485 .0256561
846.170 .0256325
846.855 .0256087
847.540 .0255842
848.224 .0255589
848.908 .0255329
849.592 .0255061
850.275 .0254788
850.958 .0254509
851.641 .0254227
852.323 .0253954
853.005 .0253696
853.687 .0253456
854.368 .0253239
855.049 .0253045
855.730 .0252868
856.410 .0252707
857.090 .0252557
857.769 .0252415
858.449 .0252282
859.128 .0252154
859.806 .0252030
860.485 .0251912
861.163 .0251801
861.840 .0251698
862.518 .0251603
863.195 .0251511
863.871 .0251417
864.548 .0251316
865.224 .0251208
865.899 .0251093
866.574 .0250975
867.249 .0250854
867.924 .0250737
868.598 .0250627
869.272 .0250527
869.946 .0250438
870.619 .0250362
871.292 .0250297
871.964 .0250241
872.636 .0250191
873.308 .0250144
873.979 .0250104
874.651 .0250074
875.321 .0250052
875.992 .0250045
876.662 .0250054
877.331 .0250077
878.001 .0250112
878.670 .0250157
879.338 .0250210
880.007 .0250274
880.675 .0250344
881.342 .0250420
882.009 .0250502
882.676 .0250591
883.343 .0250684
884.009 .0250780
884.675 .0250876
885.340 .0250970
886.005 .0251061
886.670 .0251151
887.334 .0251233
887.998 .0251309
888.662 .0251381
889.325 .0251447
889.988 .0251512
890.650 .0251572
891.312 .0251628
891.974 .0251683
892.636 .0251740
893.297 .0251798
893.957 .0251859
894.618 .0251922
895.278 .0251990
895.937 .0252059
896.596 .0252133
897.255 .0252201
897.914 .0252270
898.572 .0252337
899.230 .0252402
899.887 .0252461
900.544 .0252513
901.201 .0252560
901.857 .0252603
902.513 .0252641
903.168 .0252677
903.823 .0252705
904.478 .0252728
905.132 .0252738
905.786 .0252738
906.440 .0252727
907.093 .0252701
907.746 .0252661
908.399 .0252610
909.051 .0252547
909.703 .0252474
910.354 .0252392
911.005 .0252308
911.656 .0252222
912.306 .0252129
912.956 .0252026
913.605 .0251909
914.254 .0251780
914.903 .0251638
915.551 .0251481
916.199 .0251316
916.847 .0251145
917.494 .0250970
918.141 .0250800
918.788 .0250637
919.434 .0250484
920.079 .0250335
920.725 .0250187
921.370 .0250039
922.014 .0249883
922.658 .0249720
923.302 .0249550
923.946 .0249372
924.589 .0249186
925.231 .0248989
925.873 .0248786
926.515 .0248581
927.157 .0248376
927.798 .0248171
928.439 .0247965
929.079 .0247760
929.719 .0247553
930.359 .0247343
930.998 .0247130
931.637 .0246914
932.275 .0246693
932.913 .0246463
933.551 .0246224
934.188 .0245981
934.825 .0245737
935.462 .0245494
936.098 .0245250
936.733 .0245004
937.369 .0244755
938.004 .0244498
938.638 .0244228
939.273 .0243946
939.907 .0243649
940.540 .0243340
941.173 .0243018
941.806 .0242692
942.438 .0242366
943.070 .0242041
943.702 .0241722
944.333 .0241409
944.964 .0241102
945.594 .0240801
946.224 .0240511
946.854 .0240236
947.483 .0239977
948.112 .0239734
948.741 .0239505
949.369 .0239297
949.996 .0239100
950.624 .0238913
951.251 .0238730
951.878 .0238555
952.504 .0238381
953.130 .0238205
953.755 .0238034
954.380 .0237869
955.005 .0237707
955.629 .0237544
956.253 .0237376
956.877 .0237204
957.500 .0237017
958.123 .0236818
958.746 .0236604
959.368 .0236380
959.990 .0236142
960.611 .0235902
961.232 .0235664
961.853 .0235437
962.473 .0235218
963.093 .0235011
963.712 .0234815
964.331 .0234626
964.950 .0234438
965.569 .0234255
966.187 .0234079
966.804 .0233915
967.422 .0233758
968.039 .0233615
968.655 .0233485
969.272 .0233367
969.887 .0233255
970.503 .0233149
971.118 .0233046
971.733 .0232943
972.347 .0232832
972.961 .0232716
973.575 .0232600
974.188 .0232483
974.801 .0232359
975.414 .0232241
976.026 .0232123
976.638 .0232006
977.250 .0231892
977.861 .0231784
978.472 .0231678
979.083 .0231574
979.693 .0231475
980.303 .0231378
980.912 .0231286
981.521 .0231199
982.130 .0231115
982.738 .0231042
983.346 .0230979
983.954 .0230921
984.562 .0230872
985.169 .0230831
985.775 .0230792
986.382 .0230750
986.988 .0230707
987.594 .0230664
988.199 .0230619
988.804 .0230576
989.409 .0230539
990.013 .0230512
990.617 .0230497
991.221 .0230493
991.824 .0230503
992.427 .0230526
993.030 .0230557
993.632 .0230596
994.234 .0230645
994.836 .0230707
995.438 .0230777
996.039 .0230860
996.640 .0230954
997.240 .0231058
997.840 .0231167
998.440 .0231279
999.040 .0231395
999.639 .0231510
1000.238 .0231621
1000.836 .0231728
1001.435 .0231830
1002.033 .0231926
1002.630 .0232014
1003.228 .0232096
1003.825 .0232173
1004.422 .0232245
1005.018 .0232315
1005.614 .0232390
1006.210 .0232473
1006.806 .0232566
1007.401 .0232666
1007.996 .0232773
1008.591 .0232893
1009.186 .0233023
1009.780 .0233166
1010.374 .0233322
1010.967 .0233491
1011.561 .0233671
1012.154 .0233862
1012.746 .0234062
1013.339 .0234267
1013.931 .0234467
1014.523 .0234670
1015.115 .0234861
1015.706 .0235044
1016.298 .0235220
1016.888 .0235398
1017.479 .0235581
1018.069 .0235773
1018.660 .0235965
1019.250 .0236165
1019.839 .0236369
1020.429 .0236572
1021.018 .0236762
1021.607 .0236947
1022.195 .0237123
1022.784 .0237290
1023.372 .0237452
1023.960 .0237618
1024.547 .0237789
1025.135 .0237972
1025.722 .0238158
1026.309 .0238345
1026.896 .0238527
1027.483 .0238700
1028.069 .0238861
1028.655 .0239011
1029.241 .0239147
1029.827 .0239272
1030.412 .0239397
1030.997 .0239532
1031.582 .0239677
1032.167 .0239836
1032.752 .0240012
1033.336 .0240207
1033.921 .0240413
1034.505 .0240615
1035.089 .0240808
1035.672 .0240990
1036.256 .0241152
1036.839 .0241290
1037.422 .0241407
1038.005 .0241511
1038.588 .0241613
1039.171 .0241711
1039.753 .0241813
1040.335 .0241918
1040.918 .0242028
1041.500 .0242127
1042.081 .0242213
1042.663 .0242278
1043.244 .0242316
1043.826 .0242326
1044.407 .0242319
1044.988 .0242299
1045.569 .0242278
1046.150 .0242258
1046.730 .0242244
1047.311 .0242233
1047.891 .0242222
1048.471 .0242196
1049.052 .0242157
1049.632 .0242101
1050.211 .0242035
1050.791 .0241954
1051.371 .0241876
1051.950 .0241810
1052.530 .0241763
1053.109 .0241738
1053.688 .0241731
1054.268 .0241731
1054.847 .0241733
1055.426 .0241730
1056.005 .0241726
1056.583 .0241723
1057.162 .0241722
1057.741 .0241729
1058.319 .0241755
1058.898 .0241790
1059.476 .0241821
1060.055 .0241838
1060.633 .0241832
1061.211 .0241791
1061.790 .0241711
1062.368 .0241592
1062.946 .0241450
1063.524 .0241304
1064.102 .0241165
1064.680 .0241045
1065.258 .0240947
1065.836 .0240876
1066.414 .0240811
1066.992 .0240758
1067.570 .0240698
1068.148 .0240628
1068.726 .0240555
1069.304 .0240488
1069.882 .0240426
1070.460 .0240375
1071.038 .0240337
1071.616 .0240324
1072.194 .0240332
1072.772 .0240341
1073.350 .0240347
1073.928 .0240355
1074.506 .0240351
1075.084 .0240330
1075.662 .0240288
1076.240 .0240241
1076.819 .0240179
1077.397 .0240115
1077.976 .0240036
1078.554 .0239950
1079.133 .0239865
1079.711 .0239776
1080.290 .0239683
1080.869 .0239591
1081.448 .0239484
1082.027 .0239358
1082.606 .0239234
1083.185 .0239109
1083.764 .0238976
1084.343 .0238852
1084.923 .0238742
1085.502 .0238658
1086.082 .0238578
1086.662 .0238519
1087.242 .0238467
1087.822 .0238419
1088.402 .0238361
1088.983 .0238284
1089.563 .0238197
1090.144 .0238124
1090.725 .0238058
1091.306 .0238013
1091.887 .0237999
1092.469 .0238022
1093.050 .0238070
1093.632 .0238126
1094.214 .0238187
1094.796 .0238227
1095.379 .0238234
1095.961 .0238228
1096.544 .0238206
1097.127 .0238199
1097.710 .0238212
1098.294 .0238258
1098.877 .0238341
1099.461 .0238444
1100.046 .0238563
1100.630 .0238668
1101.215 .0238746
1101.800 .0238772
1102.385 .0238735
1102.970 .0238643
1103.556 .0238506
1104.142 .0238337
1104.728 .0238165
1105.315 .0237996
1105.902 .0237860
1106.489 .0237746
1107.077 .0237649
1107.664 .0237591
1108.253 .0237559
1108.841 .0237539
1109.430 .0237538
1110.019 .0237530
1110.609 .0237531
1111.198 .0237525
1111.789 .0237532
1112.379 .0237546
1112.970 .0237583
1113.561 .0237679
1114.153 .0237826
1114.745 .0238030
1115.338 .0238327
1115.931 .0238671
1116.524 .0239069
1117.117 .0239475
1117.712 .0239866
1118.306 .0240208
1118.901 .0240521
1119.496 .0240789
1120.092 .0241050
1120.689 .0241306
1121.285 .0241607
1121.882 .0241951
1122.480 .0242404
1123.078 .0242946
1123.677 .0243550
1124.276 .0244181
1124.875 .0244847
1125.476 .0245448
1126.076 .0246005
1126.677 .0246466
1127.279 .0246881
1127.881 .0247262
1128.484 .0247642
1129.087 .0248013
1129.691 .0248472
1130.295 .0248988
1130.900 .0249606
1131.505 .0250284
1132.111 .0251058
1132.718 .0251843
1133.325 .0252659
1133.933 .0253489
1134.541 .0254324
1135.150 .0255127
1135.760 .0255930
1136.370 .0256703
1136.981 .0257542
1137.592 .0258401
1138.204 .0259304
1138.817 .0260287
1139.431 .0261397
1140.045 .0262491
1140.660 .0263519
1141.275 .0264553
1141.891 .0265944
1142.508 .0268022
1143.126 .0267010
1143.744 .0266255
1144.363 .0269561
1144.983 .0281152
