Measurement Sequence started on: 15-12-46-377
Integration time: 28
Scans to Average: 2 
>>>>>Begin Spectral Data<<<<<
432.689 .0000100
433.621 .0000100
434.552 .0000100
435.482 .0000100
436.410 .0000100
437.337 .0000100
438.262 .0260000
439.187 .0551732
440.110 .0913561
441.031 .1321388
441.952 .1718039
442.871 .2030173
443.789 .2201376
444.705 .2212456
445.621 .2087499
446.535 .1878550
447.447 .1642331
448.359 .1280084
449.269 .1101716
450.178 .0990727
451.086 .0913055
451.993 .0853285
452.898 .0806272
453.803 .0767727
454.706 .0735404
455.608 .0707520
456.508 .0683141
457.408 .0661600
458.306 .0642358
459.204 .0624941
460.100 .0609185
460.995 .0594774
461.888 .0581599
462.781 .0569640
463.673 .0558689
464.563 .0548861
465.452 .0539878
466.340 .0531590
467.228 .0524071
468.114 .0517124
468.999 .0510708
469.882 .0504661
470.765 .0499055
471.647 .0493914
472.528 .0489077
473.407 .0484658
474.286 .0480559
475.163 .0476846
476.040 .0473528
476.915 .0470532
477.790 .0467784
478.663 .0465330
479.535 .0463084
480.407 .0461036
481.277 .0459257
482.147 .0457776
483.015 .0456531
483.883 .0455640
484.749 .0455030
485.615 .0454719
486.479 .0454590
487.343 .0454752
488.206 .0455075
489.067 .0455628
489.928 .0456392
490.788 .0457277
491.647 .0458298
492.505 .0459489
493.362 .0460739
494.218 .0462094
495.073 .0463527
495.928 .0465013
496.781 .0466476
497.634 .0468047
498.486 .0469624
499.337 .0471293
500.187 .0473141
501.036 .0475252
501.884 .0477597
502.731 .0480298
503.578 .0483357
504.424 .0486645
505.268 .0490283
506.113 .0494197
506.956 .0498411
507.798 .0503123
508.640 .0508338
509.480 .0514258
510.320 .0521063
511.160 .0528972
511.998 .0538043
512.836 .0548441
513.672 .0560304
514.508 .0573334
515.344 .0587820
516.178 .0603920
517.012 .0621775
517.845 .0641777
518.677 .0664209
519.508 .0689320
520.339 .0717604
521.169 .0749387
521.998 .0784718
522.826 .0824050
523.654 .0867807
524.481 .0915656
525.307 .0968332
526.133 .1025758
526.958 .1087487
527.782 .1153233
528.605 .1221683
529.428 .1291054
530.250 .1356567
531.072 .1415981
531.892 .1465105
532.712 .1502247
533.532 .1525309
534.350 .1532329
535.168 .1523123
535.986 .1498834
536.802 .1460773
537.618 .1410913
538.434 .1351316
539.249 .1285815
540.063 .1216269
540.876 .1145890
541.689 .1076076
542.501 .1009965
543.313 .0949095
544.124 .0894108
544.934 .0844359
545.744 .0799433
546.553 .0758965
547.361 .0722887
548.169 .0690708
548.976 .0661511
549.783 .0635431
550.589 .0612188
551.395 .0591233
552.200 .0572629
553.004 .0556175
553.808 .0541543
554.611 .0528584
555.414 .0517377
556.216 .0507401
557.018 .0498706
557.819 .0491134
558.619 .0484334
559.419 .0478239
560.218 .0472599
561.017 .0467227
561.815 .0462050
562.613 .0457154
563.410 .0452260
564.207 .0447320
565.003 .0442502
565.799 .0437783
566.594 .0433048
567.388 .0428421
568.182 .0423878
568.976 .0419394
569.769 .0414923
570.562 .0410460
571.354 .0405984
572.145 .0401603
572.936 .0397307
573.727 .0393076
574.517 .0388996
575.307 .0385102
576.096 .0381298
576.885 .0377606
577.673 .0374011
578.461 .0370504
579.248 .0367055
580.035 .0363697
580.821 .0360432
581.607 .0357299
582.392 .0354330
583.177 .0351557
583.962 .0348982
584.746 .0346639
585.529 .0344482
586.313 .0342513
587.095 .0340725
587.878 .0339062
588.660 .0337514
589.441 .0336086
590.222 .0334759
591.003 .0333542
591.783 .0332425
592.563 .0331413
593.342 .0330513
594.121 .0329685
594.899 .0328922
595.678 .0328217
596.455 .0327556
597.233 .0326932
598.009 .0326322
598.786 .0325739
599.562 .0325169
600.338 .0324626
601.113 .0324100
601.888 .0323582
602.663 .0323088
603.437 .0322609
604.211 .0322126
604.984 .0321667
605.757 .0321214
606.530 .0320782
607.302 .0320385
608.074 .0320021
608.845 .0319689
609.616 .0319398
610.387 .0319130
611.158 .0318888
611.928 .0318666
612.697 .0318465
613.467 .0318268
614.236 .0318092
615.004 .0317942
615.773 .0317809
616.541 .0317703
617.308 .0317637
618.076 .0317598
618.843 .0317593
619.609 .0317600
620.375 .0317614
621.141 .0317626
621.907 .0317618
622.672 .0317583
623.437 .0317512
624.202 .0317407
624.966 .0317274
625.730 .0317111
626.493 .0316926
627.257 .0316723
628.020 .0316510
628.782 .0316286
629.545 .0316048
630.307 .0315796
631.068 .0315525
631.830 .0315236
632.591 .0314928
633.352 .0314595
634.112 .0314244
634.872 .0313890
635.632 .0313536
636.392 .0313190
637.151 .0312862
637.910 .0312550
638.668 .0312254
639.427 .0311974
640.185 .0311710
640.943 .0311447
641.700 .0311189
642.457 .0310936
643.214 .0310683
643.971 .0310422
644.727 .0310150
645.483 .0309861
646.239 .0309562
646.994 .0309243
647.750 .0308908
648.505 .0308559
649.259 .0308215
650.014 .0307872
650.768 .0307537
651.521 .0307215
652.275 .0306912
653.028 .0306616
653.781 .0306326
654.534 .0306035
655.286 .0305738
656.039 .0305432
656.791 .0305121
657.542 .0304808
658.294 .0304503
659.045 .0304212
659.796 .0303942
660.546 .0303690
661.297 .0303457
662.047 .0303238
662.796 .0303019
663.546 .0302800
664.295 .0302575
665.044 .0302344
665.793 .0302113
666.542 .0301886
667.290 .0301671
668.038 .0301478
668.786 .0301308
669.533 .0301158
670.281 .0301029
671.028 .0300916
671.774 .0300813
672.521 .0300716
673.267 .0300625
674.013 .0300536
674.759 .0300450
675.505 .0300371
676.250 .0300290
676.995 .0300216
677.740 .0300143
678.484 .0300064
679.229 .0299988
679.973 .0299908
680.717 .0299821
681.460 .0299725
682.204 .0299633
682.947 .0299542
683.690 .0299456
684.433 .0299379
685.175 .0299304
685.917 .0299240
686.659 .0299184
687.401 .0299133
688.142 .0299090
688.884 .0299059
689.625 .0299035
690.365 .0299010
691.106 .0298981
691.846 .0298937
692.586 .0298870
693.326 .0298782
694.066 .0298670
694.805 .0298531
695.545 .0298366
696.284 .0298186
697.022 .0297995
697.761 .0297799
698.499 .0297595
699.237 .0297383
699.975 .0297164
700.713 .0296939
701.450 .0296699
702.187 .0296447
702.924 .0296193
703.661 .0295942
704.397 .0295691
705.133 .0295448
705.869 .0295214
706.605 .0294993
707.341 .0294782
708.076 .0294579
708.811 .0294379
709.546 .0294178
710.281 .0293972
711.015 .0293755
711.749 .0293526
712.483 .0293282
713.217 .0293016
713.950 .0292737
714.684 .0292440
715.417 .0292131
716.150 .0291808
716.882 .0291482
717.615 .0291156
718.347 .0290828
719.079 .0290502
719.811 .0290175
720.542 .0289853
721.273 .0289536
722.005 .0289217
722.735 .0288906
723.466 .0288602
724.196 .0288308
724.927 .0288014
725.656 .0287729
726.386 .0287450
727.116 .0287179
727.845 .0286915
728.574 .0286662
729.303 .0286420
730.031 .0286199
730.760 .0285995
731.488 .0285807
732.216 .0285640
732.944 .0285490
733.671 .0285350
734.398 .0285229
735.125 .0285119
735.852 .0285024
736.579 .0284943
737.305 .0284885
738.031 .0284844
738.757 .0284821
739.483 .0284811
740.208 .0284809
740.933 .0284811
741.658 .0284818
742.383 .0284820
743.108 .0284818
743.832 .0284817
744.556 .0284813
745.280 .0284809
746.004 .0284803
746.727 .0284794
747.450 .0284783
748.173 .0284765
748.896 .0284742
749.618 .0284708
750.340 .0284671
751.062 .0284632
751.784 .0284593
752.506 .0284561
753.227 .0284535
753.948 .0284513
754.669 .0284501
755.389 .0284493
756.110 .0284487
756.830 .0284476
757.550 .0284460
758.269 .0284441
758.989 .0284415
759.708 .0284376
760.427 .0284333
761.146 .0284285
761.864 .0284238
762.582 .0284189
763.300 .0284137
764.018 .0284090
764.736 .0284045
765.453 .0284001
766.170 .0283959
766.887 .0283916
767.603 .0283872
768.320 .0283823
769.036 .0283774
769.751 .0283719
770.467 .0283657
771.182 .0283589
771.897 .0283516
772.612 .0283437
773.327 .0283360
774.041 .0283283
774.755 .0283210
775.469 .0283145
776.183 .0283081
776.896 .0283017
777.609 .0282952
778.322 .0282880
779.035 .0282800
779.747 .0282711
780.459 .0282616
781.171 .0282512
781.882 .0282407
782.594 .0282299
783.305 .0282191
784.016 .0282083
784.726 .0281970
785.436 .0281844
786.147 .0281705
786.856 .0281547
787.566 .0281370
788.275 .0281176
788.984 .0280968
789.693 .0280750
790.401 .0280529
791.110 .0280305
791.818 .0280081
792.525 .0279860
793.233 .0279639
793.940 .0279415
794.647 .0279186
795.353 .0278951
796.060 .0278711
796.766 .0278470
797.472 .0278230
798.177 .0277992
798.883 .0277760
799.588 .0277532
800.292 .0277311
800.997 .0277092
801.701 .0276870
802.405 .0276643
803.109 .0276409
803.812 .0276161
804.515 .0275895
805.218 .0275607
805.921 .0275300
806.623 .0274978
807.325 .0274644
808.027 .0274303
808.728 .0273961
809.429 .0273622
810.130 .0273286
810.831 .0272954
811.531 .0272625
812.231 .0272295
812.931 .0271964
813.630 .0271629
814.330 .0271291
815.029 .0270959
815.727 .0270637
816.426 .0270335
817.124 .0270060
817.821 .0269811
818.519 .0269590
819.216 .0269398
819.913 .0269232
820.609 .0269084
821.306 .0268953
822.002 .0268839
822.697 .0268737
823.393 .0268653
824.088 .0268584
824.783 .0268530
825.477 .0268491
826.171 .0268462
826.865 .0268436
827.559 .0268414
828.252 .0268397
828.945 .0268379
829.638 .0268364
830.330 .0268359
831.023 .0268361
831.714 .0268373
832.406 .0268399
833.097 .0268434
833.788 .0268472
834.479 .0268517
835.169 .0268560
835.859 .0268605
836.548 .0268656
837.238 .0268714
837.927 .0268781
838.615 .0268859
839.304 .0268949
839.992 .0269043
840.680 .0269145
841.367 .0269248
842.054 .0269349
842.741 .0269450
843.428 .0269550
844.114 .0269652
844.800 .0269753
845.485 .0269854
846.170 .0269953
846.855 .0270047
847.540 .0270131
848.224 .0270200
848.908 .0270259
849.592 .0270307
850.275 .0270349
850.958 .0270389
851.641 .0270431
852.323 .0270477
853.005 .0270524
853.687 .0270565
854.368 .0270596
855.049 .0270610
855.730 .0270605
856.410 .0270578
857.090 .0270537
857.769 .0270485
858.449 .0270432
859.128 .0270389
859.806 .0270359
860.485 .0270344
861.163 .0270342
861.840 .0270349
862.518 .0270356
863.195 .0270361
863.871 .0270357
864.548 .0270347
865.224 .0270334
865.899 .0270321
866.574 .0270310
867.249 .0270302
867.924 .0270300
868.598 .0270299
869.272 .0270293
869.946 .0270280
870.619 .0270253
871.292 .0270210
871.964 .0270154
872.636 .0270085
873.308 .0270005
873.979 .0269918
874.651 .0269823
875.321 .0269722
875.992 .0269618
876.662 .0269513
877.331 .0269405
878.001 .0269295
878.670 .0269190
879.338 .0269085
880.007 .0268986
880.675 .0268892
881.342 .0268801
882.009 .0268709
882.676 .0268614
883.343 .0268511
884.009 .0268399
884.675 .0268278
885.340 .0268144
886.005 .0268001
886.670 .0267853
887.334 .0267697
887.998 .0267534
888.662 .0267367
889.325 .0267196
889.988 .0267015
890.650 .0266832
891.312 .0266646
891.974 .0266460
892.636 .0266278
893.297 .0266099
893.957 .0265921
894.618 .0265746
895.278 .0265573
895.937 .0265393
896.596 .0265210
897.255 .0265017
897.914 .0264815
898.572 .0264604
899.230 .0264387
899.887 .0264164
900.544 .0263935
901.201 .0263700
901.857 .0263456
902.513 .0263202
903.168 .0262936
903.823 .0262652
904.478 .0262357
905.132 .0262048
905.786 .0261724
906.440 .0261391
907.093 .0261052
907.746 .0260712
908.399 .0260376
909.051 .0260045
909.703 .0259715
910.354 .0259389
911.005 .0259065
911.656 .0258741
912.306 .0258413
912.956 .0258081
913.605 .0257743
914.254 .0257400
914.903 .0257058
915.551 .0256714
916.199 .0256379
916.847 .0256057
917.494 .0255742
918.141 .0255443
918.788 .0255153
919.434 .0254871
920.079 .0254592
920.725 .0254314
921.370 .0254033
922.014 .0253746
922.658 .0253457
923.302 .0253165
923.946 .0252873
924.589 .0252586
925.231 .0252297
925.873 .0252013
926.515 .0251732
927.157 .0251451
927.798 .0251171
928.439 .0250892
929.079 .0250614
929.719 .0250340
930.359 .0250071
930.998 .0249807
931.637 .0249553
932.275 .0249311
932.913 .0249079
933.551 .0248863
934.188 .0248666
934.825 .0248492
935.462 .0248336
936.098 .0248201
936.733 .0248087
937.369 .0247990
938.004 .0247909
938.638 .0247837
939.273 .0247775
939.907 .0247721
940.540 .0247678
941.173 .0247646
941.806 .0247628
942.438 .0247629
943.070 .0247646
943.702 .0247677
944.333 .0247718
944.964 .0247764
945.594 .0247810
946.224 .0247854
946.854 .0247901
947.483 .0247947
948.112 .0247997
948.741 .0248053
949.369 .0248120
949.996 .0248192
950.624 .0248269
951.251 .0248345
951.878 .0248419
952.504 .0248484
953.130 .0248541
953.755 .0248584
954.380 .0248620
955.005 .0248652
955.629 .0248681
956.253 .0248710
956.877 .0248745
957.500 .0248783
958.123 .0248826
958.746 .0248875
959.368 .0248933
959.990 .0248998
960.611 .0249078
961.232 .0249171
961.853 .0249280
962.473 .0249407
963.093 .0249553
963.712 .0249711
964.331 .0249882
964.950 .0250060
965.569 .0250241
966.187 .0250423
966.804 .0250609
967.422 .0250798
968.039 .0250992
968.655 .0251195
969.272 .0251401
969.887 .0251605
970.503 .0251803
971.118 .0251992
971.733 .0252167
972.347 .0252323
972.961 .0252464
973.575 .0252588
974.188 .0252703
974.801 .0252809
975.414 .0252912
976.026 .0253015
976.638 .0253118
977.250 .0253221
977.861 .0253322
978.472 .0253416
979.083 .0253502
979.693 .0253569
980.303 .0253619
980.912 .0253649
981.521 .0253662
982.130 .0253658
982.738 .0253646
983.346 .0253630
983.954 .0253611
984.562 .0253590
985.169 .0253572
985.775 .0253550
986.382 .0253524
986.988 .0253491
987.594 .0253452
988.199 .0253401
988.804 .0253350
989.409 .0253296
990.013 .0253252
990.617 .0253219
991.221 .0253205
991.824 .0253203
992.427 .0253220
993.030 .0253256
993.632 .0253300
994.234 .0253351
994.836 .0253413
995.438 .0253478
996.039 .0253549
996.640 .0253622
997.240 .0253703
997.840 .0253792
998.440 .0253895
999.040 .0254005
999.639 .0254118
1000.238 .0254229
1000.836 .0254335
1001.435 .0254423
1002.033 .0254494
1002.630 .0254548
1003.228 .0254579
1003.825 .0254591
1004.422 .0254593
1005.018 .0254588
1005.614 .0254576
1006.210 .0254563
1006.806 .0254554
1007.401 .0254533
1007.996 .0254496
1008.591 .0254441
1009.186 .0254365
1009.780 .0254271
1010.374 .0254164
1010.967 .0254036
1011.561 .0253902
1012.154 .0253769
1012.746 .0253633
1013.339 .0253501
1013.931 .0253379
1014.523 .0253261
1015.115 .0253146
1015.706 .0253035
1016.298 .0252925
1016.888 .0252813
1017.479 .0252708
1018.069 .0252610
1018.660 .0252515
1019.250 .0252424
1019.839 .0252342
1020.429 .0252265
1021.018 .0252203
1021.607 .0252148
1022.195 .0252106
1022.784 .0252075
1023.372 .0252053
1023.960 .0252040
1024.547 .0252027
1025.135 .0252014
1025.722 .0252000
1026.309 .0251974
1026.896 .0251942
1027.483 .0251898
1028.069 .0251845
1028.655 .0251788
1029.241 .0251728
1029.827 .0251655
1030.412 .0251574
1030.997 .0251489
1031.582 .0251397
1032.167 .0251292
1032.752 .0251184
1033.336 .0251070
1033.921 .0250956
1034.505 .0250839
1035.089 .0250722
1035.672 .0250602
1036.256 .0250485
1036.839 .0250355
1037.422 .0250210
1038.005 .0250054
1038.588 .0249885
1039.171 .0249707
1039.753 .0249526
1040.335 .0249344
1040.918 .0249162
1041.500 .0248974
1042.081 .0248785
1042.663 .0248580
1043.244 .0248364
1043.826 .0248123
1044.407 .0247863
1044.988 .0247587
1045.569 .0247292
1046.150 .0246988
1046.730 .0246686
1047.311 .0246389
1047.891 .0246101
1048.471 .0245813
1049.052 .0245536
1049.632 .0245265
1050.211 .0245015
1050.791 .0244776
1051.371 .0244563
1051.950 .0244378
1052.530 .0244216
1053.109 .0244075
1053.688 .0243954
1054.268 .0243844
1054.847 .0243741
1055.426 .0243645
1056.005 .0243547
1056.583 .0243448
1057.162 .0243351
1057.741 .0243249
1058.319 .0243157
1058.898 .0243066
1059.476 .0242974
1060.055 .0242878
1060.633 .0242782
1061.211 .0242684
1061.790 .0242573
1062.368 .0242468
1062.946 .0242358
1063.524 .0242254
1064.102 .0242154
1064.680 .0242054
1065.258 .0241962
1065.836 .0241881
1066.414 .0241802
1066.992 .0241729
1067.570 .0241656
1068.148 .0241580
1068.726 .0241493
1069.304 .0241401
1069.882 .0241291
1070.460 .0241169
1071.038 .0241040
1071.616 .0240908
1072.194 .0240774
1072.772 .0240647
1073.350 .0240523
1073.928 .0240412
1074.506 .0240313
1075.084 .0240215
1075.662 .0240112
1076.240 .0240019
1076.819 .0239930
1077.397 .0239852
1077.976 .0239781
1078.554 .0239737
1079.133 .0239716
1079.711 .0239719
1080.290 .0239747
1080.869 .0239785
1081.448 .0239823
1082.027 .0239840
1082.606 .0239831
1083.185 .0239808
1083.764 .0239771
1084.343 .0239735
1084.923 .0239710
1085.502 .0239727
1086.082 .0239774
1086.662 .0239860
1087.242 .0239979
1087.822 .0240139
1088.402 .0240313
1088.983 .0240483
1089.563 .0240638
1090.144 .0240777
1090.725 .0240906
1091.306 .0241020
1091.887 .0241125
1092.469 .0241247
1093.050 .0241373
1093.632 .0241523
1094.214 .0241679
1094.796 .0241849
1095.379 .0242006
1095.961 .0242160
1096.544 .0242305
1097.127 .0242440
1097.710 .0242568
1098.294 .0242715
1098.877 .0242895
1099.461 .0243135
1100.046 .0243425
1100.630 .0243775
1101.215 .0244189
1101.800 .0244652
1102.385 .0245127
1102.970 .0245597
1103.556 .0246054
1104.142 .0246498
1104.728 .0246917
1105.315 .0247332
1105.902 .0247734
1106.489 .0248132
1107.077 .0248546
1107.664 .0248939
1108.253 .0249321
1108.841 .0249698
1109.430 .0250053
1110.019 .0250381
1110.609 .0250697
1111.198 .0251018
1111.789 .0251360
1112.379 .0251759
1112.970 .0252224
1113.561 .0252735
1114.153 .0253330
1114.745 .0253969
1115.338 .0254650
1115.931 .0255368
1116.524 .0256112
1117.117 .0256870
1117.712 .0257690
1118.306 .0258524
1118.901 .0259382
1119.496 .0260279
1120.092 .0261185
1120.689 .0262108
1121.285 .0263030
1121.882 .0263938
1122.480 .0264831
1123.078 .0265709
1123.677 .0266574
1124.276 .0267368
1124.875 .0268154
1125.476 .0268875
1126.076 .0269557
1126.677 .0270210
1127.279 .0270798
1127.881 .0271356
1128.484 .0271939
1129.087 .0272543
1129.691 .0273181
1130.295 .0273853
1130.900 .0274564
1131.505 .0275294
1132.111 .0276049
1132.718 .0276788
1133.325 .0277543
1133.933 .0278326
1134.541 .0279169
1135.150 .0280035
1135.760 .0280989
1136.370 .0281975
1136.981 .0283043
1137.592 .0284155
1138.204 .0285248
1138.817 .0286296
1139.431 .0287322
1140.045 .0288282
1140.660 .0289137
1141.275 .0289832
1141.891 .0290333
1142.508 .0292170
1143.126 .0292493
1143.744 .0291682
1144.363 .0290702
1144.983 .0289145
