Measurement Sequence started on: 15-12-46-377
Integration time: 28
Scans to Average: 2 
>>>>>Begin Spectral Data<<<<<
432.689 .0000100
433.621 .0000100
434.552 .0000100
435.482 .0000100
436.410 .0000100
437.337 .0000100
438.262 .0273648
439.187 .0580077
440.110 .0959949
441.031 .1388100
441.952 .1803055
442.871 .2128120
443.789 .2303830
444.705 .2310224
445.621 .2173200
446.535 .1947697
447.447 .1693797
448.359 .1308205
449.269 .1117542
450.178 .0998871
451.086 .0915933
451.993 .0853441
452.898 .0804649
453.803 .0765049
454.706 .0732151
455.608 .0703897
456.508 .0679673
457.408 .0658848
458.306 .0640632
459.204 .0624676
460.100 .0610509
460.995 .0597909
461.888 .0586419
462.781 .0575917
463.673 .0565980
464.563 .0556552
465.452 .0547492
466.340 .0538735
467.228 .0530440
468.114 .0522638
468.999 .0515522
469.882 .0508956
470.765 .0502991
471.647 .0497521
472.528 .0492434
473.407 .0487735
474.286 .0483427
475.163 .0479480
476.040 .0475890
476.915 .0472621
477.790 .0469692
478.663 .0467084
479.535 .0464830
480.407 .0462867
481.277 .0461250
482.147 .0459884
483.015 .0458761
483.883 .0457796
484.749 .0457120
485.615 .0456715
486.479 .0456484
487.343 .0456476
488.206 .0456561
489.067 .0456683
489.928 .0456789
490.788 .0456921
491.647 .0457108
492.505 .0457301
493.362 .0457607
494.218 .0458011
495.073 .0458573
495.928 .0459323
496.781 .0460166
497.634 .0461304
498.486 .0462662
499.337 .0464235
500.187 .0466025
501.036 .0468205
501.884 .0470705
502.731 .0473661
503.578 .0477044
504.424 .0480991
505.268 .0485398
506.113 .0490293
506.956 .0495703
507.798 .0501767
508.640 .0508417
509.480 .0515725
510.320 .0523774
511.160 .0532742
511.998 .0542368
512.836 .0552874
513.672 .0564040
514.508 .0576016
515.344 .0588836
516.178 .0602793
517.012 .0618230
517.845 .0635834
518.677 .0655876
519.508 .0678753
520.339 .0705249
521.169 .0735922
521.998 .0770759
522.826 .0810521
523.654 .0855213
524.481 .0904848
525.307 .0960154
526.133 .1020667
526.958 .1086304
527.782 .1157200
528.605 .1231693
529.428 .1308215
530.250 .1382052
531.072 .1450405
531.892 .1508660
532.712 .1554190
533.532 .1584674
534.350 .1597193
535.168 .1591054
535.986 .1567099
536.802 .1526683
537.618 .1473241
538.434 .1408965
539.249 .1338563
540.063 .1264473
540.876 .1189878
541.689 .1117034
542.501 .1048192
543.313 .0985498
544.124 .0929624
544.934 .0879629
545.744 .0834952
546.553 .0794689
547.361 .0758825
548.169 .0726762
548.976 .0697799
549.783 .0671745
550.589 .0647961
551.395 .0626108
552.200 .0606262
553.004 .0588455
553.808 .0572390
554.611 .0558089
555.414 .0545391
556.216 .0533916
557.018 .0523503
557.819 .0513909
558.619 .0504932
559.419 .0496616
560.218 .0488899
561.017 .0481458
561.815 .0474239
562.613 .0467394
563.410 .0460799
564.207 .0454542
565.003 .0448627
565.799 .0442984
566.594 .0437391
567.388 .0431937
568.182 .0426425
568.976 .0420883
569.769 .0415326
570.562 .0409795
571.354 .0404271
572.145 .0398936
572.936 .0393762
573.727 .0388760
574.517 .0384028
575.307 .0379654
576.096 .0375481
576.885 .0371528
577.673 .0367805
578.461 .0364284
579.248 .0360947
580.035 .0357833
580.821 .0354905
581.607 .0352193
582.392 .0349700
583.177 .0347384
583.962 .0345239
584.746 .0343285
585.529 .0341469
586.313 .0339791
587.095 .0338286
587.878 .0336905
588.660 .0335650
589.441 .0334541
590.222 .0333558
591.003 .0332683
591.783 .0331904
592.563 .0331182
593.342 .0330503
594.121 .0329854
594.899 .0329236
595.678 .0328640
596.455 .0328084
597.233 .0327550
598.009 .0327038
598.786 .0326548
599.562 .0326062
600.338 .0325560
601.113 .0325047
601.888 .0324508
602.663 .0323952
603.437 .0323382
604.211 .0322815
604.984 .0322262
605.757 .0321746
606.530 .0321259
607.302 .0320811
608.074 .0320391
608.845 .0319992
609.616 .0319612
610.387 .0319255
611.158 .0318923
611.928 .0318616
612.697 .0318344
613.467 .0318101
614.236 .0317889
615.004 .0317707
615.773 .0317540
616.541 .0317391
617.308 .0317242
618.076 .0317096
618.843 .0316942
619.609 .0316787
620.375 .0316629
621.141 .0316465
621.907 .0316297
622.672 .0316121
623.437 .0315938
624.202 .0315748
624.966 .0315556
625.730 .0315362
626.493 .0315170
627.257 .0314986
628.020 .0314800
628.782 .0314614
629.545 .0314419
630.307 .0314214
631.068 .0313992
631.830 .0313758
632.591 .0313512
633.352 .0313264
634.112 .0313021
634.872 .0312779
635.632 .0312545
636.392 .0312314
637.151 .0312081
637.910 .0311843
638.668 .0311592
639.427 .0311329
640.185 .0311051
640.943 .0310765
641.700 .0310472
642.457 .0310186
643.214 .0309911
643.971 .0309642
644.727 .0309385
645.483 .0309137
646.239 .0308884
646.994 .0308630
647.750 .0308377
648.505 .0308117
649.259 .0307854
650.014 .0307586
650.768 .0307312
651.521 .0307042
652.275 .0306771
653.028 .0306503
653.781 .0306236
654.534 .0305979
655.286 .0305717
656.039 .0305453
656.791 .0305191
657.542 .0304927
658.294 .0304663
659.045 .0304399
659.796 .0304129
660.546 .0303862
661.297 .0303594
662.047 .0303322
662.796 .0303045
663.546 .0302768
664.295 .0302486
665.044 .0302205
665.793 .0301921
666.542 .0301641
667.290 .0301363
668.038 .0301094
668.786 .0300829
669.533 .0300565
670.281 .0300303
671.028 .0300037
671.774 .0299770
672.521 .0299506
673.267 .0299245
674.013 .0298996
674.759 .0298752
675.505 .0298525
676.250 .0298306
676.995 .0298095
677.740 .0297889
678.484 .0297689
679.229 .0297494
679.973 .0297299
680.717 .0297102
681.460 .0296909
682.204 .0296717
682.947 .0296533
683.690 .0296351
684.433 .0296175
685.175 .0296005
685.917 .0295837
686.659 .0295670
687.401 .0295509
688.142 .0295350
688.884 .0295194
689.625 .0295034
690.365 .0294867
691.106 .0294693
691.846 .0294513
692.586 .0294328
693.326 .0294140
694.066 .0293957
694.805 .0293782
695.545 .0293612
696.284 .0293451
697.022 .0293294
697.761 .0293143
698.499 .0292991
699.237 .0292830
699.975 .0292665
700.713 .0292499
701.450 .0292339
702.187 .0292187
702.924 .0292050
703.661 .0291925
704.397 .0291811
705.133 .0291702
705.869 .0291597
706.605 .0291491
707.341 .0291381
708.076 .0291266
708.811 .0291151
709.546 .0291036
710.281 .0290927
711.015 .0290821
711.749 .0290724
712.483 .0290629
713.217 .0290526
713.950 .0290407
714.684 .0290275
715.417 .0290128
716.150 .0289967
716.882 .0289794
717.615 .0289621
718.347 .0289451
719.079 .0289285
719.811 .0289123
720.542 .0288967
721.273 .0288810
722.005 .0288644
722.735 .0288461
723.466 .0288266
724.196 .0288056
724.927 .0287837
725.656 .0287613
726.386 .0287393
727.116 .0287180
727.845 .0286977
728.574 .0286779
729.303 .0286586
730.031 .0286398
730.760 .0286210
731.488 .0286020
732.216 .0285830
732.944 .0285642
733.671 .0285460
734.398 .0285290
735.125 .0285136
735.852 .0284996
736.579 .0284866
737.305 .0284742
738.031 .0284625
738.757 .0284507
739.483 .0284384
740.208 .0284255
740.933 .0284122
741.658 .0283989
742.383 .0283847
743.108 .0283695
743.832 .0283539
744.556 .0283378
745.280 .0283209
746.004 .0283028
746.727 .0282843
747.450 .0282654
748.173 .0282461
748.896 .0282267
749.618 .0282075
750.340 .0281884
751.062 .0281692
751.784 .0281497
752.506 .0281301
753.227 .0281102
753.948 .0280899
754.669 .0280696
755.389 .0280497
756.110 .0280301
756.830 .0280109
757.550 .0279921
758.269 .0279742
758.989 .0279560
759.708 .0279373
760.427 .0279181
761.146 .0278986
761.864 .0278788
762.582 .0278590
763.300 .0278398
764.018 .0278214
764.736 .0278042
765.453 .0277881
766.170 .0277733
766.887 .0277593
767.603 .0277454
768.320 .0277314
769.036 .0277165
769.751 .0277008
770.467 .0276838
771.182 .0276663
771.897 .0276482
772.612 .0276296
773.327 .0276112
774.041 .0275928
774.755 .0275754
775.469 .0275589
776.183 .0275439
776.896 .0275301
777.609 .0275180
778.322 .0275072
779.035 .0274976
779.747 .0274893
780.459 .0274821
781.171 .0274759
781.882 .0274706
782.594 .0274661
783.305 .0274631
784.016 .0274616
784.726 .0274623
785.436 .0274642
786.147 .0274672
786.856 .0274706
787.566 .0274737
788.275 .0274759
788.984 .0274765
789.693 .0274756
790.401 .0274731
791.110 .0274689
791.818 .0274638
792.525 .0274579
793.233 .0274516
793.940 .0274449
794.647 .0274380
795.353 .0274305
796.060 .0274226
796.766 .0274142
797.472 .0274054
798.177 .0273962
798.883 .0273869
799.588 .0273774
800.292 .0273684
800.997 .0273601
801.701 .0273519
802.405 .0273443
803.109 .0273378
803.812 .0273320
804.515 .0273270
805.218 .0273228
805.921 .0273193
806.623 .0273166
807.325 .0273141
808.027 .0273118
808.728 .0273090
809.429 .0273054
810.130 .0273010
810.831 .0272952
811.531 .0272883
812.231 .0272800
812.931 .0272705
813.630 .0272599
814.330 .0272486
815.029 .0272367
815.727 .0272244
816.426 .0272126
817.124 .0272010
817.821 .0271897
818.519 .0271790
819.216 .0271689
819.913 .0271592
820.609 .0271501
821.306 .0271417
822.002 .0271340
822.697 .0271273
823.393 .0271220
824.088 .0271181
824.783 .0271155
825.477 .0271143
826.171 .0271140
826.865 .0271146
827.559 .0271157
828.252 .0271167
828.945 .0271176
829.638 .0271183
830.330 .0271188
831.023 .0271190
831.714 .0271188
832.406 .0271187
833.097 .0271182
833.788 .0271175
834.479 .0271166
835.169 .0271154
835.859 .0271139
836.548 .0271123
837.238 .0271102
837.927 .0271073
838.615 .0271036
839.304 .0270987
839.992 .0270924
840.680 .0270848
841.367 .0270761
842.054 .0270664
842.741 .0270559
843.428 .0270455
844.114 .0270348
844.800 .0270244
845.485 .0270139
846.170 .0270027
846.855 .0269904
847.540 .0269767
848.224 .0269612
848.908 .0269447
849.592 .0269275
850.275 .0269098
850.958 .0268922
851.641 .0268752
852.323 .0268585
853.005 .0268423
853.687 .0268258
854.368 .0268086
855.049 .0267901
855.730 .0267702
856.410 .0267481
857.090 .0267245
857.769 .0266999
858.449 .0266748
859.128 .0266493
859.806 .0266242
860.485 .0265993
861.163 .0265751
861.840 .0265511
862.518 .0265271
863.195 .0265025
863.871 .0264776
864.548 .0264519
865.224 .0264261
865.899 .0264003
866.574 .0263751
867.249 .0263511
867.924 .0263286
868.598 .0263077
869.272 .0262884
869.946 .0262703
870.619 .0262533
871.292 .0262364
871.964 .0262195
872.636 .0262013
873.308 .0261825
873.979 .0261629
874.651 .0261424
875.321 .0261216
875.992 .0261008
876.662 .0260803
877.331 .0260606
878.001 .0260416
878.670 .0260235
879.338 .0260060
880.007 .0259893
880.675 .0259724
881.342 .0259553
882.009 .0259381
882.676 .0259208
883.343 .0259032
884.009 .0258862
884.675 .0258696
885.340 .0258540
886.005 .0258397
886.670 .0258270
887.334 .0258160
887.998 .0258065
888.662 .0257979
889.325 .0257904
889.988 .0257833
890.650 .0257765
891.312 .0257699
891.974 .0257644
892.636 .0257598
893.297 .0257564
893.957 .0257546
894.618 .0257540
895.278 .0257548
895.937 .0257564
896.596 .0257585
897.255 .0257607
897.914 .0257625
898.572 .0257632
899.230 .0257630
899.887 .0257622
900.544 .0257602
901.201 .0257575
901.857 .0257543
902.513 .0257504
903.168 .0257457
903.823 .0257401
904.478 .0257337
905.132 .0257260
905.786 .0257176
906.440 .0257074
907.093 .0256960
907.746 .0256835
908.399 .0256700
909.051 .0256556
909.703 .0256409
910.354 .0256257
911.005 .0256101
911.656 .0255947
912.306 .0255789
912.956 .0255628
913.605 .0255469
914.254 .0255312
914.903 .0255156
915.551 .0255002
916.199 .0254860
916.847 .0254723
917.494 .0254602
918.141 .0254494
918.788 .0254399
919.434 .0254318
920.079 .0254248
920.725 .0254186
921.370 .0254134
922.014 .0254092
922.658 .0254055
923.302 .0254022
923.946 .0253995
924.589 .0253966
925.231 .0253932
925.873 .0253894
926.515 .0253853
927.157 .0253800
927.798 .0253742
928.439 .0253677
929.079 .0253608
929.719 .0253529
930.359 .0253442
930.998 .0253345
931.637 .0253240
932.275 .0253123
932.913 .0252994
933.551 .0252859
934.188 .0252724
934.825 .0252588
935.462 .0252458
936.098 .0252338
936.733 .0252237
937.369 .0252147
938.004 .0252072
938.638 .0252009
939.273 .0251958
939.907 .0251916
940.540 .0251887
941.173 .0251871
941.806 .0251876
942.438 .0251900
943.070 .0251944
943.702 .0252003
944.333 .0252075
944.964 .0252155
945.594 .0252240
946.224 .0252325
946.854 .0252408
947.483 .0252486
948.112 .0252564
948.741 .0252639
949.369 .0252714
949.996 .0252785
950.624 .0252855
951.251 .0252919
951.878 .0252976
952.504 .0253022
953.130 .0253060
953.755 .0253088
954.380 .0253108
955.005 .0253113
955.629 .0253110
956.253 .0253100
956.877 .0253088
957.500 .0253076
958.123 .0253063
958.746 .0253051
959.368 .0253038
959.990 .0253025
960.611 .0253007
961.232 .0252986
961.853 .0252964
962.473 .0252939
963.093 .0252908
963.712 .0252876
964.331 .0252840
964.950 .0252807
965.569 .0252778
966.187 .0252755
966.804 .0252740
967.422 .0252738
968.039 .0252742
968.655 .0252754
969.272 .0252767
969.887 .0252785
970.503 .0252792
971.118 .0252795
971.733 .0252789
972.347 .0252771
972.961 .0252748
973.575 .0252724
974.188 .0252690
974.801 .0252653
975.414 .0252609
976.026 .0252558
976.638 .0252488
977.250 .0252402
977.861 .0252292
978.472 .0252162
979.083 .0252013
979.693 .0251846
980.303 .0251665
980.912 .0251482
981.521 .0251297
982.130 .0251116
982.738 .0250942
983.346 .0250775
983.954 .0250616
984.562 .0250465
985.169 .0250314
985.775 .0250164
986.382 .0250015
986.988 .0249871
987.594 .0249733
988.199 .0249599
988.804 .0249474
989.409 .0249357
990.013 .0249253
990.617 .0249157
991.221 .0249066
991.824 .0248981
992.427 .0248906
993.030 .0248839
993.632 .0248777
994.234 .0248722
994.836 .0248678
995.438 .0248638
996.039 .0248599
996.640 .0248557
997.240 .0248509
997.840 .0248457
998.440 .0248404
999.040 .0248344
999.639 .0248282
1000.238 .0248215
1000.836 .0248141
1001.435 .0248059
1002.033 .0247971
1002.630 .0247870
1003.228 .0247759
1003.825 .0247642
1004.422 .0247525
1005.018 .0247404
1005.614 .0247289
1006.210 .0247182
1006.806 .0247085
1007.401 .0246994
1007.996 .0246899
1008.591 .0246807
1009.186 .0246717
1009.780 .0246627
1010.374 .0246541
1010.967 .0246459
1011.561 .0246387
1012.154 .0246320
1012.746 .0246263
1013.339 .0246205
1013.931 .0246143
1014.523 .0246071
1015.115 .0245986
1015.706 .0245884
1016.298 .0245770
1016.888 .0245643
1017.479 .0245513
1018.069 .0245386
1018.660 .0245257
1019.250 .0245127
1019.839 .0245004
1020.429 .0244887
1021.018 .0244774
1021.607 .0244665
1022.195 .0244559
1022.784 .0244454
1023.372 .0244353
1023.960 .0244263
1024.547 .0244182
1025.135 .0244115
1025.722 .0244066
1026.309 .0244032
1026.896 .0244013
1027.483 .0244006
1028.069 .0244002
1028.655 .0244002
1029.241 .0244000
1029.827 .0243990
1030.412 .0243966
1030.997 .0243941
1031.582 .0243917
1032.167 .0243895
1032.752 .0243878
1033.336 .0243862
1033.921 .0243843
1034.505 .0243818
1035.089 .0243775
1035.672 .0243707
1036.256 .0243622
1036.839 .0243522
1037.422 .0243404
1038.005 .0243296
1038.588 .0243206
1039.171 .0243142
1039.753 .0243107
1040.335 .0243093
1040.918 .0243088
1041.500 .0243084
1042.081 .0243068
1042.663 .0243029
1043.244 .0242977
1043.826 .0242907
1044.407 .0242823
1044.988 .0242740
1045.569 .0242666
1046.150 .0242590
1046.730 .0242520
1047.311 .0242454
1047.891 .0242380
1048.471 .0242294
1049.052 .0242198
1049.632 .0242085
1050.211 .0241970
1050.791 .0241835
1051.371 .0241690
1051.950 .0241543
1052.530 .0241408
1053.109 .0241279
1053.688 .0241161
1054.268 .0241065
1054.847 .0241000
1055.426 .0240952
1056.005 .0240921
1056.583 .0240909
1057.162 .0240909
1057.741 .0240908
1058.319 .0240896
1058.898 .0240865
1059.476 .0240819
1060.055 .0240773
1060.633 .0240730
1061.211 .0240690
1061.790 .0240669
1062.368 .0240665
1062.946 .0240667
1063.524 .0240685
1064.102 .0240700
1064.680 .0240713
1065.258 .0240724
1065.836 .0240733
1066.414 .0240727
1066.992 .0240725
1067.570 .0240727
1068.148 .0240726
1068.726 .0240728
1069.304 .0240732
1069.882 .0240723
1070.460 .0240717
1071.038 .0240711
1071.616 .0240705
1072.194 .0240703
1072.772 .0240721
1073.350 .0240741
1073.928 .0240773
1074.506 .0240812
1075.084 .0240854
1075.662 .0240916
1076.240 .0241001
1076.819 .0241096
1077.397 .0241212
1077.976 .0241364
1078.554 .0241541
1079.133 .0241741
1079.711 .0241962
1080.290 .0242190
1080.869 .0242411
1081.448 .0242612
1082.027 .0242778
1082.606 .0242921
1083.185 .0243056
1083.764 .0243175
1084.343 .0243277
1084.923 .0243377
1085.502 .0243466
1086.082 .0243547
1086.662 .0243619
1087.242 .0243668
1087.822 .0243702
1088.402 .0243710
1088.983 .0243705
1089.563 .0243696
1090.144 .0243701
1090.725 .0243744
1091.306 .0243830
1091.887 .0243955
1092.469 .0244117
1093.050 .0244313
1093.632 .0244546
1094.214 .0244809
1094.796 .0245106
1095.379 .0245408
1095.961 .0245722
1096.544 .0246053
1097.127 .0246390
1097.710 .0246725
1098.294 .0247089
1098.877 .0247459
1099.461 .0247828
1100.046 .0248202
1100.630 .0248572
1101.215 .0248949
1101.800 .0249336
1102.385 .0249708
1102.970 .0250056
1103.556 .0250395
1104.142 .0250735
1104.728 .0251061
1105.315 .0251413
1105.902 .0251775
1106.489 .0252129
1107.077 .0252488
1107.664 .0252847
1108.253 .0253192
1108.841 .0253522
1109.430 .0253838
1110.019 .0254135
1110.609 .0254428
1111.198 .0254711
1111.789 .0254995
1112.379 .0255301
1112.970 .0255631
1113.561 .0255959
1114.153 .0256283
1114.745 .0256591
1115.338 .0256846
1115.931 .0257052
1116.524 .0257204
1117.117 .0257308
1117.712 .0257391
1118.306 .0257490
1118.901 .0257653
1119.496 .0257908
1120.092 .0258280
1120.689 .0258765
1121.285 .0259355
1121.882 .0260001
1122.480 .0260678
1123.078 .0261368
1123.677 .0262046
1124.276 .0262700
1124.875 .0263370
1125.476 .0264071
1126.076 .0264818
1126.677 .0265636
1127.279 .0266554
1127.881 .0267577
1128.484 .0268725
1129.087 .0269889
1129.691 .0271046
1130.295 .0272170
1130.900 .0273193
1131.505 .0274049
1132.111 .0274802
1132.718 .0275469
1133.325 .0276054
1133.933 .0276629
1134.541 .0277233
1135.150 .0277855
1135.760 .0278580
1136.370 .0279366
1136.981 .0280195
1137.592 .0281027
1138.204 .0281755
1138.817 .0282446
1139.431 .0283087
1140.045 .0283739
1140.660 .0284317
1141.275 .0284878
1141.891 .0285533
1142.508 .0286181
1143.126 .0288068
1143.744 .0287241
1144.363 .0287519
1144.983 .0290043
