Measurement Sequence started on: 15-12-46-377
Integration time: 28
Scans to Average: 2 
>>>>>Begin Spectral Data<<<<<
432.689 .0000100
433.621 .0000100
434.552 .0000100
435.482 .0000100
436.410 .0000100
437.337 .0000100
438.262 .0289500
439.187 .0613255
440.110 .1015844
441.031 .1469262
441.952 .1908966
442.871 .2254263
443.789 .2442281
444.705 .2451500
445.621 .2308839
446.535 .2072142
447.447 .1804976
448.359 .1397695
449.269 .1195978
450.178 .1068655
451.086 .0979254
451.993 .0910883
452.898 .0856589
453.803 .0811914
454.706 .0774575
455.608 .0742386
456.508 .0714464
457.408 .0689902
458.306 .0667993
459.204 .0648407
460.100 .0630818
460.995 .0615002
461.888 .0600725
462.781 .0587749
463.673 .0575866
464.563 .0565030
465.452 .0555044
466.340 .0545754
467.228 .0537184
468.114 .0529239
468.999 .0521986
469.882 .0515330
470.765 .0509351
471.647 .0504026
472.528 .0499284
473.407 .0495098
474.286 .0491459
475.163 .0488245
476.040 .0485408
476.915 .0482904
477.790 .0480789
478.663 .0478961
479.535 .0477384
480.407 .0476143
481.277 .0475119
482.147 .0474326
483.015 .0473761
483.883 .0473335
484.749 .0472963
485.615 .0472689
486.479 .0472469
487.343 .0472329
488.206 .0472333
489.067 .0472427
489.928 .0472595
490.788 .0472936
491.647 .0473394
492.505 .0473903
493.362 .0474514
494.218 .0475340
495.073 .0476246
495.928 .0477425
496.781 .0478817
497.634 .0480488
498.486 .0482535
499.337 .0485042
500.187 .0487878
501.036 .0491041
501.884 .0494549
502.731 .0498305
503.578 .0502364
504.424 .0506766
505.268 .0511373
506.113 .0516336
506.956 .0521575
507.798 .0527223
508.640 .0533126
509.480 .0539423
510.320 .0546139
511.160 .0553392
511.998 .0561310
512.836 .0569791
513.672 .0579067
514.508 .0589307
515.344 .0600592
516.178 .0613211
517.012 .0627430
517.845 .0643586
518.677 .0661981
519.508 .0682894
520.339 .0706788
521.169 .0734569
521.998 .0766294
522.826 .0802727
523.654 .0843940
524.481 .0890160
525.307 .0941862
526.133 .0998484
526.958 .1060399
527.782 .1126678
528.605 .1195723
529.428 .1267533
530.250 .1336577
531.072 .1400886
531.892 .1456769
532.712 .1501483
533.532 .1532853
534.350 .1548370
535.168 .1547182
535.986 .1529318
536.802 .1496138
537.618 .1450331
538.434 .1392638
539.249 .1328712
540.063 .1260620
540.876 .1190866
541.689 .1122279
542.501 .1057100
543.313 .0996680
544.124 .0942037
544.934 .0892466
545.744 .0847613
546.553 .0806715
547.361 .0770087
548.169 .0737328
548.976 .0707901
549.783 .0681862
550.589 .0658690
551.395 .0637644
552.200 .0618984
553.004 .0601892
553.808 .0586264
554.611 .0572104
555.414 .0559238
556.216 .0547548
557.018 .0537051
557.819 .0527522
558.619 .0518800
559.419 .0510629
560.218 .0503053
561.017 .0495816
561.815 .0488849
562.613 .0482028
563.410 .0475244
564.207 .0468606
565.003 .0462168
565.799 .0455882
566.594 .0449780
567.388 .0443866
568.182 .0438096
568.976 .0432373
569.769 .0426721
570.562 .0421205
571.354 .0415799
572.145 .0410570
572.936 .0405511
573.727 .0400598
574.517 .0395861
575.307 .0391290
576.096 .0386852
576.885 .0382546
577.673 .0378389
578.461 .0374437
579.248 .0370708
580.035 .0367294
580.821 .0364184
581.607 .0361377
582.392 .0358846
583.177 .0356520
583.962 .0354350
584.746 .0352324
585.529 .0350411
586.313 .0348644
587.095 .0347047
587.878 .0345636
588.660 .0344422
589.441 .0343394
590.222 .0342529
591.003 .0341778
591.783 .0341100
592.563 .0340446
593.342 .0339785
594.121 .0339099
594.899 .0338412
595.678 .0337742
596.455 .0337117
597.233 .0336549
598.009 .0336041
598.786 .0335592
599.562 .0335178
600.338 .0334758
601.113 .0334319
601.888 .0333839
602.663 .0333319
603.437 .0332757
604.211 .0332178
604.984 .0331596
605.757 .0331048
606.530 .0330529
607.302 .0330052
608.074 .0329599
608.845 .0329168
609.616 .0328740
610.387 .0328316
611.158 .0327892
611.928 .0327461
612.697 .0327023
613.467 .0326598
614.236 .0326181
615.004 .0325789
615.773 .0325415
616.541 .0325075
617.308 .0324751
618.076 .0324440
618.843 .0324126
619.609 .0323814
620.375 .0323498
621.141 .0323177
621.907 .0322847
622.672 .0322515
623.437 .0322182
624.202 .0321854
624.966 .0321534
625.730 .0321233
626.493 .0320948
627.257 .0320675
628.020 .0320408
628.782 .0320155
629.545 .0319903
630.307 .0319660
631.068 .0319424
631.830 .0319193
632.591 .0318961
633.352 .0318725
634.112 .0318486
634.872 .0318241
635.632 .0317994
636.392 .0317735
637.151 .0317468
637.910 .0317201
638.668 .0316931
639.427 .0316662
640.185 .0316405
640.943 .0316158
641.700 .0315915
642.457 .0315679
643.214 .0315444
643.971 .0315206
644.727 .0314969
645.483 .0314737
646.239 .0314515
646.994 .0314300
647.750 .0314099
648.505 .0313908
649.259 .0313729
650.014 .0313557
650.768 .0313381
651.521 .0313202
652.275 .0313009
653.028 .0312803
653.781 .0312582
654.534 .0312347
655.286 .0312107
656.039 .0311860
656.791 .0311612
657.542 .0311359
658.294 .0311104
659.045 .0310847
659.796 .0310591
660.546 .0310330
661.297 .0310061
662.047 .0309783
662.796 .0309495
663.546 .0309200
664.295 .0308902
665.044 .0308606
665.793 .0308314
666.542 .0308028
667.290 .0307752
668.038 .0307482
668.786 .0307223
669.533 .0306970
670.281 .0306724
671.028 .0306489
671.774 .0306259
672.521 .0306034
673.267 .0305817
674.013 .0305614
674.759 .0305421
675.505 .0305238
676.250 .0305062
676.995 .0304889
677.740 .0304725
678.484 .0304562
679.229 .0304400
679.973 .0304237
680.717 .0304073
681.460 .0303900
682.204 .0303718
682.947 .0303533
683.690 .0303338
684.433 .0303142
685.175 .0302954
685.917 .0302771
686.659 .0302599
687.401 .0302435
688.142 .0302280
688.884 .0302128
689.625 .0301976
690.365 .0301808
691.106 .0301624
691.846 .0301427
692.586 .0301215
693.326 .0300991
694.066 .0300765
694.805 .0300544
695.545 .0300325
696.284 .0300110
697.022 .0299890
697.761 .0299659
698.499 .0299419
699.237 .0299166
699.975 .0298904
700.713 .0298637
701.450 .0298376
702.187 .0298127
702.924 .0297896
703.661 .0297687
704.397 .0297489
705.133 .0297306
705.869 .0297128
706.605 .0296951
707.341 .0296773
708.076 .0296591
708.811 .0296409
709.546 .0296231
710.281 .0296059
711.015 .0295894
711.749 .0295731
712.483 .0295573
713.217 .0295413
713.950 .0295248
714.684 .0295071
715.417 .0294878
716.150 .0294672
716.882 .0294457
717.615 .0294231
718.347 .0293999
719.079 .0293764
719.811 .0293532
720.542 .0293304
721.273 .0293077
722.005 .0292853
722.735 .0292632
723.466 .0292415
724.196 .0292199
724.927 .0291985
725.656 .0291772
726.386 .0291566
727.116 .0291365
727.845 .0291173
728.574 .0290988
729.303 .0290814
730.031 .0290651
730.760 .0290499
731.488 .0290357
732.216 .0290218
732.944 .0290082
733.671 .0289949
734.398 .0289816
735.125 .0289682
735.852 .0289546
736.579 .0289412
737.305 .0289280
738.031 .0289151
738.757 .0289026
739.483 .0288905
740.208 .0288783
740.933 .0288661
741.658 .0288539
742.383 .0288416
743.108 .0288292
743.832 .0288169
744.556 .0288047
745.280 .0287928
746.004 .0287812
746.727 .0287697
747.450 .0287584
748.173 .0287474
748.896 .0287360
749.618 .0287241
750.340 .0287117
751.062 .0286991
751.784 .0286860
752.506 .0286736
753.227 .0286614
753.948 .0286492
754.669 .0286368
755.389 .0286246
756.110 .0286120
756.830 .0285989
757.550 .0285851
758.269 .0285707
758.989 .0285559
759.708 .0285407
760.427 .0285246
761.146 .0285083
761.864 .0284921
762.582 .0284759
763.300 .0284598
764.018 .0284443
764.736 .0284293
765.453 .0284155
766.170 .0284030
766.887 .0283912
767.603 .0283802
768.320 .0283697
769.036 .0283596
769.751 .0283496
770.467 .0283400
771.182 .0283306
771.897 .0283219
772.612 .0283140
773.327 .0283067
774.041 .0282997
774.755 .0282929
775.469 .0282860
776.183 .0282787
776.896 .0282706
777.609 .0282617
778.322 .0282522
779.035 .0282424
779.747 .0282323
780.459 .0282224
781.171 .0282131
781.882 .0282045
782.594 .0281967
783.305 .0281893
784.016 .0281827
784.726 .0281768
785.436 .0281715
786.147 .0281669
786.856 .0281634
787.566 .0281606
788.275 .0281584
788.984 .0281568
789.693 .0281552
790.401 .0281533
791.110 .0281508
791.818 .0281476
792.525 .0281436
793.233 .0281386
793.940 .0281329
794.647 .0281265
795.353 .0281199
796.060 .0281125
796.766 .0281042
797.472 .0280953
798.177 .0280856
798.883 .0280744
799.588 .0280615
800.292 .0280476
800.997 .0280328
801.701 .0280174
802.405 .0280018
803.109 .0279868
803.812 .0279728
804.515 .0279596
805.218 .0279464
805.921 .0279335
806.623 .0279200
807.325 .0279055
808.027 .0278902
808.728 .0278741
809.429 .0278576
810.130 .0278414
810.831 .0278266
811.531 .0278134
812.231 .0278014
812.931 .0277903
813.630 .0277794
814.330 .0277682
815.029 .0277559
815.727 .0277422
816.426 .0277272
817.124 .0277116
817.821 .0276953
818.519 .0276793
819.216 .0276640
819.913 .0276496
820.609 .0276358
821.306 .0276225
822.002 .0276091
822.697 .0275955
823.393 .0275816
824.088 .0275677
824.783 .0275537
825.477 .0275402
826.171 .0275272
826.865 .0275155
827.559 .0275049
828.252 .0274955
828.945 .0274870
829.638 .0274791
830.330 .0274711
831.023 .0274631
831.714 .0274547
832.406 .0274462
833.097 .0274372
833.788 .0274279
834.479 .0274179
835.169 .0274077
835.859 .0273977
836.548 .0273876
837.238 .0273776
837.927 .0273678
838.615 .0273579
839.304 .0273484
839.992 .0273390
840.680 .0273298
841.367 .0273211
842.054 .0273128
842.741 .0273048
843.428 .0272970
844.114 .0272895
844.800 .0272820
845.485 .0272740
846.170 .0272650
846.855 .0272546
847.540 .0272424
848.224 .0272286
848.908 .0272134
849.592 .0271971
850.275 .0271798
850.958 .0271618
851.641 .0271437
852.323 .0271252
853.005 .0271063
853.687 .0270870
854.368 .0270671
855.049 .0270465
855.730 .0270258
856.410 .0270051
857.090 .0269849
857.769 .0269658
858.449 .0269476
859.128 .0269304
859.806 .0269142
860.485 .0268987
861.163 .0268835
861.840 .0268688
862.518 .0268545
863.195 .0268398
863.871 .0268254
864.548 .0268115
865.224 .0267981
865.899 .0267853
866.574 .0267731
867.249 .0267613
867.924 .0267494
868.598 .0267377
869.272 .0267257
869.946 .0267140
870.619 .0267026
871.292 .0266914
871.964 .0266804
872.636 .0266698
873.308 .0266593
873.979 .0266485
874.651 .0266377
875.321 .0266266
875.992 .0266152
876.662 .0266039
877.331 .0265928
878.001 .0265822
878.670 .0265721
879.338 .0265624
880.007 .0265531
880.675 .0265442
881.342 .0265353
882.009 .0265265
882.676 .0265179
883.343 .0265091
884.009 .0265003
884.675 .0264918
885.340 .0264837
886.005 .0264755
886.670 .0264678
887.334 .0264609
887.998 .0264546
888.662 .0264496
889.325 .0264459
889.988 .0264435
890.650 .0264429
891.312 .0264432
891.974 .0264444
892.636 .0264464
893.297 .0264493
893.957 .0264527
894.618 .0264571
895.278 .0264623
895.937 .0264685
896.596 .0264751
897.255 .0264832
897.914 .0264914
898.572 .0264992
899.230 .0265066
899.887 .0265127
900.544 .0265173
901.201 .0265200
901.857 .0265215
902.513 .0265220
903.168 .0265213
903.823 .0265194
904.478 .0265156
905.132 .0265101
905.786 .0265030
906.440 .0264933
907.093 .0264813
907.746 .0264678
908.399 .0264527
909.051 .0264365
909.703 .0264199
910.354 .0264032
911.005 .0263863
911.656 .0263698
912.306 .0263532
912.956 .0263366
913.605 .0263201
914.254 .0263041
914.903 .0262891
915.551 .0262757
916.199 .0262639
916.847 .0262540
917.494 .0262466
918.141 .0262413
918.788 .0262374
919.434 .0262348
920.079 .0262329
920.725 .0262314
921.370 .0262299
922.014 .0262282
922.658 .0262260
923.302 .0262238
923.946 .0262208
924.589 .0262169
925.231 .0262115
925.873 .0262046
926.515 .0261957
927.157 .0261848
927.798 .0261715
928.439 .0261567
929.079 .0261403
929.719 .0261229
930.359 .0261049
930.998 .0260867
931.637 .0260688
932.275 .0260511
932.913 .0260338
933.551 .0260166
934.188 .0259998
934.825 .0259830
935.462 .0259663
936.098 .0259506
936.733 .0259359
937.369 .0259226
938.004 .0259110
938.638 .0259010
939.273 .0258922
939.907 .0258845
940.540 .0258776
941.173 .0258713
941.806 .0258655
942.438 .0258596
943.070 .0258542
943.702 .0258491
944.333 .0258442
944.964 .0258391
945.594 .0258345
946.224 .0258304
946.854 .0258262
947.483 .0258219
948.112 .0258178
948.741 .0258138
949.369 .0258100
949.996 .0258056
950.624 .0258007
951.251 .0257947
951.878 .0257877
952.504 .0257786
953.130 .0257681
953.755 .0257558
954.380 .0257420
955.005 .0257268
955.629 .0257108
956.253 .0256943
956.877 .0256773
957.500 .0256607
958.123 .0256447
958.746 .0256293
959.368 .0256147
959.990 .0256007
960.611 .0255879
961.232 .0255761
961.853 .0255655
962.473 .0255556
963.093 .0255469
963.712 .0255393
964.331 .0255323
964.950 .0255259
965.569 .0255204
966.187 .0255155
966.804 .0255108
967.422 .0255064
968.039 .0255014
968.655 .0254955
969.272 .0254885
969.887 .0254797
970.503 .0254696
971.118 .0254579
971.733 .0254454
972.347 .0254321
972.961 .0254189
973.575 .0254057
974.188 .0253920
974.801 .0253782
975.414 .0253639
976.026 .0253483
976.638 .0253315
977.250 .0253134
977.861 .0252947
978.472 .0252751
979.083 .0252551
979.693 .0252348
980.303 .0252151
980.912 .0251958
981.521 .0251768
982.130 .0251572
982.738 .0251383
983.346 .0251193
983.954 .0251001
984.562 .0250811
985.169 .0250622
985.775 .0250435
986.382 .0250252
986.988 .0250073
987.594 .0249898
988.199 .0249730
988.804 .0249575
989.409 .0249429
990.013 .0249294
990.617 .0249166
991.221 .0249046
991.824 .0248937
992.427 .0248844
993.030 .0248753
993.632 .0248673
994.234 .0248610
994.836 .0248552
995.438 .0248501
996.039 .0248452
996.640 .0248406
997.240 .0248363
997.840 .0248317
998.440 .0248273
999.040 .0248226
999.639 .0248180
1000.238 .0248130
1000.836 .0248074
1001.435 .0248014
1002.033 .0247942
1002.630 .0247856
1003.228 .0247763
1003.825 .0247665
1004.422 .0247562
1005.018 .0247461
1005.614 .0247366
1006.210 .0247281
1006.806 .0247204
1007.401 .0247131
1007.996 .0247071
1008.591 .0247010
1009.186 .0246954
1009.780 .0246898
1010.374 .0246836
1010.967 .0246777
1011.561 .0246716
1012.154 .0246655
1012.746 .0246598
1013.339 .0246542
1013.931 .0246486
1014.523 .0246428
1015.115 .0246378
1015.706 .0246324
1016.298 .0246269
1016.888 .0246217
1017.479 .0246167
1018.069 .0246120
1018.660 .0246079
1019.250 .0246040
1019.839 .0246008
1020.429 .0245986
1021.018 .0245963
1021.607 .0245938
1022.195 .0245920
1022.784 .0245899
1023.372 .0245876
1023.960 .0245850
1024.547 .0245826
1025.135 .0245803
1025.722 .0245791
1026.309 .0245791
1026.896 .0245807
1027.483 .0245844
1028.069 .0245896
1028.655 .0245959
1029.241 .0246028
1029.827 .0246096
1030.412 .0246159
1030.997 .0246219
1031.582 .0246275
1032.167 .0246330
1032.752 .0246391
1033.336 .0246465
1033.921 .0246556
1034.505 .0246660
1035.089 .0246769
1035.672 .0246878
1036.256 .0246978
1036.839 .0247055
1037.422 .0247105
1038.005 .0247136
1038.588 .0247147
1039.171 .0247151
1039.753 .0247158
1040.335 .0247176
1040.918 .0247206
1041.500 .0247254
1042.081 .0247309
1042.663 .0247360
1043.244 .0247402
1043.826 .0247418
1044.407 .0247410
1044.988 .0247392
1045.569 .0247355
1046.150 .0247310
1046.730 .0247275
1047.311 .0247259
1047.891 .0247259
1048.471 .0247284
1049.052 .0247329
1049.632 .0247383
1050.211 .0247449
1050.791 .0247520
1051.371 .0247584
1051.950 .0247651
1052.530 .0247721
1053.109 .0247785
1053.688 .0247855
1054.268 .0247932
1054.847 .0248013
1055.426 .0248108
1056.005 .0248219
1056.583 .0248339
1057.162 .0248457
1057.741 .0248573
1058.319 .0248687
1058.898 .0248784
1059.476 .0248865
1060.055 .0248918
1060.633 .0248950
1061.211 .0248969
1061.790 .0248971
1062.368 .0248971
1062.946 .0248984
1063.524 .0249008
1064.102 .0249059
1064.680 .0249124
1065.258 .0249193
1065.836 .0249255
1066.414 .0249311
1066.992 .0249345
1067.570 .0249361
1068.148 .0249355
1068.726 .0249330
1069.304 .0249295
1069.882 .0249275
1070.460 .0249260
1071.038 .0249251
1071.616 .0249259
1072.194 .0249274
1072.772 .0249293
1073.350 .0249321
1073.928 .0249347
1074.506 .0249379
1075.084 .0249428
1075.662 .0249481
1076.240 .0249536
1076.819 .0249597
1077.397 .0249674
1077.976 .0249755
1078.554 .0249859
1079.133 .0249989
1079.711 .0250143
1080.290 .0250323
1080.869 .0250534
1081.448 .0250752
1082.027 .0250966
1082.606 .0251157
1083.185 .0251319
1083.764 .0251439
1084.343 .0251524
1084.923 .0251576
1085.502 .0251632
1086.082 .0251699
1086.662 .0251806
1087.242 .0251931
1087.822 .0252088
1088.402 .0252260
1088.983 .0252432
1089.563 .0252573
1090.144 .0252681
1090.725 .0252765
1091.306 .0252820
1091.887 .0252875
1092.469 .0252968
1093.050 .0253104
1093.632 .0253301
1094.214 .0253553
1094.796 .0253853
1095.379 .0254181
1095.961 .0254540
1096.544 .0254891
1097.127 .0255237
1097.710 .0255586
1098.294 .0255939
1098.877 .0256301
1099.461 .0256696
1100.046 .0257142
1100.630 .0257609
1101.215 .0258116
1101.800 .0258640
1102.385 .0259145
1102.970 .0259624
1103.556 .0260055
1104.142 .0260443
1104.728 .0260788
1105.315 .0261096
1105.902 .0261371
1106.489 .0261645
1107.077 .0261932
1107.664 .0262226
1108.253 .0262514
1108.841 .0262819
1109.430 .0263130
1110.019 .0263409
1110.609 .0263681
1111.198 .0263951
1111.789 .0264234
1112.379 .0264538
1112.970 .0264862
1113.561 .0265226
1114.153 .0265626
1114.745 .0266071
1115.338 .0266541
1115.931 .0267038
1116.524 .0267568
1117.117 .0268123
1117.712 .0268697
1118.306 .0269312
1118.901 .0269956
1119.496 .0270606
1120.092 .0271266
1120.689 .0271895
1121.285 .0272474
1121.882 .0272993
1122.480 .0273485
1123.078 .0273970
1123.677 .0274457
1124.276 .0274982
1124.875 .0275559
1125.476 .0276168
1126.076 .0276815
1126.677 .0277465
1127.279 .0278109
1127.881 .0278716
1128.484 .0279281
1129.087 .0279769
1129.691 .0280225
1130.295 .0280673
1130.900 .0281152
1131.505 .0281674
1132.111 .0282304
1132.718 .0283031
1133.325 .0283851
1133.933 .0284748
1134.541 .0285707
1135.150 .0286671
1135.760 .0287679
1136.370 .0288660
1136.981 .0289609
1137.592 .0290510
1138.204 .0291403
1138.817 .0292340
1139.431 .0293361
1140.045 .0294517
1140.660 .0295847
1141.275 .0297489
1141.891 .0299244
1142.508 .0300729
1143.126 .0303113
1143.744 .0305510
1144.363 .0310905
1144.983 .0308337
