Measurement Sequence started on: 15-12-46-377
Integration time: 28
Scans to Average: 2 
>>>>>Begin Spectral Data<<<<<
432.689 .0000100
433.621 .0000100
434.552 .0000100
435.482 .0000100
436.410 .0000100
437.337 .0000100
438.262 .0280519
439.187 .0594403
440.110 .0985924
441.031 .1427250
441.952 .1855909
442.871 .2193584
443.789 .2378768
444.705 .2390619
445.621 .2254550
446.535 .2026489
447.447 .1767777
448.359 .1372126
449.269 .1174872
450.178 .1048693
451.086 .0959382
451.993 .0890515
452.898 .0835523
453.803 .0790455
454.706 .0752843
455.608 .0720976
456.508 .0693949
457.408 .0670875
458.306 .0650883
459.204 .0633240
460.100 .0617344
460.995 .0603183
461.888 .0590397
462.781 .0578670
463.673 .0567867
464.563 .0558090
465.452 .0549142
466.340 .0540804
467.228 .0533119
468.114 .0525928
468.999 .0519123
469.882 .0512711
470.765 .0506560
471.647 .0500654
472.528 .0495093
473.407 .0489896
474.286 .0485126
475.163 .0480901
476.040 .0477126
476.915 .0473810
477.790 .0471011
478.663 .0468642
479.535 .0466584
480.407 .0464852
481.277 .0463401
482.147 .0462117
483.015 .0460988
483.883 .0459939
484.749 .0458949
485.615 .0458115
486.479 .0457380
487.343 .0456761
488.206 .0456356
489.067 .0456182
489.928 .0456215
490.788 .0456521
491.647 .0457039
492.505 .0457739
493.362 .0458687
494.218 .0459775
495.073 .0461014
495.928 .0462473
496.781 .0464123
497.634 .0466087
498.486 .0468459
499.337 .0471256
500.187 .0474438
501.036 .0478129
501.884 .0482234
502.731 .0486595
503.578 .0491224
504.424 .0495924
505.268 .0500533
506.113 .0505185
506.956 .0509784
507.798 .0514338
508.640 .0519207
509.480 .0524526
510.320 .0530489
511.160 .0537387
511.998 .0545206
512.836 .0553914
513.672 .0563699
514.508 .0574461
515.344 .0586217
516.178 .0599283
517.012 .0614172
517.845 .0631160
518.677 .0650962
519.508 .0673808
520.339 .0700150
521.169 .0730457
521.998 .0764988
522.826 .0803694
523.654 .0846983
524.481 .0894950
525.307 .0948317
526.133 .1007217
526.958 .1072014
527.782 .1141834
528.605 .1215371
529.428 .1290805
530.250 .1362827
531.072 .1428455
531.892 .1483641
532.712 .1525295
533.532 .1551731
534.350 .1561054
535.168 .1553247
535.986 .1529109
536.802 .1491012
537.618 .1441056
538.434 .1381145
539.249 .1315440
540.063 .1245593
540.876 .1174544
541.689 .1104622
542.501 .1037977
543.313 .0976450
544.124 .0920964
544.934 .0871297
545.744 .0826923
546.553 .0787546
547.361 .0752988
548.169 .0722512
548.976 .0695264
549.783 .0670949
550.589 .0648887
551.395 .0628412
552.200 .0609709
553.004 .0592351
553.808 .0576475
554.611 .0561999
555.414 .0549001
556.216 .0537221
557.018 .0526800
557.819 .0517395
558.619 .0508616
559.419 .0500363
560.218 .0492554
561.017 .0484838
561.815 .0477363
562.613 .0470146
563.410 .0463196
564.207 .0456560
565.003 .0450315
565.799 .0444326
566.594 .0438612
567.388 .0433135
568.182 .0427792
568.976 .0422508
569.769 .0417367
570.562 .0412278
571.354 .0407205
572.145 .0402320
572.936 .0397615
573.727 .0393069
574.517 .0388759
575.307 .0384616
576.096 .0380625
576.885 .0376718
577.673 .0372907
578.461 .0369195
579.248 .0365587
580.035 .0362125
580.821 .0358759
581.607 .0355567
582.392 .0352603
583.177 .0349846
583.962 .0347317
584.746 .0345036
585.529 .0342982
586.313 .0341135
587.095 .0339471
587.878 .0337969
588.660 .0336644
589.441 .0335472
590.222 .0334417
591.003 .0333471
591.783 .0332604
592.563 .0331804
593.342 .0331047
594.121 .0330320
594.899 .0329635
595.678 .0328986
596.455 .0328378
597.233 .0327796
598.009 .0327245
598.786 .0326721
599.562 .0326213
600.338 .0325722
601.113 .0325232
601.888 .0324735
602.663 .0324241
603.437 .0323758
604.211 .0323286
604.984 .0322836
605.757 .0322413
606.530 .0322020
607.302 .0321661
608.074 .0321318
608.845 .0320978
609.616 .0320637
610.387 .0320300
611.158 .0319967
611.928 .0319636
612.697 .0319314
613.467 .0319013
614.236 .0318740
615.004 .0318494
615.773 .0318264
616.541 .0318051
617.308 .0317852
618.076 .0317651
618.843 .0317445
619.609 .0317229
620.375 .0317008
621.141 .0316784
621.907 .0316567
622.672 .0316363
623.437 .0316172
624.202 .0315995
624.966 .0315822
625.730 .0315653
626.493 .0315478
627.257 .0315286
628.020 .0315078
628.782 .0314851
629.545 .0314609
630.307 .0314342
631.068 .0314070
631.830 .0313795
632.591 .0313527
633.352 .0313269
634.112 .0313019
634.872 .0312778
635.632 .0312534
636.392 .0312286
637.151 .0312026
637.910 .0311752
638.668 .0311466
639.427 .0311158
640.185 .0310847
640.943 .0310530
641.700 .0310222
642.457 .0309920
643.214 .0309639
643.971 .0309369
644.727 .0309104
645.483 .0308845
646.239 .0308576
646.994 .0308298
647.750 .0308007
648.505 .0307708
649.259 .0307401
650.014 .0307091
650.768 .0306785
651.521 .0306482
652.275 .0306191
653.028 .0305906
653.781 .0305623
654.534 .0305344
655.286 .0305062
656.039 .0304777
656.791 .0304492
657.542 .0304211
658.294 .0303934
659.045 .0303673
659.796 .0303420
660.546 .0303179
661.297 .0302950
662.047 .0302727
662.796 .0302503
663.546 .0302281
664.295 .0302053
665.044 .0301814
665.793 .0301578
666.542 .0301342
667.290 .0301108
668.038 .0300888
668.786 .0300670
669.533 .0300460
670.281 .0300257
671.028 .0300056
671.774 .0299850
672.521 .0299651
673.267 .0299452
674.013 .0299254
674.759 .0299068
675.505 .0298892
676.250 .0298724
676.995 .0298574
677.740 .0298438
678.484 .0298308
679.229 .0298190
679.973 .0298077
680.717 .0297958
681.460 .0297846
682.204 .0297735
682.947 .0297623
683.690 .0297515
684.433 .0297416
685.175 .0297320
685.917 .0297224
686.659 .0297135
687.401 .0297041
688.142 .0296946
688.884 .0296845
689.625 .0296731
690.365 .0296609
691.106 .0296477
691.846 .0296336
692.586 .0296184
693.326 .0296026
694.066 .0295861
694.805 .0295687
695.545 .0295501
696.284 .0295305
697.022 .0295096
697.761 .0294876
698.499 .0294647
699.237 .0294408
699.975 .0294165
700.713 .0293920
701.450 .0293682
702.187 .0293454
702.924 .0293239
703.661 .0293040
704.397 .0292853
705.133 .0292676
705.869 .0292506
706.605 .0292346
707.341 .0292192
708.076 .0292044
708.811 .0291904
709.546 .0291764
710.281 .0291627
711.015 .0291488
711.749 .0291344
712.483 .0291186
713.217 .0291014
713.950 .0290828
714.684 .0290622
715.417 .0290401
716.150 .0290173
716.882 .0289946
717.615 .0289723
718.347 .0289502
719.079 .0289285
719.811 .0289068
720.542 .0288852
721.273 .0288626
722.005 .0288393
722.735 .0288157
723.466 .0287924
724.196 .0287696
724.927 .0287479
725.656 .0287275
726.386 .0287082
727.116 .0286899
727.845 .0286717
728.574 .0286523
729.303 .0286312
730.031 .0286087
730.760 .0285856
731.488 .0285622
732.216 .0285392
732.944 .0285174
733.671 .0284975
734.398 .0284793
735.125 .0284616
735.852 .0284444
736.579 .0284271
737.305 .0284095
738.031 .0283909
738.757 .0283720
739.483 .0283532
740.208 .0283351
740.933 .0283183
741.658 .0283031
742.383 .0282890
743.108 .0282755
743.832 .0282617
744.556 .0282478
745.280 .0282328
746.004 .0282166
746.727 .0281999
747.450 .0281835
748.173 .0281672
748.896 .0281517
749.618 .0281374
750.340 .0281248
751.062 .0281137
751.784 .0281039
752.506 .0280944
753.227 .0280851
753.948 .0280751
754.669 .0280641
755.389 .0280524
756.110 .0280399
756.830 .0280266
757.550 .0280131
758.269 .0279996
758.989 .0279863
759.708 .0279727
760.427 .0279593
761.146 .0279457
761.864 .0279322
762.582 .0279178
763.300 .0279029
764.018 .0278875
764.736 .0278725
765.453 .0278579
766.170 .0278439
766.887 .0278306
767.603 .0278178
768.320 .0278055
769.036 .0277932
769.751 .0277811
770.467 .0277698
771.182 .0277587
771.897 .0277482
772.612 .0277381
773.327 .0277287
774.041 .0277198
774.755 .0277116
775.469 .0277038
776.183 .0276964
776.896 .0276888
777.609 .0276806
778.322 .0276726
779.035 .0276647
779.747 .0276570
780.459 .0276498
781.171 .0276439
781.882 .0276389
782.594 .0276348
783.305 .0276318
784.016 .0276299
784.726 .0276292
785.436 .0276288
786.147 .0276282
786.856 .0276280
787.566 .0276277
788.275 .0276271
788.984 .0276267
789.693 .0276267
790.401 .0276266
791.110 .0276266
791.818 .0276269
792.525 .0276275
793.233 .0276280
793.940 .0276281
794.647 .0276275
795.353 .0276259
796.060 .0276235
796.766 .0276198
797.472 .0276152
798.177 .0276102
798.883 .0276046
799.588 .0275984
800.292 .0275923
800.997 .0275863
801.701 .0275802
802.405 .0275742
803.109 .0275681
803.812 .0275617
804.515 .0275548
805.218 .0275473
805.921 .0275387
806.623 .0275294
807.325 .0275194
808.027 .0275087
808.728 .0274976
809.429 .0274865
810.130 .0274754
810.831 .0274646
811.531 .0274535
812.231 .0274418
812.931 .0274292
813.630 .0274159
814.330 .0274013
815.029 .0273859
815.727 .0273699
816.426 .0273536
817.124 .0273374
817.821 .0273216
818.519 .0273064
819.216 .0272919
819.913 .0272780
820.609 .0272643
821.306 .0272504
822.002 .0272364
822.697 .0272220
823.393 .0272078
824.088 .0271939
824.783 .0271803
825.477 .0271675
826.171 .0271556
826.865 .0271448
827.559 .0271354
828.252 .0271271
828.945 .0271198
829.638 .0271131
830.330 .0271066
831.023 .0271001
831.714 .0270935
832.406 .0270868
833.097 .0270799
833.788 .0270725
834.479 .0270649
835.169 .0270569
835.859 .0270487
836.548 .0270402
837.238 .0270315
837.927 .0270224
838.615 .0270126
839.304 .0270019
839.992 .0269901
840.680 .0269773
841.367 .0269634
842.054 .0269488
842.741 .0269335
843.428 .0269179
844.114 .0269023
844.800 .0268868
845.485 .0268714
846.170 .0268561
846.855 .0268409
847.540 .0268253
848.224 .0268092
848.908 .0267927
849.592 .0267756
850.275 .0267579
850.958 .0267396
851.641 .0267204
852.323 .0267007
853.005 .0266807
853.687 .0266604
854.368 .0266398
855.049 .0266189
855.730 .0265977
856.410 .0265756
857.090 .0265530
857.769 .0265297
858.449 .0265053
859.128 .0264806
859.806 .0264553
860.485 .0264303
861.163 .0264057
861.840 .0263823
862.518 .0263603
863.195 .0263396
863.871 .0263196
864.548 .0262999
865.224 .0262807
865.899 .0262613
866.574 .0262414
867.249 .0262215
867.924 .0262020
868.598 .0261830
869.272 .0261647
869.946 .0261475
870.619 .0261314
871.292 .0261164
871.964 .0261015
872.636 .0260868
873.308 .0260723
873.979 .0260577
874.651 .0260434
875.321 .0260299
875.992 .0260176
876.662 .0260059
877.331 .0259954
878.001 .0259857
878.670 .0259767
879.338 .0259683
880.007 .0259600
880.675 .0259523
881.342 .0259452
882.009 .0259383
882.676 .0259317
883.343 .0259256
884.009 .0259201
884.675 .0259147
885.340 .0259097
886.005 .0259049
886.670 .0259012
887.334 .0258984
887.998 .0258971
888.662 .0258973
889.325 .0258994
889.988 .0259029
890.650 .0259076
891.312 .0259135
891.974 .0259202
892.636 .0259275
893.297 .0259360
893.957 .0259453
894.618 .0259555
895.278 .0259659
895.937 .0259768
896.596 .0259875
897.255 .0259973
897.914 .0260056
898.572 .0260119
899.230 .0260162
899.887 .0260185
900.544 .0260193
901.201 .0260187
901.857 .0260176
902.513 .0260157
903.168 .0260129
903.823 .0260092
904.478 .0260041
905.132 .0259973
905.786 .0259890
906.440 .0259795
907.093 .0259691
907.746 .0259578
908.399 .0259466
909.051 .0259350
909.703 .0259236
910.354 .0259118
911.005 .0258997
911.656 .0258874
912.306 .0258748
912.956 .0258616
913.605 .0258487
914.254 .0258366
914.903 .0258257
915.551 .0258162
916.199 .0258086
916.847 .0258027
917.494 .0257985
918.141 .0257955
918.788 .0257938
919.434 .0257935
920.079 .0257942
920.725 .0257951
921.370 .0257966
922.014 .0257982
922.658 .0257995
923.302 .0258006
923.946 .0258009
924.589 .0258002
925.231 .0257980
925.873 .0257944
926.515 .0257892
927.157 .0257826
927.798 .0257742
928.439 .0257638
929.079 .0257515
929.719 .0257375
930.359 .0257212
930.998 .0257037
931.637 .0256858
932.275 .0256681
932.913 .0256511
933.551 .0256355
934.188 .0256212
934.825 .0256088
935.462 .0255976
936.098 .0255875
936.733 .0255777
937.369 .0255688
938.004 .0255605
938.638 .0255528
939.273 .0255463
939.907 .0255414
940.540 .0255381
941.173 .0255368
941.806 .0255367
942.438 .0255382
943.070 .0255399
943.702 .0255416
944.333 .0255423
944.964 .0255419
945.594 .0255401
946.224 .0255374
946.854 .0255343
947.483 .0255314
948.112 .0255290
948.741 .0255268
949.369 .0255249
949.996 .0255230
950.624 .0255200
951.251 .0255152
951.878 .0255084
952.504 .0255001
953.130 .0254900
953.755 .0254792
954.380 .0254684
955.005 .0254576
955.629 .0254475
956.253 .0254377
956.877 .0254283
957.500 .0254185
958.123 .0254083
958.746 .0253973
959.368 .0253857
959.990 .0253738
960.611 .0253613
961.232 .0253490
961.853 .0253382
962.473 .0253286
963.093 .0253199
963.712 .0253124
964.331 .0253059
964.950 .0252996
965.569 .0252934
966.187 .0252867
966.804 .0252797
967.422 .0252721
968.039 .0252643
968.655 .0252558
969.272 .0252466
969.887 .0252376
970.503 .0252282
971.118 .0252191
971.733 .0252102
972.347 .0252007
972.961 .0251907
973.575 .0251805
974.188 .0251693
974.801 .0251565
975.414 .0251425
976.026 .0251273
976.638 .0251108
977.250 .0250938
977.861 .0250762
978.472 .0250585
979.083 .0250415
979.693 .0250245
980.303 .0250069
980.912 .0249890
981.521 .0249706
982.130 .0249512
982.738 .0249315
983.346 .0249112
983.954 .0248900
984.562 .0248685
985.169 .0248461
985.775 .0248233
986.382 .0248002
986.988 .0247772
987.594 .0247545
988.199 .0247322
988.804 .0247107
989.409 .0246892
990.013 .0246683
990.617 .0246481
991.221 .0246280
991.824 .0246086
992.427 .0245900
993.030 .0245722
993.632 .0245557
994.234 .0245412
994.836 .0245282
995.438 .0245168
996.039 .0245062
996.640 .0244961
997.240 .0244863
997.840 .0244768
998.440 .0244677
999.040 .0244584
999.639 .0244499
1000.238 .0244414
1000.836 .0244323
1001.435 .0244223
1002.033 .0244109
1002.630 .0243982
1003.228 .0243841
1003.825 .0243688
1004.422 .0243532
1005.018 .0243383
1005.614 .0243252
1006.210 .0243139
1006.806 .0243048
1007.401 .0242969
1007.996 .0242902
1008.591 .0242835
1009.186 .0242770
1009.780 .0242702
1010.374 .0242637
1010.967 .0242578
1011.561 .0242531
1012.154 .0242492
1012.746 .0242462
1013.339 .0242441
1013.931 .0242419
1014.523 .0242386
1015.115 .0242340
1015.706 .0242278
1016.298 .0242203
1016.888 .0242122
1017.479 .0242040
1018.069 .0241960
1018.660 .0241891
1019.250 .0241838
1019.839 .0241797
1020.429 .0241766
1021.018 .0241743
1021.607 .0241719
1022.195 .0241694
1022.784 .0241673
1023.372 .0241650
1023.960 .0241639
1024.547 .0241645
1025.135 .0241672
1025.722 .0241718
1026.309 .0241784
1026.896 .0241859
1027.483 .0241944
1028.069 .0242013
1028.655 .0242062
1029.241 .0242077
1029.827 .0242069
1030.412 .0242039
1030.997 .0241997
1031.582 .0241961
1032.167 .0241939
1032.752 .0241937
1033.336 .0241960
1033.921 .0241990
1034.505 .0242032
1035.089 .0242062
1035.672 .0242080
1036.256 .0242072
1036.839 .0242047
1037.422 .0242005
1038.005 .0241968
1038.588 .0241943
1039.171 .0241948
1039.753 .0241974
1040.335 .0242020
1040.918 .0242085
1041.500 .0242158
1042.081 .0242224
1042.663 .0242275
1043.244 .0242306
1043.826 .0242322
1044.407 .0242316
1044.988 .0242301
1045.569 .0242276
1046.150 .0242264
1046.730 .0242266
1047.311 .0242274
1047.891 .0242285
1048.471 .0242296
1049.052 .0242301
1049.632 .0242297
1050.211 .0242292
1050.791 .0242284
1051.371 .0242279
1051.950 .0242297
1052.530 .0242339
1053.109 .0242404
1053.688 .0242495
1054.268 .0242611
1054.847 .0242741
1055.426 .0242875
1056.005 .0243002
1056.583 .0243108
1057.162 .0243199
1057.741 .0243290
1058.319 .0243368
1058.898 .0243444
1059.476 .0243524
1060.055 .0243607
1060.633 .0243689
1061.211 .0243771
1061.790 .0243842
1062.368 .0243908
1062.946 .0243971
1063.524 .0244030
1064.102 .0244080
1064.680 .0244133
1065.258 .0244187
1065.836 .0244245
1066.414 .0244312
1066.992 .0244394
1067.570 .0244481
1068.148 .0244583
1068.726 .0244696
1069.304 .0244832
1069.882 .0244977
1070.460 .0245134
1071.038 .0245292
1071.616 .0245453
1072.194 .0245605
1072.772 .0245747
1073.350 .0245869
1073.928 .0245992
1074.506 .0246107
1075.084 .0246212
1075.662 .0246306
1076.240 .0246406
1076.819 .0246504
1077.397 .0246615
1077.976 .0246735
1078.554 .0246857
1079.133 .0246972
1079.711 .0247079
1080.290 .0247173
1080.869 .0247263
1081.448 .0247334
1082.027 .0247380
1082.606 .0247413
1083.185 .0247453
1083.764 .0247489
1084.343 .0247545
1084.923 .0247638
1085.502 .0247775
1086.082 .0247942
1086.662 .0248135
1087.242 .0248339
1087.822 .0248575
1088.402 .0248830
1088.983 .0249078
1089.563 .0249332
1090.144 .0249583
1090.725 .0249837
1091.306 .0250093
1091.887 .0250357
1092.469 .0250636
1093.050 .0250914
1093.632 .0251205
1094.214 .0251495
1094.796 .0251801
1095.379 .0252104
1095.961 .0252400
1096.544 .0252691
1097.127 .0252964
1097.710 .0253197
1098.294 .0253416
1098.877 .0253643
1099.461 .0253875
1100.046 .0254121
1100.630 .0254381
1101.215 .0254664
1101.800 .0254980
1102.385 .0255300
1102.970 .0255615
1103.556 .0255910
1104.142 .0256203
1104.728 .0256449
1105.315 .0256676
1105.902 .0256909
1106.489 .0257139
1107.077 .0257386
1107.664 .0257662
1108.253 .0257955
1108.841 .0258267
1109.430 .0258615
1110.019 .0258988
1110.609 .0259368
1111.198 .0259777
1111.789 .0260208
1112.379 .0260671
1112.970 .0261194
1113.561 .0261757
1114.153 .0262326
1114.745 .0262914
1115.338 .0263501
1115.931 .0264054
1116.524 .0264583
1117.117 .0265104
1117.712 .0265612
1118.306 .0266103
1118.901 .0266615
1119.496 .0267128
1120.092 .0267663
1120.689 .0268230
1121.285 .0268775
1121.882 .0269287
1122.480 .0269755
1123.078 .0270171
1123.677 .0270532
1124.276 .0270867
1124.875 .0271217
1125.476 .0271581
1126.076 .0272009
1126.677 .0272532
1127.279 .0273113
1127.881 .0273767
1128.484 .0274476
1129.087 .0275173
1129.691 .0275825
1130.295 .0276399
1130.900 .0276892
1131.505 .0277345
1132.111 .0277782
1132.718 .0278224
1133.325 .0278682
1133.933 .0279242
1134.541 .0279883
1135.150 .0280589
1135.760 .0281418
1136.370 .0282315
1136.981 .0283278
1137.592 .0284277
1138.204 .0285284
1138.817 .0286323
1139.431 .0287432
1140.045 .0288595
1140.660 .0289900
1141.275 .0291343
1141.891 .0292819
1142.508 .0294182
1143.126 .0295444
1143.744 .0299514
1144.363 .0301164
1144.983 .0299332
