Measurement Sequence started on: 15-12-46-377
Integration time: 28
Scans to Average: 2 
>>>>>Begin Spectral Data<<<<<
432.689 .0000100
433.621 .0000100
434.552 .0000100
435.482 .0000100
436.410 .0000100
437.337 .0000100
438.262 .0297739
439.187 .0630562
440.110 .1044551
441.031 .1511290
441.952 .1964061
442.871 .2319955
443.789 .2514346
444.705 .2525260
445.621 .2380013
446.535 .2138255
447.447 .1864571
448.359 .1446143
449.269 .1238840
450.178 .1107455
451.086 .1014473
451.993 .0943298
452.898 .0886880
453.803 .0840776
454.706 .0802600
455.608 .0770424
456.508 .0742823
457.408 .0719163
458.306 .0698217
459.204 .0679305
460.100 .0662061
460.995 .0646425
461.888 .0632159
462.781 .0619173
463.673 .0607244
464.563 .0596405
465.452 .0586360
466.340 .0577024
467.228 .0568352
468.114 .0560110
468.999 .0552364
469.882 .0545154
470.765 .0538438
471.647 .0532255
472.528 .0526563
473.407 .0521507
474.286 .0516988
475.163 .0513004
476.040 .0509432
476.915 .0506125
477.790 .0503181
478.663 .0500513
479.535 .0498116
480.407 .0496077
481.277 .0494363
482.147 .0492911
483.015 .0491717
483.883 .0490762
484.749 .0489984
485.615 .0489402
486.479 .0489089
487.343 .0489010
488.206 .0489159
489.067 .0489589
489.928 .0490228
490.788 .0491087
491.647 .0492271
492.505 .0493628
493.362 .0495187
494.218 .0496972
495.073 .0498920
495.928 .0501073
496.781 .0503429
497.634 .0506021
498.486 .0508784
499.337 .0511699
500.187 .0514741
501.036 .0517836
501.884 .0521115
502.731 .0524597
503.578 .0528217
504.424 .0532158
505.268 .0536346
506.113 .0540760
506.956 .0545432
507.798 .0550508
508.640 .0555971
509.480 .0562049
510.320 .0568841
511.160 .0576589
511.998 .0585476
512.836 .0595568
513.672 .0607006
514.508 .0619849
515.344 .0634066
516.178 .0649956
517.012 .0667723
517.845 .0688005
518.677 .0710978
519.508 .0737087
520.339 .0767251
521.169 .0802116
521.998 .0841850
522.826 .0886888
523.654 .0937295
524.481 .0992982
525.307 .1053787
526.133 .1119322
526.958 .1189406
527.782 .1263451
528.605 .1339861
529.428 .1417502
530.250 .1491290
531.072 .1559110
531.892 .1616327
532.712 .1660701
533.532 .1689535
534.350 .1699473
535.168 .1690309
535.986 .1662461
536.802 .1617729
537.618 .1559337
538.434 .1489666
539.249 .1414455
540.063 .1335819
540.876 .1257521
541.689 .1181363
542.501 .1109969
543.313 .1045216
544.124 .0986405
544.934 .0933113
545.744 .0884918
546.553 .0841044
547.361 .0801426
548.169 .0765960
548.976 .0734104
549.783 .0705585
550.589 .0680100
551.395 .0656992
552.200 .0636298
553.004 .0617815
553.808 .0601256
554.611 .0586429
555.414 .0573357
556.216 .0561763
557.018 .0551408
557.819 .0542256
558.619 .0533970
559.419 .0526354
560.218 .0519306
561.017 .0512651
561.815 .0506186
562.613 .0499870
563.410 .0493720
564.207 .0487543
565.003 .0481423
565.799 .0475342
566.594 .0469206
567.388 .0463098
568.182 .0456995
568.976 .0450889
569.769 .0444768
570.562 .0438799
571.354 .0432948
572.145 .0427201
572.936 .0421663
573.727 .0416251
574.517 .0411002
575.307 .0405988
576.096 .0401260
576.885 .0396798
577.673 .0392726
578.461 .0388974
579.248 .0385532
580.035 .0382399
580.821 .0379500
581.607 .0376785
582.392 .0374254
583.177 .0371868
583.962 .0369606
584.746 .0367487
585.529 .0365569
586.313 .0363809
587.095 .0362239
587.878 .0360802
588.660 .0359481
589.441 .0358236
590.222 .0357042
591.003 .0355890
591.783 .0354776
592.563 .0353721
593.342 .0352728
594.121 .0351793
594.899 .0350924
595.678 .0350113
596.455 .0349353
597.233 .0348616
598.009 .0347892
598.786 .0347181
599.562 .0346488
600.338 .0345824
601.113 .0345194
601.888 .0344600
602.663 .0344040
603.437 .0343525
604.211 .0343022
604.984 .0342534
605.757 .0342049
606.530 .0341562
607.302 .0341071
608.074 .0340583
608.845 .0340110
609.616 .0339657
610.387 .0339241
611.158 .0338862
611.928 .0338506
612.697 .0338172
613.467 .0337847
614.236 .0337530
615.004 .0337214
615.773 .0336902
616.541 .0336593
617.308 .0336303
618.076 .0336034
618.843 .0335779
619.609 .0335550
620.375 .0335337
621.141 .0335131
621.907 .0334922
622.672 .0334698
623.437 .0334448
624.202 .0334171
624.966 .0333868
625.730 .0333541
626.493 .0333203
627.257 .0332860
628.020 .0332521
628.782 .0332195
629.545 .0331882
630.307 .0331581
631.068 .0331288
631.830 .0331002
632.591 .0330710
633.352 .0330415
634.112 .0330116
634.872 .0329811
635.632 .0329508
636.392 .0329207
637.151 .0328922
637.910 .0328650
638.668 .0328388
639.427 .0328134
640.185 .0327883
640.943 .0327627
641.700 .0327364
642.457 .0327087
643.214 .0326796
643.971 .0326492
644.727 .0326182
645.483 .0325865
646.239 .0325559
646.994 .0325264
647.750 .0324984
648.505 .0324718
649.259 .0324475
650.014 .0324236
650.768 .0323997
651.521 .0323758
652.275 .0323516
653.028 .0323265
653.781 .0323010
654.534 .0322740
655.286 .0322461
656.039 .0322175
656.791 .0321883
657.542 .0321579
658.294 .0321278
659.045 .0320980
659.796 .0320681
660.546 .0320379
661.297 .0320078
662.047 .0319771
662.796 .0319460
663.546 .0319148
664.295 .0318832
665.044 .0318507
665.793 .0318185
666.542 .0317867
667.290 .0317559
668.038 .0317260
668.786 .0316969
669.533 .0316689
670.281 .0316415
671.028 .0316144
671.774 .0315872
672.521 .0315607
673.267 .0315356
674.013 .0315112
674.759 .0314876
675.505 .0314651
676.250 .0314436
676.995 .0314223
677.740 .0314017
678.484 .0313811
679.229 .0313604
679.973 .0313391
680.717 .0313176
681.460 .0312967
682.204 .0312758
682.947 .0312558
683.690 .0312364
684.433 .0312170
685.175 .0311977
685.917 .0311776
686.659 .0311574
687.401 .0311367
688.142 .0311162
688.884 .0310957
689.625 .0310756
690.365 .0310564
691.106 .0310374
691.846 .0310186
692.586 .0310005
693.326 .0309826
694.066 .0309647
694.805 .0309473
695.545 .0309303
696.284 .0309135
697.022 .0308968
697.761 .0308800
698.499 .0308627
699.237 .0308447
699.975 .0308262
700.713 .0308070
701.450 .0307881
702.187 .0307697
702.924 .0307523
703.661 .0307359
704.397 .0307206
705.133 .0307059
705.869 .0306915
706.605 .0306771
707.341 .0306620
708.076 .0306464
708.811 .0306303
709.546 .0306143
710.281 .0305978
711.015 .0305815
711.749 .0305651
712.483 .0305485
713.217 .0305307
713.950 .0305113
714.684 .0304903
715.417 .0304673
716.150 .0304427
716.882 .0304171
717.615 .0303910
718.347 .0303653
719.079 .0303403
719.811 .0303166
720.542 .0302933
721.273 .0302713
722.005 .0302496
722.735 .0302282
723.466 .0302069
724.196 .0301859
724.927 .0301646
725.656 .0301438
726.386 .0301235
727.116 .0301034
727.845 .0300837
728.574 .0300645
729.303 .0300449
730.031 .0300254
730.760 .0300056
731.488 .0299854
732.216 .0299648
732.944 .0299446
733.671 .0299244
734.398 .0299044
735.125 .0298854
735.852 .0298671
736.579 .0298491
737.305 .0298317
738.031 .0298146
738.757 .0297982
739.483 .0297820
740.208 .0297664
740.933 .0297517
741.658 .0297384
742.383 .0297263
743.108 .0297143
743.832 .0297031
744.556 .0296918
745.280 .0296796
746.004 .0296664
746.727 .0296525
747.450 .0296385
748.173 .0296242
748.896 .0296105
749.618 .0295973
750.340 .0295851
751.062 .0295734
751.784 .0295618
752.506 .0295499
753.227 .0295370
753.948 .0295231
754.669 .0295081
755.389 .0294925
756.110 .0294764
756.830 .0294603
757.550 .0294448
758.269 .0294295
758.989 .0294144
759.708 .0293989
760.427 .0293833
761.146 .0293671
761.864 .0293503
762.582 .0293331
763.300 .0293160
764.018 .0292991
764.736 .0292830
765.453 .0292674
766.170 .0292528
766.887 .0292391
767.603 .0292261
768.320 .0292135
769.036 .0292015
769.751 .0291902
770.467 .0291796
771.182 .0291698
771.897 .0291610
772.612 .0291526
773.327 .0291454
774.041 .0291394
774.755 .0291338
775.469 .0291288
776.183 .0291249
776.896 .0291212
777.609 .0291174
778.322 .0291135
779.035 .0291087
779.747 .0291035
780.459 .0290977
781.171 .0290912
781.882 .0290844
782.594 .0290781
783.305 .0290723
784.016 .0290668
784.726 .0290628
785.436 .0290594
786.147 .0290567
786.856 .0290544
787.566 .0290521
788.275 .0290500
788.984 .0290480
789.693 .0290461
790.401 .0290442
791.110 .0290424
791.818 .0290408
792.525 .0290390
793.233 .0290372
793.940 .0290347
794.647 .0290313
795.353 .0290268
796.060 .0290214
796.766 .0290149
797.472 .0290072
798.177 .0289991
798.883 .0289907
799.588 .0289820
800.292 .0289724
800.997 .0289626
801.701 .0289522
802.405 .0289417
803.109 .0289313
803.812 .0289210
804.515 .0289115
805.218 .0289024
805.921 .0288935
806.623 .0288848
807.325 .0288757
808.027 .0288664
808.728 .0288562
809.429 .0288451
810.130 .0288327
810.831 .0288194
811.531 .0288056
812.231 .0287912
812.931 .0287762
813.630 .0287605
814.330 .0287437
815.029 .0287259
815.727 .0287069
816.426 .0286866
817.124 .0286656
817.821 .0286441
818.519 .0286225
819.216 .0286012
819.913 .0285805
820.609 .0285607
821.306 .0285421
822.002 .0285246
822.697 .0285085
823.393 .0284932
824.088 .0284791
824.783 .0284657
825.477 .0284534
826.171 .0284421
826.865 .0284319
827.559 .0284226
828.252 .0284140
828.945 .0284055
829.638 .0283974
830.330 .0283888
831.023 .0283798
831.714 .0283697
832.406 .0283590
833.097 .0283470
833.788 .0283342
834.479 .0283201
835.169 .0283055
835.859 .0282909
836.548 .0282765
837.238 .0282620
837.927 .0282477
838.615 .0282334
839.304 .0282190
839.992 .0282041
840.680 .0281892
841.367 .0281740
842.054 .0281594
842.741 .0281457
843.428 .0281335
844.114 .0281225
844.800 .0281128
845.485 .0281034
846.170 .0280938
846.855 .0280830
847.540 .0280704
848.224 .0280558
848.908 .0280399
849.592 .0280231
850.275 .0280059
850.958 .0279887
851.641 .0279724
852.323 .0279568
853.005 .0279414
853.687 .0279252
854.368 .0279077
855.049 .0278891
855.730 .0278693
856.410 .0278483
857.090 .0278274
857.769 .0278070
858.449 .0277880
859.128 .0277712
859.806 .0277566
860.485 .0277441
861.163 .0277338
861.840 .0277248
862.518 .0277166
863.195 .0277086
863.871 .0277006
864.548 .0276925
865.224 .0276848
865.899 .0276775
866.574 .0276702
867.249 .0276633
867.924 .0276574
868.598 .0276520
869.272 .0276476
869.946 .0276439
870.619 .0276407
871.292 .0276378
871.964 .0276345
872.636 .0276305
873.308 .0276257
873.979 .0276203
874.651 .0276147
875.321 .0276087
875.992 .0276031
876.662 .0275981
877.331 .0275940
878.001 .0275908
878.670 .0275883
879.338 .0275857
880.007 .0275831
880.675 .0275802
881.342 .0275766
882.009 .0275726
882.676 .0275683
883.343 .0275644
884.009 .0275613
884.675 .0275585
885.340 .0275565
886.005 .0275551
886.670 .0275543
887.334 .0275538
887.998 .0275535
888.662 .0275534
889.325 .0275535
889.988 .0275543
890.650 .0275558
891.312 .0275578
891.974 .0275608
892.636 .0275647
893.297 .0275692
893.957 .0275737
894.618 .0275782
895.278 .0275823
895.937 .0275866
896.596 .0275907
897.255 .0275947
897.914 .0275987
898.572 .0276029
899.230 .0276070
899.887 .0276108
900.544 .0276137
901.201 .0276161
901.857 .0276176
902.513 .0276185
903.168 .0276181
903.823 .0276167
904.478 .0276146
905.132 .0276117
905.786 .0276079
906.440 .0276034
907.093 .0275980
907.746 .0275920
908.399 .0275850
909.051 .0275772
909.703 .0275687
910.354 .0275599
911.005 .0275508
911.656 .0275414
912.306 .0275312
912.956 .0275202
913.605 .0275084
914.254 .0274962
914.903 .0274834
915.551 .0274703
916.199 .0274568
916.847 .0274431
917.494 .0274294
918.141 .0274155
918.788 .0274014
919.434 .0273873
920.079 .0273728
920.725 .0273578
921.370 .0273423
922.014 .0273260
922.658 .0273092
923.302 .0272923
923.946 .0272748
924.589 .0272563
925.231 .0272367
925.873 .0272162
926.515 .0271947
927.157 .0271724
927.798 .0271492
928.439 .0271250
929.079 .0271007
929.719 .0270758
930.359 .0270503
930.998 .0270251
931.637 .0270001
932.275 .0269753
932.913 .0269506
933.551 .0269262
934.188 .0269016
934.825 .0268775
935.462 .0268538
936.098 .0268305
936.733 .0268080
937.369 .0267866
938.004 .0267662
938.638 .0267470
939.273 .0267292
939.907 .0267121
940.540 .0266964
941.173 .0266815
941.806 .0266668
942.438 .0266522
943.070 .0266378
943.702 .0266230
944.333 .0266076
944.964 .0265918
945.594 .0265760
946.224 .0265607
946.854 .0265462
947.483 .0265324
948.112 .0265197
948.741 .0265079
949.369 .0264968
949.996 .0264854
950.624 .0264736
951.251 .0264609
951.878 .0264479
952.504 .0264341
953.130 .0264194
953.755 .0264042
954.380 .0263892
955.005 .0263742
955.629 .0263593
956.253 .0263434
956.877 .0263270
957.500 .0263103
958.123 .0262924
958.746 .0262728
959.368 .0262524
959.990 .0262311
960.611 .0262093
961.232 .0261874
961.853 .0261656
962.473 .0261441
963.093 .0261233
963.712 .0261032
964.331 .0260832
964.950 .0260637
965.569 .0260450
966.187 .0260265
966.804 .0260090
967.422 .0259926
968.039 .0259768
968.655 .0259620
969.272 .0259481
969.887 .0259346
970.503 .0259207
971.118 .0259070
971.733 .0258931
972.347 .0258792
972.961 .0258654
973.575 .0258513
974.188 .0258371
974.801 .0258226
975.414 .0258078
976.026 .0257925
976.638 .0257771
977.250 .0257618
977.861 .0257459
978.472 .0257298
979.083 .0257133
979.693 .0256965
980.303 .0256789
980.912 .0256609
981.521 .0256419
982.130 .0256221
982.738 .0256015
983.346 .0255802
983.954 .0255591
984.562 .0255390
985.169 .0255199
985.775 .0255018
986.382 .0254846
986.988 .0254686
987.594 .0254528
988.199 .0254377
988.804 .0254230
989.409 .0254085
990.013 .0253944
990.617 .0253819
991.221 .0253708
991.824 .0253619
992.427 .0253555
993.030 .0253518
993.632 .0253501
994.234 .0253494
994.836 .0253489
995.438 .0253478
996.039 .0253461
996.640 .0253436
997.240 .0253397
997.840 .0253358
998.440 .0253321
999.040 .0253289
999.639 .0253264
1000.238 .0253251
1000.836 .0253242
1001.435 .0253236
1002.033 .0253230
1002.630 .0253218
1003.228 .0253202
1003.825 .0253188
1004.422 .0253178
1005.018 .0253182
1005.614 .0253204
1006.210 .0253247
1006.806 .0253308
1007.401 .0253390
1007.996 .0253483
1008.591 .0253577
1009.186 .0253670
1009.780 .0253757
1010.374 .0253832
1010.967 .0253897
1011.561 .0253951
1012.154 .0254002
1012.746 .0254051
1013.339 .0254101
1013.931 .0254155
1014.523 .0254213
1015.115 .0254269
1015.706 .0254326
1016.298 .0254381
1016.888 .0254441
1017.479 .0254507
1018.069 .0254579
1018.660 .0254666
1019.250 .0254777
1019.839 .0254908
1020.429 .0255059
1021.018 .0255226
1021.607 .0255417
1022.195 .0255612
1022.784 .0255813
1023.372 .0256012
1023.960 .0256205
1024.547 .0256400
1025.135 .0256586
1025.722 .0256765
1026.309 .0256947
1026.896 .0257127
1027.483 .0257299
1028.069 .0257464
1028.655 .0257626
1029.241 .0257772
1029.827 .0257915
1030.412 .0258055
1030.997 .0258196
1031.582 .0258337
1032.167 .0258483
1032.752 .0258633
1033.336 .0258791
1033.921 .0258958
1034.505 .0259124
1035.089 .0259293
1035.672 .0259465
1036.256 .0259633
1036.839 .0259795
1037.422 .0259962
1038.005 .0260139
1038.588 .0260315
1039.171 .0260492
1039.753 .0260672
1040.335 .0260848
1040.918 .0261019
1041.500 .0261180
1042.081 .0261332
1042.663 .0261474
1043.244 .0261607
1043.826 .0261732
1044.407 .0261848
1044.988 .0261971
1045.569 .0262101
1046.150 .0262231
1046.730 .0262366
1047.311 .0262505
1047.891 .0262638
1048.471 .0262769
1049.052 .0262905
1049.632 .0263035
1050.211 .0263161
1050.791 .0263283
1051.371 .0263397
1051.950 .0263504
1052.530 .0263600
1053.109 .0263682
1053.688 .0263743
1054.268 .0263793
1054.847 .0263829
1055.426 .0263838
1056.005 .0263848
1056.583 .0263854
1057.162 .0263865
1057.741 .0263878
1058.319 .0263905
1058.898 .0263935
1059.476 .0263973
1060.055 .0264006
1060.633 .0264031
1061.211 .0264055
1061.790 .0264088
1062.368 .0264133
1062.946 .0264194
1063.524 .0264282
1064.102 .0264401
1064.680 .0264541
1065.258 .0264711
1065.836 .0264882
1066.414 .0265058
1066.992 .0265216
1067.570 .0265352
1068.148 .0265458
1068.726 .0265540
1069.304 .0265604
1069.882 .0265667
1070.460 .0265736
1071.038 .0265813
1071.616 .0265899
1072.194 .0266005
1072.772 .0266111
1073.350 .0266219
1073.928 .0266318
1074.506 .0266409
1075.084 .0266483
1075.662 .0266553
1076.240 .0266607
1076.819 .0266656
1077.397 .0266712
1077.976 .0266762
1078.554 .0266797
1079.133 .0266824
1079.711 .0266832
1080.290 .0266815
1080.869 .0266770
1081.448 .0266698
1082.027 .0266593
1082.606 .0266478
1083.185 .0266359
1083.764 .0266240
1084.343 .0266137
1084.923 .0266064
1085.502 .0266016
1086.082 .0265994
1086.662 .0265993
1087.242 .0266013
1087.822 .0266043
1088.402 .0266101
1088.983 .0266174
1089.563 .0266275
1090.144 .0266411
1090.725 .0266586
1091.306 .0266781
1091.887 .0266993
1092.469 .0267215
1093.050 .0267432
1093.632 .0267622
1094.214 .0267766
1094.796 .0267847
1095.379 .0267874
1095.961 .0267851
1096.544 .0267805
1097.127 .0267734
1097.710 .0267671
1098.294 .0267627
1098.877 .0267614
1099.461 .0267604
1100.046 .0267616
1100.630 .0267642
1101.215 .0267664
1101.800 .0267691
1102.385 .0267706
1102.970 .0267715
1103.556 .0267748
1104.142 .0267802
1104.728 .0267879
1105.315 .0267960
1105.902 .0268064
1106.489 .0268160
1107.077 .0268255
1107.664 .0268347
1108.253 .0268412
1108.841 .0268462
1109.430 .0268511
1110.019 .0268529
1110.609 .0268543
1111.198 .0268566
1111.789 .0268599
1112.379 .0268660
1112.970 .0268767
1113.561 .0268921
1114.153 .0269131
1114.745 .0269397
1115.338 .0269738
1115.931 .0270125
1116.524 .0270568
1117.117 .0271014
1117.712 .0271470
1118.306 .0271943
1118.901 .0272401
1119.496 .0272837
1120.092 .0273259
1120.689 .0273653
1121.285 .0274010
1121.882 .0274310
1122.480 .0274574
1123.078 .0274785
1123.677 .0274962
1124.276 .0275084
1124.875 .0275191
1125.476 .0275288
1126.076 .0275395
1126.677 .0275508
1127.279 .0275671
1127.881 .0275875
1128.484 .0276087
1129.087 .0276330
1129.691 .0276626
1130.295 .0276971
1130.900 .0277332
1131.505 .0277727
1132.111 .0278233
1132.718 .0278846
1133.325 .0279594
1133.933 .0280484
1134.541 .0281584
1135.150 .0282900
1135.760 .0284398
1136.370 .0286054
1136.981 .0287847
1137.592 .0289731
1138.204 .0291666
1138.817 .0293634
1139.431 .0295808
1140.045 .0298099
1140.660 .0300515
1141.275 .0303010
1141.891 .0305376
1142.508 .0311059
1143.126 .0312321
1143.744 .0313955
1144.363 .0315178
1144.983 .0311460
