Measurement Sequence started on: 15-12-46-377
Integration time: 28
Scans to Average: 2 
>>>>>Begin Spectral Data<<<<<
432.689 .0000100
433.621 .0000100
434.552 .0000100
435.482 .0000100
436.410 .0000100
437.337 .0000100
438.262 .0278879
439.187 .0590892
440.110 .0979810
441.031 .1419083
441.952 .1846163
442.871 .2183439
443.789 .2369736
444.705 .2384216
445.621 .2252119
446.535 .2028549
447.447 .1774329
448.359 .1383741
449.269 .1190189
450.178 .1066989
451.086 .0979622
451.993 .0912680
452.898 .0859445
453.803 .0815841
454.706 .0779461
455.608 .0748352
456.508 .0721837
457.408 .0699017
458.306 .0679064
459.204 .0661333
460.100 .0645609
460.995 .0631484
461.888 .0618688
462.781 .0606864
463.673 .0595891
464.563 .0585665
465.452 .0576215
466.340 .0567239
467.228 .0558842
468.114 .0550974
468.999 .0543788
469.882 .0537136
470.765 .0531151
471.647 .0525735
472.528 .0520847
473.407 .0516517
474.286 .0512675
475.163 .0509220
476.040 .0506229
476.915 .0503616
477.790 .0501418
478.663 .0499511
479.535 .0497919
480.407 .0496593
481.277 .0495561
482.147 .0494813
483.015 .0494241
483.883 .0493788
484.749 .0493487
485.615 .0493286
486.479 .0493138
487.343 .0493070
488.206 .0493054
489.067 .0493081
489.928 .0493111
490.788 .0493142
491.647 .0493238
492.505 .0493422
493.362 .0493800
494.218 .0494348
495.073 .0495091
495.928 .0496147
496.781 .0497388
497.634 .0498997
498.486 .0500963
499.337 .0503283
500.187 .0505965
501.036 .0509017
501.884 .0512536
502.731 .0516435
503.578 .0520800
504.424 .0525595
505.268 .0530678
506.113 .0536167
506.956 .0541888
507.798 .0547868
508.640 .0554205
509.480 .0560989
510.320 .0568269
511.160 .0576211
511.998 .0584925
512.836 .0594517
513.672 .0605149
514.508 .0616995
515.344 .0630013
516.178 .0644412
517.012 .0660624
517.845 .0678945
518.677 .0699779
519.508 .0723811
520.339 .0751362
521.169 .0783235
521.998 .0819862
522.826 .0861771
523.654 .0909224
524.481 .0962144
525.307 .1021050
526.133 .1084642
526.958 .1152713
527.782 .1223797
528.605 .1295806
529.428 .1367932
530.250 .1434842
531.072 .1494226
531.892 .1542462
532.712 .1577587
533.532 .1597437
534.350 .1599754
535.168 .1585056
535.986 .1553750
536.802 .1508113
537.618 .1450775
538.434 .1383909
539.249 .1312538
540.063 .1238787
540.876 .1165672
541.689 .1095155
542.501 .1029513
543.313 .0969910
544.124 .0916622
544.934 .0869150
545.744 .0827058
546.553 .0789562
547.361 .0756337
548.169 .0727153
548.976 .0701095
549.783 .0677853
550.589 .0656935
551.395 .0638000
552.200 .0620988
553.004 .0605476
553.808 .0591386
554.611 .0578489
555.414 .0566889
556.216 .0556326
557.018 .0546717
557.819 .0537913
558.619 .0529750
559.419 .0522022
560.218 .0514693
561.017 .0507559
561.815 .0500557
562.613 .0493661
563.410 .0486961
564.207 .0480458
565.003 .0474096
565.799 .0467867
566.594 .0461741
567.388 .0455777
568.182 .0449901
568.976 .0444144
569.769 .0438508
570.562 .0433054
571.354 .0427774
572.145 .0422649
572.936 .0417647
573.727 .0412757
574.517 .0408014
575.307 .0403434
576.096 .0398988
576.885 .0394707
577.673 .0390628
578.461 .0386765
579.248 .0383109
580.035 .0379670
580.821 .0376419
581.607 .0373355
582.392 .0370455
583.177 .0367719
583.962 .0365136
584.746 .0362763
585.529 .0360597
586.313 .0358635
587.095 .0356898
587.878 .0355345
588.660 .0353939
589.441 .0352683
590.222 .0351564
591.003 .0350541
591.783 .0349596
592.563 .0348718
593.342 .0347878
594.121 .0347085
594.899 .0346336
595.678 .0345629
596.455 .0344966
597.233 .0344364
598.009 .0343790
598.786 .0343248
599.562 .0342749
600.338 .0342273
601.113 .0341813
601.888 .0341369
602.663 .0340932
603.437 .0340502
604.211 .0340087
604.984 .0339684
605.757 .0339299
606.530 .0338932
607.302 .0338583
608.074 .0338246
608.845 .0337913
609.616 .0337589
610.387 .0337265
611.158 .0336943
611.928 .0336629
612.697 .0336318
613.467 .0336026
614.236 .0335754
615.004 .0335496
615.773 .0335245
616.541 .0334985
617.308 .0334716
618.076 .0334432
618.843 .0334130
619.609 .0333824
620.375 .0333510
621.141 .0333199
621.907 .0332898
622.672 .0332594
623.437 .0332296
624.202 .0331991
624.966 .0331676
625.730 .0331337
626.493 .0330966
627.257 .0330572
628.020 .0330164
628.782 .0329750
629.545 .0329340
630.307 .0328935
631.068 .0328547
631.830 .0328175
632.591 .0327814
633.352 .0327459
634.112 .0327109
634.872 .0326759
635.632 .0326410
636.392 .0326060
637.151 .0325711
637.910 .0325360
638.668 .0325018
639.427 .0324679
640.185 .0324339
640.943 .0323996
641.700 .0323654
642.457 .0323311
643.214 .0322972
643.971 .0322627
644.727 .0322284
645.483 .0321943
646.239 .0321609
646.994 .0321279
647.750 .0320961
648.505 .0320658
649.259 .0320379
650.014 .0320121
650.768 .0319886
651.521 .0319669
652.275 .0319467
653.028 .0319272
653.781 .0319084
654.534 .0318895
655.286 .0318714
656.039 .0318540
656.791 .0318381
657.542 .0318237
658.294 .0318111
659.045 .0318001
659.796 .0317901
660.546 .0317804
661.297 .0317699
662.047 .0317568
662.796 .0317414
663.546 .0317231
664.295 .0317027
665.044 .0316809
665.793 .0316591
666.542 .0316374
667.290 .0316171
668.038 .0315985
668.786 .0315807
669.533 .0315636
670.281 .0315462
671.028 .0315279
671.774 .0315079
672.521 .0314868
673.267 .0314651
674.013 .0314431
674.759 .0314227
675.505 .0314037
676.250 .0313864
676.995 .0313710
677.740 .0313573
678.484 .0313443
679.229 .0313320
679.973 .0313196
680.717 .0313063
681.460 .0312921
682.204 .0312768
682.947 .0312605
683.690 .0312437
684.433 .0312261
685.175 .0312077
685.917 .0311883
686.659 .0311677
687.401 .0311455
688.142 .0311218
688.884 .0310963
689.625 .0310686
690.365 .0310385
691.106 .0310063
691.846 .0309725
692.586 .0309371
693.326 .0309012
694.066 .0308651
694.805 .0308292
695.545 .0307935
696.284 .0307582
697.022 .0307237
697.761 .0306899
698.499 .0306564
699.237 .0306239
699.975 .0305920
700.713 .0305617
701.450 .0305327
702.187 .0305054
702.924 .0304800
703.661 .0304561
704.397 .0304331
705.133 .0304113
705.869 .0303896
706.605 .0303681
707.341 .0303462
708.076 .0303242
708.811 .0303017
709.546 .0302790
710.281 .0302559
711.015 .0302325
711.749 .0302086
712.483 .0301841
713.217 .0301584
713.950 .0301321
714.684 .0301053
715.417 .0300779
716.150 .0300506
716.882 .0300237
717.615 .0299969
718.347 .0299709
719.079 .0299454
719.811 .0299199
720.542 .0298948
721.273 .0298697
722.005 .0298445
722.735 .0298196
723.466 .0297955
724.196 .0297722
724.927 .0297501
725.656 .0297292
726.386 .0297097
727.116 .0296914
727.845 .0296743
728.574 .0296581
729.303 .0296430
730.031 .0296294
730.760 .0296167
731.488 .0296052
732.216 .0295964
732.944 .0295896
733.671 .0295856
734.398 .0295843
735.125 .0295857
735.852 .0295896
736.579 .0295950
737.305 .0296016
738.031 .0296088
738.757 .0296158
739.483 .0296219
740.208 .0296268
740.933 .0296311
741.658 .0296343
742.383 .0296367
743.108 .0296388
743.832 .0296407
744.556 .0296417
745.280 .0296422
746.004 .0296413
746.727 .0296394
747.450 .0296361
748.173 .0296313
748.896 .0296260
749.618 .0296203
750.340 .0296154
751.062 .0296112
751.784 .0296082
752.506 .0296064
753.227 .0296049
753.948 .0296039
754.669 .0296026
755.389 .0296008
756.110 .0295978
756.830 .0295938
757.550 .0295890
758.269 .0295834
758.989 .0295767
759.708 .0295687
760.427 .0295592
761.146 .0295484
761.864 .0295355
762.582 .0295207
763.300 .0295045
764.018 .0294875
764.736 .0294696
765.453 .0294518
766.170 .0294339
766.887 .0294162
767.603 .0293983
768.320 .0293800
769.036 .0293611
769.751 .0293415
770.467 .0293211
771.182 .0293001
771.897 .0292789
772.612 .0292578
773.327 .0292366
774.041 .0292158
774.755 .0291951
775.469 .0291743
776.183 .0291533
776.896 .0291318
777.609 .0291096
778.322 .0290869
779.035 .0290634
779.747 .0290394
780.459 .0290156
781.171 .0289920
781.882 .0289687
782.594 .0289461
783.305 .0289240
784.016 .0289023
784.726 .0288811
785.436 .0288600
786.147 .0288386
786.856 .0288170
787.566 .0287948
788.275 .0287718
788.984 .0287485
789.693 .0287248
790.401 .0287002
791.110 .0286753
791.818 .0286500
792.525 .0286242
793.233 .0285982
793.940 .0285721
794.647 .0285458
795.353 .0285194
796.060 .0284933
796.766 .0284665
797.472 .0284396
798.177 .0284130
798.883 .0283866
799.588 .0283605
800.292 .0283357
800.997 .0283121
801.701 .0282896
802.405 .0282690
803.109 .0282503
803.812 .0282330
804.515 .0282174
805.218 .0282024
805.921 .0281874
806.623 .0281722
807.325 .0281565
808.027 .0281402
808.728 .0281239
809.429 .0281080
810.130 .0280925
810.831 .0280780
811.531 .0280650
812.231 .0280527
812.931 .0280415
813.630 .0280309
814.330 .0280203
815.029 .0280096
815.727 .0279992
816.426 .0279890
817.124 .0279799
817.821 .0279719
818.519 .0279655
819.216 .0279609
819.913 .0279583
820.609 .0279576
821.306 .0279584
822.002 .0279611
822.697 .0279656
823.393 .0279712
824.088 .0279785
824.783 .0279863
825.477 .0279951
826.171 .0280045
826.865 .0280143
827.559 .0280246
828.252 .0280352
828.945 .0280467
829.638 .0280594
830.330 .0280734
831.023 .0280887
831.714 .0281051
832.406 .0281227
833.097 .0281401
833.788 .0281567
834.479 .0281718
835.169 .0281853
835.859 .0281972
836.548 .0282080
837.238 .0282177
837.927 .0282273
838.615 .0282370
839.304 .0282468
839.992 .0282562
840.680 .0282651
841.367 .0282726
842.054 .0282788
842.741 .0282832
843.428 .0282863
844.114 .0282881
844.800 .0282897
845.485 .0282912
846.170 .0282930
846.855 .0282952
847.540 .0282973
848.224 .0282993
848.908 .0283011
849.592 .0283016
850.275 .0283010
850.958 .0282990
851.641 .0282963
852.323 .0282927
853.005 .0282884
853.687 .0282837
854.368 .0282784
855.049 .0282729
855.730 .0282672
856.410 .0282608
857.090 .0282543
857.769 .0282472
858.449 .0282395
859.128 .0282315
859.806 .0282228
860.485 .0282134
861.163 .0282038
861.840 .0281935
862.518 .0281823
863.195 .0281699
863.871 .0281564
864.548 .0281415
865.224 .0281253
865.899 .0281079
866.574 .0280893
867.249 .0280698
867.924 .0280499
868.598 .0280291
869.272 .0280087
869.946 .0279882
870.619 .0279674
871.292 .0279463
871.964 .0279245
872.636 .0279019
873.308 .0278784
873.979 .0278540
874.651 .0278289
875.321 .0278031
875.992 .0277772
876.662 .0277509
877.331 .0277253
878.001 .0277003
878.670 .0276753
879.338 .0276503
880.007 .0276251
880.675 .0275990
881.342 .0275716
882.009 .0275431
882.676 .0275137
883.343 .0274835
884.009 .0274528
884.675 .0274219
885.340 .0273918
886.005 .0273625
886.670 .0273336
887.334 .0273052
887.998 .0272769
888.662 .0272485
889.325 .0272196
889.988 .0271903
890.650 .0271608
891.312 .0271314
891.974 .0271023
892.636 .0270739
893.297 .0270467
893.957 .0270209
894.618 .0269963
895.278 .0269730
895.937 .0269506
896.596 .0269287
897.255 .0269068
897.914 .0268853
898.572 .0268639
899.230 .0268428
899.887 .0268216
900.544 .0268007
901.201 .0267798
901.857 .0267587
902.513 .0267373
903.168 .0267154
903.823 .0266928
904.478 .0266693
905.132 .0266447
905.786 .0266195
906.440 .0265935
907.093 .0265671
907.746 .0265401
908.399 .0265128
909.051 .0264853
909.703 .0264576
910.354 .0264299
911.005 .0264029
911.656 .0263763
912.306 .0263506
912.956 .0263262
913.605 .0263029
914.254 .0262812
914.903 .0262610
915.551 .0262422
916.199 .0262254
916.847 .0262100
917.494 .0261963
918.141 .0261837
918.788 .0261728
919.434 .0261630
920.079 .0261541
920.725 .0261463
921.370 .0261388
922.014 .0261317
922.658 .0261242
923.302 .0261162
923.946 .0261076
924.589 .0260981
925.231 .0260880
925.873 .0260773
926.515 .0260661
927.157 .0260544
927.798 .0260423
928.439 .0260301
929.079 .0260180
929.719 .0260058
930.359 .0259936
930.998 .0259820
931.637 .0259710
932.275 .0259613
932.913 .0259527
933.551 .0259458
934.188 .0259407
934.825 .0259372
935.462 .0259351
936.098 .0259345
936.733 .0259353
937.369 .0259376
938.004 .0259411
938.638 .0259461
939.273 .0259518
939.907 .0259584
940.540 .0259661
941.173 .0259747
941.806 .0259844
942.438 .0259951
943.070 .0260064
943.702 .0260186
944.333 .0260313
944.964 .0260442
945.594 .0260573
946.224 .0260706
946.854 .0260840
947.483 .0260975
948.112 .0261111
948.741 .0261244
949.369 .0261377
949.996 .0261514
950.624 .0261650
951.251 .0261787
951.878 .0261926
952.504 .0262062
953.130 .0262199
953.755 .0262336
954.380 .0262467
955.005 .0262598
955.629 .0262727
956.253 .0262851
956.877 .0262973
957.500 .0263097
958.123 .0263223
958.746 .0263348
959.368 .0263476
959.990 .0263600
960.611 .0263720
961.232 .0263835
961.853 .0263941
962.473 .0264040
963.093 .0264134
963.712 .0264222
964.331 .0264307
964.950 .0264391
965.569 .0264476
966.187 .0264562
966.804 .0264652
967.422 .0264747
968.039 .0264841
968.655 .0264932
969.272 .0265018
969.887 .0265096
970.503 .0265167
971.118 .0265227
971.733 .0265282
972.347 .0265337
972.961 .0265390
973.575 .0265446
974.188 .0265495
974.801 .0265540
975.414 .0265576
976.026 .0265598
976.638 .0265603
977.250 .0265588
977.861 .0265555
978.472 .0265505
979.083 .0265443
979.693 .0265373
980.303 .0265292
980.912 .0265206
981.521 .0265115
982.130 .0265021
982.738 .0264919
983.346 .0264811
983.954 .0264695
984.562 .0264576
985.169 .0264445
985.775 .0264303
986.382 .0264150
986.988 .0263994
987.594 .0263833
988.199 .0263673
988.804 .0263513
989.409 .0263354
990.013 .0263203
990.617 .0263061
991.221 .0262923
991.824 .0262793
992.427 .0262672
993.030 .0262557
993.632 .0262452
994.234 .0262358
994.836 .0262271
995.438 .0262196
996.039 .0262127
996.640 .0262057
997.240 .0261980
997.840 .0261897
998.440 .0261802
999.040 .0261693
999.639 .0261575
1000.238 .0261445
1000.836 .0261302
1001.435 .0261152
1002.033 .0260991
1002.630 .0260821
1003.228 .0260640
1003.825 .0260451
1004.422 .0260248
1005.018 .0260038
1005.614 .0259820
1006.210 .0259604
1006.806 .0259393
1007.401 .0259191
1007.996 .0258991
1008.591 .0258792
1009.186 .0258592
1009.780 .0258387
1010.374 .0258172
1010.967 .0257957
1011.561 .0257737
1012.154 .0257518
1012.746 .0257295
1013.339 .0257072
1013.931 .0256846
1014.523 .0256620
1015.115 .0256383
1015.706 .0256137
1016.298 .0255878
1016.888 .0255617
1017.479 .0255352
1018.069 .0255097
1018.660 .0254851
1019.250 .0254622
1019.839 .0254403
1020.429 .0254198
1021.018 .0253998
1021.607 .0253806
1022.195 .0253612
1022.784 .0253423
1023.372 .0253233
1023.960 .0253052
1024.547 .0252878
1025.135 .0252717
1025.722 .0252572
1026.309 .0252449
1026.896 .0252334
1027.483 .0252226
1028.069 .0252117
1028.655 .0252009
1029.241 .0251887
1029.827 .0251759
1030.412 .0251623
1030.997 .0251484
1031.582 .0251342
1032.167 .0251208
1032.752 .0251078
1033.336 .0250963
1033.921 .0250859
1034.505 .0250757
1035.089 .0250655
1035.672 .0250548
1036.256 .0250425
1036.839 .0250285
1037.422 .0250133
1038.005 .0249976
1038.588 .0249815
1039.171 .0249670
1039.753 .0249540
1040.335 .0249422
1040.918 .0249315
1041.500 .0249212
1042.081 .0249100
1042.663 .0248974
1043.244 .0248831
1043.826 .0248663
1044.407 .0248482
1044.988 .0248286
1045.569 .0248083
1046.150 .0247883
1046.730 .0247697
1047.311 .0247528
1047.891 .0247375
1048.471 .0247237
1049.052 .0247108
1049.632 .0246985
1050.211 .0246872
1050.791 .0246764
1051.371 .0246666
1051.950 .0246585
1052.530 .0246518
1053.109 .0246465
1053.688 .0246425
1054.268 .0246395
1054.847 .0246378
1055.426 .0246361
1056.005 .0246344
1056.583 .0246328
1057.162 .0246316
1057.741 .0246309
1058.319 .0246306
1058.898 .0246314
1059.476 .0246325
1060.055 .0246334
1060.633 .0246343
1061.211 .0246342
1061.790 .0246349
1062.368 .0246365
1062.946 .0246389
1063.524 .0246429
1064.102 .0246496
1064.680 .0246583
1065.258 .0246686
1065.836 .0246804
1066.414 .0246934
1066.992 .0247062
1067.570 .0247190
1068.148 .0247313
1068.726 .0247431
1069.304 .0247557
1069.882 .0247691
1070.460 .0247832
1071.038 .0247982
1071.616 .0248127
1072.194 .0248267
1072.772 .0248397
1073.350 .0248518
1073.928 .0248624
1074.506 .0248714
1075.084 .0248796
1075.662 .0248874
1076.240 .0248934
1076.819 .0248981
1077.397 .0249019
1077.976 .0249044
1078.554 .0249052
1079.133 .0249042
1079.711 .0249033
1080.290 .0249022
1080.869 .0249021
1081.448 .0249034
1082.027 .0249055
1082.606 .0249095
1083.185 .0249162
1083.764 .0249254
1084.343 .0249383
1084.923 .0249564
1085.502 .0249779
1086.082 .0250034
1086.662 .0250331
1087.242 .0250660
1087.822 .0251016
1088.402 .0251389
1088.983 .0251780
1089.563 .0252167
1090.144 .0252551
1090.725 .0252934
1091.306 .0253306
1091.887 .0253691
1092.469 .0254081
1093.050 .0254472
1093.632 .0254869
1094.214 .0255286
1094.796 .0255713
1095.379 .0256147
1095.961 .0256589
1096.544 .0257045
1097.127 .0257498
1097.710 .0257941
1098.294 .0258391
1098.877 .0258842
1099.461 .0259301
1100.046 .0259774
1100.630 .0260248
1101.215 .0260733
1101.800 .0261211
1102.385 .0261676
1102.970 .0262124
1103.556 .0262545
1104.142 .0262948
1104.728 .0263310
1105.315 .0263657
1105.902 .0263994
1106.489 .0264310
1107.077 .0264623
1107.664 .0264957
1108.253 .0265299
1108.841 .0265655
1109.430 .0266021
1110.019 .0266402
1110.609 .0266780
1111.198 .0267163
1111.789 .0267550
1112.379 .0267942
1112.970 .0268355
1113.561 .0268797
1114.153 .0269240
1114.745 .0269720
1115.338 .0270210
1115.931 .0270709
1116.524 .0271215
1117.117 .0271716
1117.712 .0272207
1118.306 .0272704
1118.901 .0273243
1119.496 .0273804
1120.092 .0274395
1120.689 .0275072
1121.285 .0275797
1121.882 .0276551
1122.480 .0277326
1123.078 .0278111
1123.677 .0278869
1124.276 .0279631
1124.875 .0280364
1125.476 .0281097
1126.076 .0281869
1126.677 .0282686
1127.279 .0283537
1127.881 .0284465
1128.484 .0285460
1129.087 .0286460
1129.691 .0287464
1130.295 .0288483
1130.900 .0289440
1131.505 .0290348
1132.111 .0291232
1132.718 .0292075
1133.325 .0292887
1133.933 .0293687
1134.541 .0294465
1135.150 .0295253
1135.760 .0296069
1136.370 .0296884
1136.981 .0297726
1137.592 .0298606
1138.204 .0299494
1138.817 .0300375
1139.431 .0301283
1140.045 .0302253
1140.660 .0303342
1141.275 .0304557
1141.891 .0305933
1142.508 .0306035
1143.126 .0308557
1143.744 .0311881
1144.363 .0313168
1144.983 .0315005
