Measurement Sequence started on: 15-12-46-377
Integration time: 28
Scans to Average: 2 
>>>>>Begin Spectral Data<<<<<
432.689 .0000100
433.621 .0000100
434.552 .0000100
435.482 .0000100
436.410 .0000100
437.337 .0000100
438.262 .0282160
439.187 .0597287
440.110 .0988150
441.031 .1428849
441.952 .1855753
442.871 .2190858
443.789 .2373177
444.705 .2382343
445.621 .2244706
446.535 .2016430
447.447 .1759294
448.359 .1365989
449.269 .1173297
450.178 .1053267
451.086 .0968910
451.993 .0904898
452.898 .0854128
453.803 .0812640
454.706 .0778019
455.608 .0748474
456.508 .0723194
457.408 .0701222
458.306 .0681729
459.204 .0664467
460.100 .0648829
460.995 .0634577
461.888 .0621440
462.781 .0609003
463.673 .0597056
464.563 .0585860
465.452 .0575207
466.340 .0565187
467.228 .0555966
468.114 .0547687
468.999 .0540228
469.882 .0533606
470.765 .0527792
471.647 .0522617
472.528 .0517999
473.407 .0513842
474.286 .0510071
475.163 .0506729
476.040 .0503837
476.915 .0501258
477.790 .0499100
478.663 .0497264
479.535 .0495706
480.407 .0494388
481.277 .0493294
482.147 .0492366
483.015 .0491584
483.883 .0490897
484.749 .0490292
485.615 .0489727
486.479 .0489311
487.343 .0489027
488.206 .0488983
489.067 .0489084
489.928 .0489351
490.788 .0489806
491.647 .0490541
492.505 .0491497
493.362 .0492769
494.218 .0494275
495.073 .0496048
495.928 .0498055
496.781 .0500295
497.634 .0502789
498.486 .0505574
499.337 .0508616
500.187 .0511886
501.036 .0515312
501.884 .0518981
502.731 .0522824
503.578 .0526905
504.424 .0531249
505.268 .0535803
506.113 .0540587
506.956 .0545676
507.798 .0551241
508.640 .0557359
509.480 .0564163
510.320 .0571771
511.160 .0580176
511.998 .0589339
512.836 .0599451
513.672 .0610546
514.508 .0622754
515.344 .0636094
516.178 .0650811
517.012 .0667147
517.845 .0685649
518.677 .0706704
519.508 .0730830
520.339 .0758625
521.169 .0790776
521.998 .0827060
522.826 .0868250
523.654 .0914502
524.481 .0965922
525.307 .1022859
526.133 .1085242
526.958 .1152107
527.782 .1223454
528.605 .1298071
529.428 .1375407
530.250 .1449901
531.072 .1519877
531.892 .1580493
532.712 .1628751
533.532 .1661170
534.350 .1674736
535.168 .1667828
535.986 .1641736
536.802 .1597276
537.618 .1537758
538.434 .1466240
539.249 .1389192
540.063 .1308888
540.876 .1229891
541.689 .1154028
542.501 .1083720
543.313 .1019588
544.124 .0962279
544.934 .0910496
545.744 .0863606
546.553 .0821009
547.361 .0782630
548.169 .0748296
548.976 .0717644
549.783 .0690253
550.589 .0666332
551.395 .0645055
552.200 .0626313
553.004 .0609303
553.808 .0593715
554.611 .0579507
555.414 .0566438
556.216 .0554153
557.018 .0542810
557.819 .0532293
558.619 .0522631
559.419 .0513866
560.218 .0506020
561.017 .0498802
561.815 .0492033
562.613 .0485662
563.410 .0479499
564.207 .0473382
565.003 .0467481
565.799 .0461634
566.594 .0455848
567.388 .0450297
568.182 .0444915
568.976 .0439745
569.769 .0434860
570.562 .0430180
571.354 .0425622
572.145 .0421215
572.936 .0416865
573.727 .0412485
574.517 .0408142
575.307 .0403897
576.096 .0399692
576.885 .0395623
577.673 .0391779
578.461 .0388147
579.248 .0384771
580.035 .0381662
580.821 .0378762
581.607 .0376048
582.392 .0373481
583.177 .0371042
583.962 .0368708
584.746 .0366527
585.529 .0364486
586.313 .0362585
587.095 .0360845
587.878 .0359228
588.660 .0357721
589.441 .0356322
590.222 .0355015
591.003 .0353794
591.783 .0352637
592.563 .0351545
593.342 .0350539
594.121 .0349604
594.899 .0348744
595.678 .0347956
596.455 .0347217
597.233 .0346519
598.009 .0345841
598.786 .0345195
599.562 .0344574
600.338 .0343989
601.113 .0343453
601.888 .0342966
602.663 .0342532
603.437 .0342142
604.211 .0341780
604.984 .0341437
605.757 .0341101
606.530 .0340754
607.302 .0340390
608.074 .0340028
608.845 .0339666
609.616 .0339318
610.387 .0339002
611.158 .0338716
611.928 .0338448
612.697 .0338198
613.467 .0337947
614.236 .0337680
615.004 .0337392
615.773 .0337082
616.541 .0336740
617.308 .0336386
618.076 .0336020
618.843 .0335643
619.609 .0335272
620.375 .0334918
621.141 .0334566
621.907 .0334216
622.672 .0333864
623.437 .0333500
624.202 .0333124
624.966 .0332743
625.730 .0332350
626.493 .0331954
627.257 .0331565
628.020 .0331184
628.782 .0330814
629.545 .0330466
630.307 .0330132
631.068 .0329814
631.830 .0329510
632.591 .0329203
633.352 .0328884
634.112 .0328553
634.872 .0328214
635.632 .0327860
636.392 .0327501
637.151 .0327143
637.910 .0326788
638.668 .0326451
639.427 .0326136
640.185 .0325836
640.943 .0325556
641.700 .0325286
642.457 .0325020
643.214 .0324748
643.971 .0324470
644.727 .0324190
645.483 .0323911
646.239 .0323647
646.994 .0323397
647.750 .0323163
648.505 .0322956
649.259 .0322767
650.014 .0322584
650.768 .0322395
651.521 .0322197
652.275 .0321984
653.028 .0321751
653.781 .0321511
654.534 .0321260
655.286 .0321009
656.039 .0320770
656.791 .0320540
657.542 .0320315
658.294 .0320102
659.045 .0319892
659.796 .0319686
660.546 .0319479
661.297 .0319268
662.047 .0319056
662.796 .0318842
663.546 .0318627
664.295 .0318411
665.044 .0318192
665.793 .0317976
666.542 .0317751
667.290 .0317527
668.038 .0317306
668.786 .0317081
669.533 .0316856
670.281 .0316632
671.028 .0316409
671.774 .0316184
672.521 .0315952
673.267 .0315719
674.013 .0315480
674.759 .0315237
675.505 .0314991
676.250 .0314747
676.995 .0314504
677.740 .0314268
678.484 .0314036
679.229 .0313809
679.973 .0313582
680.717 .0313348
681.460 .0313106
682.204 .0312851
682.947 .0312588
683.690 .0312313
684.433 .0312030
685.175 .0311746
685.917 .0311458
686.659 .0311168
687.401 .0310882
688.142 .0310601
688.884 .0310328
689.625 .0310062
690.365 .0309796
691.106 .0309527
691.846 .0309253
692.586 .0308967
693.326 .0308667
694.066 .0308354
694.805 .0308032
695.545 .0307703
696.284 .0307372
697.022 .0307043
697.761 .0306726
698.499 .0306422
699.237 .0306130
699.975 .0305848
700.713 .0305581
701.450 .0305324
702.187 .0305076
702.924 .0304841
703.661 .0304616
704.397 .0304405
705.133 .0304206
705.869 .0304019
706.605 .0303849
707.341 .0303696
708.076 .0303555
708.811 .0303421
709.546 .0303293
710.281 .0303162
711.015 .0303026
711.749 .0302886
712.483 .0302738
713.217 .0302574
713.950 .0302403
714.684 .0302225
715.417 .0302034
716.150 .0301840
716.882 .0301641
717.615 .0301442
718.347 .0301249
719.079 .0301060
719.811 .0300876
720.542 .0300707
721.273 .0300556
722.005 .0300413
722.735 .0300281
723.466 .0300161
724.196 .0300043
724.927 .0299927
725.656 .0299811
726.386 .0299691
727.116 .0299574
727.845 .0299464
728.574 .0299358
729.303 .0299267
730.031 .0299195
730.760 .0299141
731.488 .0299097
732.216 .0299066
732.944 .0299035
733.671 .0299005
734.398 .0298977
735.125 .0298948
735.852 .0298920
736.579 .0298900
737.305 .0298887
738.031 .0298878
738.757 .0298873
739.483 .0298866
740.208 .0298850
740.933 .0298825
741.658 .0298783
742.383 .0298724
743.108 .0298653
743.832 .0298574
744.556 .0298485
745.280 .0298390
746.004 .0298286
746.727 .0298171
747.450 .0298044
748.173 .0297897
748.896 .0297734
749.618 .0297559
750.340 .0297379
751.062 .0297197
751.784 .0297021
752.506 .0296855
753.227 .0296700
753.948 .0296554
754.669 .0296407
755.389 .0296253
756.110 .0296091
756.830 .0295916
757.550 .0295728
758.269 .0295526
758.989 .0295314
759.708 .0295096
760.427 .0294874
761.146 .0294647
761.864 .0294413
762.582 .0294170
763.300 .0293918
764.018 .0293652
764.736 .0293374
765.453 .0293087
766.170 .0292797
766.887 .0292507
767.603 .0292221
768.320 .0291942
769.036 .0291674
769.751 .0291417
770.467 .0291167
771.182 .0290928
771.897 .0290693
772.612 .0290467
773.327 .0290250
774.041 .0290043
774.755 .0289844
775.469 .0289656
776.183 .0289479
776.896 .0289309
777.609 .0289146
778.322 .0288983
779.035 .0288819
779.747 .0288655
780.459 .0288488
781.171 .0288314
781.882 .0288139
782.594 .0287965
783.305 .0287789
784.016 .0287619
784.726 .0287458
785.436 .0287307
786.147 .0287166
786.856 .0287038
787.566 .0286921
788.275 .0286811
788.984 .0286705
789.693 .0286598
790.401 .0286491
791.110 .0286384
791.818 .0286273
792.525 .0286160
793.233 .0286049
793.940 .0285940
794.647 .0285834
795.353 .0285734
796.060 .0285634
796.766 .0285529
797.472 .0285420
798.177 .0285303
798.883 .0285179
799.588 .0285047
800.292 .0284917
800.997 .0284798
801.701 .0284692
802.405 .0284601
803.109 .0284529
803.812 .0284477
804.515 .0284440
805.218 .0284410
805.921 .0284386
806.623 .0284365
807.325 .0284350
808.027 .0284340
808.728 .0284333
809.429 .0284331
810.130 .0284331
810.831 .0284330
811.531 .0284328
812.231 .0284315
812.931 .0284287
813.630 .0284251
814.330 .0284206
815.029 .0284158
815.727 .0284107
816.426 .0284064
817.124 .0284029
817.821 .0284004
818.519 .0283985
819.216 .0283974
819.913 .0283971
820.609 .0283975
821.306 .0283986
822.002 .0284005
822.697 .0284033
823.393 .0284073
824.088 .0284124
824.783 .0284181
825.477 .0284238
826.171 .0284291
826.865 .0284336
827.559 .0284379
828.252 .0284415
828.945 .0284449
829.638 .0284485
830.330 .0284523
831.023 .0284559
831.714 .0284591
832.406 .0284619
833.097 .0284634
833.788 .0284633
834.479 .0284617
835.169 .0284586
835.859 .0284548
836.548 .0284508
837.238 .0284468
837.927 .0284438
838.615 .0284421
839.304 .0284408
839.992 .0284400
840.680 .0284394
841.367 .0284376
842.054 .0284347
842.741 .0284301
843.428 .0284244
844.114 .0284173
844.800 .0284098
845.485 .0284018
846.170 .0283937
846.855 .0283856
847.540 .0283768
848.224 .0283672
848.908 .0283568
849.592 .0283440
850.275 .0283288
850.958 .0283113
851.641 .0282920
852.323 .0282709
853.005 .0282480
853.687 .0282243
854.368 .0281997
855.049 .0281746
855.730 .0281492
856.410 .0281233
857.090 .0280979
857.769 .0280726
858.449 .0280474
859.128 .0280221
859.806 .0279968
860.485 .0279720
861.163 .0279474
861.840 .0279231
862.518 .0278990
863.195 .0278750
863.871 .0278512
864.548 .0278279
865.224 .0278047
865.899 .0277820
866.574 .0277595
867.249 .0277372
867.924 .0277149
868.598 .0276921
869.272 .0276690
869.946 .0276457
870.619 .0276219
871.292 .0275979
871.964 .0275733
872.636 .0275485
873.308 .0275233
873.979 .0274979
874.651 .0274719
875.321 .0274454
875.992 .0274186
876.662 .0273914
877.331 .0273643
878.001 .0273373
878.670 .0273109
879.338 .0272854
880.007 .0272610
880.675 .0272380
881.342 .0272159
882.009 .0271949
882.676 .0271747
883.343 .0271551
884.009 .0271361
884.675 .0271173
885.340 .0270988
886.005 .0270807
886.670 .0270635
887.334 .0270469
887.998 .0270308
888.662 .0270159
889.325 .0270015
889.988 .0269872
890.650 .0269731
891.312 .0269584
891.974 .0269429
892.636 .0269270
893.297 .0269111
893.957 .0268954
894.618 .0268809
895.278 .0268675
895.937 .0268557
896.596 .0268458
897.255 .0268374
897.914 .0268297
898.572 .0268228
899.230 .0268168
899.887 .0268105
900.544 .0268042
901.201 .0267982
901.857 .0267923
902.513 .0267864
903.168 .0267801
903.823 .0267731
904.478 .0267651
905.132 .0267559
905.786 .0267449
906.440 .0267327
907.093 .0267200
907.746 .0267064
908.399 .0266919
909.051 .0266775
909.703 .0266625
910.354 .0266474
911.005 .0266324
911.656 .0266178
912.306 .0266039
912.956 .0265912
913.605 .0265800
914.254 .0265710
914.903 .0265646
915.551 .0265605
916.199 .0265584
916.847 .0265583
917.494 .0265591
918.141 .0265603
918.788 .0265618
919.434 .0265639
920.079 .0265657
920.725 .0265684
921.370 .0265713
922.014 .0265747
922.658 .0265784
923.302 .0265822
923.946 .0265853
924.589 .0265871
925.231 .0265870
925.873 .0265849
926.515 .0265806
927.157 .0265748
927.798 .0265671
928.439 .0265588
929.079 .0265502
929.719 .0265416
930.359 .0265325
930.998 .0265238
931.637 .0265153
932.275 .0265069
932.913 .0264984
933.551 .0264900
934.188 .0264817
934.825 .0264737
935.462 .0264667
936.098 .0264607
936.733 .0264563
937.369 .0264537
938.004 .0264535
938.638 .0264553
939.273 .0264587
939.907 .0264636
940.540 .0264702
941.173 .0264783
941.806 .0264874
942.438 .0264973
943.070 .0265082
943.702 .0265200
944.333 .0265320
944.964 .0265437
945.594 .0265556
946.224 .0265670
946.854 .0265779
947.483 .0265880
948.112 .0265975
948.741 .0266061
949.369 .0266138
949.996 .0266203
950.624 .0266255
951.251 .0266293
951.878 .0266319
952.504 .0266334
953.130 .0266343
953.755 .0266347
954.380 .0266350
955.005 .0266356
955.629 .0266364
956.253 .0266371
956.877 .0266379
957.500 .0266389
958.123 .0266395
958.746 .0266393
959.368 .0266386
959.990 .0266368
960.611 .0266344
961.232 .0266315
961.853 .0266282
962.473 .0266243
963.093 .0266199
963.712 .0266140
964.331 .0266066
964.950 .0265976
965.569 .0265870
966.187 .0265750
966.804 .0265629
967.422 .0265506
968.039 .0265386
968.655 .0265275
969.272 .0265173
969.887 .0265071
970.503 .0264978
971.118 .0264880
971.733 .0264779
972.347 .0264674
972.961 .0264567
973.575 .0264458
974.188 .0264354
974.801 .0264253
975.414 .0264148
976.026 .0264040
976.638 .0263931
977.250 .0263810
977.861 .0263687
978.472 .0263556
979.083 .0263415
979.693 .0263265
980.303 .0263101
980.912 .0262919
981.521 .0262725
982.130 .0262516
982.738 .0262291
983.346 .0262052
983.954 .0261807
984.562 .0261554
985.169 .0261301
985.775 .0261051
986.382 .0260798
986.988 .0260539
987.594 .0260273
988.199 .0259990
988.804 .0259702
989.409 .0259407
990.013 .0259110
990.617 .0258818
991.221 .0258541
991.824 .0258277
992.427 .0258035
993.030 .0257816
993.632 .0257615
994.234 .0257430
994.836 .0257258
995.438 .0257092
996.039 .0256931
996.640 .0256776
997.240 .0256624
997.840 .0256474
998.440 .0256332
999.040 .0256191
999.639 .0256050
1000.238 .0255914
1000.836 .0255779
1001.435 .0255639
1002.033 .0255496
1002.630 .0255344
1003.228 .0255178
1003.825 .0255007
1004.422 .0254828
1005.018 .0254640
1005.614 .0254453
1006.210 .0254265
1006.806 .0254073
1007.401 .0253884
1007.996 .0253692
1008.591 .0253491
1009.186 .0253290
1009.780 .0253092
1010.374 .0252886
1010.967 .0252683
1011.561 .0252479
1012.154 .0252275
1012.746 .0252071
1013.339 .0251866
1013.931 .0251655
1014.523 .0251439
1015.115 .0251222
1015.706 .0250999
1016.298 .0250776
1016.888 .0250561
1017.479 .0250352
1018.069 .0250164
1018.660 .0249989
1019.250 .0249823
1019.839 .0249665
1020.429 .0249516
1021.018 .0249372
1021.607 .0249233
1022.195 .0249097
1022.784 .0248970
1023.372 .0248862
1023.960 .0248772
1024.547 .0248700
1025.135 .0248651
1025.722 .0248621
1026.309 .0248601
1026.896 .0248594
1027.483 .0248598
1028.069 .0248602
1028.655 .0248615
1029.241 .0248639
1029.827 .0248668
1030.412 .0248706
1030.997 .0248754
1031.582 .0248808
1032.167 .0248866
1032.752 .0248922
1033.336 .0248971
1033.921 .0249016
1034.505 .0249063
1035.089 .0249104
1035.672 .0249139
1036.256 .0249176
1036.839 .0249210
1037.422 .0249237
1038.005 .0249264
1038.588 .0249287
1039.171 .0249299
1039.753 .0249299
1040.335 .0249293
1040.918 .0249277
1041.500 .0249255
1042.081 .0249232
1042.663 .0249210
1043.244 .0249186
1043.826 .0249160
1044.407 .0249133
1044.988 .0249107
1045.569 .0249078
1046.150 .0249045
1046.730 .0249006
1047.311 .0248975
1047.891 .0248947
1048.471 .0248932
1049.052 .0248932
1049.632 .0248962
1050.211 .0249012
1050.791 .0249080
1051.371 .0249169
1051.950 .0249278
1052.530 .0249388
1053.109 .0249495
1053.688 .0249596
1054.268 .0249689
1054.847 .0249776
1055.426 .0249867
1056.005 .0249965
1056.583 .0250076
1057.162 .0250188
1057.741 .0250298
1058.319 .0250407
1058.898 .0250520
1059.476 .0250623
1060.055 .0250733
1060.633 .0250864
1061.211 .0251017
1061.790 .0251202
1062.368 .0251422
1062.946 .0251675
1063.524 .0251951
1064.102 .0252228
1064.680 .0252492
1065.258 .0252731
1065.836 .0252943
1066.414 .0253131
1066.992 .0253300
1067.570 .0253466
1068.148 .0253624
1068.726 .0253775
1069.304 .0253924
1069.882 .0254051
1070.460 .0254155
1071.038 .0254234
1071.616 .0254277
1072.194 .0254305
1072.772 .0254318
1073.350 .0254348
1073.928 .0254410
1074.506 .0254520
1075.084 .0254683
1075.662 .0254884
1076.240 .0255121
1076.819 .0255371
1077.397 .0255622
1077.976 .0255873
1078.554 .0256096
1079.133 .0256307
1079.711 .0256504
1080.290 .0256694
1080.869 .0256887
1081.448 .0257077
1082.027 .0257276
1082.606 .0257482
1083.185 .0257703
1083.764 .0257923
1084.343 .0258138
1084.923 .0258361
1085.502 .0258577
1086.082 .0258780
1086.662 .0258981
1087.242 .0259169
1087.822 .0259365
1088.402 .0259583
1088.983 .0259821
1089.563 .0260074
1090.144 .0260347
1090.725 .0260629
1091.306 .0260920
1091.887 .0261208
1092.469 .0261511
1093.050 .0261797
1093.632 .0262097
1094.214 .0262406
1094.796 .0262709
1095.379 .0263033
1095.961 .0263366
1096.544 .0263715
1097.127 .0264078
1097.710 .0264445
1098.294 .0264810
1098.877 .0265156
1099.461 .0265518
1100.046 .0265872
1100.630 .0266218
1101.215 .0266561
1101.800 .0266900
1102.385 .0267226
1102.970 .0267538
1103.556 .0267810
1104.142 .0268033
1104.728 .0268238
1105.315 .0268402
1105.902 .0268540
1106.489 .0268670
1107.077 .0268835
1107.664 .0269064
1108.253 .0269363
1108.841 .0269757
1109.430 .0270197
1110.019 .0270678
1110.609 .0271172
1111.198 .0271654
1111.789 .0272107
1112.379 .0272504
1112.970 .0272885
1113.561 .0273265
1114.153 .0273683
1114.745 .0274129
1115.338 .0274631
1115.931 .0275203
1116.524 .0275824
1117.117 .0276423
1117.712 .0276958
1118.306 .0277440
1118.901 .0277857
1119.496 .0278216
1120.092 .0278536
1120.689 .0278835
1121.285 .0279179
1121.882 .0279555
1122.480 .0280015
1123.078 .0280528
1123.677 .0281118
1124.276 .0281745
1124.875 .0282419
1125.476 .0283098
1126.076 .0283777
1126.677 .0284451
1127.279 .0285132
1127.881 .0285825
1128.484 .0286510
1129.087 .0287184
1129.691 .0287883
1130.295 .0288607
1130.900 .0289397
1131.505 .0290219
1132.111 .0291107
1132.718 .0292041
1133.325 .0292965
1133.933 .0293904
1134.541 .0294802
1135.150 .0295687
1135.760 .0296547
1136.370 .0297408
1136.981 .0298311
1137.592 .0299258
1138.204 .0300307
1138.817 .0301436
1139.431 .0302635
1140.045 .0303875
1140.660 .0305138
1141.275 .0306398
1141.891 .0307801
1142.508 .0308732
1143.126 .0309134
1143.744 .0312064
1144.363 .0312791
1144.983 .0318334
