Measurement Sequence started on: 15-12-46-377
Integration time: 28
Scans to Average: 2 
>>>>>Begin Spectral Data<<<<<
432.689 .0000100
433.621 .0000100
434.552 .0000100
435.482 .0000100
436.410 .0000100
437.337 .0000100
438.262 .0272217
439.187 .0576049
440.110 .0952762
441.031 .1377505
441.952 .1789094
442.871 .2111846
443.789 .2286988
444.705 .2294864
445.621 .2160545
446.535 .1938823
447.447 .1689067
448.359 .1307869
449.269 .1120598
450.178 .1003605
451.086 .0921445
451.993 .0859236
452.898 .0810512
453.803 .0770814
454.706 .0737713
455.608 .0709542
456.508 .0684909
457.408 .0663180
458.306 .0643681
459.204 .0625953
460.100 .0609812
460.995 .0595106
461.888 .0581703
462.781 .0569366
463.673 .0558047
464.563 .0547762
465.452 .0538343
466.340 .0529708
467.228 .0521860
468.114 .0514718
468.999 .0508235
469.882 .0502302
470.765 .0496799
471.647 .0491891
472.528 .0487453
473.407 .0483543
474.286 .0480082
475.163 .0477030
476.040 .0474404
476.915 .0472150
477.790 .0470206
478.663 .0468497
479.535 .0466876
480.407 .0465334
481.277 .0463762
482.147 .0462270
483.015 .0460757
483.883 .0459361
484.749 .0458105
485.615 .0457049
486.479 .0456132
487.343 .0455453
488.206 .0454974
489.067 .0454731
489.928 .0454671
490.788 .0454847
491.647 .0455265
492.505 .0455998
493.362 .0457011
494.218 .0458415
495.073 .0460138
495.928 .0462268
496.781 .0464526
497.634 .0467082
498.486 .0469769
499.337 .0472661
500.187 .0475770
501.036 .0479178
501.884 .0482940
502.731 .0487103
503.578 .0491642
504.424 .0496593
505.268 .0501746
506.113 .0507170
506.956 .0512615
507.798 .0518249
508.640 .0524001
509.480 .0530075
510.320 .0536642
511.160 .0544058
511.998 .0552477
512.836 .0562158
513.672 .0573116
514.508 .0585360
515.344 .0598749
516.178 .0613461
517.012 .0629499
517.845 .0647144
518.677 .0666858
519.508 .0689078
520.339 .0714319
521.169 .0743584
521.998 .0777016
522.826 .0815282
523.654 .0858517
524.481 .0906561
525.307 .0959620
526.133 .1017509
526.958 .1079827
527.782 .1145480
528.605 .1213463
529.428 .1282775
530.250 .1348255
531.072 .1408063
531.892 .1458291
532.712 .1495939
533.532 .1519472
534.350 .1526350
535.168 .1515996
535.986 .1489871
536.802 .1449626
537.618 .1397813
538.434 .1336736
539.249 .1271596
540.063 .1203681
540.876 .1136026
541.689 .1070966
542.501 .1009517
543.313 .0953098
544.124 .0902132
544.934 .0855722
545.744 .0813834
546.553 .0775604
547.361 .0741062
548.169 .0709807
548.976 .0681723
549.783 .0656280
550.589 .0633025
551.395 .0611860
552.200 .0592817
553.004 .0575339
553.808 .0559259
554.611 .0544601
555.414 .0531358
556.216 .0519204
557.018 .0508283
557.819 .0498450
558.619 .0489639
559.419 .0481714
560.218 .0474638
561.017 .0468173
561.815 .0462187
562.613 .0456549
563.410 .0451075
564.207 .0445775
565.003 .0440631
565.799 .0435473
566.594 .0430481
567.388 .0425761
568.182 .0421204
568.976 .0416737
569.769 .0412485
570.562 .0408304
571.354 .0404151
572.145 .0400064
572.936 .0395960
573.727 .0391862
574.517 .0387774
575.307 .0383717
576.096 .0379689
576.885 .0375753
577.673 .0371954
578.461 .0368316
579.248 .0364929
580.035 .0361710
580.821 .0358643
581.607 .0355775
582.392 .0353077
583.177 .0350567
583.962 .0348224
584.746 .0346069
585.529 .0344046
586.313 .0342174
587.095 .0340423
587.878 .0338798
588.660 .0337311
589.441 .0335938
590.222 .0334694
591.003 .0333566
591.783 .0332529
592.563 .0331588
593.342 .0330734
594.121 .0329952
594.899 .0329213
595.678 .0328519
596.455 .0327849
597.233 .0327195
598.009 .0326577
598.786 .0325978
599.562 .0325403
600.338 .0324861
601.113 .0324347
601.888 .0323857
602.663 .0323394
603.437 .0322946
604.211 .0322508
604.984 .0322085
605.757 .0321682
606.530 .0321291
607.302 .0320931
608.074 .0320605
608.845 .0320307
609.616 .0320035
610.387 .0319787
611.158 .0319539
611.928 .0319298
612.697 .0319050
613.467 .0318794
614.236 .0318538
615.004 .0318293
615.773 .0318054
616.541 .0317837
617.308 .0317643
618.076 .0317464
618.843 .0317283
619.609 .0317112
620.375 .0316918
621.141 .0316707
621.907 .0316485
622.672 .0316258
623.437 .0316036
624.202 .0315833
624.966 .0315647
625.730 .0315487
626.493 .0315344
627.257 .0315203
628.020 .0315042
628.782 .0314870
629.545 .0314669
630.307 .0314434
631.068 .0314170
631.830 .0313895
632.591 .0313597
633.352 .0313295
634.112 .0312986
634.872 .0312665
635.632 .0312335
636.392 .0311997
637.151 .0311654
637.910 .0311309
638.668 .0310974
639.427 .0310653
640.185 .0310347
640.943 .0310068
641.700 .0309807
642.457 .0309562
643.214 .0309336
643.971 .0309118
644.727 .0308902
645.483 .0308694
646.239 .0308491
646.994 .0308288
647.750 .0308101
648.505 .0307922
649.259 .0307746
650.014 .0307570
650.768 .0307394
651.521 .0307204
652.275 .0307001
653.028 .0306788
653.781 .0306564
654.534 .0306335
655.286 .0306100
656.039 .0305864
656.791 .0305641
657.542 .0305417
658.294 .0305189
659.045 .0304960
659.796 .0304728
660.546 .0304485
661.297 .0304227
662.047 .0303964
662.796 .0303700
663.546 .0303439
664.295 .0303180
665.044 .0302924
665.793 .0302681
666.542 .0302441
667.290 .0302204
668.038 .0301973
668.786 .0301741
669.533 .0301503
670.281 .0301263
671.028 .0301025
671.774 .0300792
672.521 .0300572
673.267 .0300367
674.013 .0300181
674.759 .0300010
675.505 .0299848
676.250 .0299686
676.995 .0299524
677.740 .0299361
678.484 .0299186
679.229 .0299004
679.973 .0298816
680.717 .0298624
681.460 .0298436
682.204 .0298251
682.947 .0298078
683.690 .0297909
684.433 .0297747
685.175 .0297587
685.917 .0297428
686.659 .0297272
687.401 .0297116
688.142 .0296956
688.884 .0296796
689.625 .0296635
690.365 .0296468
691.106 .0296296
691.846 .0296121
692.586 .0295942
693.326 .0295755
694.066 .0295556
694.805 .0295347
695.545 .0295127
696.284 .0294905
697.022 .0294675
697.761 .0294438
698.499 .0294197
699.237 .0293950
699.975 .0293701
700.713 .0293453
701.450 .0293206
702.187 .0292961
702.924 .0292727
703.661 .0292503
704.397 .0292285
705.133 .0292083
705.869 .0291896
706.605 .0291727
707.341 .0291572
708.076 .0291427
708.811 .0291285
709.546 .0291148
710.281 .0291013
711.015 .0290872
711.749 .0290727
712.483 .0290577
713.217 .0290422
713.950 .0290263
714.684 .0290101
715.417 .0289932
716.150 .0289759
716.882 .0289582
717.615 .0289398
718.347 .0289205
719.079 .0289006
719.811 .0288808
720.542 .0288616
721.273 .0288431
722.005 .0288255
722.735 .0288087
723.466 .0287929
724.196 .0287775
724.927 .0287621
725.656 .0287458
726.386 .0287293
727.116 .0287120
727.845 .0286946
728.574 .0286766
729.303 .0286595
730.031 .0286434
730.760 .0286284
731.488 .0286143
732.216 .0286008
732.944 .0285876
733.671 .0285743
734.398 .0285608
735.125 .0285471
735.852 .0285329
736.579 .0285189
737.305 .0285054
738.031 .0284933
738.757 .0284818
739.483 .0284717
740.208 .0284624
740.933 .0284542
741.658 .0284463
742.383 .0284378
743.108 .0284287
743.832 .0284193
744.556 .0284092
745.280 .0283978
746.004 .0283852
746.727 .0283722
747.450 .0283580
748.173 .0283432
748.896 .0283280
749.618 .0283126
750.340 .0282972
751.062 .0282822
751.784 .0282673
752.506 .0282523
753.227 .0282375
753.948 .0282224
754.669 .0282074
755.389 .0281922
756.110 .0281770
756.830 .0281618
757.550 .0281475
758.269 .0281338
758.989 .0281203
759.708 .0281072
760.427 .0280946
761.146 .0280817
761.864 .0280686
762.582 .0280549
763.300 .0280409
764.018 .0280266
764.736 .0280123
765.453 .0279979
766.170 .0279836
766.887 .0279692
767.603 .0279545
768.320 .0279393
769.036 .0279238
769.751 .0279075
770.467 .0278910
771.182 .0278741
771.897 .0278575
772.612 .0278414
773.327 .0278264
774.041 .0278122
774.755 .0277991
775.469 .0277865
776.183 .0277742
776.896 .0277620
777.609 .0277498
778.322 .0277376
779.035 .0277257
779.747 .0277147
780.459 .0277046
781.171 .0276956
781.882 .0276881
782.594 .0276818
783.305 .0276767
784.016 .0276724
784.726 .0276683
785.436 .0276644
786.147 .0276599
786.856 .0276547
787.566 .0276486
788.275 .0276418
788.984 .0276345
789.693 .0276263
790.401 .0276178
791.110 .0276087
791.818 .0275991
792.525 .0275888
793.233 .0275777
793.940 .0275657
794.647 .0275531
795.353 .0275399
796.060 .0275264
796.766 .0275125
797.472 .0274984
798.177 .0274845
798.883 .0274706
799.588 .0274568
800.292 .0274431
800.997 .0274295
801.701 .0274164
802.405 .0274037
803.109 .0273918
803.812 .0273808
804.515 .0273706
805.218 .0273606
805.921 .0273505
806.623 .0273400
807.325 .0273288
808.027 .0273169
808.728 .0273043
809.429 .0272909
810.130 .0272768
810.831 .0272631
811.531 .0272493
812.231 .0272360
812.931 .0272231
813.630 .0272101
814.330 .0271971
815.029 .0271838
815.727 .0271701
816.426 .0271559
817.124 .0271420
817.821 .0271280
818.519 .0271145
819.216 .0271020
819.913 .0270907
820.609 .0270806
821.306 .0270716
822.002 .0270642
822.697 .0270576
823.393 .0270523
824.088 .0270480
824.783 .0270447
825.477 .0270420
826.171 .0270400
826.865 .0270386
827.559 .0270373
828.252 .0270362
828.945 .0270352
829.638 .0270336
830.330 .0270319
831.023 .0270295
831.714 .0270265
832.406 .0270225
833.097 .0270180
833.788 .0270120
834.479 .0270048
835.169 .0269970
835.859 .0269886
836.548 .0269795
837.238 .0269709
837.927 .0269622
838.615 .0269535
839.304 .0269453
839.992 .0269374
840.680 .0269296
841.367 .0269220
842.054 .0269144
842.741 .0269070
843.428 .0269002
844.114 .0268944
844.800 .0268889
845.485 .0268844
846.170 .0268803
846.855 .0268758
847.540 .0268707
848.224 .0268649
848.908 .0268579
849.592 .0268498
850.275 .0268406
850.958 .0268304
851.641 .0268196
852.323 .0268086
853.005 .0267980
853.687 .0267877
854.368 .0267776
855.049 .0267672
855.730 .0267566
856.410 .0267460
857.090 .0267348
857.769 .0267233
858.449 .0267116
859.128 .0266997
859.806 .0266875
860.485 .0266750
861.163 .0266625
861.840 .0266501
862.518 .0266378
863.195 .0266251
863.871 .0266122
864.548 .0265993
865.224 .0265864
865.899 .0265735
866.574 .0265607
867.249 .0265480
867.924 .0265351
868.598 .0265226
869.272 .0265102
869.946 .0264983
870.619 .0264871
871.292 .0264766
871.964 .0264669
872.636 .0264579
873.308 .0264496
873.979 .0264420
874.651 .0264349
875.321 .0264281
875.992 .0264212
876.662 .0264143
877.331 .0264070
878.001 .0263997
878.670 .0263919
879.338 .0263841
880.007 .0263760
880.675 .0263679
881.342 .0263595
882.009 .0263506
882.676 .0263413
883.343 .0263315
884.009 .0263213
884.675 .0263107
885.340 .0263000
886.005 .0262896
886.670 .0262798
887.334 .0262709
887.998 .0262625
888.662 .0262548
889.325 .0262475
889.988 .0262406
890.650 .0262343
891.312 .0262284
891.974 .0262232
892.636 .0262189
893.297 .0262155
893.957 .0262131
894.618 .0262115
895.278 .0262105
895.937 .0262097
896.596 .0262089
897.255 .0262077
897.914 .0262058
898.572 .0262030
899.230 .0261995
899.887 .0261950
900.544 .0261898
901.201 .0261835
901.857 .0261760
902.513 .0261674
903.168 .0261574
903.823 .0261462
904.478 .0261336
905.132 .0261196
905.786 .0261043
906.440 .0260877
907.093 .0260700
907.746 .0260512
908.399 .0260323
909.051 .0260138
909.703 .0259952
910.354 .0259766
911.005 .0259585
911.656 .0259409
912.306 .0259232
912.956 .0259054
913.605 .0258874
914.254 .0258691
914.903 .0258507
915.551 .0258322
916.199 .0258140
916.847 .0257970
917.494 .0257809
918.141 .0257656
918.788 .0257513
919.434 .0257372
920.079 .0257227
920.725 .0257080
921.370 .0256924
922.014 .0256757
922.658 .0256578
923.302 .0256387
923.946 .0256188
924.589 .0255981
925.231 .0255766
925.873 .0255550
926.515 .0255335
927.157 .0255121
927.798 .0254899
928.439 .0254674
929.079 .0254441
929.719 .0254202
930.359 .0253955
930.998 .0253700
931.637 .0253450
932.275 .0253211
932.913 .0252984
933.551 .0252777
934.188 .0252592
934.825 .0252428
935.462 .0252281
936.098 .0252143
936.733 .0252006
937.369 .0251869
938.004 .0251731
938.638 .0251590
939.273 .0251450
939.907 .0251319
940.540 .0251198
941.173 .0251090
941.806 .0251000
942.438 .0250918
943.070 .0250847
943.702 .0250785
944.333 .0250727
944.964 .0250667
945.594 .0250607
946.224 .0250546
946.854 .0250489
947.483 .0250437
948.112 .0250394
948.741 .0250357
949.369 .0250330
949.996 .0250307
950.624 .0250285
951.251 .0250254
951.878 .0250216
952.504 .0250161
953.130 .0250085
953.755 .0249988
954.380 .0249870
955.005 .0249733
955.629 .0249590
956.253 .0249442
956.877 .0249298
957.500 .0249156
958.123 .0249022
958.746 .0248894
959.368 .0248770
959.990 .0248647
960.611 .0248522
961.232 .0248400
961.853 .0248283
962.473 .0248170
963.093 .0248067
963.712 .0247975
964.331 .0247899
964.950 .0247836
965.569 .0247789
966.187 .0247753
966.804 .0247731
967.422 .0247718
968.039 .0247708
968.655 .0247699
969.272 .0247685
969.887 .0247666
970.503 .0247641
971.118 .0247612
971.733 .0247576
972.347 .0247536
972.961 .0247498
973.575 .0247459
974.188 .0247412
974.801 .0247360
975.414 .0247298
976.026 .0247221
976.638 .0247125
977.250 .0247016
977.861 .0246894
978.472 .0246772
979.083 .0246647
979.693 .0246523
980.303 .0246397
980.912 .0246276
981.521 .0246150
982.130 .0246019
982.738 .0245886
983.346 .0245747
983.954 .0245606
984.562 .0245473
985.169 .0245345
985.775 .0245227
986.382 .0245117
986.988 .0245014
987.594 .0244913
988.199 .0244812
988.804 .0244715
989.409 .0244619
990.013 .0244537
990.617 .0244470
991.221 .0244416
991.824 .0244380
992.427 .0244364
993.030 .0244358
993.632 .0244360
994.234 .0244366
994.836 .0244375
995.438 .0244380
996.039 .0244382
996.640 .0244377
997.240 .0244375
997.840 .0244375
998.440 .0244380
999.040 .0244382
999.639 .0244393
1000.238 .0244402
1000.836 .0244408
1001.435 .0244412
1002.033 .0244415
1002.630 .0244409
1003.228 .0244407
1003.825 .0244405
1004.422 .0244407
1005.018 .0244413
1005.614 .0244427
1006.210 .0244446
1006.806 .0244475
1007.401 .0244509
1007.996 .0244543
1008.591 .0244579
1009.186 .0244619
1009.780 .0244654
1010.374 .0244688
1010.967 .0244726
1011.561 .0244766
1012.154 .0244805
1012.746 .0244846
1013.339 .0244888
1013.931 .0244933
1014.523 .0244982
1015.115 .0245026
1015.706 .0245066
1016.298 .0245102
1016.888 .0245139
1017.479 .0245167
1018.069 .0245193
1018.660 .0245222
1019.250 .0245257
1019.839 .0245297
1020.429 .0245348
1021.018 .0245407
1021.607 .0245479
1022.195 .0245561
1022.784 .0245652
1023.372 .0245743
1023.960 .0245845
1024.547 .0245952
1025.135 .0246069
1025.722 .0246199
1026.309 .0246344
1026.896 .0246501
1027.483 .0246680
1028.069 .0246871
1028.655 .0247063
1029.241 .0247247
1029.827 .0247423
1030.412 .0247574
1030.997 .0247698
1031.582 .0247792
1032.167 .0247865
1032.752 .0247928
1033.336 .0247982
1033.921 .0248024
1034.505 .0248069
1035.089 .0248116
1035.672 .0248165
1036.256 .0248210
1036.839 .0248252
1037.422 .0248286
1038.005 .0248317
1038.588 .0248343
1039.171 .0248374
1039.753 .0248407
1040.335 .0248443
1040.918 .0248479
1041.500 .0248518
1042.081 .0248547
1042.663 .0248568
1043.244 .0248577
1043.826 .0248579
1044.407 .0248558
1044.988 .0248520
1045.569 .0248458
1046.150 .0248384
1046.730 .0248293
1047.311 .0248189
1047.891 .0248082
1048.471 .0247987
1049.052 .0247902
1049.632 .0247839
1050.211 .0247803
1050.791 .0247798
1051.371 .0247820
1051.950 .0247873
1052.530 .0247937
1053.109 .0248023
1053.688 .0248117
1054.268 .0248215
1054.847 .0248321
1055.426 .0248439
1056.005 .0248558
1056.583 .0248677
1057.162 .0248795
1057.741 .0248902
1058.319 .0248996
1058.898 .0249077
1059.476 .0249131
1060.055 .0249181
1060.633 .0249219
1061.211 .0249248
1061.790 .0249276
1062.368 .0249309
1062.946 .0249337
1063.524 .0249364
1064.102 .0249386
1064.680 .0249402
1065.258 .0249405
1065.836 .0249407
1066.414 .0249404
1066.992 .0249414
1067.570 .0249434
1068.148 .0249460
1068.726 .0249500
1069.304 .0249558
1069.882 .0249605
1070.460 .0249658
1071.038 .0249710
1071.616 .0249765
1072.194 .0249819
1072.772 .0249881
1073.350 .0249957
1073.928 .0250056
1074.506 .0250176
1075.084 .0250315
1075.662 .0250461
1076.240 .0250631
1076.819 .0250790
1077.397 .0250938
1077.976 .0251071
1078.554 .0251191
1079.133 .0251287
1079.711 .0251367
1080.290 .0251424
1080.869 .0251459
1081.448 .0251466
1082.027 .0251450
1082.606 .0251411
1083.185 .0251352
1083.764 .0251288
1084.343 .0251217
1084.923 .0251142
1085.502 .0251081
1086.082 .0251030
1086.662 .0251003
1087.242 .0250997
1087.822 .0251017
1088.402 .0251046
1088.983 .0251077
1089.563 .0251122
1090.144 .0251175
1090.725 .0251250
1091.306 .0251340
1091.887 .0251460
1092.469 .0251609
1093.050 .0251791
1093.632 .0251998
1094.214 .0252221
1094.796 .0252453
1095.379 .0252685
1095.961 .0252895
1096.544 .0253085
1097.127 .0253255
1097.710 .0253424
1098.294 .0253573
1098.877 .0253722
1099.461 .0253867
1100.046 .0253994
1100.630 .0254090
1101.215 .0254174
1101.800 .0254233
1102.385 .0254276
1102.970 .0254314
1103.556 .0254342
1104.142 .0254374
1104.728 .0254447
1105.315 .0254542
1105.902 .0254650
1106.489 .0254789
1107.077 .0254952
1107.664 .0255110
1108.253 .0255275
1108.841 .0255455
1109.430 .0255643
1110.019 .0255867
1110.609 .0256128
1111.198 .0256422
1111.789 .0256774
1112.379 .0257162
1112.970 .0257563
1113.561 .0257977
1114.153 .0258406
1114.745 .0258817
1115.338 .0259233
1115.931 .0259676
1116.524 .0260125
1117.117 .0260588
1117.712 .0261060
1118.306 .0261558
1118.901 .0262085
1119.496 .0262613
1120.092 .0263141
1120.689 .0263690
1121.285 .0264245
1121.882 .0264768
1122.480 .0265295
1123.078 .0265829
1123.677 .0266337
1124.276 .0266818
1124.875 .0267283
1125.476 .0267742
1126.076 .0268204
1126.677 .0268681
1127.279 .0269188
1127.881 .0269758
1128.484 .0270369
1129.087 .0270979
1129.691 .0271605
1130.295 .0272239
1130.900 .0272847
1131.505 .0273442
1132.111 .0274061
1132.718 .0274722
1133.325 .0275447
1133.933 .0276282
1134.541 .0277236
1135.150 .0278315
1135.760 .0279446
1136.370 .0280629
1136.981 .0281820
1137.592 .0282959
1138.204 .0284064
1138.817 .0285151
1139.431 .0286330
1140.045 .0287563
1140.660 .0288749
1141.275 .0290027
1141.891 .0291487
1142.508 .0294773
1143.126 .0295311
1143.744 .0292953
1144.363 .0296457
1144.983 .0302048
