Measurement Sequence started on: 15-12-46-377
Integration time: 28
Scans to Average: 2 
>>>>>Begin Spectral Data<<<<<
432.689 .0000100
433.621 .0000100
434.552 .0000100
435.482 .0000100
436.410 .0000100
437.337 .0000100
438.262 .0273842
439.187 .0578831
440.110 .0958614
441.031 .1386387
441.952 .1801379
442.871 .2127353
443.789 .2304761
444.705 .2313725
445.621 .2179537
446.535 .1957031
447.447 .1705712
448.359 .1321403
449.269 .1131891
450.178 .1011358
451.086 .0926272
451.993 .0860602
452.898 .0808312
453.803 .0765394
454.706 .0729542
455.608 .0699007
456.508 .0673026
457.408 .0650975
458.306 .0632170
459.204 .0615773
460.100 .0601334
460.995 .0588536
461.888 .0577144
462.781 .0566676
463.673 .0557070
464.563 .0548289
465.452 .0540083
466.340 .0532243
467.228 .0525016
468.114 .0518172
468.999 .0511860
469.882 .0506029
470.765 .0500701
471.647 .0495858
472.528 .0491494
473.407 .0487500
474.286 .0483830
475.163 .0480500
476.040 .0477409
476.915 .0474509
477.790 .0471883
478.663 .0469470
479.535 .0467332
480.407 .0465572
481.277 .0464220
482.147 .0463150
483.015 .0462445
483.883 .0461933
484.749 .0461553
485.615 .0461257
486.479 .0460997
487.343 .0460772
488.206 .0460630
489.067 .0460572
489.928 .0460581
490.788 .0460798
491.647 .0461258
492.505 .0461950
493.362 .0462948
494.218 .0464104
495.073 .0465389
495.928 .0466849
496.781 .0468465
497.634 .0470244
498.486 .0472261
499.337 .0474615
500.187 .0477243
501.036 .0480219
501.884 .0483581
502.731 .0487324
503.578 .0491520
504.424 .0496090
505.268 .0500886
506.113 .0505963
506.956 .0511275
507.798 .0516841
508.640 .0522845
509.480 .0529422
510.320 .0536651
511.160 .0544721
511.998 .0553675
512.836 .0563551
513.672 .0574359
514.508 .0586282
515.344 .0599303
516.178 .0613644
517.012 .0629546
517.845 .0647466
518.677 .0667961
519.508 .0691176
520.339 .0717810
521.169 .0748634
521.998 .0783895
522.826 .0824043
523.654 .0869172
524.481 .0919572
525.307 .0975424
526.133 .1036525
526.958 .1102440
527.782 .1172347
528.605 .1244918
529.428 .1318728
530.250 .1388318
531.072 .1451773
531.892 .1505037
532.712 .1545408
533.532 .1571112
534.350 .1579615
535.168 .1570341
535.986 .1544338
536.802 .1503096
537.618 .1449319
538.434 .1384797
539.249 .1314821
540.063 .1240965
540.876 .1166961
541.689 .1095014
542.501 .1027097
543.313 .0965027
544.124 .0909255
544.934 .0859022
545.744 .0813960
546.553 .0773598
547.361 .0737953
548.169 .0706616
548.976 .0679135
549.783 .0654932
550.589 .0633635
551.395 .0614462
552.200 .0597436
553.004 .0581700
553.808 .0567192
554.611 .0553918
555.414 .0541748
556.216 .0530700
557.018 .0520840
557.819 .0511940
558.619 .0503878
559.419 .0496454
560.218 .0489517
561.017 .0482780
561.815 .0476207
562.613 .0469611
563.410 .0462945
564.207 .0456204
565.003 .0449488
565.799 .0442750
566.594 .0436167
567.388 .0429863
568.182 .0423793
568.976 .0417923
569.769 .0412296
570.562 .0406872
571.354 .0401633
572.145 .0396653
572.936 .0391896
573.727 .0387404
574.517 .0383159
575.307 .0379159
576.096 .0375413
576.885 .0371876
577.673 .0368516
578.461 .0365291
579.248 .0362178
580.035 .0359177
580.821 .0356269
581.607 .0353468
582.392 .0350797
583.177 .0348293
583.962 .0345967
584.746 .0343845
585.529 .0341890
586.313 .0340118
587.095 .0338504
587.878 .0337037
588.660 .0335699
589.441 .0334487
590.222 .0333383
591.003 .0332402
591.783 .0331546
592.563 .0330799
593.342 .0330151
594.121 .0329592
594.899 .0329086
595.678 .0328615
596.455 .0328159
597.233 .0327712
598.009 .0327258
598.786 .0326818
599.562 .0326382
600.338 .0325957
601.113 .0325546
601.888 .0325148
602.663 .0324746
603.437 .0324349
604.211 .0323939
604.984 .0323515
605.757 .0323075
606.530 .0322637
607.302 .0322191
608.074 .0321764
608.845 .0321355
609.616 .0320967
610.387 .0320605
611.158 .0320285
611.928 .0319990
612.697 .0319726
613.467 .0319484
614.236 .0319253
615.004 .0319022
615.773 .0318802
616.541 .0318586
617.308 .0318382
618.076 .0318196
618.843 .0318030
619.609 .0317873
620.375 .0317739
621.141 .0317613
621.907 .0317504
622.672 .0317396
623.437 .0317274
624.202 .0317128
624.966 .0316955
625.730 .0316752
626.493 .0316517
627.257 .0316263
628.020 .0316004
628.782 .0315735
629.545 .0315462
630.307 .0315186
631.068 .0314915
631.830 .0314640
632.591 .0314357
633.352 .0314061
634.112 .0313750
634.872 .0313425
635.632 .0313096
636.392 .0312770
637.151 .0312453
637.910 .0312147
638.668 .0311854
639.427 .0311573
640.185 .0311300
640.943 .0311022
641.700 .0310741
642.457 .0310461
643.214 .0310178
643.971 .0309881
644.727 .0309585
645.483 .0309296
646.239 .0309012
646.994 .0308734
647.750 .0308461
648.505 .0308198
649.259 .0307944
650.014 .0307695
650.768 .0307451
651.521 .0307207
652.275 .0306973
653.028 .0306745
653.781 .0306520
654.534 .0306300
655.286 .0306077
656.039 .0305849
656.791 .0305615
657.542 .0305367
658.294 .0305108
659.045 .0304843
659.796 .0304579
660.546 .0304306
661.297 .0304028
662.047 .0303749
662.796 .0303468
663.546 .0303185
664.295 .0302907
665.044 .0302630
665.793 .0302362
666.542 .0302104
667.290 .0301857
668.038 .0301626
668.786 .0301410
669.533 .0301204
670.281 .0301005
671.028 .0300814
671.774 .0300626
672.521 .0300440
673.267 .0300263
674.013 .0300092
674.759 .0299930
675.505 .0299772
676.250 .0299613
676.995 .0299456
677.740 .0299300
678.484 .0299137
679.229 .0298970
679.973 .0298804
680.717 .0298638
681.460 .0298475
682.204 .0298317
682.947 .0298166
683.690 .0298024
684.433 .0297890
685.175 .0297756
685.917 .0297626
686.659 .0297502
687.401 .0297376
688.142 .0297252
688.884 .0297138
689.625 .0297028
690.365 .0296919
691.106 .0296810
691.846 .0296699
692.586 .0296577
693.326 .0296445
694.066 .0296295
694.805 .0296133
695.545 .0295959
696.284 .0295771
697.022 .0295568
697.761 .0295362
698.499 .0295147
699.237 .0294924
699.975 .0294700
700.713 .0294479
701.450 .0294255
702.187 .0294035
702.924 .0293816
703.661 .0293606
704.397 .0293405
705.133 .0293215
705.869 .0293033
706.605 .0292862
707.341 .0292703
708.076 .0292553
708.811 .0292411
709.546 .0292280
710.281 .0292149
711.015 .0292021
711.749 .0291887
712.483 .0291744
713.217 .0291588
713.950 .0291419
714.684 .0291234
715.417 .0291037
716.150 .0290827
716.882 .0290609
717.615 .0290386
718.347 .0290161
719.079 .0289936
719.811 .0289709
720.542 .0289479
721.273 .0289247
722.005 .0289009
722.735 .0288764
723.466 .0288516
724.196 .0288269
724.927 .0288027
725.656 .0287792
726.386 .0287569
727.116 .0287355
727.845 .0287152
728.574 .0286956
729.303 .0286764
730.031 .0286577
730.760 .0286391
731.488 .0286204
732.216 .0286017
732.944 .0285834
733.671 .0285658
734.398 .0285493
735.125 .0285337
735.852 .0285191
736.579 .0285053
737.305 .0284918
738.031 .0284783
738.757 .0284648
739.483 .0284509
740.208 .0284365
740.933 .0284221
741.658 .0284074
742.383 .0283924
743.108 .0283776
743.832 .0283632
744.556 .0283493
745.280 .0283359
746.004 .0283218
746.727 .0283073
747.450 .0282926
748.173 .0282772
748.896 .0282617
749.618 .0282464
750.340 .0282314
751.062 .0282165
751.784 .0282021
752.506 .0281882
753.227 .0281747
753.948 .0281616
754.669 .0281486
755.389 .0281351
756.110 .0281215
756.830 .0281074
757.550 .0280931
758.269 .0280793
758.989 .0280657
759.708 .0280520
760.427 .0280388
761.146 .0280256
761.864 .0280127
762.582 .0279995
763.300 .0279866
764.018 .0279741
764.736 .0279620
765.453 .0279505
766.170 .0279394
766.887 .0279289
767.603 .0279191
768.320 .0279089
769.036 .0278988
769.751 .0278885
770.467 .0278780
771.182 .0278677
771.897 .0278577
772.612 .0278486
773.327 .0278404
774.041 .0278330
774.755 .0278261
775.469 .0278194
776.183 .0278126
776.896 .0278052
777.609 .0277973
778.322 .0277895
779.035 .0277821
779.747 .0277759
780.459 .0277712
781.171 .0277683
781.882 .0277670
782.594 .0277672
783.305 .0277684
784.016 .0277706
784.726 .0277731
785.436 .0277754
786.147 .0277773
786.856 .0277791
787.566 .0277808
788.275 .0277827
788.984 .0277846
789.693 .0277863
790.401 .0277876
791.110 .0277881
791.818 .0277871
792.525 .0277850
793.233 .0277820
793.940 .0277774
794.647 .0277720
795.353 .0277655
796.060 .0277584
796.766 .0277504
797.472 .0277419
798.177 .0277330
798.883 .0277242
799.588 .0277154
800.292 .0277068
800.997 .0276989
801.701 .0276917
802.405 .0276850
803.109 .0276788
803.812 .0276731
804.515 .0276675
805.218 .0276613
805.921 .0276542
806.623 .0276462
807.325 .0276376
808.027 .0276282
808.728 .0276181
809.429 .0276078
810.130 .0275970
810.831 .0275860
811.531 .0275744
812.231 .0275620
812.931 .0275483
813.630 .0275334
814.330 .0275168
815.029 .0274988
815.727 .0274795
816.426 .0274592
817.124 .0274386
817.821 .0274184
818.519 .0273985
819.216 .0273792
819.913 .0273612
820.609 .0273442
821.306 .0273279
822.002 .0273125
822.697 .0272977
823.393 .0272834
824.088 .0272698
824.783 .0272572
825.477 .0272451
826.171 .0272344
826.865 .0272252
827.559 .0272174
828.252 .0272109
828.945 .0272051
829.638 .0271993
830.330 .0271938
831.023 .0271877
831.714 .0271810
832.406 .0271735
833.097 .0271654
833.788 .0271567
834.479 .0271472
835.169 .0271373
835.859 .0271268
836.548 .0271157
837.238 .0271041
837.927 .0270911
838.615 .0270772
839.304 .0270620
839.992 .0270461
840.680 .0270297
841.367 .0270130
842.054 .0269961
842.741 .0269797
843.428 .0269637
844.114 .0269487
844.800 .0269336
845.485 .0269187
846.170 .0269034
846.855 .0268877
847.540 .0268711
848.224 .0268537
848.908 .0268359
849.592 .0268178
850.275 .0267992
850.958 .0267804
851.641 .0267611
852.323 .0267419
853.005 .0267221
853.687 .0267012
854.368 .0266793
855.049 .0266559
855.730 .0266311
856.410 .0266054
857.090 .0265791
857.769 .0265529
858.449 .0265268
859.128 .0265016
859.806 .0264773
860.485 .0264540
861.163 .0264320
861.840 .0264109
862.518 .0263906
863.195 .0263711
863.871 .0263518
864.548 .0263334
865.224 .0263162
865.899 .0262999
866.574 .0262845
867.249 .0262700
867.924 .0262558
868.598 .0262421
869.272 .0262286
869.946 .0262152
870.619 .0262022
871.292 .0261899
871.964 .0261777
872.636 .0261661
873.308 .0261554
873.979 .0261456
874.651 .0261363
875.321 .0261280
875.992 .0261200
876.662 .0261129
877.331 .0261069
878.001 .0261019
878.670 .0260975
879.338 .0260944
880.007 .0260915
880.675 .0260887
881.342 .0260860
882.009 .0260834
882.676 .0260805
883.343 .0260782
884.009 .0260766
884.675 .0260752
885.340 .0260744
886.005 .0260742
886.670 .0260739
887.334 .0260739
887.998 .0260734
888.662 .0260725
889.325 .0260713
889.988 .0260707
890.650 .0260704
891.312 .0260709
891.974 .0260730
892.636 .0260767
893.297 .0260821
893.957 .0260888
894.618 .0260963
895.278 .0261045
895.937 .0261131
896.596 .0261217
897.255 .0261301
897.914 .0261386
898.572 .0261469
899.230 .0261548
899.887 .0261621
900.544 .0261687
901.201 .0261743
901.857 .0261789
902.513 .0261827
903.168 .0261854
903.823 .0261865
904.478 .0261858
905.132 .0261832
905.786 .0261784
906.440 .0261712
907.093 .0261619
907.746 .0261510
908.399 .0261390
909.051 .0261266
909.703 .0261148
910.354 .0261037
911.005 .0260939
911.656 .0260852
912.306 .0260769
912.956 .0260688
913.605 .0260610
914.254 .0260528
914.903 .0260450
915.551 .0260376
916.199 .0260310
916.847 .0260252
917.494 .0260208
918.141 .0260176
918.788 .0260153
919.434 .0260139
920.079 .0260128
920.725 .0260112
921.370 .0260097
922.014 .0260074
922.658 .0260046
923.302 .0260009
923.946 .0259966
924.589 .0259914
925.231 .0259854
925.873 .0259787
926.515 .0259711
927.157 .0259629
927.798 .0259546
928.439 .0259453
929.079 .0259355
929.719 .0259248
930.359 .0259133
930.998 .0259004
931.637 .0258868
932.275 .0258724
932.913 .0258576
933.551 .0258430
934.188 .0258291
934.825 .0258160
935.462 .0258041
936.098 .0257928
936.733 .0257819
937.369 .0257715
938.004 .0257611
938.638 .0257504
939.273 .0257398
939.907 .0257297
940.540 .0257203
941.173 .0257122
941.806 .0257060
942.438 .0257014
943.070 .0256982
943.702 .0256961
944.333 .0256941
944.964 .0256918
945.594 .0256889
946.224 .0256852
946.854 .0256812
947.483 .0256775
948.112 .0256740
948.741 .0256710
949.369 .0256689
949.996 .0256674
950.624 .0256657
951.251 .0256640
951.878 .0256610
952.504 .0256565
953.130 .0256507
953.755 .0256431
954.380 .0256347
955.005 .0256259
955.629 .0256170
956.253 .0256080
956.877 .0255992
957.500 .0255902
958.123 .0255805
958.746 .0255703
959.368 .0255590
959.990 .0255463
960.611 .0255324
961.232 .0255173
961.853 .0255011
962.473 .0254846
963.093 .0254678
963.712 .0254507
964.331 .0254338
964.950 .0254168
965.569 .0254004
966.187 .0253848
966.804 .0253704
967.422 .0253572
968.039 .0253452
968.655 .0253347
969.272 .0253246
969.887 .0253145
970.503 .0253045
971.118 .0252942
971.733 .0252839
972.347 .0252727
972.961 .0252610
973.575 .0252489
974.188 .0252362
974.801 .0252226
975.414 .0252076
976.026 .0251908
976.638 .0251722
977.250 .0251516
977.861 .0251296
978.472 .0251061
979.083 .0250820
979.693 .0250576
980.303 .0250330
980.912 .0250082
981.521 .0249833
982.130 .0249581
982.738 .0249332
983.346 .0249081
983.954 .0248831
984.562 .0248590
985.169 .0248360
985.775 .0248141
986.382 .0247928
986.988 .0247724
987.594 .0247523
988.199 .0247324
988.804 .0247127
989.409 .0246931
990.013 .0246739
990.617 .0246555
991.221 .0246381
991.824 .0246222
992.427 .0246077
993.030 .0245949
993.632 .0245832
994.234 .0245726
994.836 .0245621
995.438 .0245513
996.039 .0245400
996.640 .0245284
997.240 .0245166
997.840 .0245047
998.440 .0244936
999.040 .0244832
999.639 .0244727
1000.238 .0244619
1000.836 .0244511
1001.435 .0244391
1002.033 .0244257
1002.630 .0244110
1003.228 .0243955
1003.825 .0243800
1004.422 .0243656
1005.018 .0243524
1005.614 .0243411
1006.210 .0243321
1006.806 .0243240
1007.401 .0243159
1007.996 .0243082
1008.591 .0242999
1009.186 .0242911
1009.780 .0242825
1010.374 .0242740
1010.967 .0242658
1011.561 .0242588
1012.154 .0242529
1012.746 .0242478
1013.339 .0242432
1013.931 .0242388
1014.523 .0242336
1015.115 .0242277
1015.706 .0242211
1016.298 .0242139
1016.888 .0242069
1017.479 .0242006
1018.069 .0241945
1018.660 .0241889
1019.250 .0241838
1019.839 .0241798
1020.429 .0241763
1021.018 .0241746
1021.607 .0241743
1022.195 .0241752
1022.784 .0241775
1023.372 .0241810
1023.960 .0241855
1024.547 .0241900
1025.135 .0241949
1025.722 .0241997
1026.309 .0242044
1026.896 .0242099
1027.483 .0242154
1028.069 .0242215
1028.655 .0242286
1029.241 .0242360
1029.827 .0242427
1030.412 .0242493
1030.997 .0242553
1031.582 .0242604
1032.167 .0242651
1032.752 .0242700
1033.336 .0242751
1033.921 .0242806
1034.505 .0242866
1035.089 .0242924
1035.672 .0242983
1036.256 .0243044
1036.839 .0243097
1037.422 .0243148
1038.005 .0243198
1038.588 .0243239
1039.171 .0243276
1039.753 .0243313
1040.335 .0243346
1040.918 .0243374
1041.500 .0243402
1042.081 .0243426
1042.663 .0243453
1043.244 .0243487
1043.826 .0243528
1044.407 .0243579
1044.988 .0243649
1045.569 .0243715
1046.150 .0243776
1046.730 .0243833
1047.311 .0243880
1047.891 .0243916
1048.471 .0243948
1049.052 .0243970
1049.632 .0243994
1050.211 .0244026
1050.791 .0244056
1051.371 .0244088
1051.950 .0244131
1052.530 .0244170
1053.109 .0244206
1053.688 .0244244
1054.268 .0244285
1054.847 .0244325
1055.426 .0244375
1056.005 .0244438
1056.583 .0244512
1057.162 .0244598
1057.741 .0244681
1058.319 .0244770
1058.898 .0244872
1059.476 .0244977
1060.055 .0245096
1060.633 .0245245
1061.211 .0245412
1061.790 .0245603
1062.368 .0245804
1062.946 .0246017
1063.524 .0246234
1064.102 .0246445
1064.680 .0246642
1065.258 .0246831
1065.836 .0247005
1066.414 .0247158
1066.992 .0247307
1067.570 .0247482
1068.148 .0247650
1068.726 .0247811
1069.304 .0247962
1069.882 .0248085
1070.460 .0248167
1071.038 .0248211
1071.616 .0248202
1072.194 .0248178
1072.772 .0248131
1073.350 .0248080
1073.928 .0248048
1074.506 .0248056
1075.084 .0248105
1075.662 .0248198
1076.240 .0248347
1076.819 .0248534
1077.397 .0248732
1077.976 .0248960
1078.554 .0249198
1079.133 .0249446
1079.711 .0249690
1080.290 .0249933
1080.869 .0250166
1081.448 .0250384
1082.027 .0250583
1082.606 .0250756
1083.185 .0250921
1083.764 .0251067
1084.343 .0251188
1084.923 .0251295
1085.502 .0251397
1086.082 .0251493
1086.662 .0251587
1087.242 .0251683
1087.822 .0251791
1088.402 .0251896
1088.983 .0252013
1089.563 .0252139
1090.144 .0252282
1090.725 .0252458
1091.306 .0252656
1091.887 .0252871
1092.469 .0253107
1093.050 .0253350
1093.632 .0253598
1094.214 .0253830
1094.796 .0254050
1095.379 .0254245
1095.961 .0254420
1096.544 .0254568
1097.127 .0254694
1097.710 .0254791
1098.294 .0254903
1098.877 .0255014
1099.461 .0255148
1100.046 .0255313
1100.630 .0255508
1101.215 .0255741
1101.800 .0256015
1102.385 .0256324
1102.970 .0256644
1103.556 .0256957
1104.142 .0257283
1104.728 .0257591
1105.315 .0257890
1105.902 .0258170
1106.489 .0258441
1107.077 .0258714
1107.664 .0259002
1108.253 .0259293
1108.841 .0259612
1109.430 .0259952
1110.019 .0260327
1110.609 .0260704
1111.198 .0261093
1111.789 .0261476
1112.379 .0261860
1112.970 .0262234
1113.561 .0262610
1114.153 .0262987
1114.745 .0263395
1115.338 .0263836
1115.931 .0264332
1116.524 .0264849
1117.117 .0265433
1117.712 .0266046
1118.306 .0266681
1118.901 .0267301
1119.496 .0267908
1120.092 .0268465
1120.689 .0269008
1121.285 .0269521
1121.882 .0270021
1122.480 .0270515
1123.078 .0271053
1123.677 .0271626
1124.276 .0272251
1124.875 .0272916
1125.476 .0273634
1126.076 .0274376
1126.677 .0275151
1127.279 .0275908
1127.881 .0276680
1128.484 .0277482
1129.087 .0278325
1129.691 .0279212
1130.295 .0280139
1130.900 .0281113
1131.505 .0282132
1132.111 .0283161
1132.718 .0284190
1133.325 .0285180
1133.933 .0286137
1134.541 .0287061
1135.150 .0287946
1135.760 .0288819
1136.370 .0289675
1136.981 .0290592
1137.592 .0291526
1138.204 .0292474
1138.817 .0293403
1139.431 .0294366
1140.045 .0295350
1140.660 .0296434
1141.275 .0297606
1141.891 .0298629
1142.508 .0299555
1143.126 .0300600
1143.744 .0304161
1144.363 .0305963
1144.983 .0299832
