Measurement Sequence started on: 15-12-46-377
Integration time: 28
Scans to Average: 2 
>>>>>Begin Spectral Data<<<<<
432.689 .0000100
433.621 .0000100
434.552 .0000100
435.482 .0000100
436.410 .0000100
437.337 .0000100
438.262 .0247335
439.187 .0524726
440.110 .0869362
441.031 .1257870
441.952 .1635838
442.871 .1933439
443.789 .2097500
444.705 .2109559
445.621 .1992026
446.535 .1794373
447.447 .1570222
448.359 .1225705
449.269 .1055444
450.178 .0948418
451.086 .0872825
451.993 .0814254
452.898 .0767953
453.803 .0729686
454.706 .0697916
455.608 .0671215
456.508 .0648357
457.408 .0628674
458.306 .0611331
459.204 .0595798
460.100 .0581585
460.995 .0568578
461.888 .0556588
462.781 .0545542
463.673 .0535235
464.563 .0525788
465.452 .0517079
466.340 .0509017
467.228 .0501718
468.114 .0494919
468.999 .0488719
469.882 .0482840
470.765 .0477288
471.647 .0472061
472.528 .0467140
473.407 .0462620
474.286 .0458492
475.163 .0454774
476.040 .0451547
476.915 .0448668
477.790 .0446196
478.663 .0444061
479.535 .0442200
480.407 .0440587
481.277 .0439139
482.147 .0437896
483.015 .0436850
483.883 .0435973
484.749 .0435334
485.615 .0434920
486.479 .0434730
487.343 .0434747
488.206 .0434944
489.067 .0435281
489.928 .0435664
490.788 .0436082
491.647 .0436536
492.505 .0437038
493.362 .0437643
494.218 .0438404
495.073 .0439331
495.928 .0440606
496.781 .0442146
497.634 .0444021
498.486 .0446266
499.337 .0448876
500.187 .0451808
501.036 .0455102
501.884 .0458761
502.731 .0462745
503.578 .0467086
504.424 .0471837
505.268 .0476820
506.113 .0482168
506.956 .0487808
507.798 .0493811
508.640 .0500244
509.480 .0507163
510.320 .0514534
511.160 .0522488
511.998 .0531025
512.836 .0540075
513.672 .0549736
514.508 .0560169
515.344 .0571406
516.178 .0583724
517.012 .0597455
517.845 .0612875
518.677 .0630347
519.508 .0650462
520.339 .0673370
521.169 .0699812
521.998 .0730192
522.826 .0765104
523.654 .0805036
524.481 .0850122
525.307 .0900455
526.133 .0955876
526.958 .1016440
527.782 .1080946
528.605 .1147597
529.428 .1215018
530.250 .1278833
531.072 .1336975
531.892 .1386252
532.712 .1424401
533.532 .1449661
534.350 .1460354
535.168 .1455265
535.986 .1434494
536.802 .1399037
537.618 .1351087
538.434 .1292197
539.249 .1226462
540.063 .1156446
540.876 .1085561
541.689 .1016667
542.501 .0952290
543.313 .0893769
544.124 .0841849
544.934 .0795634
545.744 .0754621
546.553 .0717579
547.361 .0684690
548.169 .0655382
548.976 .0629059
549.783 .0605725
550.589 .0585174
551.395 .0566892
552.200 .0550899
553.004 .0536791
553.808 .0524344
554.611 .0513357
555.414 .0503761
556.216 .0495080
557.018 .0487370
557.819 .0480414
558.619 .0473985
559.419 .0467879
560.218 .0462129
561.017 .0456434
561.815 .0450760
562.613 .0445139
563.410 .0439492
564.207 .0433808
565.003 .0428211
565.799 .0422637
566.594 .0417211
567.388 .0411989
568.182 .0406838
568.976 .0401664
569.769 .0396617
570.562 .0391623
571.354 .0386677
572.145 .0381869
572.936 .0377158
573.727 .0372616
574.517 .0368234
575.307 .0364023
576.096 .0359997
576.885 .0356194
577.673 .0352607
578.461 .0349175
579.248 .0345973
580.035 .0342982
580.821 .0340160
581.607 .0337584
582.392 .0335228
583.177 .0333068
583.962 .0331115
584.746 .0329382
585.529 .0327811
586.313 .0326419
587.095 .0325168
587.878 .0324034
588.660 .0323027
589.441 .0322122
590.222 .0321293
591.003 .0320538
591.783 .0319874
592.563 .0319247
593.342 .0318661
594.121 .0318110
594.899 .0317591
595.678 .0317105
596.455 .0316641
597.233 .0316203
598.009 .0315771
598.786 .0315353
599.562 .0314939
600.338 .0314522
601.113 .0314113
601.888 .0313706
602.663 .0313304
603.437 .0312902
604.211 .0312499
604.984 .0312096
605.757 .0311699
606.530 .0311321
607.302 .0310958
608.074 .0310608
608.845 .0310277
609.616 .0309959
610.387 .0309652
611.158 .0309358
611.928 .0309065
612.697 .0308770
613.467 .0308482
614.236 .0308201
615.004 .0307921
615.773 .0307654
616.541 .0307410
617.308 .0307184
618.076 .0306982
618.843 .0306801
619.609 .0306630
620.375 .0306474
621.141 .0306318
621.907 .0306151
622.672 .0305974
623.437 .0305782
624.202 .0305565
624.966 .0305334
625.730 .0305096
626.493 .0304849
627.257 .0304597
628.020 .0304344
628.782 .0304085
629.545 .0303821
630.307 .0303548
631.068 .0303257
631.830 .0302960
632.591 .0302654
633.352 .0302338
634.112 .0302029
634.872 .0301733
635.632 .0301458
636.392 .0301200
637.151 .0300968
637.910 .0300759
638.668 .0300572
639.427 .0300404
640.185 .0300252
640.943 .0300124
641.700 .0300016
642.457 .0299923
643.214 .0299850
643.971 .0299790
644.727 .0299739
645.483 .0299686
646.239 .0299632
646.994 .0299570
647.750 .0299502
648.505 .0299422
649.259 .0299348
650.014 .0299271
650.768 .0299197
651.521 .0299121
652.275 .0299039
653.028 .0298946
653.781 .0298832
654.534 .0298697
655.286 .0298542
656.039 .0298370
656.791 .0298187
657.542 .0297990
658.294 .0297803
659.045 .0297617
659.796 .0297424
660.546 .0297228
661.297 .0297020
662.047 .0296786
662.796 .0296530
663.546 .0296254
664.295 .0295963
665.044 .0295663
665.793 .0295364
666.542 .0295074
667.290 .0294800
668.038 .0294548
668.786 .0294304
669.533 .0294070
670.281 .0293843
671.028 .0293602
671.774 .0293355
672.521 .0293111
673.267 .0292867
674.013 .0292631
674.759 .0292408
675.505 .0292205
676.250 .0292017
676.995 .0291846
677.740 .0291686
678.484 .0291527
679.229 .0291365
679.973 .0291190
680.717 .0290994
681.460 .0290783
682.204 .0290559
682.947 .0290326
683.690 .0290095
684.433 .0289869
685.175 .0289646
685.917 .0289429
686.659 .0289220
687.401 .0289016
688.142 .0288811
688.884 .0288601
689.625 .0288381
690.365 .0288154
691.106 .0287919
691.846 .0287683
692.586 .0287447
693.326 .0287222
694.066 .0287006
694.805 .0286805
695.545 .0286617
696.284 .0286444
697.022 .0286285
697.761 .0286142
698.499 .0286007
699.237 .0285879
699.975 .0285756
700.713 .0285639
701.450 .0285531
702.187 .0285429
702.924 .0285338
703.661 .0285260
704.397 .0285192
705.133 .0285139
705.869 .0285093
706.605 .0285062
707.341 .0285034
708.076 .0285007
708.811 .0284977
709.546 .0284938
710.281 .0284892
711.015 .0284838
711.749 .0284777
712.483 .0284713
713.217 .0284643
713.950 .0284571
714.684 .0284492
715.417 .0284409
716.150 .0284319
716.882 .0284224
717.615 .0284119
718.347 .0284004
719.079 .0283876
719.811 .0283735
720.542 .0283584
721.273 .0283423
722.005 .0283248
722.735 .0283064
723.466 .0282872
724.196 .0282670
724.927 .0282456
725.656 .0282234
726.386 .0282008
727.116 .0281784
727.845 .0281558
728.574 .0281329
729.303 .0281107
730.031 .0280896
730.760 .0280694
731.488 .0280495
732.216 .0280306
732.944 .0280120
733.671 .0279934
734.398 .0279745
735.125 .0279549
735.852 .0279354
736.579 .0279158
737.305 .0278965
738.031 .0278778
738.757 .0278594
739.483 .0278412
740.208 .0278230
740.933 .0278054
741.658 .0277871
742.383 .0277676
743.108 .0277473
743.832 .0277267
744.556 .0277058
745.280 .0276845
746.004 .0276635
746.727 .0276437
747.450 .0276250
748.173 .0276063
748.896 .0275882
749.618 .0275707
750.340 .0275533
751.062 .0275359
751.784 .0275182
752.506 .0275001
753.227 .0274814
753.948 .0274622
754.669 .0274425
755.389 .0274226
756.110 .0274026
756.830 .0273822
757.550 .0273624
758.269 .0273432
758.989 .0273242
759.708 .0273051
760.427 .0272865
761.146 .0272676
761.864 .0272483
762.582 .0272289
763.300 .0272094
764.018 .0271900
764.736 .0271713
765.453 .0271530
766.170 .0271352
766.887 .0271180
767.603 .0271011
768.320 .0270844
769.036 .0270680
769.751 .0270516
770.467 .0270356
771.182 .0270204
771.897 .0270061
772.612 .0269930
773.327 .0269818
774.041 .0269722
774.755 .0269637
775.469 .0269567
776.183 .0269511
776.896 .0269465
777.609 .0269429
778.322 .0269404
779.035 .0269395
779.747 .0269401
780.459 .0269420
781.171 .0269449
781.882 .0269493
782.594 .0269544
783.305 .0269598
784.016 .0269651
784.726 .0269700
785.436 .0269742
786.147 .0269777
786.856 .0269805
787.566 .0269828
788.275 .0269850
788.984 .0269872
789.693 .0269889
790.401 .0269910
791.110 .0269928
791.818 .0269943
792.525 .0269957
793.233 .0269971
793.940 .0269981
794.647 .0269987
795.353 .0269988
796.060 .0269985
796.766 .0269980
797.472 .0269971
798.177 .0269956
798.883 .0269939
799.588 .0269915
800.292 .0269884
800.997 .0269846
801.701 .0269801
802.405 .0269746
803.109 .0269682
803.812 .0269605
804.515 .0269513
805.218 .0269405
805.921 .0269283
806.623 .0269149
807.325 .0269005
808.027 .0268859
808.728 .0268709
809.429 .0268561
810.130 .0268418
810.831 .0268279
811.531 .0268144
812.231 .0268009
812.931 .0267871
813.630 .0267727
814.330 .0267573
815.029 .0267412
815.727 .0267239
816.426 .0267062
817.124 .0266877
817.821 .0266686
818.519 .0266489
819.216 .0266288
819.913 .0266079
820.609 .0265864
821.306 .0265638
822.002 .0265405
822.697 .0265168
823.393 .0264930
824.088 .0264692
824.783 .0264460
825.477 .0264229
826.171 .0264006
826.865 .0263786
827.559 .0263573
828.252 .0263367
828.945 .0263171
829.638 .0262984
830.330 .0262809
831.023 .0262645
831.714 .0262491
832.406 .0262347
833.097 .0262207
833.788 .0262066
834.479 .0261918
835.169 .0261762
835.859 .0261599
836.548 .0261428
837.238 .0261257
837.927 .0261081
838.615 .0260908
839.304 .0260734
839.992 .0260554
840.680 .0260372
841.367 .0260181
842.054 .0259982
842.741 .0259777
843.428 .0259563
844.114 .0259345
844.800 .0259123
845.485 .0258902
846.170 .0258682
846.855 .0258461
847.540 .0258237
848.224 .0258011
848.908 .0257786
849.592 .0257560
850.275 .0257335
850.958 .0257120
851.641 .0256917
852.323 .0256727
853.005 .0256549
853.687 .0256383
854.368 .0256223
855.049 .0256069
855.730 .0255915
856.410 .0255763
857.090 .0255610
857.769 .0255456
858.449 .0255307
859.128 .0255166
859.806 .0255034
860.485 .0254915
861.163 .0254809
861.840 .0254718
862.518 .0254634
863.195 .0254554
863.871 .0254472
864.548 .0254393
865.224 .0254313
865.899 .0254234
866.574 .0254158
867.249 .0254092
867.924 .0254034
868.598 .0253992
869.272 .0253964
869.946 .0253949
870.619 .0253945
871.292 .0253944
871.964 .0253940
872.636 .0253935
873.308 .0253922
873.979 .0253910
874.651 .0253894
875.321 .0253882
875.992 .0253873
876.662 .0253873
877.331 .0253887
878.001 .0253915
878.670 .0253958
879.338 .0254013
880.007 .0254076
880.675 .0254149
881.342 .0254224
882.009 .0254305
882.676 .0254392
883.343 .0254483
884.009 .0254580
884.675 .0254682
885.340 .0254786
886.005 .0254896
886.670 .0255012
887.334 .0255132
887.998 .0255256
888.662 .0255378
889.325 .0255500
889.988 .0255620
890.650 .0255737
891.312 .0255847
891.974 .0255951
892.636 .0256049
893.297 .0256139
893.957 .0256222
894.618 .0256303
895.278 .0256380
895.937 .0256457
896.596 .0256532
897.255 .0256606
897.914 .0256680
898.572 .0256749
899.230 .0256815
899.887 .0256871
900.544 .0256918
901.201 .0256951
901.857 .0256972
902.513 .0256981
903.168 .0256979
903.823 .0256967
904.478 .0256948
905.132 .0256921
905.786 .0256887
906.440 .0256843
907.093 .0256793
907.746 .0256732
908.399 .0256661
909.051 .0256579
909.703 .0256485
910.354 .0256376
911.005 .0256259
911.656 .0256130
912.306 .0255992
912.956 .0255847
913.605 .0255695
914.254 .0255537
914.903 .0255379
915.551 .0255216
916.199 .0255051
916.847 .0254884
917.494 .0254714
918.141 .0254534
918.788 .0254349
919.434 .0254161
920.079 .0253964
920.725 .0253762
921.370 .0253555
922.014 .0253341
922.658 .0253118
923.302 .0252888
923.946 .0252650
924.589 .0252402
925.231 .0252145
925.873 .0251880
926.515 .0251608
927.157 .0251335
927.798 .0251060
928.439 .0250784
929.079 .0250509
929.719 .0250236
930.359 .0249957
930.998 .0249674
931.637 .0249390
932.275 .0249105
932.913 .0248822
933.551 .0248542
934.188 .0248266
934.825 .0248000
935.462 .0247742
936.098 .0247490
936.733 .0247240
937.369 .0246990
938.004 .0246739
938.638 .0246483
939.273 .0246222
939.907 .0245958
940.540 .0245697
941.173 .0245440
941.806 .0245190
942.438 .0244943
943.070 .0244700
943.702 .0244456
944.333 .0244206
944.964 .0243951
945.594 .0243688
946.224 .0243422
946.854 .0243159
947.483 .0242903
948.112 .0242657
948.741 .0242423
949.369 .0242204
949.996 .0241998
950.624 .0241801
951.251 .0241611
951.878 .0241427
952.504 .0241248
953.130 .0241079
953.755 .0240915
954.380 .0240762
955.005 .0240617
955.629 .0240480
956.253 .0240344
956.877 .0240213
957.500 .0240077
958.123 .0239937
958.746 .0239788
959.368 .0239628
959.990 .0239450
960.611 .0239254
961.232 .0239040
961.853 .0238815
962.473 .0238577
963.093 .0238329
963.712 .0238073
964.331 .0237821
964.950 .0237567
965.569 .0237321
966.187 .0237086
966.804 .0236868
967.422 .0236666
968.039 .0236483
968.655 .0236315
969.272 .0236166
969.887 .0236036
970.503 .0235923
971.118 .0235828
971.733 .0235748
972.347 .0235674
972.961 .0235612
973.575 .0235560
974.188 .0235513
974.801 .0235467
975.414 .0235426
976.026 .0235387
976.638 .0235345
977.250 .0235304
977.861 .0235254
978.472 .0235204
979.083 .0235153
979.693 .0235091
980.303 .0235019
980.912 .0234945
981.521 .0234869
982.130 .0234795
982.738 .0234733
983.346 .0234681
983.954 .0234638
984.562 .0234613
985.169 .0234595
985.775 .0234581
986.382 .0234571
986.988 .0234564
987.594 .0234554
988.199 .0234548
988.804 .0234547
989.409 .0234549
990.013 .0234564
990.617 .0234592
991.221 .0234628
991.824 .0234672
992.427 .0234725
993.030 .0234780
993.632 .0234840
994.234 .0234903
994.836 .0234966
995.438 .0235036
996.039 .0235116
996.640 .0235205
997.240 .0235299
997.840 .0235406
998.440 .0235519
999.040 .0235635
999.639 .0235759
1000.238 .0235886
1000.836 .0236021
1001.435 .0236166
1002.033 .0236325
1002.630 .0236498
1003.228 .0236690
1003.825 .0236892
1004.422 .0237101
1005.018 .0237316
1005.614 .0237526
1006.210 .0237733
1006.806 .0237931
1007.401 .0238125
1007.996 .0238308
1008.591 .0238486
1009.186 .0238663
1009.780 .0238840
1010.374 .0239017
1010.967 .0239191
1011.561 .0239356
1012.154 .0239517
1012.746 .0239670
1013.339 .0239816
1013.931 .0239964
1014.523 .0240116
1015.115 .0240267
1015.706 .0240424
1016.298 .0240584
1016.888 .0240753
1017.479 .0240925
1018.069 .0241101
1018.660 .0241272
1019.250 .0241441
1019.839 .0241609
1020.429 .0241769
1021.018 .0241930
1021.607 .0242095
1022.195 .0242252
1022.784 .0242406
1023.372 .0242558
1023.960 .0242703
1024.547 .0242847
1025.135 .0242993
1025.722 .0243136
1026.309 .0243278
1026.896 .0243419
1027.483 .0243561
1028.069 .0243709
1028.655 .0243866
1029.241 .0244025
1029.827 .0244185
1030.412 .0244351
1030.997 .0244513
1031.582 .0244679
1032.167 .0244843
1032.752 .0245005
1033.336 .0245163
1033.921 .0245310
1034.505 .0245444
1035.089 .0245566
1035.672 .0245681
1036.256 .0245787
1036.839 .0245878
1037.422 .0245963
1038.005 .0246037
1038.588 .0246112
1039.171 .0246187
1039.753 .0246266
1040.335 .0246347
1040.918 .0246438
1041.500 .0246526
1042.081 .0246613
1042.663 .0246693
1043.244 .0246762
1043.826 .0246820
1044.407 .0246861
1044.988 .0246887
1045.569 .0246902
1046.150 .0246909
1046.730 .0246915
1047.311 .0246917
1047.891 .0246921
1048.471 .0246920
1049.052 .0246910
1049.632 .0246884
1050.211 .0246843
1050.791 .0246782
1051.371 .0246703
1051.950 .0246613
1052.530 .0246515
1053.109 .0246408
1053.688 .0246295
1054.268 .0246186
1054.847 .0246071
1055.426 .0245962
1056.005 .0245864
1056.583 .0245769
1057.162 .0245692
1057.741 .0245633
1058.319 .0245581
1058.898 .0245547
1059.476 .0245536
1060.055 .0245535
1060.633 .0245541
1061.211 .0245552
1061.790 .0245564
1062.368 .0245580
1062.946 .0245604
1063.524 .0245629
1064.102 .0245658
1064.680 .0245696
1065.258 .0245717
1065.836 .0245708
1066.414 .0245687
1066.992 .0245633
1067.570 .0245552
1068.148 .0245452
1068.726 .0245323
1069.304 .0245176
1069.882 .0245024
1070.460 .0244847
1071.038 .0244662
1071.616 .0244464
1072.194 .0244251
1072.772 .0244020
1073.350 .0243787
1073.928 .0243550
1074.506 .0243312
1075.084 .0243088
1075.662 .0242880
1076.240 .0242670
1076.819 .0242467
1077.397 .0242250
1077.976 .0242019
1078.554 .0241788
1079.133 .0241547
1079.711 .0241304
1080.290 .0241095
1080.869 .0240913
1081.448 .0240763
1082.027 .0240657
1082.606 .0240598
1083.185 .0240584
1083.764 .0240596
1084.343 .0240641
1084.923 .0240689
1085.502 .0240752
1086.082 .0240832
1086.662 .0240915
1087.242 .0241003
1087.822 .0241103
1088.402 .0241183
1088.983 .0241258
1089.563 .0241303
1090.144 .0241303
1090.725 .0241249
1091.306 .0241145
1091.887 .0240958
1092.469 .0240693
1093.050 .0240351
1093.632 .0239966
1094.214 .0239531
1094.796 .0239092
1095.379 .0238638
1095.961 .0238201
1096.544 .0237803
1097.127 .0237446
1097.710 .0237129
1098.294 .0236882
1098.877 .0236699
1099.461 .0236573
1100.046 .0236518
1100.630 .0236549
1101.215 .0236647
1101.800 .0236840
1102.385 .0237104
1102.970 .0237424
1103.556 .0237776
1104.142 .0238158
1104.728 .0238548
1105.315 .0238940
1105.902 .0239323
1106.489 .0239674
1107.077 .0240012
1107.664 .0240344
1108.253 .0240660
1108.841 .0240957
1109.430 .0241236
1110.019 .0241478
1110.609 .0241666
1111.198 .0241815
1111.789 .0241930
1112.379 .0242042
1112.970 .0242153
1113.561 .0242274
1114.153 .0242420
1114.745 .0242572
1115.338 .0242742
1115.931 .0242928
1116.524 .0243124
1117.117 .0243314
1117.712 .0243501
1118.306 .0243695
1118.901 .0243897
1119.496 .0244137
1120.092 .0244409
1120.689 .0244722
1121.285 .0245094
1121.882 .0245485
1122.480 .0245896
1123.078 .0246365
1123.677 .0246893
1124.276 .0247449
1124.875 .0248070
1125.476 .0248745
1126.076 .0249465
1126.677 .0250250
1127.279 .0251089
1127.881 .0251959
1128.484 .0252833
1129.087 .0253667
1129.691 .0254430
1130.295 .0255133
1130.900 .0255798
1131.505 .0256400
1132.111 .0257013
1132.718 .0257656
1133.325 .0258306
1133.933 .0258980
1134.541 .0259730
1135.150 .0260574
1135.760 .0261481
1136.370 .0262423
1136.981 .0263423
1137.592 .0264460
1138.204 .0265594
1138.817 .0266845
1139.431 .0268259
1140.045 .0269844
1140.660 .0271649
1141.275 .0273632
1141.891 .0275586
1142.508 .0278826
1143.126 .0280124
1143.744 .0283158
1144.363 .0285581
1144.983 .0282357
