Measurement Sequence started on: 15-12-46-377
Integration time: 28
Scans to Average: 2 
>>>>>Begin Spectral Data<<<<<
432.689 .0000100
433.621 .0000100
434.552 .0000100
435.482 .0000100
436.410 .0000100
437.337 .0000100
438.262 .0281907
439.187 .0598119
440.110 .0990938
441.031 .1433843
441.952 .1863440
442.871 .2201099
443.789 .2385337
444.705 .2395241
445.621 .2256827
446.535 .2026759
447.447 .1766813
448.359 .1370547
449.269 .1174120
450.178 .1051017
451.086 .0964585
451.993 .0898795
452.898 .0846699
453.803 .0803918
454.706 .0768115
455.608 .0737571
456.508 .0711304
457.408 .0688706
458.306 .0668895
459.204 .0651548
460.100 .0636111
460.995 .0622495
461.888 .0610197
462.781 .0598856
463.673 .0588258
464.563 .0578462
465.452 .0569124
466.340 .0560242
467.228 .0551938
468.114 .0544164
468.999 .0537017
469.882 .0530443
470.765 .0524351
471.647 .0518778
472.528 .0513620
473.407 .0508876
474.286 .0504436
475.163 .0500414
476.040 .0496707
476.915 .0493414
477.790 .0490540
478.663 .0488090
479.535 .0486023
480.407 .0484325
481.277 .0482968
482.147 .0481914
483.015 .0481152
483.883 .0480577
484.749 .0480153
485.615 .0479913
486.479 .0479787
487.343 .0479764
488.206 .0479862
489.067 .0480045
489.928 .0480307
490.788 .0480697
491.647 .0481214
492.505 .0481846
493.362 .0482622
494.218 .0483576
495.073 .0484676
495.928 .0485963
496.781 .0487467
497.634 .0489153
498.486 .0491155
499.337 .0493454
500.187 .0496011
501.036 .0498894
501.884 .0502243
502.731 .0505939
503.578 .0510089
504.424 .0514616
505.268 .0519453
506.113 .0524553
506.956 .0530038
507.798 .0535990
508.640 .0542454
509.480 .0549675
510.320 .0557714
511.160 .0566591
511.998 .0576502
512.836 .0587163
513.672 .0598898
514.508 .0611656
515.344 .0625255
516.178 .0639975
517.012 .0656162
517.845 .0674115
518.677 .0694482
519.508 .0717545
520.339 .0743966
521.169 .0774083
521.998 .0808109
522.826 .0846085
523.654 .0888344
524.481 .0934830
525.307 .0985470
526.133 .1040429
526.958 .1100056
527.782 .1163333
528.605 .1229637
529.428 .1298618
530.250 .1365061
531.072 .1426579
531.892 .1479267
532.712 .1519646
533.532 .1545562
534.350 .1554703
535.168 .1546489
535.986 .1521662
536.802 .1482452
537.618 .1431061
538.434 .1369451
539.249 .1303449
540.063 .1234263
540.876 .1164983
541.689 .1097819
542.501 .1034614
543.313 .0976703
544.124 .0924389
544.934 .0877390
545.744 .0834921
546.553 .0796535
547.361 .0761919
548.169 .0730688
548.976 .0702791
549.783 .0677830
550.589 .0655837
551.395 .0636192
552.200 .0618783
553.004 .0603102
553.808 .0588811
554.611 .0575734
555.414 .0563622
556.216 .0552178
557.018 .0541463
557.819 .0531532
558.619 .0522291
559.419 .0513688
560.218 .0505916
561.017 .0498705
561.815 .0491868
562.613 .0485223
563.410 .0478630
564.207 .0471879
565.003 .0465016
565.799 .0458044
566.594 .0451072
567.388 .0444319
568.182 .0437886
568.976 .0431767
569.769 .0426125
570.562 .0420915
571.354 .0415964
572.145 .0411224
572.936 .0406660
573.727 .0402190
574.517 .0397819
575.307 .0393629
576.096 .0389621
576.885 .0385823
577.673 .0382309
578.461 .0379017
579.248 .0375904
580.035 .0372978
580.821 .0370210
581.607 .0367546
582.392 .0364994
583.177 .0362535
583.962 .0360180
584.746 .0357973
585.529 .0355913
586.313 .0354023
587.095 .0352278
587.878 .0350671
588.660 .0349173
589.441 .0347800
590.222 .0346542
591.003 .0345384
591.783 .0344358
592.563 .0343450
593.342 .0342651
594.121 .0341924
594.899 .0341258
595.678 .0340645
596.455 .0340073
597.233 .0339515
598.009 .0338974
598.786 .0338459
599.562 .0337953
600.338 .0337453
601.113 .0336985
601.888 .0336542
602.663 .0336115
603.437 .0335701
604.211 .0335301
604.984 .0334905
605.757 .0334512
606.530 .0334111
607.302 .0333713
608.074 .0333321
608.845 .0332934
609.616 .0332537
610.387 .0332143
611.158 .0331754
611.928 .0331363
612.697 .0330978
613.467 .0330611
614.236 .0330258
615.004 .0329930
615.773 .0329625
616.541 .0329340
617.308 .0329067
618.076 .0328804
618.843 .0328542
619.609 .0328290
620.375 .0328038
621.141 .0327789
621.907 .0327539
622.672 .0327305
623.437 .0327081
624.202 .0326858
624.966 .0326642
625.730 .0326423
626.493 .0326186
627.257 .0325927
628.020 .0325637
628.782 .0325318
629.545 .0324973
630.307 .0324614
631.068 .0324244
631.830 .0323869
632.591 .0323494
633.352 .0323124
634.112 .0322752
634.872 .0322388
635.632 .0322016
636.392 .0321637
637.151 .0321264
637.910 .0320879
638.668 .0320497
639.427 .0320123
640.185 .0319759
640.943 .0319412
641.700 .0319076
642.457 .0318763
643.214 .0318462
643.971 .0318170
644.727 .0317891
645.483 .0317620
646.239 .0317358
646.994 .0317096
647.750 .0316842
648.505 .0316606
649.259 .0316389
650.014 .0316191
650.768 .0316014
651.521 .0315863
652.275 .0315728
653.028 .0315601
653.781 .0315469
654.534 .0315336
655.286 .0315186
656.039 .0315017
656.791 .0314831
657.542 .0314624
658.294 .0314398
659.045 .0314164
659.796 .0313922
660.546 .0313680
661.297 .0313433
662.047 .0313184
662.796 .0312919
663.546 .0312651
664.295 .0312375
665.044 .0312088
665.793 .0311800
666.542 .0311521
667.290 .0311249
668.038 .0310989
668.786 .0310751
669.533 .0310529
670.281 .0310325
671.028 .0310136
671.774 .0309945
672.521 .0309754
673.267 .0309567
674.013 .0309381
674.759 .0309194
675.505 .0309015
676.250 .0308839
676.995 .0308656
677.740 .0308470
678.484 .0308276
679.229 .0308070
679.973 .0307855
680.717 .0307631
681.460 .0307400
682.204 .0307169
682.947 .0306943
683.690 .0306721
684.433 .0306509
685.175 .0306306
685.917 .0306105
686.659 .0305902
687.401 .0305697
688.142 .0305487
688.884 .0305273
689.625 .0305057
690.365 .0304840
691.106 .0304621
691.846 .0304408
692.586 .0304200
693.326 .0303996
694.066 .0303795
694.805 .0303594
695.545 .0303390
696.284 .0303180
697.022 .0302962
697.761 .0302735
698.499 .0302500
699.237 .0302261
699.975 .0302021
700.713 .0301784
701.450 .0301553
702.187 .0301338
702.924 .0301133
703.661 .0300942
704.397 .0300754
705.133 .0300573
705.869 .0300392
706.605 .0300210
707.341 .0300023
708.076 .0299838
708.811 .0299655
709.546 .0299478
710.281 .0299307
711.015 .0299142
711.749 .0298983
712.483 .0298825
713.217 .0298658
713.950 .0298488
714.684 .0298304
715.417 .0298117
716.150 .0297927
716.882 .0297744
717.615 .0297561
718.347 .0297387
719.079 .0297216
719.811 .0297046
720.542 .0296873
721.273 .0296696
722.005 .0296508
722.735 .0296321
723.466 .0296129
724.196 .0295937
724.927 .0295749
725.656 .0295570
726.386 .0295391
727.116 .0295218
727.845 .0295047
728.574 .0294879
729.303 .0294714
730.031 .0294556
730.760 .0294405
731.488 .0294266
732.216 .0294142
732.944 .0294029
733.671 .0293928
734.398 .0293837
735.125 .0293749
735.852 .0293665
736.579 .0293581
737.305 .0293498
738.031 .0293417
738.757 .0293336
739.483 .0293253
740.208 .0293166
740.933 .0293073
741.658 .0292968
742.383 .0292853
743.108 .0292728
743.832 .0292595
744.556 .0292458
745.280 .0292322
746.004 .0292186
746.727 .0292053
747.450 .0291926
748.173 .0291797
748.896 .0291670
749.618 .0291541
750.340 .0291411
751.062 .0291282
751.784 .0291157
752.506 .0291038
753.227 .0290922
753.948 .0290813
754.669 .0290707
755.389 .0290598
756.110 .0290487
756.830 .0290368
757.550 .0290242
758.269 .0290105
758.989 .0289960
759.708 .0289802
760.427 .0289636
761.146 .0289462
761.864 .0289279
762.582 .0289089
763.300 .0288896
764.018 .0288707
764.736 .0288519
765.453 .0288339
766.170 .0288166
766.887 .0287997
767.603 .0287833
768.320 .0287667
769.036 .0287498
769.751 .0287325
770.467 .0287154
771.182 .0286982
771.897 .0286816
772.612 .0286661
773.327 .0286516
774.041 .0286384
774.755 .0286263
775.469 .0286143
776.183 .0286022
776.896 .0285902
777.609 .0285777
778.322 .0285650
779.035 .0285529
779.747 .0285412
780.459 .0285305
781.171 .0285210
781.882 .0285120
782.594 .0285033
783.305 .0284949
784.016 .0284866
784.726 .0284778
785.436 .0284689
786.147 .0284599
786.856 .0284512
787.566 .0284432
788.275 .0284361
788.984 .0284290
789.693 .0284221
790.401 .0284150
791.110 .0284066
791.818 .0283970
792.525 .0283860
793.233 .0283737
793.940 .0283606
794.647 .0283474
795.353 .0283340
796.060 .0283210
796.766 .0283087
797.472 .0282965
798.177 .0282846
798.883 .0282729
799.588 .0282609
800.292 .0282487
800.997 .0282366
801.701 .0282243
802.405 .0282118
803.109 .0282000
803.812 .0281883
804.515 .0281771
805.218 .0281662
805.921 .0281555
806.623 .0281447
807.325 .0281346
808.027 .0281243
808.728 .0281133
809.429 .0281022
810.130 .0280903
810.831 .0280775
811.531 .0280638
812.231 .0280493
812.931 .0280343
813.630 .0280189
814.330 .0280038
815.029 .0279887
815.727 .0279743
816.426 .0279606
817.124 .0279468
817.821 .0279336
818.519 .0279205
819.216 .0279075
819.913 .0278948
820.609 .0278826
821.306 .0278714
822.002 .0278612
822.697 .0278527
823.393 .0278458
824.088 .0278401
824.783 .0278353
825.477 .0278309
826.171 .0278264
826.865 .0278217
827.559 .0278167
828.252 .0278111
828.945 .0278056
829.638 .0278002
830.330 .0277950
831.023 .0277899
831.714 .0277851
832.406 .0277806
833.097 .0277760
833.788 .0277716
834.479 .0277672
835.169 .0277630
835.859 .0277595
836.548 .0277562
837.238 .0277536
837.927 .0277511
838.615 .0277488
839.304 .0277462
839.992 .0277437
840.680 .0277409
841.367 .0277378
842.054 .0277349
842.741 .0277320
843.428 .0277289
844.114 .0277254
844.800 .0277211
845.485 .0277155
846.170 .0277081
846.855 .0276989
847.540 .0276876
848.224 .0276752
848.908 .0276621
849.592 .0276487
850.275 .0276357
850.958 .0276232
851.641 .0276114
852.323 .0276001
853.005 .0275891
853.687 .0275776
854.368 .0275655
855.049 .0275534
855.730 .0275408
856.410 .0275277
857.090 .0275147
857.769 .0275015
858.449 .0274886
859.128 .0274758
859.806 .0274631
860.485 .0274505
861.163 .0274383
861.840 .0274262
862.518 .0274145
863.195 .0274026
863.871 .0273908
864.548 .0273787
865.224 .0273661
865.899 .0273527
866.574 .0273383
867.249 .0273234
867.924 .0273085
868.598 .0272936
869.272 .0272792
869.946 .0272652
870.619 .0272518
871.292 .0272384
871.964 .0272248
872.636 .0272107
873.308 .0271960
873.979 .0271805
874.651 .0271641
875.321 .0271471
875.992 .0271300
876.662 .0271133
877.331 .0270972
878.001 .0270824
878.670 .0270685
879.338 .0270558
880.007 .0270441
880.675 .0270330
881.342 .0270221
882.009 .0270116
882.676 .0270010
883.343 .0269902
884.009 .0269791
884.675 .0269678
885.340 .0269562
886.005 .0269450
886.670 .0269337
887.334 .0269229
887.998 .0269123
888.662 .0269026
889.325 .0268934
889.988 .0268850
890.650 .0268770
891.312 .0268693
891.974 .0268618
892.636 .0268544
893.297 .0268463
893.957 .0268385
894.618 .0268305
895.278 .0268226
895.937 .0268150
896.596 .0268079
897.255 .0268008
897.914 .0267936
898.572 .0267860
899.230 .0267777
899.887 .0267683
900.544 .0267580
901.201 .0267467
901.857 .0267349
902.513 .0267230
903.168 .0267107
903.823 .0266982
904.478 .0266857
905.132 .0266726
905.786 .0266589
906.440 .0266446
907.093 .0266296
907.746 .0266139
908.399 .0265978
909.051 .0265816
909.703 .0265654
910.354 .0265492
911.005 .0265331
911.656 .0265168
912.306 .0264998
912.956 .0264817
913.605 .0264623
914.254 .0264421
914.903 .0264211
915.551 .0263995
916.199 .0263780
916.847 .0263571
917.494 .0263371
918.141 .0263182
918.788 .0263008
919.434 .0262849
920.079 .0262697
920.725 .0262554
921.370 .0262418
922.014 .0262284
922.658 .0262147
923.302 .0262009
923.946 .0261862
924.589 .0261709
925.231 .0261544
925.873 .0261372
926.515 .0261197
927.157 .0261024
927.798 .0260848
928.439 .0260666
929.079 .0260481
929.719 .0260289
930.359 .0260084
930.998 .0259875
931.637 .0259652
932.275 .0259427
932.913 .0259207
933.551 .0259000
934.188 .0258811
934.825 .0258648
935.462 .0258511
936.098 .0258397
936.733 .0258302
937.369 .0258219
938.004 .0258144
938.638 .0258077
939.273 .0258012
939.907 .0257950
940.540 .0257898
941.173 .0257862
941.806 .0257841
942.438 .0257844
943.070 .0257862
943.702 .0257887
944.333 .0257916
944.964 .0257935
945.594 .0257943
946.224 .0257939
946.854 .0257923
947.483 .0257898
948.112 .0257870
948.741 .0257839
949.369 .0257806
949.996 .0257779
950.624 .0257750
951.251 .0257716
951.878 .0257675
952.504 .0257627
953.130 .0257567
953.755 .0257501
954.380 .0257433
955.005 .0257360
955.629 .0257285
956.253 .0257210
956.877 .0257134
957.500 .0257063
958.123 .0256994
958.746 .0256927
959.368 .0256861
959.990 .0256798
960.611 .0256731
961.232 .0256666
961.853 .0256605
962.473 .0256547
963.093 .0256489
963.712 .0256431
964.331 .0256373
964.950 .0256308
965.569 .0256240
966.187 .0256172
966.804 .0256104
967.422 .0256041
968.039 .0255982
968.655 .0255932
969.272 .0255898
969.887 .0255879
970.503 .0255873
971.118 .0255882
971.733 .0255905
972.347 .0255933
972.961 .0255962
973.575 .0255987
974.188 .0256008
974.801 .0256016
975.414 .0256012
976.026 .0255990
976.638 .0255955
977.250 .0255916
977.861 .0255869
978.472 .0255822
979.083 .0255776
979.693 .0255727
980.303 .0255669
980.912 .0255599
981.521 .0255517
982.130 .0255416
982.738 .0255297
983.346 .0255170
983.954 .0255039
984.562 .0254910
985.169 .0254788
985.775 .0254675
986.382 .0254580
986.988 .0254495
987.594 .0254414
988.199 .0254332
988.804 .0254253
989.409 .0254176
990.013 .0254102
990.617 .0254033
991.221 .0253982
991.824 .0253946
992.427 .0253930
993.030 .0253930
993.632 .0253945
994.234 .0253974
994.836 .0254010
995.438 .0254052
996.039 .0254098
996.640 .0254149
997.240 .0254211
997.840 .0254283
998.440 .0254365
999.040 .0254446
999.639 .0254523
1000.238 .0254586
1000.836 .0254630
1001.435 .0254651
1002.033 .0254646
1002.630 .0254622
1003.228 .0254587
1003.825 .0254546
1004.422 .0254505
1005.018 .0254470
1005.614 .0254443
1006.210 .0254418
1006.806 .0254394
1007.401 .0254363
1007.996 .0254327
1008.591 .0254292
1009.186 .0254259
1009.780 .0254224
1010.374 .0254194
1010.967 .0254168
1011.561 .0254150
1012.154 .0254134
1012.746 .0254117
1013.339 .0254095
1013.931 .0254068
1014.523 .0254036
1015.115 .0253993
1015.706 .0253947
1016.298 .0253908
1016.888 .0253872
1017.479 .0253844
1018.069 .0253825
1018.660 .0253816
1019.250 .0253818
1019.839 .0253829
1020.429 .0253845
1021.018 .0253860
1021.607 .0253871
1022.195 .0253877
1022.784 .0253878
1023.372 .0253878
1023.960 .0253879
1024.547 .0253887
1025.135 .0253907
1025.722 .0253943
1026.309 .0253988
1026.896 .0254039
1027.483 .0254093
1028.069 .0254140
1028.655 .0254168
1029.241 .0254184
1029.827 .0254186
1030.412 .0254190
1030.997 .0254197
1031.582 .0254220
1032.167 .0254257
1032.752 .0254309
1033.336 .0254367
1033.921 .0254412
1034.505 .0254430
1035.089 .0254421
1035.672 .0254372
1036.256 .0254296
1036.839 .0254193
1037.422 .0254078
1038.005 .0253970
1038.588 .0253869
1039.171 .0253777
1039.753 .0253691
1040.335 .0253604
1040.918 .0253514
1041.500 .0253405
1042.081 .0253283
1042.663 .0253151
1043.244 .0253019
1043.826 .0252893
1044.407 .0252784
1044.988 .0252698
1045.569 .0252628
1046.150 .0252568
1046.730 .0252519
1047.311 .0252471
1047.891 .0252416
1048.471 .0252366
1049.052 .0252317
1049.632 .0252277
1050.211 .0252244
1050.791 .0252216
1051.371 .0252199
1051.950 .0252195
1052.530 .0252193
1053.109 .0252186
1053.688 .0252170
1054.268 .0252157
1054.847 .0252131
1055.426 .0252110
1056.005 .0252090
1056.583 .0252072
1057.162 .0252051
1057.741 .0252021
1058.319 .0251980
1058.898 .0251930
1059.476 .0251865
1060.055 .0251793
1060.633 .0251711
1061.211 .0251622
1061.790 .0251524
1062.368 .0251429
1062.946 .0251341
1063.524 .0251264
1064.102 .0251191
1064.680 .0251127
1065.258 .0251066
1065.836 .0251013
1066.414 .0250974
1066.992 .0250943
1067.570 .0250927
1068.148 .0250914
1068.726 .0250888
1069.304 .0250853
1069.882 .0250803
1070.460 .0250736
1071.038 .0250653
1071.616 .0250562
1072.194 .0250459
1072.772 .0250357
1073.350 .0250267
1073.928 .0250188
1074.506 .0250130
1075.084 .0250096
1075.662 .0250063
1076.240 .0250026
1076.819 .0249991
1077.397 .0249949
1077.976 .0249896
1078.554 .0249836
1079.133 .0249769
1079.711 .0249703
1080.290 .0249655
1080.869 .0249614
1081.448 .0249580
1082.027 .0249569
1082.606 .0249562
1083.185 .0249550
1083.764 .0249532
1084.343 .0249493
1084.923 .0249435
1085.502 .0249369
1086.082 .0249301
1086.662 .0249233
1087.242 .0249186
1087.822 .0249172
1088.402 .0249194
1088.983 .0249261
1089.563 .0249361
1090.144 .0249494
1090.725 .0249680
1091.306 .0249897
1091.887 .0250130
1092.469 .0250396
1093.050 .0250695
1093.632 .0251018
1094.214 .0251357
1094.796 .0251705
1095.379 .0252055
1095.961 .0252413
1096.544 .0252754
1097.127 .0253074
1097.710 .0253376
1098.294 .0253661
1098.877 .0253924
1099.461 .0254162
1100.046 .0254357
1100.630 .0254521
1101.215 .0254669
1101.800 .0254785
1102.385 .0254868
1102.970 .0254946
1103.556 .0255014
1104.142 .0255089
1104.728 .0255168
1105.315 .0255251
1105.902 .0255341
1106.489 .0255459
1107.077 .0255566
1107.664 .0255688
1108.253 .0255855
1108.841 .0256055
1109.430 .0256298
1110.019 .0256596
1110.609 .0256913
1111.198 .0257250
1111.789 .0257608
1112.379 .0257966
1112.970 .0258297
1113.561 .0258643
1114.153 .0259000
1114.745 .0259388
1115.338 .0259856
1115.931 .0260385
1116.524 .0260973
1117.117 .0261649
1117.712 .0262358
1118.306 .0263065
1118.901 .0263779
1119.496 .0264479
1120.092 .0265152
1120.689 .0265810
1121.285 .0266466
1121.882 .0267105
1122.480 .0267771
1123.078 .0268461
1123.677 .0269139
1124.276 .0269812
1124.875 .0270505
1125.476 .0271169
1126.076 .0271834
1126.677 .0272482
1127.279 .0273124
1127.881 .0273764
1128.484 .0274400
1129.087 .0275022
1129.691 .0275662
1130.295 .0276328
1130.900 .0277071
1131.505 .0277858
1132.111 .0278776
1132.718 .0279787
1133.325 .0280923
1133.933 .0282146
1134.541 .0283450
1135.150 .0284762
1135.760 .0286058
1136.370 .0287338
1136.981 .0288627
1137.592 .0289886
1138.204 .0291216
1138.817 .0292586
1139.431 .0294058
1140.045 .0295535
1140.660 .0297072
1141.275 .0298654
1141.891 .0300498
1142.508 .0302423
1143.126 .0302262
1143.744 .0304456
1144.363 .0307244
1144.983 .0314920
