Measurement Sequence started on: 15-12-46-377
Integration time: 28
Scans to Average: 2 
>>>>>Begin Spectral Data<<<<<
432.689 .0000100
433.621 .0000100
434.552 .0000100
435.482 .0000100
436.410 .0000100
437.337 .0000100
438.262 .0288632
439.187 .0610331
440.110 .1009896
441.031 .1460445
441.952 .1897408
442.871 .2241153
443.789 .2429097
444.705 .2440293
445.621 .2301289
446.535 .2069210
447.447 .1806617
448.359 .1403577
449.269 .1204861
450.178 .1078576
451.086 .0988227
451.993 .0918287
452.898 .0862119
453.803 .0816001
454.706 .0777724
455.608 .0745341
456.508 .0717940
457.408 .0694395
458.306 .0673696
459.204 .0655429
460.100 .0639065
460.995 .0624207
461.888 .0610679
462.781 .0598199
463.673 .0586759
464.563 .0576345
465.452 .0566901
466.340 .0558252
467.228 .0550481
468.114 .0543428
468.999 .0536985
469.882 .0530969
470.765 .0525350
471.647 .0520027
472.528 .0515034
473.407 .0510336
474.286 .0505954
475.163 .0501920
476.040 .0498226
476.915 .0494872
477.790 .0491904
478.663 .0489256
479.535 .0486895
480.407 .0484789
481.277 .0482949
482.147 .0481281
483.015 .0479791
483.883 .0478461
484.749 .0477338
485.615 .0476478
486.479 .0475914
487.343 .0475736
488.206 .0475972
489.067 .0476592
489.928 .0477564
490.788 .0478889
491.647 .0480491
492.505 .0482308
493.362 .0484271
494.218 .0486358
495.073 .0488556
495.928 .0490931
496.781 .0493468
497.634 .0496285
498.486 .0499400
499.337 .0502764
500.187 .0506329
501.036 .0510114
501.884 .0513967
502.731 .0517836
503.578 .0521755
504.424 .0525629
505.268 .0529471
506.113 .0533379
506.956 .0537517
507.798 .0542075
508.640 .0547158
509.480 .0552923
510.320 .0559402
511.160 .0566838
511.998 .0575193
512.836 .0584584
513.672 .0595191
514.508 .0607071
515.344 .0620272
516.178 .0635072
517.012 .0651947
517.845 .0671152
518.677 .0693194
519.508 .0718258
520.339 .0746751
521.169 .0779250
521.998 .0815917
522.826 .0857382
523.654 .0904064
524.481 .0956637
525.307 .1015280
526.133 .1079435
526.958 .1148885
527.782 .1223096
528.605 .1299905
529.428 .1378655
530.250 .1453360
531.072 .1521663
531.892 .1579707
532.712 .1624492
533.532 .1653547
534.350 .1665159
535.168 .1658132
535.986 .1632869
536.802 .1590858
537.618 .1535617
538.434 .1467943
539.249 .1394377
540.063 .1316996
540.876 .1239089
541.689 .1163147
542.501 .1091553
543.313 .1025636
544.124 .0966675
544.934 .0913750
545.744 .0865875
546.553 .0822743
547.361 .0784864
548.169 .0751073
548.976 .0720884
549.783 .0694233
550.589 .0670741
551.395 .0649424
552.200 .0630274
553.004 .0612615
553.808 .0596300
554.611 .0581366
555.414 .0567658
556.216 .0555145
557.018 .0543895
557.819 .0533796
558.619 .0524624
559.419 .0516290
560.218 .0508721
561.017 .0501530
561.815 .0494664
562.613 .0488017
563.410 .0481419
564.207 .0474842
565.003 .0468378
565.799 .0462065
566.594 .0455819
567.388 .0449836
568.182 .0444064
568.976 .0438484
569.769 .0433086
570.562 .0427835
571.354 .0422677
572.145 .0417641
572.936 .0412686
573.727 .0407814
574.517 .0403071
575.307 .0398538
576.096 .0394182
576.885 .0390030
577.673 .0386141
578.461 .0382470
579.248 .0378983
580.035 .0375706
580.821 .0372577
581.607 .0369601
582.392 .0366813
583.177 .0364209
583.962 .0361785
584.746 .0359600
585.529 .0357620
586.313 .0355818
587.095 .0354190
587.878 .0352714
588.660 .0351344
589.441 .0350090
590.222 .0348930
591.003 .0347845
591.783 .0346840
592.563 .0345924
593.342 .0345080
594.121 .0344312
594.899 .0343624
595.678 .0342982
596.455 .0342387
597.233 .0341842
598.009 .0341310
598.786 .0340793
599.562 .0340286
600.338 .0339776
601.113 .0339265
601.888 .0338764
602.663 .0338265
603.437 .0337777
604.211 .0337295
604.984 .0336822
605.757 .0336350
606.530 .0335894
607.302 .0335449
608.074 .0335014
608.845 .0334608
609.616 .0334224
610.387 .0333854
611.158 .0333511
611.928 .0333188
612.697 .0332892
613.467 .0332617
614.236 .0332363
615.004 .0332127
615.773 .0331905
616.541 .0331691
617.308 .0331486
618.076 .0331282
618.843 .0331079
619.609 .0330869
620.375 .0330645
621.141 .0330409
621.907 .0330155
622.672 .0329882
623.437 .0329596
624.202 .0329291
624.966 .0328968
625.730 .0328624
626.493 .0328258
627.257 .0327877
628.020 .0327479
628.782 .0327071
629.545 .0326658
630.307 .0326243
631.068 .0325833
631.830 .0325428
632.591 .0325032
633.352 .0324649
634.112 .0324270
634.872 .0323900
635.632 .0323537
636.392 .0323179
637.151 .0322836
637.910 .0322504
638.668 .0322187
639.427 .0321890
640.185 .0321604
640.943 .0321330
641.700 .0321064
642.457 .0320803
643.214 .0320542
643.971 .0320274
644.727 .0320008
645.483 .0319736
646.239 .0319467
646.994 .0319212
647.750 .0318967
648.505 .0318744
649.259 .0318542
650.014 .0318340
650.768 .0318149
651.521 .0317957
652.275 .0317758
653.028 .0317546
653.781 .0317319
654.534 .0317086
655.286 .0316849
656.039 .0316617
656.791 .0316395
657.542 .0316180
658.294 .0315984
659.045 .0315790
659.796 .0315591
660.546 .0315382
661.297 .0315161
662.047 .0314924
662.796 .0314679
663.546 .0314429
664.295 .0314181
665.044 .0313935
665.793 .0313699
666.542 .0313469
667.290 .0313244
668.038 .0313021
668.786 .0312800
669.533 .0312580
670.281 .0312362
671.028 .0312143
671.774 .0311932
672.521 .0311729
673.267 .0311534
674.013 .0311339
674.759 .0311142
675.505 .0310942
676.250 .0310735
676.995 .0310517
677.740 .0310299
678.484 .0310080
679.229 .0309862
679.973 .0309645
680.717 .0309432
681.460 .0309219
682.204 .0309009
682.947 .0308801
683.690 .0308593
684.433 .0308388
685.175 .0308184
685.917 .0307981
686.659 .0307785
687.401 .0307597
688.142 .0307411
688.884 .0307226
689.625 .0307043
690.365 .0306848
691.106 .0306642
691.846 .0306431
692.586 .0306211
693.326 .0305984
694.066 .0305753
694.805 .0305517
695.545 .0305275
696.284 .0305025
697.022 .0304768
697.761 .0304503
698.499 .0304233
699.237 .0303955
699.975 .0303674
700.713 .0303398
701.450 .0303130
702.187 .0302875
702.924 .0302639
703.661 .0302428
704.397 .0302237
705.133 .0302068
705.869 .0301916
706.605 .0301779
707.341 .0301651
708.076 .0301526
708.811 .0301400
709.546 .0301267
710.281 .0301126
711.015 .0300981
711.749 .0300827
712.483 .0300669
713.217 .0300506
713.950 .0300343
714.684 .0300177
715.417 .0300006
716.150 .0299824
716.882 .0299634
717.615 .0299432
718.347 .0299217
719.079 .0298991
719.811 .0298760
720.542 .0298531
721.273 .0298304
722.005 .0298085
722.735 .0297880
723.466 .0297681
724.196 .0297489
724.927 .0297294
725.656 .0297094
726.386 .0296887
727.116 .0296674
727.845 .0296456
728.574 .0296244
729.303 .0296041
730.031 .0295850
730.760 .0295675
731.488 .0295517
732.216 .0295374
732.944 .0295241
733.671 .0295116
734.398 .0294999
735.125 .0294885
735.852 .0294778
736.579 .0294681
737.305 .0294598
738.031 .0294529
738.757 .0294471
739.483 .0294417
740.208 .0294365
740.933 .0294304
741.658 .0294230
742.383 .0294141
743.108 .0294039
743.832 .0293925
744.556 .0293803
745.280 .0293681
746.004 .0293560
746.727 .0293436
747.450 .0293312
748.173 .0293179
748.896 .0293039
749.618 .0292891
750.340 .0292732
751.062 .0292572
751.784 .0292414
752.506 .0292264
753.227 .0292123
753.948 .0291993
754.669 .0291876
755.389 .0291763
756.110 .0291649
756.830 .0291530
757.550 .0291405
758.269 .0291273
758.989 .0291136
759.708 .0290993
760.427 .0290848
761.146 .0290701
761.864 .0290553
762.582 .0290402
763.300 .0290246
764.018 .0290089
764.736 .0289928
765.453 .0289766
766.170 .0289609
766.887 .0289454
767.603 .0289303
768.320 .0289158
769.036 .0289014
769.751 .0288861
770.467 .0288704
771.182 .0288544
771.897 .0288375
772.612 .0288205
773.327 .0288038
774.041 .0287876
774.755 .0287724
775.469 .0287584
776.183 .0287451
776.896 .0287326
777.609 .0287206
778.322 .0287081
779.035 .0286956
779.747 .0286830
780.459 .0286702
781.171 .0286574
781.882 .0286457
782.594 .0286348
783.305 .0286252
784.016 .0286172
784.726 .0286108
785.436 .0286052
786.147 .0286001
786.856 .0285947
787.566 .0285889
788.275 .0285820
788.984 .0285741
789.693 .0285658
790.401 .0285576
791.110 .0285493
791.818 .0285419
792.525 .0285355
793.233 .0285302
793.940 .0285257
794.647 .0285213
795.353 .0285164
796.060 .0285109
796.766 .0285039
797.472 .0284951
798.177 .0284847
798.883 .0284736
799.588 .0284617
800.292 .0284498
800.997 .0284380
801.701 .0284263
802.405 .0284145
803.109 .0284026
803.812 .0283902
804.515 .0283769
805.218 .0283623
805.921 .0283464
806.623 .0283297
807.325 .0283128
808.027 .0282961
808.728 .0282801
809.429 .0282653
810.130 .0282518
810.831 .0282394
811.531 .0282273
812.231 .0282157
812.931 .0282043
813.630 .0281927
814.330 .0281808
815.029 .0281688
815.727 .0281575
816.426 .0281468
817.124 .0281371
817.821 .0281287
818.519 .0281213
819.216 .0281151
819.913 .0281092
820.609 .0281036
821.306 .0280978
822.002 .0280922
822.697 .0280867
823.393 .0280819
824.088 .0280780
824.783 .0280744
825.477 .0280712
826.171 .0280684
826.865 .0280654
827.559 .0280615
828.252 .0280570
828.945 .0280518
829.638 .0280456
830.330 .0280389
831.023 .0280317
831.714 .0280246
832.406 .0280176
833.097 .0280106
833.788 .0280031
834.479 .0279946
835.169 .0279854
835.859 .0279756
836.548 .0279653
837.238 .0279552
837.927 .0279455
838.615 .0279367
839.304 .0279292
839.992 .0279230
840.680 .0279176
841.367 .0279129
842.054 .0279084
842.741 .0279034
843.428 .0278982
844.114 .0278926
844.800 .0278869
845.485 .0278813
846.170 .0278761
846.855 .0278712
847.540 .0278665
848.224 .0278619
848.908 .0278569
849.592 .0278509
850.275 .0278435
850.958 .0278344
851.641 .0278238
852.323 .0278119
853.005 .0277988
853.687 .0277846
854.368 .0277696
855.049 .0277542
855.730 .0277384
856.410 .0277223
857.090 .0277062
857.769 .0276898
858.449 .0276727
859.128 .0276553
859.806 .0276373
860.485 .0276192
861.163 .0276016
861.840 .0275840
862.518 .0275669
863.195 .0275501
863.871 .0275335
864.548 .0275176
865.224 .0275025
865.899 .0274883
866.574 .0274749
867.249 .0274625
867.924 .0274511
868.598 .0274400
869.272 .0274294
869.946 .0274188
870.619 .0274078
871.292 .0273959
871.964 .0273826
872.636 .0273684
873.308 .0273536
873.979 .0273382
874.651 .0273226
875.321 .0273072
875.992 .0272922
876.662 .0272772
877.331 .0272624
878.001 .0272475
878.670 .0272323
879.338 .0272167
880.007 .0272010
880.675 .0271855
881.342 .0271703
882.009 .0271559
882.676 .0271426
883.343 .0271305
884.009 .0271191
884.675 .0271082
885.340 .0270979
886.005 .0270879
886.670 .0270777
887.334 .0270674
887.998 .0270572
888.662 .0270473
889.325 .0270376
889.988 .0270286
890.650 .0270197
891.312 .0270112
891.974 .0270031
892.636 .0269956
893.297 .0269887
893.957 .0269829
894.618 .0269778
895.278 .0269735
895.937 .0269698
896.596 .0269662
897.255 .0269621
897.914 .0269581
898.572 .0269536
899.230 .0269485
899.887 .0269429
900.544 .0269366
901.201 .0269300
901.857 .0269236
902.513 .0269171
903.168 .0269103
903.823 .0269031
904.478 .0268950
905.132 .0268853
905.786 .0268738
906.440 .0268605
907.093 .0268458
907.746 .0268298
908.399 .0268127
909.051 .0267951
909.703 .0267775
910.354 .0267600
911.005 .0267428
911.656 .0267258
912.306 .0267089
912.956 .0266917
913.605 .0266741
914.254 .0266559
914.903 .0266375
915.551 .0266189
916.199 .0266005
916.847 .0265831
917.494 .0265667
918.141 .0265514
918.788 .0265377
919.434 .0265258
920.079 .0265149
920.725 .0265045
921.370 .0264939
922.014 .0264825
922.658 .0264701
923.302 .0264561
923.946 .0264405
924.589 .0264242
925.231 .0264071
925.873 .0263898
926.515 .0263724
927.157 .0263549
927.798 .0263369
928.439 .0263189
929.079 .0263006
929.719 .0262814
930.359 .0262616
930.998 .0262413
931.637 .0262208
932.275 .0262007
932.913 .0261813
933.551 .0261625
934.188 .0261453
934.825 .0261295
935.462 .0261148
936.098 .0261018
936.733 .0260902
937.369 .0260799
938.004 .0260712
938.638 .0260640
939.273 .0260575
939.907 .0260523
940.540 .0260485
941.173 .0260458
941.806 .0260444
942.438 .0260444
943.070 .0260458
943.702 .0260485
944.333 .0260524
944.964 .0260566
945.594 .0260609
946.224 .0260653
946.854 .0260688
947.483 .0260719
948.112 .0260748
948.741 .0260772
949.369 .0260797
949.996 .0260826
950.624 .0260855
951.251 .0260881
951.878 .0260901
952.504 .0260908
953.130 .0260899
953.755 .0260870
954.380 .0260825
955.005 .0260764
955.629 .0260692
956.253 .0260611
956.877 .0260526
957.500 .0260447
958.123 .0260367
958.746 .0260285
959.368 .0260202
959.990 .0260112
960.611 .0260012
961.232 .0259897
961.853 .0259773
962.473 .0259646
963.093 .0259520
963.712 .0259404
964.331 .0259299
964.950 .0259213
965.569 .0259150
966.187 .0259109
966.804 .0259088
967.422 .0259076
968.039 .0259072
968.655 .0259072
969.272 .0259075
969.887 .0259078
970.503 .0259081
971.118 .0259092
971.733 .0259113
972.347 .0259136
972.961 .0259159
973.575 .0259181
974.188 .0259194
974.801 .0259196
975.414 .0259178
976.026 .0259134
976.638 .0259071
977.250 .0258990
977.861 .0258901
978.472 .0258802
979.083 .0258702
979.693 .0258600
980.303 .0258494
980.912 .0258384
981.521 .0258263
982.130 .0258133
982.738 .0258000
983.346 .0257863
983.954 .0257722
984.562 .0257578
985.169 .0257437
985.775 .0257300
986.382 .0257167
986.988 .0257036
987.594 .0256909
988.199 .0256789
988.804 .0256676
989.409 .0256572
990.013 .0256480
990.617 .0256407
991.221 .0256353
991.824 .0256314
992.427 .0256291
993.030 .0256281
993.632 .0256281
994.234 .0256287
994.836 .0256295
995.438 .0256303
996.039 .0256306
996.640 .0256311
997.240 .0256312
997.840 .0256318
998.440 .0256325
999.040 .0256336
999.639 .0256351
1000.238 .0256363
1000.836 .0256365
1001.435 .0256356
1002.033 .0256337
1002.630 .0256306
1003.228 .0256268
1003.825 .0256224
1004.422 .0256183
1005.018 .0256150
1005.614 .0256126
1006.210 .0256108
1006.806 .0256098
1007.401 .0256097
1007.996 .0256095
1008.591 .0256088
1009.186 .0256076
1009.780 .0256052
1010.374 .0256024
1010.967 .0255986
1011.561 .0255939
1012.154 .0255887
1012.746 .0255834
1013.339 .0255781
1013.931 .0255724
1014.523 .0255665
1015.115 .0255600
1015.706 .0255531
1016.298 .0255452
1016.888 .0255362
1017.479 .0255260
1018.069 .0255151
1018.660 .0255033
1019.250 .0254914
1019.839 .0254795
1020.429 .0254680
1021.018 .0254572
1021.607 .0254470
1022.195 .0254373
1022.784 .0254284
1023.372 .0254199
1023.960 .0254129
1024.547 .0254075
1025.135 .0254045
1025.722 .0254034
1026.309 .0254048
1026.896 .0254083
1027.483 .0254128
1028.069 .0254175
1028.655 .0254224
1029.241 .0254259
1029.827 .0254283
1030.412 .0254295
1030.997 .0254302
1031.582 .0254309
1032.167 .0254322
1032.752 .0254339
1033.336 .0254358
1033.921 .0254380
1034.505 .0254396
1035.089 .0254391
1035.672 .0254372
1036.256 .0254348
1036.839 .0254308
1037.422 .0254262
1038.005 .0254220
1038.588 .0254183
1039.171 .0254163
1039.753 .0254155
1040.335 .0254150
1040.918 .0254147
1041.500 .0254143
1042.081 .0254120
1042.663 .0254068
1043.244 .0254003
1043.826 .0253913
1044.407 .0253799
1044.988 .0253679
1045.569 .0253551
1046.150 .0253413
1046.730 .0253282
1047.311 .0253165
1047.891 .0253056
1048.471 .0252977
1049.052 .0252915
1049.632 .0252873
1050.211 .0252858
1050.791 .0252857
1051.371 .0252854
1051.950 .0252859
1052.530 .0252879
1053.109 .0252899
1053.688 .0252909
1054.268 .0252942
1054.847 .0252972
1055.426 .0253009
1056.005 .0253043
1056.583 .0253078
1057.162 .0253096
1057.741 .0253104
1058.319 .0253072
1058.898 .0253019
1059.476 .0252947
1060.055 .0252873
1060.633 .0252787
1061.211 .0252720
1061.790 .0252679
1062.368 .0252656
1062.946 .0252647
1063.524 .0252673
1064.102 .0252704
1064.680 .0252765
1065.258 .0252818
1065.836 .0252875
1066.414 .0252922
1066.992 .0252972
1067.570 .0253007
1068.148 .0253037
1068.726 .0253067
1069.304 .0253091
1069.882 .0253096
1070.460 .0253104
1071.038 .0253101
1071.616 .0253094
1072.194 .0253078
1072.772 .0253061
1073.350 .0253034
1073.928 .0253010
1074.506 .0252982
1075.084 .0252967
1075.662 .0252963
1076.240 .0252977
1076.819 .0252989
1077.397 .0253014
1077.976 .0253044
1078.554 .0253064
1079.133 .0253078
1079.711 .0253089
1080.290 .0253106
1080.869 .0253136
1081.448 .0253186
1082.027 .0253252
1082.606 .0253334
1083.185 .0253433
1083.764 .0253527
1084.343 .0253617
1084.923 .0253701
1085.502 .0253775
1086.082 .0253850
1086.662 .0253935
1087.242 .0254033
1087.822 .0254151
1088.402 .0254303
1088.983 .0254474
1089.563 .0254659
1090.144 .0254840
1090.725 .0255011
1091.306 .0255152
1091.887 .0255275
1092.469 .0255376
1093.050 .0255459
1093.632 .0255552
1094.214 .0255654
1094.796 .0255798
1095.379 .0255979
1095.961 .0256199
1096.544 .0256467
1097.127 .0256770
1097.710 .0257084
1098.294 .0257365
1098.877 .0257629
1099.461 .0257861
1100.046 .0258050
1100.630 .0258223
1101.215 .0258390
1101.800 .0258573
1102.385 .0258781
1102.970 .0259015
1103.556 .0259256
1104.142 .0259494
1104.728 .0259703
1105.315 .0259878
1105.902 .0260013
1106.489 .0260127
1107.077 .0260210
1107.664 .0260302
1108.253 .0260453
1108.841 .0260621
1109.430 .0260827
1110.019 .0261068
1110.609 .0261319
1111.198 .0261562
1111.789 .0261762
1112.379 .0261942
1112.970 .0262113
1113.561 .0262291
1114.153 .0262503
1114.745 .0262754
1115.338 .0263072
1115.931 .0263430
1116.524 .0263809
1117.117 .0264228
1117.712 .0264653
1118.306 .0265060
1118.901 .0265478
1119.496 .0265888
1120.092 .0266332
1120.689 .0266774
1121.285 .0267221
1121.882 .0267719
1122.480 .0268238
1123.078 .0268785
1123.677 .0269343
1124.276 .0269932
1124.875 .0270597
1125.476 .0271283
1126.076 .0272041
1126.677 .0272812
1127.279 .0273621
1127.881 .0274443
1128.484 .0275236
1129.087 .0276018
1129.691 .0276799
1130.295 .0277575
1130.900 .0278414
1131.505 .0279349
1132.111 .0280392
1132.718 .0281559
1133.325 .0282829
1133.933 .0284164
1134.541 .0285520
1135.150 .0286820
1135.760 .0288069
1136.370 .0289242
1136.981 .0290393
1137.592 .0291466
1138.204 .0292559
1138.817 .0293735
1139.431 .0294997
1140.045 .0296311
1140.660 .0297637
1141.275 .0299032
1141.891 .0300466
1142.508 .0302927
1143.126 .0302700
1143.744 .0303371
1144.363 .0306631
1144.983 .0308211
