Measurement Sequence started on: 15-12-46-377
Integration time: 28
Scans to Average: 2 
>>>>>Begin Spectral Data<<<<<
432.689 .0000100
433.621 .0000100
434.552 .0000100
435.482 .0000100
436.410 .0000100
437.337 .0000100
438.262 .0259198
439.187 .0549495
440.110 .0910008
441.031 .1317061
441.952 .1712230
442.871 .2023213
443.789 .2193869
444.705 .2204713
445.621 .2079078
446.535 .1868965
447.447 .1631000
448.359 .1266856
449.269 .1086166
450.178 .0972365
451.086 .0892036
451.993 .0831152
452.898 .0783597
453.803 .0744996
454.706 .0713395
455.608 .0686936
456.508 .0664045
457.408 .0644004
458.306 .0626222
459.204 .0610126
460.100 .0595552
460.995 .0582295
461.888 .0570329
462.781 .0559295
463.673 .0549193
464.563 .0539868
465.452 .0531218
466.340 .0523027
467.228 .0515297
468.114 .0507898
468.999 .0500909
469.882 .0494222
470.765 .0488001
471.647 .0482304
472.528 .0477141
473.407 .0472527
474.286 .0468409
475.163 .0464693
476.040 .0461423
476.915 .0458397
477.790 .0455688
478.663 .0453228
479.535 .0451076
480.407 .0449151
481.277 .0447541
482.147 .0446203
483.015 .0445083
483.883 .0444233
484.749 .0443541
485.615 .0442934
486.479 .0442510
487.343 .0442260
488.206 .0442152
489.067 .0442250
489.928 .0442615
490.788 .0443125
491.647 .0443919
492.505 .0444932
493.362 .0446176
494.218 .0447614
495.073 .0449262
495.928 .0451092
496.781 .0453080
497.634 .0455356
498.486 .0457818
499.337 .0460567
500.187 .0463685
501.036 .0467017
501.884 .0470633
502.731 .0474523
503.578 .0478745
504.424 .0483184
505.268 .0487876
506.113 .0492788
506.956 .0497883
507.798 .0503258
508.640 .0508929
509.480 .0515050
510.320 .0521792
511.160 .0529455
511.998 .0538056
512.836 .0547691
513.672 .0558564
514.508 .0570481
515.344 .0583546
516.178 .0597931
517.012 .0613814
517.845 .0631522
518.677 .0651528
519.508 .0674328
520.339 .0700555
521.169 .0730719
521.998 .0765148
522.826 .0804277
523.654 .0848565
524.481 .0897528
525.307 .0951038
526.133 .1009058
526.958 .1071000
527.782 .1136679
528.605 .1204868
529.428 .1275138
530.250 .1342470
531.072 .1405805
531.892 .1461004
532.712 .1504677
533.532 .1534680
534.350 .1547797
535.168 .1543175
535.986 .1521074
536.802 .1482520
537.618 .1430610
538.434 .1367708
539.249 .1299558
540.063 .1227493
540.876 .1155237
541.689 .1084914
542.501 .1018272
543.313 .0957023
544.124 .0901137
544.934 .0850506
545.744 .0804841
546.553 .0763797
547.361 .0727316
548.169 .0695289
548.976 .0666924
549.783 .0642172
550.589 .0620788
551.395 .0601655
552.200 .0584548
553.004 .0569088
553.808 .0555159
554.611 .0542594
555.414 .0531243
556.216 .0520998
557.018 .0511715
557.819 .0503396
558.619 .0495716
559.419 .0488429
560.218 .0481572
561.017 .0474873
561.815 .0468144
562.613 .0461497
563.410 .0454777
564.207 .0447999
565.003 .0441373
565.799 .0434929
566.594 .0428612
567.388 .0422615
568.182 .0416853
568.976 .0411394
569.769 .0406263
570.562 .0401479
571.354 .0396864
572.145 .0392504
572.936 .0388287
573.727 .0384106
574.517 .0380032
575.307 .0376123
576.096 .0372331
576.885 .0368775
577.673 .0365427
578.461 .0362295
579.248 .0359379
580.035 .0356685
580.821 .0354052
581.607 .0351518
582.392 .0349029
583.177 .0346578
583.962 .0344167
584.746 .0341897
585.529 .0339759
586.313 .0337804
587.095 .0336045
587.878 .0334476
588.660 .0333071
589.441 .0331840
590.222 .0330725
591.003 .0329722
591.783 .0328799
592.563 .0327952
593.342 .0327160
594.121 .0326414
594.899 .0325721
595.678 .0325059
596.455 .0324427
597.233 .0323824
598.009 .0323234
598.786 .0322670
599.562 .0322125
600.338 .0321605
601.113 .0321092
601.888 .0320591
602.663 .0320095
603.437 .0319602
604.211 .0319107
604.984 .0318620
605.757 .0318143
606.530 .0317684
607.302 .0317256
608.074 .0316854
608.845 .0316488
609.616 .0316149
610.387 .0315833
611.158 .0315533
611.928 .0315238
612.697 .0314955
613.467 .0314671
614.236 .0314389
615.004 .0314113
615.773 .0313839
616.541 .0313577
617.308 .0313324
618.076 .0313090
618.843 .0312869
619.609 .0312670
620.375 .0312491
621.141 .0312336
621.907 .0312201
622.672 .0312093
623.437 .0312005
624.202 .0311928
624.966 .0311855
625.730 .0311781
626.493 .0311701
627.257 .0311615
628.020 .0311525
628.782 .0311424
629.545 .0311311
630.307 .0311192
631.068 .0311052
631.830 .0310896
632.591 .0310719
633.352 .0310516
634.112 .0310287
634.872 .0310033
635.632 .0309756
636.392 .0309458
637.151 .0309161
637.910 .0308866
638.668 .0308577
639.427 .0308306
640.185 .0308053
640.943 .0307814
641.700 .0307599
642.457 .0307401
643.214 .0307213
643.971 .0307034
644.727 .0306859
645.483 .0306675
646.239 .0306481
646.994 .0306273
647.750 .0306055
648.505 .0305829
649.259 .0305600
650.014 .0305361
650.768 .0305125
651.521 .0304886
652.275 .0304643
653.028 .0304395
653.781 .0304143
654.534 .0303879
655.286 .0303606
656.039 .0303320
656.791 .0303033
657.542 .0302743
658.294 .0302459
659.045 .0302185
659.796 .0301923
660.546 .0301668
661.297 .0301415
662.047 .0301165
662.796 .0300917
663.546 .0300664
664.295 .0300415
665.044 .0300166
665.793 .0299923
666.542 .0299683
667.290 .0299449
668.038 .0299227
668.786 .0299016
669.533 .0298809
670.281 .0298602
671.028 .0298400
671.774 .0298200
672.521 .0297996
673.267 .0297799
674.013 .0297608
674.759 .0297417
675.505 .0297226
676.250 .0297035
676.995 .0296836
677.740 .0296642
678.484 .0296451
679.229 .0296267
679.973 .0296094
680.717 .0295932
681.460 .0295780
682.204 .0295641
682.947 .0295517
683.690 .0295398
684.433 .0295282
685.175 .0295173
685.917 .0295060
686.659 .0294951
687.401 .0294844
688.142 .0294750
688.884 .0294660
689.625 .0294576
690.365 .0294484
691.106 .0294382
691.846 .0294266
692.586 .0294129
693.326 .0293972
694.066 .0293800
694.805 .0293615
695.545 .0293420
696.284 .0293220
697.022 .0293025
697.761 .0292834
698.499 .0292652
699.237 .0292470
699.975 .0292291
700.713 .0292115
701.450 .0291936
702.187 .0291761
702.924 .0291591
703.661 .0291423
704.397 .0291259
705.133 .0291105
705.869 .0290954
706.605 .0290808
707.341 .0290669
708.076 .0290533
708.811 .0290396
709.546 .0290258
710.281 .0290113
711.015 .0289963
711.749 .0289808
712.483 .0289645
713.217 .0289469
713.950 .0289291
714.684 .0289105
715.417 .0288914
716.150 .0288721
716.882 .0288523
717.615 .0288322
718.347 .0288115
719.079 .0287907
719.811 .0287696
720.542 .0287484
721.273 .0287269
722.005 .0287052
722.735 .0286837
723.466 .0286622
724.196 .0286406
724.927 .0286191
725.656 .0285973
726.386 .0285753
727.116 .0285526
727.845 .0285293
728.574 .0285059
729.303 .0284830
730.031 .0284608
730.760 .0284397
731.488 .0284200
732.216 .0284018
732.944 .0283851
733.671 .0283700
734.398 .0283558
735.125 .0283425
735.852 .0283294
736.579 .0283162
737.305 .0283030
738.031 .0282901
738.757 .0282779
739.483 .0282663
740.208 .0282557
740.933 .0282459
741.658 .0282369
742.383 .0282283
743.108 .0282201
743.832 .0282117
744.556 .0282028
745.280 .0281931
746.004 .0281827
746.727 .0281715
747.450 .0281598
748.173 .0281479
748.896 .0281362
749.618 .0281245
750.340 .0281131
751.062 .0281015
751.784 .0280903
752.506 .0280792
753.227 .0280676
753.948 .0280556
754.669 .0280441
755.389 .0280328
756.110 .0280214
756.830 .0280098
757.550 .0279987
758.269 .0279873
758.989 .0279757
759.708 .0279633
760.427 .0279507
761.146 .0279379
761.864 .0279253
762.582 .0279122
763.300 .0278999
764.018 .0278879
764.736 .0278765
765.453 .0278652
766.170 .0278545
766.887 .0278435
767.603 .0278324
768.320 .0278215
769.036 .0278112
769.751 .0278013
770.467 .0277920
771.182 .0277834
771.897 .0277761
772.612 .0277689
773.327 .0277624
774.041 .0277558
774.755 .0277496
775.469 .0277431
776.183 .0277365
776.896 .0277296
777.609 .0277230
778.322 .0277163
779.035 .0277095
779.747 .0277020
780.459 .0276945
781.171 .0276862
781.882 .0276773
782.594 .0276682
783.305 .0276593
784.016 .0276509
784.726 .0276432
785.436 .0276362
786.147 .0276297
786.856 .0276235
787.566 .0276175
788.275 .0276114
788.984 .0276047
789.693 .0275977
790.401 .0275899
791.110 .0275815
791.818 .0275728
792.525 .0275632
793.233 .0275531
793.940 .0275424
794.647 .0275307
795.353 .0275181
796.060 .0275045
796.766 .0274900
797.472 .0274743
798.177 .0274578
798.883 .0274402
799.588 .0274217
800.292 .0274028
800.997 .0273837
801.701 .0273644
802.405 .0273452
803.109 .0273265
803.812 .0273077
804.515 .0272892
805.218 .0272707
805.921 .0272517
806.623 .0272323
807.325 .0272129
808.027 .0271933
808.728 .0271738
809.429 .0271548
810.130 .0271362
810.831 .0271185
811.531 .0271014
812.231 .0270845
812.931 .0270678
813.630 .0270507
814.330 .0270332
815.029 .0270145
815.727 .0269956
816.426 .0269764
817.124 .0269572
817.821 .0269389
818.519 .0269211
819.216 .0269045
819.913 .0268891
820.609 .0268744
821.306 .0268604
822.002 .0268472
822.697 .0268348
823.393 .0268230
824.088 .0268122
824.783 .0268027
825.477 .0267942
826.171 .0267871
826.865 .0267814
827.559 .0267768
828.252 .0267733
828.945 .0267704
829.638 .0267679
830.330 .0267660
831.023 .0267642
831.714 .0267623
832.406 .0267604
833.097 .0267587
833.788 .0267564
834.479 .0267538
835.169 .0267510
835.859 .0267479
836.548 .0267445
837.238 .0267409
837.927 .0267367
838.615 .0267323
839.304 .0267273
839.992 .0267219
840.680 .0267162
841.367 .0267102
842.054 .0267036
842.741 .0266969
843.428 .0266907
844.114 .0266850
844.800 .0266801
845.485 .0266760
846.170 .0266726
846.855 .0266698
847.540 .0266671
848.224 .0266643
848.908 .0266615
849.592 .0266586
850.275 .0266557
850.958 .0266525
851.641 .0266496
852.323 .0266469
853.005 .0266441
853.687 .0266409
854.368 .0266373
855.049 .0266327
855.730 .0266270
856.410 .0266200
857.090 .0266122
857.769 .0266033
858.449 .0265937
859.128 .0265831
859.806 .0265719
860.485 .0265608
861.163 .0265495
861.840 .0265379
862.518 .0265267
863.195 .0265159
863.871 .0265049
864.548 .0264941
865.224 .0264839
865.899 .0264739
866.574 .0264646
867.249 .0264559
867.924 .0264477
868.598 .0264401
869.272 .0264328
869.946 .0264257
870.619 .0264191
871.292 .0264131
871.964 .0264066
872.636 .0264003
873.308 .0263940
873.979 .0263874
874.651 .0263803
875.321 .0263728
875.992 .0263647
876.662 .0263562
877.331 .0263468
878.001 .0263366
878.670 .0263263
879.338 .0263159
880.007 .0263056
880.675 .0262960
881.342 .0262867
882.009 .0262777
882.676 .0262689
883.343 .0262606
884.009 .0262519
884.675 .0262435
885.340 .0262346
886.005 .0262258
886.670 .0262172
887.334 .0262091
887.998 .0262015
888.662 .0261946
889.325 .0261883
889.988 .0261822
890.650 .0261762
891.312 .0261702
891.974 .0261640
892.636 .0261580
893.297 .0261520
893.957 .0261461
894.618 .0261403
895.278 .0261345
895.937 .0261289
896.596 .0261235
897.255 .0261178
897.914 .0261117
898.572 .0261050
899.230 .0260975
899.887 .0260893
900.544 .0260800
901.201 .0260695
901.857 .0260580
902.513 .0260453
903.168 .0260316
903.823 .0260165
904.478 .0260004
905.132 .0259830
905.786 .0259642
906.440 .0259440
907.093 .0259221
907.746 .0258990
908.399 .0258749
909.051 .0258497
909.703 .0258243
910.354 .0257985
911.005 .0257726
911.656 .0257471
912.306 .0257217
912.956 .0256959
913.605 .0256696
914.254 .0256427
914.903 .0256153
915.551 .0255879
916.199 .0255610
916.847 .0255349
917.494 .0255102
918.141 .0254872
918.788 .0254655
919.434 .0254450
920.079 .0254253
920.725 .0254059
921.370 .0253865
922.014 .0253670
922.658 .0253472
923.302 .0253274
923.946 .0253082
924.589 .0252895
925.231 .0252713
925.873 .0252538
926.515 .0252366
927.157 .0252193
927.798 .0252016
928.439 .0251835
929.079 .0251649
929.719 .0251456
930.359 .0251260
930.998 .0251062
931.637 .0250865
932.275 .0250672
932.913 .0250483
933.551 .0250298
934.188 .0250119
934.825 .0249945
935.462 .0249776
936.098 .0249614
936.733 .0249459
937.369 .0249315
938.004 .0249181
938.638 .0249061
939.273 .0248950
939.907 .0248853
940.540 .0248770
941.173 .0248697
941.806 .0248636
942.438 .0248589
943.070 .0248553
943.702 .0248528
944.333 .0248510
944.964 .0248497
945.594 .0248488
946.224 .0248484
946.854 .0248483
947.483 .0248486
948.112 .0248492
948.741 .0248497
949.369 .0248502
949.996 .0248507
950.624 .0248502
951.251 .0248489
951.878 .0248466
952.504 .0248435
953.130 .0248395
953.755 .0248347
954.380 .0248298
955.005 .0248253
955.629 .0248209
956.253 .0248167
956.877 .0248125
957.500 .0248083
958.123 .0248034
958.746 .0247980
959.368 .0247920
959.990 .0247858
960.611 .0247797
961.232 .0247743
961.853 .0247705
962.473 .0247689
963.093 .0247693
963.712 .0247717
964.331 .0247754
964.950 .0247797
965.569 .0247839
966.187 .0247877
966.804 .0247912
967.422 .0247944
968.039 .0247976
968.655 .0248012
969.272 .0248057
969.887 .0248111
970.503 .0248171
971.118 .0248235
971.733 .0248294
972.347 .0248341
972.961 .0248370
973.575 .0248382
974.188 .0248378
974.801 .0248359
975.414 .0248331
976.026 .0248297
976.638 .0248265
977.250 .0248239
977.861 .0248218
978.472 .0248202
979.083 .0248188
979.693 .0248169
980.303 .0248147
980.912 .0248122
981.521 .0248096
982.130 .0248072
982.738 .0248054
983.346 .0248044
983.954 .0248038
984.562 .0248038
985.169 .0248038
985.775 .0248032
986.382 .0248017
986.988 .0247992
987.594 .0247955
988.199 .0247908
988.804 .0247857
989.409 .0247805
990.013 .0247757
990.617 .0247709
991.221 .0247661
991.824 .0247614
992.427 .0247570
993.030 .0247527
993.632 .0247486
994.234 .0247453
994.836 .0247423
995.438 .0247401
996.039 .0247388
996.640 .0247387
997.240 .0247399
997.840 .0247421
998.440 .0247459
999.040 .0247503
999.639 .0247551
1000.238 .0247600
1000.836 .0247647
1001.435 .0247689
1002.033 .0247719
1002.630 .0247744
1003.228 .0247756
1003.825 .0247764
1004.422 .0247773
1005.018 .0247785
1005.614 .0247808
1006.210 .0247836
1006.806 .0247867
1007.401 .0247894
1007.996 .0247916
1008.591 .0247933
1009.186 .0247942
1009.780 .0247943
1010.374 .0247931
1010.967 .0247907
1011.561 .0247868
1012.154 .0247820
1012.746 .0247757
1013.339 .0247685
1013.931 .0247612
1014.523 .0247538
1015.115 .0247463
1015.706 .0247392
1016.298 .0247331
1016.888 .0247281
1017.479 .0247229
1018.069 .0247178
1018.660 .0247119
1019.250 .0247057
1019.839 .0246998
1020.429 .0246949
1021.018 .0246916
1021.607 .0246913
1022.195 .0246936
1022.784 .0246994
1023.372 .0247075
1023.960 .0247170
1024.547 .0247266
1025.135 .0247361
1025.722 .0247436
1026.309 .0247492
1026.896 .0247534
1027.483 .0247570
1028.069 .0247603
1028.655 .0247640
1029.241 .0247675
1029.827 .0247710
1030.412 .0247739
1030.997 .0247756
1031.582 .0247753
1032.167 .0247737
1032.752 .0247700
1033.336 .0247651
1033.921 .0247594
1034.505 .0247527
1035.089 .0247448
1035.672 .0247360
1036.256 .0247261
1036.839 .0247147
1037.422 .0247024
1038.005 .0246886
1038.588 .0246735
1039.171 .0246579
1039.753 .0246416
1040.335 .0246253
1040.918 .0246091
1041.500 .0245925
1042.081 .0245756
1042.663 .0245588
1043.244 .0245418
1043.826 .0245240
1044.407 .0245069
1044.988 .0244898
1045.569 .0244731
1046.150 .0244571
1046.730 .0244416
1047.311 .0244268
1047.891 .0244138
1048.471 .0244014
1049.052 .0243900
1049.632 .0243789
1050.211 .0243692
1050.791 .0243607
1051.371 .0243549
1051.950 .0243511
1052.530 .0243479
1053.109 .0243466
1053.688 .0243456
1054.268 .0243436
1054.847 .0243417
1055.426 .0243392
1056.005 .0243363
1056.583 .0243330
1057.162 .0243292
1057.741 .0243250
1058.319 .0243219
1058.898 .0243203
1059.476 .0243192
1060.055 .0243195
1060.633 .0243201
1061.211 .0243194
1061.790 .0243182
1062.368 .0243171
1062.946 .0243147
1063.524 .0243125
1064.102 .0243109
1064.680 .0243107
1065.258 .0243126
1065.836 .0243169
1066.414 .0243229
1066.992 .0243312
1067.570 .0243398
1068.148 .0243466
1068.726 .0243505
1069.304 .0243522
1069.882 .0243498
1070.460 .0243457
1071.038 .0243403
1071.616 .0243339
1072.194 .0243274
1072.772 .0243227
1073.350 .0243198
1073.928 .0243188
1074.506 .0243177
1075.084 .0243157
1075.662 .0243121
1076.240 .0243070
1076.819 .0242984
1077.397 .0242885
1077.976 .0242797
1078.554 .0242729
1079.133 .0242703
1079.711 .0242735
1080.290 .0242812
1080.869 .0242935
1081.448 .0243077
1082.027 .0243214
1082.606 .0243325
1083.185 .0243407
1083.764 .0243458
1084.343 .0243493
1084.923 .0243530
1085.502 .0243581
1086.082 .0243663
1086.662 .0243798
1087.242 .0243960
1087.822 .0244141
1088.402 .0244332
1088.983 .0244507
1089.563 .0244648
1090.144 .0244759
1090.725 .0244843
1091.306 .0244905
1091.887 .0244955
1092.469 .0245007
1093.050 .0245059
1093.632 .0245125
1094.214 .0245198
1094.796 .0245283
1095.379 .0245376
1095.961 .0245486
1096.544 .0245608
1097.127 .0245742
1097.710 .0245903
1098.294 .0246080
1098.877 .0246276
1099.461 .0246485
1100.046 .0246707
1100.630 .0246920
1101.215 .0247142
1101.800 .0247380
1102.385 .0247612
1102.970 .0247857
1103.556 .0248116
1104.142 .0248375
1104.728 .0248665
1105.315 .0248972
1105.902 .0249279
1106.489 .0249566
1107.077 .0249874
1107.664 .0250152
1108.253 .0250400
1108.841 .0250627
1109.430 .0250851
1110.019 .0251069
1110.609 .0251325
1111.198 .0251609
1111.789 .0251959
1112.379 .0252397
1112.970 .0252889
1113.561 .0253421
1114.153 .0254006
1114.745 .0254564
1115.338 .0255115
1115.931 .0255647
1116.524 .0256186
1117.117 .0256706
1117.712 .0257255
1118.306 .0257854
1118.901 .0258507
1119.496 .0259196
1120.092 .0259899
1120.689 .0260608
1121.285 .0261322
1121.882 .0261957
1122.480 .0262531
1123.078 .0263067
1123.677 .0263587
1124.276 .0264101
1124.875 .0264637
1125.476 .0265166
1126.076 .0265710
1126.677 .0266269
1127.279 .0266826
1127.881 .0267380
1128.484 .0267939
1129.087 .0268470
1129.691 .0268995
1130.295 .0269506
1130.900 .0270019
1131.505 .0270539
1132.111 .0271112
1132.718 .0271723
1133.325 .0272393
1133.933 .0273128
1134.541 .0273973
1135.150 .0274906
1135.760 .0275943
1136.370 .0277052
1136.981 .0278179
1137.592 .0279276
1138.204 .0280389
1138.817 .0281542
1139.431 .0282710
1140.045 .0283921
1140.660 .0285110
1141.275 .0286085
1141.891 .0286964
1142.508 .0289554
1143.126 .0291421
1143.744 .0289661
1144.363 .0285079
1144.983 .0287979
