Measurement Sequence started on: 15-12-46-377
Integration time: 28
Scans to Average: 2 
>>>>>Begin Spectral Data<<<<<
432.689 .0000100
433.621 .0000100
434.552 .0000100
435.482 .0000100
436.410 .0000100
437.337 .0000100
438.262 .0246461
439.187 .0522838
440.110 .0866604
441.031 .1254389
441.952 .1631591
442.871 .1929736
443.789 .2094452
444.705 .2107292
445.621 .1990710
446.535 .1793875
447.447 .1570442
448.359 .1227026
449.269 .1057714
450.178 .0951588
451.086 .0877444
451.993 .0820886
452.898 .0776194
453.803 .0740244
454.706 .0710561
455.608 .0685307
456.508 .0663515
457.408 .0644741
458.306 .0628235
459.204 .0613628
460.100 .0600652
460.995 .0588878
461.888 .0578134
462.781 .0568016
463.673 .0558427
464.563 .0549465
465.452 .0540942
466.340 .0532789
467.228 .0524975
468.114 .0517526
468.999 .0510440
469.882 .0503688
470.765 .0497491
471.647 .0491820
472.528 .0486706
473.407 .0482055
474.286 .0477847
475.163 .0474096
476.040 .0470722
476.915 .0467661
477.790 .0464887
478.663 .0462360
479.535 .0460089
480.407 .0458071
481.277 .0456339
482.147 .0455002
483.015 .0454004
483.883 .0453305
484.749 .0452841
485.615 .0452508
486.479 .0452313
487.343 .0452183
488.206 .0452152
489.067 .0452176
489.928 .0452180
490.788 .0452325
491.647 .0452587
492.505 .0453081
493.362 .0453865
494.218 .0454881
495.073 .0456157
495.928 .0457615
496.781 .0459204
497.634 .0460860
498.486 .0462584
499.337 .0464391
500.187 .0466205
501.036 .0468135
501.884 .0470293
502.731 .0472736
503.578 .0475673
504.424 .0479189
505.268 .0483188
506.113 .0487638
506.956 .0492478
507.798 .0497643
508.640 .0503163
509.480 .0509142
510.320 .0515748
511.160 .0523083
511.998 .0531406
512.836 .0540910
513.672 .0551696
514.508 .0563971
515.344 .0577623
516.178 .0592859
517.012 .0609713
517.845 .0628415
518.677 .0649384
519.508 .0672865
520.339 .0699508
521.169 .0729711
521.998 .0763484
522.826 .0801761
523.654 .0844865
524.481 .0893136
525.307 .0946929
526.133 .1006109
526.958 .1070044
527.782 .1138005
528.605 .1208600
529.428 .1280556
530.250 .1348553
531.072 .1411058
531.892 .1463725
532.712 .1503742
533.532 .1529635
534.350 .1539160
535.168 .1531945
535.986 .1508602
536.802 .1470069
537.618 .1418623
538.434 .1356148
539.249 .1287473
540.063 .1214056
540.876 .1139741
541.689 .1067386
542.501 .0998666
543.313 .0935978
544.124 .0880144
544.934 .0830753
545.744 .0787304
546.553 .0748869
547.361 .0714809
548.169 .0684620
548.976 .0657325
549.783 .0632757
550.589 .0610748
551.395 .0591156
552.200 .0573651
553.004 .0558007
553.808 .0544094
554.611 .0531708
555.414 .0520627
556.216 .0510730
557.018 .0501657
557.819 .0493415
558.619 .0485652
559.419 .0478360
560.218 .0471554
561.017 .0465056
561.815 .0458723
562.613 .0452637
563.410 .0446642
564.207 .0440677
565.003 .0434742
565.799 .0428980
566.594 .0423271
567.388 .0417860
568.182 .0412600
568.976 .0407587
569.769 .0402861
570.562 .0398335
571.354 .0393904
572.145 .0389621
572.936 .0385430
573.727 .0381279
574.517 .0377209
575.307 .0373268
576.096 .0369454
576.885 .0365852
577.673 .0362456
578.461 .0359297
579.248 .0356336
580.035 .0353566
580.821 .0350920
581.607 .0348435
582.392 .0346055
583.177 .0343785
583.962 .0341664
584.746 .0339708
585.529 .0337901
586.313 .0336261
587.095 .0334770
587.878 .0333444
588.660 .0332260
589.441 .0331220
590.222 .0330262
591.003 .0329387
591.783 .0328573
592.563 .0327798
593.342 .0327066
594.121 .0326356
594.899 .0325674
595.678 .0325026
596.455 .0324404
597.233 .0323801
598.009 .0323221
598.786 .0322658
599.562 .0322107
600.338 .0321562
601.113 .0321021
601.888 .0320482
602.663 .0319948
603.437 .0319424
604.211 .0318902
604.984 .0318391
605.757 .0317903
606.530 .0317427
607.302 .0316974
608.074 .0316545
608.845 .0316135
609.616 .0315755
610.387 .0315404
611.158 .0315084
611.928 .0314798
612.697 .0314540
613.467 .0314308
614.236 .0314096
615.004 .0313900
615.773 .0313708
616.541 .0313524
617.308 .0313352
618.076 .0313180
618.843 .0313012
619.609 .0312853
620.375 .0312695
621.141 .0312536
621.907 .0312373
622.672 .0312193
623.437 .0311993
624.202 .0311770
624.966 .0311521
625.730 .0311259
626.493 .0310994
627.257 .0310727
628.020 .0310468
628.782 .0310217
629.545 .0309965
630.307 .0309703
631.068 .0309426
631.830 .0309128
632.591 .0308800
633.352 .0308454
634.112 .0308098
634.872 .0307736
635.632 .0307391
636.392 .0307065
637.151 .0306767
637.910 .0306491
638.668 .0306228
639.427 .0305972
640.185 .0305716
640.943 .0305460
641.700 .0305205
642.457 .0304961
643.214 .0304742
643.971 .0304547
644.727 .0304384
645.483 .0304251
646.239 .0304148
646.994 .0304060
647.750 .0303985
648.505 .0303901
649.259 .0303810
650.014 .0303691
650.768 .0303548
651.521 .0303381
652.275 .0303192
653.028 .0302985
653.781 .0302770
654.534 .0302552
655.286 .0302333
656.039 .0302112
656.791 .0301894
657.542 .0301661
658.294 .0301425
659.045 .0301167
659.796 .0300891
660.546 .0300600
661.297 .0300303
662.047 .0300000
662.796 .0299706
663.546 .0299424
664.295 .0299152
665.044 .0298891
665.793 .0298633
666.542 .0298371
667.290 .0298104
668.038 .0297831
668.786 .0297547
669.533 .0297261
670.281 .0296983
671.028 .0296710
671.774 .0296453
672.521 .0296217
673.267 .0295997
674.013 .0295796
674.759 .0295612
675.505 .0295442
676.250 .0295279
676.995 .0295127
677.740 .0294974
678.484 .0294823
679.229 .0294669
679.973 .0294511
680.717 .0294349
681.460 .0294188
682.204 .0294026
682.947 .0293864
683.690 .0293713
684.433 .0293567
685.175 .0293426
685.917 .0293292
686.659 .0293155
687.401 .0293016
688.142 .0292873
688.884 .0292724
689.625 .0292567
690.365 .0292408
691.106 .0292248
691.846 .0292087
692.586 .0291935
693.326 .0291790
694.066 .0291650
694.805 .0291514
695.545 .0291378
696.284 .0291228
697.022 .0291068
697.761 .0290893
698.499 .0290697
699.237 .0290488
699.975 .0290266
700.713 .0290038
701.450 .0289808
702.187 .0289585
702.924 .0289372
703.661 .0289169
704.397 .0288978
705.133 .0288797
705.869 .0288628
706.605 .0288471
707.341 .0288319
708.076 .0288180
708.811 .0288051
709.546 .0287929
710.281 .0287818
711.015 .0287712
711.749 .0287611
712.483 .0287517
713.217 .0287418
713.950 .0287324
714.684 .0287228
715.417 .0287133
716.150 .0287038
716.882 .0286943
717.615 .0286847
718.347 .0286744
719.079 .0286637
719.811 .0286520
720.542 .0286390
721.273 .0286255
722.005 .0286106
722.735 .0285948
723.466 .0285787
724.196 .0285620
724.927 .0285448
725.656 .0285275
726.386 .0285093
727.116 .0284908
727.845 .0284717
728.574 .0284518
729.303 .0284311
730.031 .0284101
730.760 .0283890
731.488 .0283677
732.216 .0283472
732.944 .0283278
733.671 .0283099
734.398 .0282939
735.125 .0282798
735.852 .0282681
736.579 .0282586
737.305 .0282510
738.031 .0282451
738.757 .0282405
739.483 .0282365
740.208 .0282322
740.933 .0282277
741.658 .0282230
742.383 .0282169
743.108 .0282099
743.832 .0282016
744.556 .0281923
745.280 .0281818
746.004 .0281697
746.727 .0281561
747.450 .0281411
748.173 .0281246
748.896 .0281062
749.618 .0280865
750.340 .0280661
751.062 .0280454
751.784 .0280248
752.506 .0280047
753.227 .0279852
753.948 .0279659
754.669 .0279470
755.389 .0279281
756.110 .0279086
756.830 .0278889
757.550 .0278688
758.269 .0278487
758.989 .0278287
759.708 .0278092
760.427 .0277900
761.146 .0277708
761.864 .0277519
762.582 .0277322
763.300 .0277118
764.018 .0276909
764.736 .0276699
765.453 .0276493
766.170 .0276294
766.887 .0276111
767.603 .0275943
768.320 .0275791
769.036 .0275652
769.751 .0275518
770.467 .0275386
771.182 .0275253
771.897 .0275115
772.612 .0274971
773.327 .0274828
774.041 .0274686
774.755 .0274547
775.469 .0274420
776.183 .0274302
776.896 .0274190
777.609 .0274088
778.322 .0273993
779.035 .0273897
779.747 .0273802
780.459 .0273711
781.171 .0273626
781.882 .0273551
782.594 .0273488
783.305 .0273442
784.016 .0273419
784.726 .0273415
785.436 .0273429
786.147 .0273457
786.856 .0273498
787.566 .0273537
788.275 .0273570
788.984 .0273593
789.693 .0273602
790.401 .0273595
791.110 .0273573
791.818 .0273539
792.525 .0273496
793.233 .0273444
793.940 .0273386
794.647 .0273324
795.353 .0273256
796.060 .0273181
796.766 .0273100
797.472 .0273011
798.177 .0272916
798.883 .0272811
799.588 .0272704
800.292 .0272596
800.997 .0272491
801.701 .0272386
802.405 .0272291
803.109 .0272208
803.812 .0272136
804.515 .0272071
805.218 .0272012
805.921 .0271954
806.623 .0271890
807.325 .0271822
808.027 .0271749
808.728 .0271667
809.429 .0271585
810.130 .0271499
810.831 .0271416
811.531 .0271337
812.231 .0271263
812.931 .0271188
813.630 .0271115
814.330 .0271038
815.029 .0270950
815.727 .0270854
816.426 .0270755
817.124 .0270652
817.821 .0270547
818.519 .0270442
819.216 .0270341
819.913 .0270247
820.609 .0270159
821.306 .0270073
822.002 .0269995
822.697 .0269922
823.393 .0269852
824.088 .0269789
824.783 .0269732
825.477 .0269683
826.171 .0269645
826.865 .0269619
827.559 .0269603
828.252 .0269598
828.945 .0269601
829.638 .0269604
830.330 .0269613
831.023 .0269617
831.714 .0269610
832.406 .0269595
833.097 .0269567
833.788 .0269522
834.479 .0269469
835.169 .0269407
835.859 .0269342
836.548 .0269279
837.238 .0269219
837.927 .0269162
838.615 .0269103
839.304 .0269048
839.992 .0268984
840.680 .0268919
841.367 .0268852
842.054 .0268777
842.741 .0268702
843.428 .0268631
844.114 .0268560
844.800 .0268496
845.485 .0268432
846.170 .0268364
846.855 .0268288
847.540 .0268201
848.224 .0268099
848.908 .0267981
849.592 .0267850
850.275 .0267707
850.958 .0267552
851.641 .0267390
852.323 .0267217
853.005 .0267036
853.687 .0266850
854.368 .0266656
855.049 .0266453
855.730 .0266249
856.410 .0266039
857.090 .0265828
857.769 .0265614
858.449 .0265401
859.128 .0265186
859.806 .0264972
860.485 .0264758
861.163 .0264546
861.840 .0264339
862.518 .0264138
863.195 .0263942
863.871 .0263753
864.548 .0263566
865.224 .0263383
865.899 .0263196
866.574 .0263010
867.249 .0262815
867.924 .0262614
868.598 .0262409
869.272 .0262204
869.946 .0262002
870.619 .0261802
871.292 .0261607
871.964 .0261417
872.636 .0261229
873.308 .0261048
873.979 .0260865
874.651 .0260685
875.321 .0260512
875.992 .0260344
876.662 .0260182
877.331 .0260033
878.001 .0259897
878.670 .0259773
879.338 .0259661
880.007 .0259557
880.675 .0259457
881.342 .0259360
882.009 .0259264
882.676 .0259164
883.343 .0259060
884.009 .0258951
884.675 .0258836
885.340 .0258719
886.005 .0258599
886.670 .0258479
887.334 .0258368
887.998 .0258263
888.662 .0258168
889.325 .0258082
889.988 .0258009
890.650 .0257951
891.312 .0257903
891.974 .0257866
892.636 .0257838
893.297 .0257820
893.957 .0257805
894.618 .0257792
895.278 .0257781
895.937 .0257771
896.596 .0257760
897.255 .0257749
897.914 .0257734
898.572 .0257718
899.230 .0257696
899.887 .0257663
900.544 .0257621
901.201 .0257570
901.857 .0257504
902.513 .0257428
903.168 .0257342
903.823 .0257244
904.478 .0257140
905.132 .0257031
905.786 .0256920
906.440 .0256807
907.093 .0256688
907.746 .0256563
908.399 .0256432
909.051 .0256301
909.703 .0256164
910.354 .0256025
911.005 .0255890
911.656 .0255753
912.306 .0255616
912.956 .0255479
913.605 .0255343
914.254 .0255209
914.903 .0255077
915.551 .0254949
916.199 .0254830
916.847 .0254720
917.494 .0254619
918.141 .0254528
918.788 .0254443
919.434 .0254365
920.079 .0254279
920.725 .0254187
921.370 .0254087
922.014 .0253977
922.658 .0253859
923.302 .0253735
923.946 .0253609
924.589 .0253479
925.231 .0253348
925.873 .0253218
926.515 .0253084
927.157 .0252948
927.798 .0252808
928.439 .0252665
929.079 .0252521
929.719 .0252374
930.359 .0252225
930.998 .0252081
931.637 .0251941
932.275 .0251810
932.913 .0251683
933.551 .0251565
934.188 .0251459
934.825 .0251365
935.462 .0251283
936.098 .0251214
936.733 .0251156
937.369 .0251110
938.004 .0251070
938.638 .0251036
939.273 .0251006
939.907 .0250986
940.540 .0250981
941.173 .0250985
941.806 .0251004
942.438 .0251044
943.070 .0251096
943.702 .0251165
944.333 .0251241
944.964 .0251318
945.594 .0251389
946.224 .0251453
946.854 .0251509
947.483 .0251559
948.112 .0251611
948.741 .0251660
949.369 .0251711
949.996 .0251766
950.624 .0251815
951.251 .0251858
951.878 .0251894
952.504 .0251919
953.130 .0251924
953.755 .0251919
954.380 .0251901
955.005 .0251879
955.629 .0251858
956.253 .0251838
956.877 .0251825
957.500 .0251815
958.123 .0251806
958.746 .0251790
959.368 .0251772
959.990 .0251750
960.611 .0251718
961.232 .0251685
961.853 .0251653
962.473 .0251623
963.093 .0251603
963.712 .0251589
964.331 .0251577
964.950 .0251565
965.569 .0251551
966.187 .0251524
966.804 .0251494
967.422 .0251453
968.039 .0251409
968.655 .0251366
969.272 .0251327
969.887 .0251288
970.503 .0251254
971.118 .0251230
971.733 .0251211
972.347 .0251196
972.961 .0251187
973.575 .0251170
974.188 .0251151
974.801 .0251118
975.414 .0251072
976.026 .0251012
976.638 .0250944
977.250 .0250864
977.861 .0250780
978.472 .0250689
979.083 .0250600
979.693 .0250508
980.303 .0250414
980.912 .0250306
981.521 .0250186
982.130 .0250044
982.738 .0249887
983.346 .0249717
983.954 .0249538
984.562 .0249359
985.169 .0249181
985.775 .0249005
986.382 .0248836
986.988 .0248673
987.594 .0248513
988.199 .0248357
988.804 .0248209
989.409 .0248059
990.013 .0247914
990.617 .0247779
991.221 .0247657
991.824 .0247551
992.427 .0247460
993.030 .0247380
993.632 .0247310
994.234 .0247256
994.836 .0247206
995.438 .0247165
996.039 .0247134
996.640 .0247111
997.240 .0247094
997.840 .0247084
998.440 .0247078
999.040 .0247072
999.639 .0247066
1000.238 .0247049
1000.836 .0247016
1001.435 .0246962
1002.033 .0246884
1002.630 .0246787
1003.228 .0246672
1003.825 .0246540
1004.422 .0246398
1005.018 .0246250
1005.614 .0246102
1006.210 .0245955
1006.806 .0245809
1007.401 .0245662
1007.996 .0245519
1008.591 .0245382
1009.186 .0245250
1009.780 .0245126
1010.374 .0245019
1010.967 .0244930
1011.561 .0244862
1012.154 .0244811
1012.746 .0244774
1013.339 .0244745
1013.931 .0244725
1014.523 .0244704
1015.115 .0244682
1015.706 .0244661
1016.298 .0244642
1016.888 .0244628
1017.479 .0244617
1018.069 .0244603
1018.660 .0244580
1019.250 .0244545
1019.839 .0244496
1020.429 .0244435
1021.018 .0244365
1021.607 .0244287
1022.195 .0244210
1022.784 .0244140
1023.372 .0244077
1023.960 .0244022
1024.547 .0243979
1025.135 .0243953
1025.722 .0243933
1026.309 .0243928
1026.896 .0243931
1027.483 .0243956
1028.069 .0243998
1028.655 .0244055
1029.241 .0244124
1029.827 .0244204
1030.412 .0244288
1030.997 .0244364
1031.582 .0244435
1032.167 .0244501
1032.752 .0244554
1033.336 .0244597
1033.921 .0244629
1034.505 .0244653
1035.089 .0244662
1035.672 .0244666
1036.256 .0244653
1036.839 .0244620
1037.422 .0244573
1038.005 .0244502
1038.588 .0244415
1039.171 .0244321
1039.753 .0244226
1040.335 .0244133
1040.918 .0244050
1041.500 .0243971
1042.081 .0243895
1042.663 .0243828
1043.244 .0243774
1043.826 .0243726
1044.407 .0243689
1044.988 .0243655
1045.569 .0243618
1046.150 .0243577
1046.730 .0243534
1047.311 .0243472
1047.891 .0243411
1048.471 .0243346
1049.052 .0243269
1049.632 .0243184
1050.211 .0243095
1050.791 .0243008
1051.371 .0242923
1051.950 .0242840
1052.530 .0242758
1053.109 .0242681
1053.688 .0242610
1054.268 .0242537
1054.847 .0242471
1055.426 .0242412
1056.005 .0242346
1056.583 .0242277
1057.162 .0242206
1057.741 .0242137
1058.319 .0242066
1058.898 .0241998
1059.476 .0241929
1060.055 .0241870
1060.633 .0241818
1061.211 .0241779
1061.790 .0241764
1062.368 .0241771
1062.946 .0241790
1063.524 .0241821
1064.102 .0241852
1064.680 .0241877
1065.258 .0241885
1065.836 .0241885
1066.414 .0241877
1066.992 .0241861
1067.570 .0241845
1068.148 .0241845
1068.726 .0241862
1069.304 .0241899
1069.882 .0241946
1070.460 .0241990
1071.038 .0242024
1071.616 .0242038
1072.194 .0242022
1072.772 .0241983
1073.350 .0241931
1073.928 .0241874
1074.506 .0241825
1075.084 .0241800
1075.662 .0241798
1076.240 .0241829
1076.819 .0241890
1077.397 .0241956
1077.976 .0242016
1078.554 .0242077
1079.133 .0242136
1079.711 .0242191
1080.290 .0242252
1080.869 .0242316
1081.448 .0242395
1082.027 .0242488
1082.606 .0242582
1083.185 .0242690
1083.764 .0242811
1084.343 .0242937
1084.923 .0243064
1085.502 .0243198
1086.082 .0243341
1086.662 .0243499
1087.242 .0243661
1087.822 .0243829
1088.402 .0244002
1088.983 .0244182
1089.563 .0244358
1090.144 .0244540
1090.725 .0244720
1091.306 .0244892
1091.887 .0245065
1092.469 .0245259
1093.050 .0245441
1093.632 .0245627
1094.214 .0245820
1094.796 .0246010
1095.379 .0246195
1095.961 .0246371
1096.544 .0246535
1097.127 .0246705
1097.710 .0246878
1098.294 .0247044
1098.877 .0247192
1099.461 .0247349
1100.046 .0247505
1100.630 .0247655
1101.215 .0247822
1101.800 .0248005
1102.385 .0248218
1102.970 .0248462
1103.556 .0248737
1104.142 .0249039
1104.728 .0249377
1105.315 .0249744
1105.902 .0250128
1106.489 .0250517
1107.077 .0250912
1107.664 .0251305
1108.253 .0251692
1108.841 .0252058
1109.430 .0252425
1110.019 .0252771
1110.609 .0253120
1111.198 .0253457
1111.789 .0253794
1112.379 .0254107
1112.970 .0254430
1113.561 .0254742
1114.153 .0255046
1114.745 .0255367
1115.338 .0255710
1115.931 .0256046
1116.524 .0256386
1117.117 .0256735
1117.712 .0257118
1118.306 .0257533
1118.901 .0258003
1119.496 .0258477
1120.092 .0259004
1120.689 .0259575
1121.285 .0260146
1121.882 .0260717
1122.480 .0261314
1123.078 .0261886
1123.677 .0262419
1124.276 .0262925
1124.875 .0263419
1125.476 .0263879
1126.076 .0264355
1126.677 .0264845
1127.279 .0265326
1127.881 .0265819
1128.484 .0266354
1129.087 .0266898
1129.691 .0267528
1130.295 .0268185
1130.900 .0268875
1131.505 .0269617
1132.111 .0270432
1132.718 .0271263
1133.325 .0272114
1133.933 .0273055
1134.541 .0274051
1135.150 .0275077
1135.760 .0276210
1136.370 .0277415
1136.981 .0278733
1137.592 .0280136
1138.204 .0281567
1138.817 .0283046
1139.431 .0284604
1140.045 .0286168
1140.660 .0287831
1141.275 .0289619
1141.891 .0291363
1142.508 .0293324
1143.126 .0294215
1143.744 .0298693
1144.363 .0301325
1144.983 .0298157
