Measurement Sequence started on: 15-12-46-377
Integration time: 28
Scans to Average: 2 
>>>>>Begin Spectral Data<<<<<
432.689 .0000100
433.621 .0000100
434.552 .0000100
435.482 .0000100
436.410 .0000100
437.337 .0000100
438.262 .0258879
439.187 .0548206
440.110 .0908781
441.031 .1315650
441.952 .1711866
442.871 .2025166
443.789 .2199239
444.705 .2214606
445.621 .2094745
446.535 .1891071
447.447 .1659496
448.359 .1301399
449.269 .1125809
450.178 .1014849
451.086 .0936627
451.993 .0876263
452.898 .0828258
453.803 .0788904
454.706 .0756117
455.608 .0728147
456.508 .0704034
457.408 .0683223
458.306 .0664830
459.204 .0648309
460.100 .0633182
460.995 .0619192
461.888 .0606024
462.781 .0593714
463.673 .0582235
464.563 .0571777
465.452 .0562078
466.340 .0553036
467.228 .0544700
468.114 .0537091
468.999 .0529999
469.882 .0523265
470.765 .0516883
471.647 .0510803
472.528 .0504933
473.407 .0499359
474.286 .0494133
475.163 .0489410
476.040 .0485196
476.915 .0481538
477.790 .0478371
478.663 .0475634
479.535 .0473258
480.407 .0471229
481.277 .0469472
482.147 .0467959
483.015 .0466625
483.883 .0465582
484.749 .0464859
485.615 .0464494
486.479 .0464450
487.343 .0464755
488.206 .0465354
489.067 .0466105
489.928 .0466899
490.788 .0467745
491.647 .0468597
492.505 .0469443
493.362 .0470371
494.218 .0471405
495.073 .0472636
495.928 .0474197
496.781 .0476036
497.634 .0478200
498.486 .0480626
499.337 .0483347
500.187 .0486332
501.036 .0489561
501.884 .0493110
502.731 .0497049
503.578 .0501499
504.424 .0506450
505.268 .0511849
506.113 .0517747
506.956 .0524166
507.798 .0531130
508.640 .0538592
509.480 .0546641
510.320 .0555375
511.160 .0564848
511.998 .0575174
512.836 .0586571
513.672 .0599046
514.508 .0612713
515.344 .0627771
516.178 .0644312
517.012 .0662504
517.845 .0682623
518.677 .0705099
519.508 .0730142
520.339 .0758117
521.169 .0789483
521.998 .0824306
522.826 .0863169
523.654 .0906204
524.481 .0953487
525.307 .1005422
526.133 .1061474
526.958 .1121089
527.782 .1183601
528.605 .1247137
529.428 .1310622
530.250 .1369487
531.072 .1421446
531.892 .1463419
532.712 .1493576
533.532 .1510641
534.350 .1512886
535.168 .1500211
535.986 .1474089
536.802 .1435179
537.618 .1386040
538.434 .1327689
539.249 .1264650
540.063 .1198497
540.876 .1131807
541.689 .1066358
542.501 .1004379
543.313 .0947477
544.124 .0896149
544.934 .0849581
545.744 .0807763
546.553 .0769982
547.361 .0736282
548.169 .0705897
548.976 .0678630
549.783 .0653838
550.589 .0631392
551.395 .0610659
552.200 .0591828
553.004 .0574452
553.808 .0558383
554.611 .0543940
555.414 .0531214
556.216 .0519961
557.018 .0510196
557.819 .0501794
558.619 .0494610
559.419 .0488243
560.218 .0482522
561.017 .0477051
561.815 .0471827
562.613 .0466622
563.410 .0461399
564.207 .0456171
565.003 .0450952
565.799 .0445762
566.594 .0440631
567.388 .0435658
568.182 .0430716
568.976 .0425669
569.769 .0420662
570.562 .0415597
571.354 .0410472
572.145 .0405306
572.936 .0400154
573.727 .0395148
574.517 .0390319
575.307 .0385763
576.096 .0381515
576.885 .0377576
577.673 .0373981
578.461 .0370652
579.248 .0367568
580.035 .0364729
580.821 .0362063
581.607 .0359538
582.392 .0357182
583.177 .0354960
583.962 .0352849
584.746 .0350883
585.529 .0349072
586.313 .0347403
587.095 .0345857
587.878 .0344446
588.660 .0343136
589.441 .0341928
590.222 .0340819
591.003 .0339789
591.783 .0338829
592.563 .0337929
593.342 .0337098
594.121 .0336317
594.899 .0335587
595.678 .0334915
596.455 .0334285
597.233 .0333702
598.009 .0333150
598.786 .0332630
599.562 .0332123
600.338 .0331631
601.113 .0331147
601.888 .0330662
602.663 .0330183
603.437 .0329707
604.211 .0329226
604.984 .0328751
605.757 .0328285
606.530 .0327820
607.302 .0327367
608.074 .0326939
608.845 .0326527
609.616 .0326134
610.387 .0325759
611.158 .0325399
611.928 .0325048
612.697 .0324708
613.467 .0324371
614.236 .0324040
615.004 .0323719
615.773 .0323405
616.541 .0323106
617.308 .0322828
618.076 .0322565
618.843 .0322321
619.609 .0322093
620.375 .0321871
621.141 .0321643
621.907 .0321414
622.672 .0321175
623.437 .0320928
624.202 .0320675
624.966 .0320413
625.730 .0320153
626.493 .0319897
627.257 .0319638
628.020 .0319381
628.782 .0319123
629.545 .0318860
630.307 .0318583
631.068 .0318302
631.830 .0318009
632.591 .0317704
633.352 .0317403
634.112 .0317104
634.872 .0316802
635.632 .0316500
636.392 .0316197
637.151 .0315895
637.910 .0315596
638.668 .0315301
639.427 .0315009
640.185 .0314729
640.943 .0314455
641.700 .0314190
642.457 .0313937
643.214 .0313692
643.971 .0313452
644.727 .0313210
645.483 .0312970
646.239 .0312728
646.994 .0312484
647.750 .0312243
648.505 .0312017
649.259 .0311806
650.014 .0311602
650.768 .0311409
651.521 .0311226
652.275 .0311050
653.028 .0310877
653.781 .0310708
654.534 .0310539
655.286 .0310368
656.039 .0310200
656.791 .0310023
657.542 .0309842
658.294 .0309657
659.045 .0309458
659.796 .0309249
660.546 .0309032
661.297 .0308803
662.047 .0308566
662.796 .0308328
663.546 .0308086
664.295 .0307834
665.044 .0307573
665.793 .0307299
666.542 .0307015
667.290 .0306726
668.038 .0306438
668.786 .0306154
669.533 .0305892
670.281 .0305646
671.028 .0305421
671.774 .0305221
672.521 .0305041
673.267 .0304877
674.013 .0304723
674.759 .0304571
675.505 .0304422
676.250 .0304271
676.995 .0304123
677.740 .0303974
678.484 .0303825
679.229 .0303673
679.973 .0303516
680.717 .0303347
681.460 .0303172
682.204 .0302984
682.947 .0302790
683.690 .0302585
684.433 .0302365
685.175 .0302132
685.917 .0301889
686.659 .0301642
687.401 .0301390
688.142 .0301137
688.884 .0300891
689.625 .0300651
690.365 .0300421
691.106 .0300204
691.846 .0299996
692.586 .0299797
693.326 .0299603
694.066 .0299409
694.805 .0299214
695.545 .0299021
696.284 .0298828
697.022 .0298642
697.761 .0298465
698.499 .0298292
699.237 .0298118
699.975 .0297946
700.713 .0297776
701.450 .0297602
702.187 .0297426
702.924 .0297253
703.661 .0297082
704.397 .0296920
705.133 .0296767
705.869 .0296625
706.605 .0296493
707.341 .0296366
708.076 .0296237
708.811 .0296102
709.546 .0295960
710.281 .0295809
711.015 .0295651
711.749 .0295491
712.483 .0295329
713.217 .0295162
713.950 .0294993
714.684 .0294819
715.417 .0294637
716.150 .0294445
716.882 .0294245
717.615 .0294041
718.347 .0293830
719.079 .0293618
719.811 .0293408
720.542 .0293202
721.273 .0293005
722.005 .0292810
722.735 .0292618
723.466 .0292431
724.196 .0292238
724.927 .0292040
725.656 .0291840
726.386 .0291646
727.116 .0291454
727.845 .0291268
728.574 .0291091
729.303 .0290921
730.031 .0290757
730.760 .0290598
731.488 .0290435
732.216 .0290276
732.944 .0290121
733.671 .0289970
734.398 .0289828
735.125 .0289698
735.852 .0289582
736.579 .0289479
737.305 .0289390
738.031 .0289310
738.757 .0289228
739.483 .0289145
740.208 .0289052
740.933 .0288951
741.658 .0288839
742.383 .0288717
743.108 .0288587
743.832 .0288451
744.556 .0288309
745.280 .0288160
746.004 .0288009
746.727 .0287857
747.450 .0287703
748.173 .0287546
748.896 .0287390
749.618 .0287236
750.340 .0287084
751.062 .0286940
751.784 .0286799
752.506 .0286665
753.227 .0286536
753.948 .0286405
754.669 .0286277
755.389 .0286149
756.110 .0286028
756.830 .0285908
757.550 .0285793
758.269 .0285682
758.989 .0285573
759.708 .0285463
760.427 .0285348
761.146 .0285230
761.864 .0285108
762.582 .0284979
763.300 .0284841
764.018 .0284698
764.736 .0284558
765.453 .0284415
766.170 .0284282
766.887 .0284153
767.603 .0284033
768.320 .0283914
769.036 .0283798
769.751 .0283680
770.467 .0283560
771.182 .0283437
771.897 .0283310
772.612 .0283180
773.327 .0283056
774.041 .0282931
774.755 .0282812
775.469 .0282700
776.183 .0282596
776.896 .0282493
777.609 .0282393
778.322 .0282295
779.035 .0282200
779.747 .0282112
780.459 .0282032
781.171 .0281965
781.882 .0281908
782.594 .0281856
783.305 .0281806
784.016 .0281757
784.726 .0281709
785.436 .0281656
786.147 .0281601
786.856 .0281550
787.566 .0281503
788.275 .0281462
788.984 .0281427
789.693 .0281400
790.401 .0281372
791.110 .0281338
791.818 .0281290
792.525 .0281231
793.233 .0281157
793.940 .0281074
794.647 .0280989
795.353 .0280907
796.060 .0280830
796.766 .0280760
797.472 .0280698
798.177 .0280643
798.883 .0280588
799.588 .0280530
800.292 .0280466
800.997 .0280396
801.701 .0280314
802.405 .0280227
803.109 .0280141
803.812 .0280056
804.515 .0279974
805.218 .0279889
805.921 .0279803
806.623 .0279712
807.325 .0279614
808.027 .0279506
808.728 .0279387
809.429 .0279257
810.130 .0279114
810.831 .0278964
811.531 .0278808
812.231 .0278649
812.931 .0278493
813.630 .0278339
814.330 .0278186
815.029 .0278034
815.727 .0277886
816.426 .0277743
817.124 .0277603
817.821 .0277465
818.519 .0277331
819.216 .0277204
819.913 .0277085
820.609 .0276975
821.306 .0276869
822.002 .0276773
822.697 .0276685
823.393 .0276603
824.088 .0276523
824.783 .0276445
825.477 .0276374
826.171 .0276304
826.865 .0276237
827.559 .0276169
828.252 .0276101
828.945 .0276035
829.638 .0275968
830.330 .0275901
831.023 .0275831
831.714 .0275762
832.406 .0275694
833.097 .0275623
833.788 .0275549
834.479 .0275471
835.169 .0275391
835.859 .0275308
836.548 .0275223
837.238 .0275132
837.927 .0275043
838.615 .0274953
839.304 .0274862
839.992 .0274766
840.680 .0274666
841.367 .0274562
842.054 .0274457
842.741 .0274349
843.428 .0274243
844.114 .0274139
844.800 .0274043
845.485 .0273947
846.170 .0273848
846.855 .0273747
847.540 .0273640
848.224 .0273525
848.908 .0273400
849.592 .0273265
850.275 .0273124
850.958 .0272979
851.641 .0272834
852.323 .0272682
853.005 .0272529
853.687 .0272370
854.368 .0272202
855.049 .0272021
855.730 .0271831
856.410 .0271627
857.090 .0271414
857.769 .0271192
858.449 .0270965
859.128 .0270734
859.806 .0270502
860.485 .0270275
861.163 .0270055
861.840 .0269846
862.518 .0269646
863.195 .0269456
863.871 .0269279
864.548 .0269107
865.224 .0268939
865.899 .0268773
866.574 .0268604
867.249 .0268434
867.924 .0268261
868.598 .0268093
869.272 .0267934
869.946 .0267792
870.619 .0267665
871.292 .0267556
871.964 .0267462
872.636 .0267377
873.308 .0267293
873.979 .0267210
874.651 .0267122
875.321 .0267031
875.992 .0266940
876.662 .0266853
877.331 .0266777
878.001 .0266714
878.670 .0266666
879.338 .0266631
880.007 .0266603
880.675 .0266580
881.342 .0266550
882.009 .0266515
882.676 .0266470
883.343 .0266419
884.009 .0266364
884.675 .0266308
885.340 .0266256
886.005 .0266210
886.670 .0266175
887.334 .0266153
887.998 .0266138
888.662 .0266131
889.325 .0266131
889.988 .0266134
890.650 .0266145
891.312 .0266162
891.974 .0266190
892.636 .0266230
893.297 .0266282
893.957 .0266347
894.618 .0266420
895.278 .0266497
895.937 .0266577
896.596 .0266650
897.255 .0266717
897.914 .0266765
898.572 .0266800
899.230 .0266828
899.887 .0266850
900.544 .0266867
901.201 .0266882
901.857 .0266891
902.513 .0266896
903.168 .0266885
903.823 .0266852
904.478 .0266798
905.132 .0266720
905.786 .0266620
906.440 .0266502
907.093 .0266375
907.746 .0266247
908.399 .0266123
909.051 .0266009
909.703 .0265896
910.354 .0265780
911.005 .0265661
911.656 .0265535
912.306 .0265405
912.956 .0265270
913.605 .0265135
914.254 .0265007
914.903 .0264890
915.551 .0264782
916.199 .0264689
916.847 .0264609
917.494 .0264540
918.141 .0264476
918.788 .0264413
919.434 .0264349
920.079 .0264285
920.725 .0264222
921.370 .0264161
922.014 .0264100
922.658 .0264039
923.302 .0263973
923.946 .0263902
924.589 .0263820
925.231 .0263724
925.873 .0263614
926.515 .0263491
927.157 .0263351
927.798 .0263199
928.439 .0263039
929.079 .0262873
929.719 .0262701
930.359 .0262524
930.998 .0262340
931.637 .0262153
932.275 .0261961
932.913 .0261765
933.551 .0261567
934.188 .0261372
934.825 .0261183
935.462 .0260999
936.098 .0260823
936.733 .0260660
937.369 .0260507
938.004 .0260364
938.638 .0260228
939.273 .0260102
939.907 .0259983
940.540 .0259873
941.173 .0259774
941.806 .0259684
942.438 .0259604
943.070 .0259533
943.702 .0259464
944.333 .0259396
944.964 .0259327
945.594 .0259252
946.224 .0259176
946.854 .0259102
947.483 .0259034
948.112 .0258972
948.741 .0258922
949.369 .0258881
949.996 .0258842
950.624 .0258801
951.251 .0258756
951.878 .0258702
952.504 .0258642
953.130 .0258573
953.755 .0258496
954.380 .0258414
955.005 .0258327
955.629 .0258231
956.253 .0258124
956.877 .0258004
957.500 .0257869
958.123 .0257726
958.746 .0257573
959.368 .0257412
959.990 .0257249
960.611 .0257084
961.232 .0256919
961.853 .0256751
962.473 .0256579
963.093 .0256403
963.712 .0256220
964.331 .0256034
964.950 .0255844
965.569 .0255659
966.187 .0255483
966.804 .0255325
967.422 .0255182
968.039 .0255053
968.655 .0254928
969.272 .0254804
969.887 .0254679
970.503 .0254547
971.118 .0254404
971.733 .0254253
972.347 .0254100
972.961 .0253949
973.575 .0253798
974.188 .0253653
974.801 .0253509
975.414 .0253362
976.026 .0253209
976.638 .0253044
977.250 .0252868
977.861 .0252689
978.472 .0252510
979.083 .0252325
979.693 .0252133
980.303 .0251932
980.912 .0251722
981.521 .0251503
982.130 .0251276
982.738 .0251042
983.346 .0250810
983.954 .0250581
984.562 .0250359
985.169 .0250144
985.775 .0249942
986.382 .0249747
986.988 .0249560
987.594 .0249375
988.199 .0249192
988.804 .0249018
989.409 .0248856
990.013 .0248709
990.617 .0248581
991.221 .0248469
991.824 .0248374
992.427 .0248291
993.030 .0248221
993.632 .0248154
994.234 .0248093
994.836 .0248032
995.438 .0247971
996.039 .0247907
996.640 .0247838
997.240 .0247774
997.840 .0247711
998.440 .0247651
999.040 .0247592
999.639 .0247536
1000.238 .0247483
1000.836 .0247433
1001.435 .0247381
1002.033 .0247329
1002.630 .0247282
1003.228 .0247234
1003.825 .0247188
1004.422 .0247150
1005.018 .0247121
1005.614 .0247103
1006.210 .0247101
1006.806 .0247116
1007.401 .0247134
1007.996 .0247163
1008.591 .0247192
1009.186 .0247214
1009.780 .0247231
1010.374 .0247242
1010.967 .0247246
1011.561 .0247253
1012.154 .0247265
1012.746 .0247277
1013.339 .0247294
1013.931 .0247317
1014.523 .0247336
1015.115 .0247352
1015.706 .0247363
1016.298 .0247370
1016.888 .0247372
1017.479 .0247379
1018.069 .0247387
1018.660 .0247405
1019.250 .0247439
1019.839 .0247480
1020.429 .0247534
1021.018 .0247604
1021.607 .0247680
1022.195 .0247769
1022.784 .0247867
1023.372 .0247971
1023.960 .0248083
1024.547 .0248205
1025.135 .0248332
1025.722 .0248466
1026.309 .0248609
1026.896 .0248761
1027.483 .0248922
1028.069 .0249092
1028.655 .0249265
1029.241 .0249440
1029.827 .0249626
1030.412 .0249803
1030.997 .0249977
1031.582 .0250153
1032.167 .0250318
1032.752 .0250481
1033.336 .0250636
1033.921 .0250786
1034.505 .0250934
1035.089 .0251079
1035.672 .0251225
1036.256 .0251365
1036.839 .0251511
1037.422 .0251656
1038.005 .0251800
1038.588 .0251947
1039.171 .0252095
1039.753 .0252242
1040.335 .0252391
1040.918 .0252546
1041.500 .0252697
1042.081 .0252841
1042.663 .0252981
1043.244 .0253119
1043.826 .0253247
1044.407 .0253367
1044.988 .0253482
1045.569 .0253587
1046.150 .0253688
1046.730 .0253774
1047.311 .0253845
1047.891 .0253907
1048.471 .0253960
1049.052 .0254000
1049.632 .0254028
1050.211 .0254059
1050.791 .0254090
1051.371 .0254134
1051.950 .0254197
1052.530 .0254267
1053.109 .0254354
1053.688 .0254455
1054.268 .0254570
1054.847 .0254695
1055.426 .0254837
1056.005 .0254994
1056.583 .0255162
1057.162 .0255344
1057.741 .0255529
1058.319 .0255713
1058.898 .0255907
1059.476 .0256095
1060.055 .0256264
1060.633 .0256411
1061.211 .0256524
1061.790 .0256601
1062.368 .0256661
1062.946 .0256697
1063.524 .0256714
1064.102 .0256721
1064.680 .0256730
1065.258 .0256736
1065.836 .0256737
1066.414 .0256748
1066.992 .0256752
1067.570 .0256751
1068.148 .0256733
1068.726 .0256686
1069.304 .0256636
1069.882 .0256587
1070.460 .0256544
1071.038 .0256522
1071.616 .0256533
1072.194 .0256570
1072.772 .0256631
1073.350 .0256711
1073.928 .0256796
1074.506 .0256877
1075.084 .0256944
1075.662 .0256985
1076.240 .0257014
1076.819 .0257035
1077.397 .0257058
1077.976 .0257094
1078.554 .0257163
1079.133 .0257242
1079.711 .0257352
1080.290 .0257495
1080.869 .0257647
1081.448 .0257813
1082.027 .0257995
1082.606 .0258174
1083.185 .0258352
1083.764 .0258535
1084.343 .0258706
1084.923 .0258870
1085.502 .0259037
1086.082 .0259178
1086.662 .0259317
1087.242 .0259468
1087.822 .0259621
1088.402 .0259765
1088.983 .0259926
1089.563 .0260071
1090.144 .0260191
1090.725 .0260311
1091.306 .0260401
1091.887 .0260462
1092.469 .0260506
1093.050 .0260520
1093.632 .0260513
1094.214 .0260517
1094.796 .0260523
1095.379 .0260535
1095.961 .0260587
1096.544 .0260661
1097.127 .0260743
1097.710 .0260859
1098.294 .0260998
1098.877 .0261156
1099.461 .0261338
1100.046 .0261527
1100.630 .0261697
1101.215 .0261891
1101.800 .0262081
1102.385 .0262260
1102.970 .0262462
1103.556 .0262672
1104.142 .0262872
1104.728 .0263095
1105.315 .0263327
1105.902 .0263546
1106.489 .0263784
1107.077 .0264030
1107.664 .0264271
1108.253 .0264534
1108.841 .0264820
1109.430 .0265113
1110.019 .0265438
1110.609 .0265787
1111.198 .0266119
1111.789 .0266460
1112.379 .0266822
1112.970 .0267164
1113.561 .0267525
1114.153 .0267899
1114.745 .0268285
1115.338 .0268681
1115.931 .0269089
1116.524 .0269479
1117.117 .0269857
1117.712 .0270218
1118.306 .0270562
1118.901 .0270878
1119.496 .0271194
1120.092 .0271520
1120.689 .0271857
1121.285 .0272210
1121.882 .0272572
1122.480 .0272960
1123.078 .0273401
1123.677 .0273855
1124.276 .0274349
1124.875 .0274852
1125.476 .0275401
1126.076 .0275992
1126.677 .0276555
1127.279 .0277138
1127.881 .0277737
1128.484 .0278343
1129.087 .0278950
1129.691 .0279571
1130.295 .0280195
1130.900 .0280837
1131.505 .0281496
1132.111 .0282139
1132.718 .0282809
1133.325 .0283527
1133.933 .0284272
1134.541 .0285066
1135.150 .0285978
1135.760 .0286968
1136.370 .0288013
1136.981 .0289171
1137.592 .0290339
1138.204 .0291511
1138.817 .0292669
1139.431 .0293843
1140.045 .0295129
1140.660 .0296379
1141.275 .0297636
1141.891 .0298488
1142.508 .0300788
1143.126 .0304542
1143.744 .0302314
1144.363 .0302905
1144.983 .0293317
