Measurement Sequence started on: 15-12-46-377
Integration time: 28
Scans to Average: 2 
>>>>>Begin Spectral Data<<<<<
432.689 .0000100
433.621 .0000100
434.552 .0000100
435.482 .0000100
436.410 .0000100
437.337 .0000100
438.262 .0254095
439.187 .0537570
440.110 .0890012
441.031 .1287676
441.952 .1673891
442.871 .1977654
443.789 .2143976
444.705 .2154105
445.621 .2031518
446.535 .1826718
447.447 .1594719
448.359 .1239423
449.269 .1064316
450.178 .0953787
451.086 .0875747
451.993 .0816356
452.898 .0770009
453.803 .0732533
454.706 .0701807
455.608 .0675945
456.508 .0653842
457.408 .0634847
458.306 .0617756
459.204 .0602385
460.100 .0588137
460.995 .0574901
461.888 .0562539
462.781 .0551031
463.673 .0540307
464.563 .0530490
465.452 .0521411
466.340 .0513187
467.228 .0505717
468.114 .0498949
468.999 .0492917
469.882 .0487489
470.765 .0482543
471.647 .0478037
472.528 .0473837
473.407 .0470002
474.286 .0466430
475.163 .0463259
476.040 .0460459
476.915 .0458069
477.790 .0456099
478.663 .0454490
479.535 .0453144
480.407 .0452003
481.277 .0450919
482.147 .0449946
483.015 .0449020
483.883 .0448110
484.749 .0447245
485.615 .0446586
486.479 .0446102
487.343 .0445849
488.206 .0445877
489.067 .0446183
489.928 .0446677
490.788 .0447374
491.647 .0448206
492.505 .0449142
493.362 .0450210
494.218 .0451385
495.073 .0452669
495.928 .0454126
496.781 .0455656
497.634 .0457358
498.486 .0459280
499.337 .0461485
500.187 .0463876
501.036 .0466539
501.884 .0469549
502.731 .0472876
503.578 .0476541
504.424 .0480523
505.268 .0484741
506.113 .0489240
506.956 .0493988
507.798 .0499059
508.640 .0504591
509.480 .0510642
510.320 .0517384
511.160 .0525000
511.998 .0533622
512.836 .0543322
513.672 .0554124
514.508 .0566135
515.344 .0579285
516.178 .0593680
517.012 .0609496
517.845 .0627114
518.677 .0646746
519.508 .0668894
520.339 .0693869
521.169 .0722412
521.998 .0755024
522.826 .0792359
523.654 .0835186
524.481 .0883654
525.307 .0938554
526.133 .0998924
526.958 .1064359
527.782 .1134654
528.605 .1207296
529.428 .1281590
530.250 .1351722
531.072 .1415376
531.892 .1468784
532.712 .1509245
533.532 .1534353
534.350 .1541903
535.168 .1532324
535.986 .1505737
536.802 .1463429
537.618 .1408479
538.434 .1342781
539.249 .1271384
540.063 .1196131
540.876 .1120362
541.689 .1046157
542.501 .0976628
543.313 .0913099
544.124 .0856337
544.934 .0806325
545.744 .0762394
546.553 .0723861
547.361 .0690113
548.169 .0660889
548.976 .0634909
549.783 .0611888
550.589 .0591615
551.395 .0573306
552.200 .0556930
553.004 .0542097
553.808 .0528653
554.611 .0516535
555.414 .0505703
556.216 .0495900
557.018 .0487028
557.819 .0479140
558.619 .0471862
559.419 .0465078
560.218 .0458784
561.017 .0452870
561.815 .0447208
562.613 .0441884
563.410 .0436794
564.207 .0431894
565.003 .0427180
565.799 .0422585
566.594 .0418029
567.388 .0413586
568.182 .0409204
568.976 .0404784
569.769 .0400419
570.562 .0396104
571.354 .0391762
572.145 .0387510
572.936 .0383259
573.727 .0379034
574.517 .0374858
575.307 .0370804
576.096 .0366888
576.885 .0363175
577.673 .0359697
578.461 .0356443
579.248 .0353435
580.035 .0350692
580.821 .0348112
581.607 .0345671
582.392 .0343367
583.177 .0341167
583.962 .0339093
584.746 .0337176
585.529 .0335392
586.313 .0333770
587.095 .0332301
587.878 .0330964
588.660 .0329722
589.441 .0328571
590.222 .0327476
591.003 .0326429
591.783 .0325432
592.563 .0324484
593.342 .0323598
594.121 .0322783
594.899 .0322057
595.678 .0321405
596.455 .0320822
597.233 .0320297
598.009 .0319801
598.786 .0319327
599.562 .0318858
600.338 .0318396
601.113 .0317932
601.888 .0317473
602.663 .0317020
603.437 .0316577
604.211 .0316142
604.984 .0315724
605.757 .0315315
606.530 .0314900
607.302 .0314484
608.074 .0314058
608.845 .0313627
609.616 .0313189
610.387 .0312755
611.158 .0312332
611.928 .0311925
612.697 .0311548
613.467 .0311204
614.236 .0310899
615.004 .0310636
615.773 .0310404
616.541 .0310200
617.308 .0310019
618.076 .0309846
618.843 .0309680
619.609 .0309525
620.375 .0309375
621.141 .0309234
621.907 .0309101
622.672 .0308987
623.437 .0308877
624.202 .0308778
624.966 .0308686
625.730 .0308591
626.493 .0308489
627.257 .0308377
628.020 .0308248
628.782 .0308111
629.545 .0307955
630.307 .0307782
631.068 .0307596
631.830 .0307394
632.591 .0307172
633.352 .0306941
634.112 .0306697
634.872 .0306445
635.632 .0306187
636.392 .0305933
637.151 .0305680
637.910 .0305435
638.668 .0305196
639.427 .0304960
640.185 .0304727
640.943 .0304491
641.700 .0304251
642.457 .0304020
643.214 .0303799
643.971 .0303582
644.727 .0303383
645.483 .0303207
646.239 .0303040
646.994 .0302880
647.750 .0302726
648.505 .0302565
649.259 .0302393
650.014 .0302214
650.768 .0302026
651.521 .0301828
652.275 .0301628
653.028 .0301420
653.781 .0301209
654.534 .0300992
655.286 .0300759
656.039 .0300510
656.791 .0300253
657.542 .0299980
658.294 .0299695
659.045 .0299409
659.796 .0299127
660.546 .0298842
661.297 .0298551
662.047 .0298247
662.796 .0297930
663.546 .0297596
664.295 .0297252
665.044 .0296898
665.793 .0296553
666.542 .0296220
667.290 .0295907
668.038 .0295616
668.786 .0295341
669.533 .0295076
670.281 .0294817
671.028 .0294557
671.774 .0294291
672.521 .0294032
673.267 .0293782
674.013 .0293544
674.759 .0293327
675.505 .0293128
676.250 .0292942
676.995 .0292767
677.740 .0292598
678.484 .0292424
679.229 .0292251
679.973 .0292073
680.717 .0291895
681.460 .0291731
682.204 .0291579
682.947 .0291441
683.690 .0291317
684.433 .0291212
685.175 .0291109
685.917 .0291010
686.659 .0290919
687.401 .0290827
688.142 .0290738
688.884 .0290649
689.625 .0290558
690.365 .0290469
691.106 .0290380
691.846 .0290287
692.586 .0290186
693.326 .0290084
694.066 .0289972
694.805 .0289856
695.545 .0289741
696.284 .0289626
697.022 .0289507
697.761 .0289394
698.499 .0289287
699.237 .0289182
699.975 .0289082
700.713 .0288992
701.450 .0288910
702.187 .0288835
702.924 .0288761
703.661 .0288688
704.397 .0288617
705.133 .0288550
705.869 .0288479
706.605 .0288408
707.341 .0288338
708.076 .0288269
708.811 .0288197
709.546 .0288118
710.281 .0288031
711.015 .0287931
711.749 .0287817
712.483 .0287686
713.217 .0287538
713.950 .0287372
714.684 .0287196
715.417 .0287016
716.150 .0286830
716.882 .0286639
717.615 .0286450
718.347 .0286260
719.079 .0286070
719.811 .0285878
720.542 .0285681
721.273 .0285479
722.005 .0285273
722.735 .0285056
723.466 .0284835
724.196 .0284612
724.927 .0284386
725.656 .0284152
726.386 .0283914
727.116 .0283673
727.845 .0283431
728.574 .0283190
729.303 .0282955
730.031 .0282725
730.760 .0282502
731.488 .0282285
732.216 .0282074
732.944 .0281868
733.671 .0281669
734.398 .0281472
735.125 .0281276
735.852 .0281081
736.579 .0280890
737.305 .0280706
738.031 .0280530
738.757 .0280359
739.483 .0280186
740.208 .0280012
740.933 .0279834
741.658 .0279647
742.383 .0279451
743.108 .0279252
743.832 .0279049
744.556 .0278848
745.280 .0278644
746.004 .0278442
746.727 .0278245
747.450 .0278054
748.173 .0277860
748.896 .0277666
749.618 .0277474
750.340 .0277292
751.062 .0277122
751.784 .0276966
752.506 .0276820
753.227 .0276682
753.948 .0276549
754.669 .0276414
755.389 .0276268
756.110 .0276112
756.830 .0275945
757.550 .0275772
758.269 .0275596
758.989 .0275424
759.708 .0275262
760.427 .0275113
761.146 .0274970
761.864 .0274832
762.582 .0274691
763.300 .0274546
764.018 .0274397
764.736 .0274245
765.453 .0274093
766.170 .0273947
766.887 .0273807
767.603 .0273680
768.320 .0273566
769.036 .0273464
769.751 .0273372
770.467 .0273289
771.182 .0273213
771.897 .0273144
772.612 .0273079
773.327 .0273023
774.041 .0272972
774.755 .0272932
775.469 .0272902
776.183 .0272882
776.896 .0272869
777.609 .0272867
778.322 .0272875
779.035 .0272892
779.747 .0272917
780.459 .0272949
781.171 .0272989
781.882 .0273034
782.594 .0273078
783.305 .0273123
784.016 .0273170
784.726 .0273222
785.436 .0273274
786.147 .0273330
786.856 .0273390
787.566 .0273453
788.275 .0273523
788.984 .0273596
789.693 .0273670
790.401 .0273740
791.110 .0273803
791.818 .0273857
792.525 .0273901
793.233 .0273937
793.940 .0273967
794.647 .0273995
795.353 .0274022
796.060 .0274046
796.766 .0274067
797.472 .0274089
798.177 .0274104
798.883 .0274111
799.588 .0274109
800.292 .0274096
800.997 .0274071
801.701 .0274035
802.405 .0273991
803.109 .0273942
803.812 .0273887
804.515 .0273823
805.218 .0273744
805.921 .0273654
806.623 .0273551
807.325 .0273436
808.027 .0273312
808.728 .0273182
809.429 .0273047
810.130 .0272902
810.831 .0272753
811.531 .0272594
812.231 .0272420
812.931 .0272234
813.630 .0272036
814.330 .0271826
815.029 .0271611
815.727 .0271397
816.426 .0271192
817.124 .0270995
817.821 .0270810
818.519 .0270630
819.216 .0270458
819.913 .0270286
820.609 .0270115
821.306 .0269943
822.002 .0269779
822.697 .0269624
823.393 .0269482
824.088 .0269359
824.783 .0269252
825.477 .0269158
826.171 .0269070
826.865 .0268984
827.559 .0268895
828.252 .0268797
828.945 .0268694
829.638 .0268584
830.330 .0268471
831.023 .0268353
831.714 .0268230
832.406 .0268100
833.097 .0267961
833.788 .0267809
834.479 .0267641
835.169 .0267461
835.859 .0267269
836.548 .0267069
837.238 .0266867
837.927 .0266665
838.615 .0266464
839.304 .0266264
839.992 .0266065
840.680 .0265860
841.367 .0265654
842.054 .0265447
842.741 .0265237
843.428 .0265030
844.114 .0264823
844.800 .0264618
845.485 .0264415
846.170 .0264213
846.855 .0264008
847.540 .0263803
848.224 .0263601
848.908 .0263397
849.592 .0263194
850.275 .0262996
850.958 .0262797
851.641 .0262603
852.323 .0262409
853.005 .0262207
853.687 .0261998
854.368 .0261783
855.049 .0261563
855.730 .0261344
856.410 .0261127
857.090 .0260915
857.769 .0260709
858.449 .0260509
859.128 .0260309
859.806 .0260108
860.485 .0259907
861.163 .0259704
861.840 .0259499
862.518 .0259296
863.195 .0259097
863.871 .0258912
864.548 .0258743
865.224 .0258589
865.899 .0258448
866.574 .0258315
867.249 .0258187
867.924 .0258064
868.598 .0257941
869.272 .0257822
869.946 .0257714
870.619 .0257615
871.292 .0257530
871.964 .0257459
872.636 .0257399
873.308 .0257349
873.979 .0257308
874.651 .0257269
875.321 .0257227
875.992 .0257189
876.662 .0257158
877.331 .0257136
878.001 .0257128
878.670 .0257134
879.338 .0257154
880.007 .0257191
880.675 .0257238
881.342 .0257290
882.009 .0257352
882.676 .0257412
883.343 .0257470
884.009 .0257526
884.675 .0257582
885.340 .0257641
886.005 .0257706
886.670 .0257780
887.334 .0257862
887.998 .0257953
888.662 .0258053
889.325 .0258161
889.988 .0258280
890.650 .0258404
891.312 .0258531
891.974 .0258659
892.636 .0258790
893.297 .0258923
893.957 .0259065
894.618 .0259212
895.278 .0259366
895.937 .0259527
896.596 .0259694
897.255 .0259862
897.914 .0260032
898.572 .0260197
899.230 .0260352
899.887 .0260493
900.544 .0260618
901.201 .0260723
901.857 .0260814
902.513 .0260890
903.168 .0260952
903.823 .0260991
904.478 .0261013
905.132 .0261009
905.786 .0260985
906.440 .0260943
907.093 .0260885
907.746 .0260814
908.399 .0260737
909.051 .0260658
909.703 .0260577
910.354 .0260497
911.005 .0260419
911.656 .0260336
912.306 .0260250
912.956 .0260155
913.605 .0260051
914.254 .0259944
914.903 .0259841
915.551 .0259737
916.199 .0259639
916.847 .0259551
917.494 .0259469
918.141 .0259391
918.788 .0259314
919.434 .0259236
920.079 .0259149
920.725 .0259057
921.370 .0258959
922.014 .0258856
922.658 .0258753
923.302 .0258646
923.946 .0258540
924.589 .0258429
925.231 .0258312
925.873 .0258185
926.515 .0258048
927.157 .0257905
927.798 .0257747
928.439 .0257578
929.079 .0257403
929.719 .0257222
930.359 .0257036
930.998 .0256840
931.637 .0256645
932.275 .0256445
932.913 .0256245
933.551 .0256044
934.188 .0255849
934.825 .0255658
935.462 .0255470
936.098 .0255283
936.733 .0255102
937.369 .0254923
938.004 .0254750
938.638 .0254583
939.273 .0254430
939.907 .0254292
940.540 .0254165
941.173 .0254051
941.806 .0253951
942.438 .0253852
943.070 .0253753
943.702 .0253645
944.333 .0253528
944.964 .0253396
945.594 .0253254
946.224 .0253110
946.854 .0252967
947.483 .0252831
948.112 .0252703
948.741 .0252579
949.369 .0252455
949.996 .0252321
950.624 .0252168
951.251 .0251999
951.878 .0251815
952.504 .0251616
953.130 .0251410
953.755 .0251207
954.380 .0251013
955.005 .0250827
955.629 .0250649
956.253 .0250476
956.877 .0250300
957.500 .0250120
958.123 .0249929
958.746 .0249733
959.368 .0249531
959.990 .0249327
960.611 .0249120
961.232 .0248915
961.853 .0248709
962.473 .0248500
963.093 .0248291
963.712 .0248074
964.331 .0247845
964.950 .0247603
965.569 .0247352
966.187 .0247098
966.804 .0246844
967.422 .0246595
968.039 .0246358
968.655 .0246136
969.272 .0245923
969.887 .0245715
970.503 .0245515
971.118 .0245317
971.733 .0245115
972.347 .0244912
972.961 .0244711
973.575 .0244513
974.188 .0244318
974.801 .0244123
975.414 .0243927
976.026 .0243731
976.638 .0243526
977.250 .0243313
977.861 .0243095
978.472 .0242874
979.083 .0242649
979.693 .0242424
980.303 .0242203
980.912 .0241984
981.521 .0241769
982.130 .0241556
982.738 .0241343
983.346 .0241132
983.954 .0240921
984.562 .0240710
985.169 .0240504
985.775 .0240305
986.382 .0240109
986.988 .0239923
987.594 .0239739
988.199 .0239556
988.804 .0239368
989.409 .0239175
990.013 .0238979
990.617 .0238787
991.221 .0238606
991.824 .0238441
992.427 .0238304
993.030 .0238197
993.632 .0238115
994.234 .0238059
994.836 .0238024
995.438 .0238005
996.039 .0237989
996.640 .0237981
997.240 .0237975
997.840 .0237981
998.440 .0237997
999.040 .0238018
999.639 .0238048
1000.238 .0238078
1000.836 .0238104
1001.435 .0238119
1002.033 .0238124
1002.630 .0238116
1003.228 .0238100
1003.825 .0238081
1004.422 .0238061
1005.018 .0238050
1005.614 .0238055
1006.210 .0238076
1006.806 .0238108
1007.401 .0238151
1007.996 .0238198
1008.591 .0238250
1009.186 .0238310
1009.780 .0238372
1010.374 .0238440
1010.967 .0238511
1011.561 .0238586
1012.154 .0238662
1012.746 .0238741
1013.339 .0238818
1013.931 .0238892
1014.523 .0238968
1015.115 .0239042
1015.706 .0239116
1016.298 .0239197
1016.888 .0239291
1017.479 .0239399
1018.069 .0239518
1018.660 .0239645
1019.250 .0239778
1019.839 .0239922
1020.429 .0240066
1021.018 .0240212
1021.607 .0240360
1022.195 .0240506
1022.784 .0240652
1023.372 .0240800
1023.960 .0240955
1024.547 .0241114
1025.135 .0241286
1025.722 .0241457
1026.309 .0241627
1026.896 .0241794
1027.483 .0241959
1028.069 .0242123
1028.655 .0242292
1029.241 .0242463
1029.827 .0242639
1030.412 .0242827
1030.997 .0243038
1031.582 .0243262
1032.167 .0243508
1032.752 .0243769
1033.336 .0244039
1033.921 .0244311
1034.505 .0244577
1035.089 .0244826
1035.672 .0245067
1036.256 .0245294
1036.839 .0245506
1037.422 .0245700
1038.005 .0245892
1038.588 .0246085
1039.171 .0246277
1039.753 .0246473
1040.335 .0246674
1040.918 .0246878
1041.500 .0247089
1042.081 .0247291
1042.663 .0247483
1043.244 .0247663
1043.826 .0247826
1044.407 .0247967
1044.988 .0248084
1045.569 .0248181
1046.150 .0248262
1046.730 .0248341
1047.311 .0248426
1047.891 .0248515
1048.471 .0248618
1049.052 .0248746
1049.632 .0248883
1050.211 .0249030
1050.791 .0249181
1051.371 .0249338
1051.950 .0249505
1052.530 .0249682
1053.109 .0249864
1053.688 .0250049
1054.268 .0250248
1054.847 .0250456
1055.426 .0250659
1056.005 .0250858
1056.583 .0251047
1057.162 .0251219
1057.741 .0251373
1058.319 .0251504
1058.898 .0251611
1059.476 .0251703
1060.055 .0251782
1060.633 .0251845
1061.211 .0251897
1061.790 .0251946
1062.368 .0252005
1062.946 .0252075
1063.524 .0252169
1064.102 .0252282
1064.680 .0252422
1065.258 .0252587
1065.836 .0252778
1066.414 .0252982
1066.992 .0253190
1067.570 .0253393
1068.148 .0253577
1068.726 .0253739
1069.304 .0253877
1069.882 .0253994
1070.460 .0254087
1071.038 .0254166
1071.616 .0254233
1072.194 .0254281
1072.772 .0254322
1073.350 .0254360
1073.928 .0254398
1074.506 .0254438
1075.084 .0254476
1075.662 .0254508
1076.240 .0254547
1076.819 .0254606
1077.397 .0254669
1077.976 .0254761
1078.554 .0254864
1079.133 .0254995
1079.711 .0255141
1080.290 .0255291
1080.869 .0255432
1081.448 .0255562
1082.027 .0255655
1082.606 .0255705
1083.185 .0255709
1083.764 .0255691
1084.343 .0255639
1084.923 .0255587
1085.502 .0255532
1086.082 .0255475
1086.662 .0255420
1087.242 .0255383
1087.822 .0255341
1088.402 .0255329
1088.983 .0255314
1089.563 .0255311
1090.144 .0255313
1090.725 .0255331
1091.306 .0255346
1091.887 .0255377
1092.469 .0255427
1093.050 .0255499
1093.632 .0255564
1094.214 .0255640
1094.796 .0255719
1095.379 .0255808
1095.961 .0255893
1096.544 .0255970
1097.127 .0256032
1097.710 .0256082
1098.294 .0256099
1098.877 .0256121
1099.461 .0256142
1100.046 .0256187
1100.630 .0256251
1101.215 .0256349
1101.800 .0256488
1102.385 .0256654
1102.970 .0256844
1103.556 .0257054
1104.142 .0257273
1104.728 .0257488
1105.315 .0257674
1105.902 .0257854
1106.489 .0258042
1107.077 .0258233
1107.664 .0258445
1108.253 .0258691
1108.841 .0258959
1109.430 .0259241
1110.019 .0259527
1110.609 .0259810
1111.198 .0260078
1111.789 .0260324
1112.379 .0260556
1112.970 .0260753
1113.561 .0260953
1114.153 .0261161
1114.745 .0261387
1115.338 .0261659
1115.931 .0261954
1116.524 .0262250
1117.117 .0262573
1117.712 .0262902
1118.306 .0263249
1118.901 .0263596
1119.496 .0263977
1120.092 .0264373
1120.689 .0264795
1121.285 .0265239
1121.882 .0265671
1122.480 .0266079
1123.078 .0266476
1123.677 .0266814
1124.276 .0267132
1124.875 .0267449
1125.476 .0267806
1126.076 .0268233
1126.677 .0268750
1127.279 .0269305
1127.881 .0269912
1128.484 .0270521
1129.087 .0271097
1129.691 .0271589
1130.295 .0272025
1130.900 .0272399
1131.505 .0272730
1132.111 .0273110
1132.718 .0273568
1133.325 .0274146
1133.933 .0274882
1134.541 .0275721
1135.150 .0276675
1135.760 .0277681
1136.370 .0278706
1136.981 .0279729
1137.592 .0280750
1138.204 .0281789
1138.817 .0282837
1139.431 .0283967
1140.045 .0285195
1140.660 .0286476
1141.275 .0287820
1141.891 .0289024
1142.508 .0291459
1143.126 .0292914
1143.744 .0292761
1144.363 .0293886
1144.983 .0291062
