Measurement Sequence started on: 15-12-46-377
Integration time: 28
Scans to Average: 2 
>>>>>Begin Spectral Data<<<<<
432.689 .0000100
433.621 .0000100
434.552 .0000100
435.482 .0000100
436.410 .0000100
437.337 .0000100
438.262 .0276554
439.187 .0583754
440.110 .0965485
441.031 .1395070
441.952 .1811073
442.871 .2136946
443.789 .2313120
444.705 .2319834
445.621 .2182872
446.535 .1957704
447.447 .1704424
448.359 .1317813
449.269 .1128848
450.178 .1010001
451.086 .0926784
451.993 .0863437
452.898 .0813583
453.803 .0773103
454.706 .0739741
455.608 .0711518
456.508 .0687307
457.408 .0666425
458.306 .0647983
459.204 .0631544
460.100 .0616681
460.995 .0603054
461.888 .0590456
462.781 .0578645
463.673 .0567552
464.563 .0557218
465.452 .0547607
466.340 .0538612
467.228 .0530261
468.114 .0522514
468.999 .0515358
469.882 .0508595
470.765 .0502378
471.647 .0496589
472.528 .0491256
473.407 .0486402
474.286 .0482019
475.163 .0478088
476.040 .0474630
476.915 .0471604
477.790 .0469010
478.663 .0466686
479.535 .0464652
480.407 .0462894
481.277 .0461399
482.147 .0460177
483.015 .0459251
483.883 .0458580
484.749 .0458184
485.615 .0458063
486.479 .0458228
487.343 .0458692
488.206 .0459452
489.067 .0460467
489.928 .0461654
490.788 .0463052
491.647 .0464578
492.505 .0466188
493.362 .0467981
494.218 .0469879
495.073 .0471852
495.928 .0473978
496.781 .0476179
497.634 .0478592
498.486 .0481195
499.337 .0484072
500.187 .0487036
501.036 .0490162
501.884 .0493357
502.731 .0496740
503.578 .0500292
504.424 .0504091
505.268 .0508110
506.113 .0512486
506.956 .0517230
507.798 .0522486
508.640 .0528386
509.480 .0535037
510.320 .0542474
511.160 .0550852
511.998 .0560101
512.836 .0570332
513.672 .0581662
514.508 .0594269
515.344 .0607938
516.178 .0623155
517.012 .0639908
517.845 .0658714
518.677 .0680165
519.508 .0704374
520.339 .0732138
521.169 .0764017
521.998 .0799916
522.826 .0840448
523.654 .0885952
524.481 .0936526
525.307 .0992421
526.133 .1052917
526.958 .1118252
527.782 .1187163
528.605 .1258774
529.428 .1331915
530.250 .1401332
531.072 .1465280
531.892 .1519300
532.712 .1559750
533.532 .1585309
534.350 .1592951
535.168 .1582843
535.986 .1555499
536.802 .1513105
537.618 .1458260
538.434 .1393660
539.249 .1324658
540.063 .1252881
540.876 .1181123
541.689 .1111977
542.501 .1046340
543.313 .0986102
544.124 .0931491
544.934 .0881931
545.744 .0837365
546.553 .0797392
547.361 .0761585
548.169 .0729745
548.976 .0701174
549.783 .0675817
550.589 .0652836
551.395 .0631770
552.200 .0612630
553.004 .0595019
553.808 .0578751
554.611 .0564033
555.414 .0550629
556.216 .0538532
557.018 .0527814
557.819 .0518177
558.619 .0509245
559.419 .0500983
560.218 .0493120
561.017 .0485440
561.815 .0478014
562.613 .0470835
563.410 .0463735
564.207 .0456846
565.003 .0450242
565.799 .0443767
566.594 .0437520
567.388 .0431609
568.182 .0425877
568.976 .0420285
569.769 .0414863
570.562 .0409542
571.354 .0404392
572.145 .0399460
572.936 .0394676
573.727 .0390108
574.517 .0385804
575.307 .0381759
576.096 .0377904
576.885 .0374275
577.673 .0370880
578.461 .0367647
579.248 .0364530
580.035 .0361515
580.821 .0358636
581.607 .0355905
582.392 .0353300
583.177 .0350847
583.962 .0348585
584.746 .0346515
585.529 .0344638
586.313 .0342985
587.095 .0341514
587.878 .0340224
588.660 .0339111
589.441 .0338152
590.222 .0337307
591.003 .0336568
591.783 .0335900
592.563 .0335299
593.342 .0334753
594.121 .0334221
594.899 .0333710
595.678 .0333237
596.455 .0332797
597.233 .0332374
598.009 .0331968
598.786 .0331576
599.562 .0331172
600.338 .0330766
601.113 .0330354
601.888 .0329927
602.663 .0329489
603.437 .0329059
604.211 .0328632
604.984 .0328220
605.757 .0327824
606.530 .0327445
607.302 .0327087
608.074 .0326740
608.845 .0326404
609.616 .0326075
610.387 .0325766
611.158 .0325483
611.928 .0325225
612.697 .0325003
613.467 .0324802
614.236 .0324615
615.004 .0324435
615.773 .0324253
616.541 .0324065
617.308 .0323872
618.076 .0323679
618.843 .0323489
619.609 .0323308
620.375 .0323138
621.141 .0322985
621.907 .0322835
622.672 .0322672
623.437 .0322488
624.202 .0322271
624.966 .0322017
625.730 .0321728
626.493 .0321421
627.257 .0321099
628.020 .0320770
628.782 .0320447
629.545 .0320126
630.307 .0319801
631.068 .0319471
631.830 .0319121
632.591 .0318753
633.352 .0318371
634.112 .0317978
634.872 .0317582
635.632 .0317207
636.392 .0316846
637.151 .0316501
637.910 .0316172
638.668 .0315852
639.427 .0315528
640.185 .0315203
640.943 .0314879
641.700 .0314555
642.457 .0314239
643.214 .0313942
643.971 .0313666
644.727 .0313418
645.483 .0313193
646.239 .0312981
646.994 .0312783
647.750 .0312595
648.505 .0312413
649.259 .0312242
650.014 .0312084
650.768 .0311946
651.521 .0311827
652.275 .0311728
653.028 .0311645
653.781 .0311566
654.534 .0311486
655.286 .0311395
656.039 .0311286
656.791 .0311158
657.542 .0311014
658.294 .0310857
659.045 .0310686
659.796 .0310507
660.546 .0310317
661.297 .0310123
662.047 .0309922
662.796 .0309713
663.546 .0309496
664.295 .0309270
665.044 .0309039
665.793 .0308804
666.542 .0308568
667.290 .0308337
668.038 .0308112
668.786 .0307894
669.533 .0307681
670.281 .0307476
671.028 .0307276
671.774 .0307079
672.521 .0306885
673.267 .0306694
674.013 .0306499
674.759 .0306301
675.505 .0306100
676.250 .0305893
676.995 .0305686
677.740 .0305478
678.484 .0305265
679.229 .0305057
679.973 .0304855
680.717 .0304658
681.460 .0304471
682.204 .0304296
682.947 .0304131
683.690 .0303972
684.433 .0303816
685.175 .0303658
685.917 .0303498
686.659 .0303335
687.401 .0303163
688.142 .0302990
688.884 .0302817
689.625 .0302641
690.365 .0302464
691.106 .0302289
691.846 .0302109
692.586 .0301921
693.326 .0301723
694.066 .0301515
694.805 .0301298
695.545 .0301073
696.284 .0300845
697.022 .0300618
697.761 .0300397
698.499 .0300179
699.237 .0299968
699.975 .0299767
700.713 .0299571
701.450 .0299375
702.187 .0299178
702.924 .0298983
703.661 .0298784
704.397 .0298585
705.133 .0298388
705.869 .0298194
706.605 .0298001
707.341 .0297807
708.076 .0297615
708.811 .0297425
709.546 .0297239
710.281 .0297057
711.015 .0296879
711.749 .0296701
712.483 .0296522
713.217 .0296339
713.950 .0296155
714.684 .0295970
715.417 .0295783
716.150 .0295597
716.882 .0295423
717.615 .0295255
718.347 .0295099
719.079 .0294958
719.811 .0294831
720.542 .0294713
721.273 .0294600
722.005 .0294484
722.735 .0294362
723.466 .0294236
724.196 .0294107
724.927 .0293968
725.656 .0293823
726.386 .0293671
727.116 .0293512
727.845 .0293353
728.574 .0293190
729.303 .0293028
730.031 .0292872
730.760 .0292726
731.488 .0292587
732.216 .0292456
732.944 .0292336
733.671 .0292232
734.398 .0292141
735.125 .0292060
735.852 .0291991
736.579 .0291931
737.305 .0291886
738.031 .0291858
738.757 .0291841
739.483 .0291839
740.208 .0291847
740.933 .0291865
741.658 .0291882
742.383 .0291895
743.108 .0291897
743.832 .0291891
744.556 .0291875
745.280 .0291844
746.004 .0291797
746.727 .0291742
747.450 .0291681
748.173 .0291612
748.896 .0291535
749.618 .0291450
750.340 .0291355
751.062 .0291254
751.784 .0291138
752.506 .0291010
753.227 .0290873
753.948 .0290728
754.669 .0290576
755.389 .0290418
756.110 .0290252
756.830 .0290080
757.550 .0289903
758.269 .0289717
758.989 .0289523
759.708 .0289321
760.427 .0289111
761.146 .0288896
761.864 .0288680
762.582 .0288465
763.300 .0288257
764.018 .0288058
764.736 .0287866
765.453 .0287679
766.170 .0287497
766.887 .0287315
767.603 .0287129
768.320 .0286942
769.036 .0286750
769.751 .0286553
770.467 .0286359
771.182 .0286171
771.897 .0285988
772.612 .0285817
773.327 .0285656
774.041 .0285502
774.755 .0285355
775.469 .0285213
776.183 .0285071
776.896 .0284925
777.609 .0284780
778.322 .0284631
779.035 .0284482
779.747 .0284339
780.459 .0284198
781.171 .0284063
781.882 .0283937
782.594 .0283818
783.305 .0283701
784.016 .0283590
784.726 .0283478
785.436 .0283365
786.147 .0283249
786.856 .0283129
787.566 .0283006
788.275 .0282887
788.984 .0282773
789.693 .0282662
790.401 .0282556
791.110 .0282454
791.818 .0282354
792.525 .0282258
793.233 .0282158
793.940 .0282055
794.647 .0281947
795.353 .0281834
796.060 .0281717
796.766 .0281601
797.472 .0281489
798.177 .0281383
798.883 .0281283
799.588 .0281187
800.292 .0281094
800.997 .0281005
801.701 .0280913
802.405 .0280821
803.109 .0280726
803.812 .0280627
804.515 .0280529
805.218 .0280430
805.921 .0280333
806.623 .0280240
807.325 .0280148
808.027 .0280060
808.728 .0279971
809.429 .0279883
810.130 .0279791
810.831 .0279696
811.531 .0279596
812.231 .0279490
812.931 .0279380
813.630 .0279260
814.330 .0279139
815.029 .0279021
815.727 .0278907
816.426 .0278798
817.124 .0278701
817.821 .0278611
818.519 .0278529
819.216 .0278456
819.913 .0278386
820.609 .0278317
821.306 .0278251
822.002 .0278186
822.697 .0278124
823.393 .0278076
824.088 .0278040
824.783 .0278012
825.477 .0277997
826.171 .0277991
826.865 .0277988
827.559 .0277987
828.252 .0277988
828.945 .0277987
829.638 .0277983
830.330 .0277984
831.023 .0277983
831.714 .0277989
832.406 .0278003
833.097 .0278016
833.788 .0278028
834.479 .0278037
835.169 .0278037
835.859 .0278034
836.548 .0278027
837.238 .0278022
837.927 .0278014
838.615 .0278009
839.304 .0278003
839.992 .0277993
840.680 .0277979
841.367 .0277959
842.054 .0277929
842.741 .0277891
843.428 .0277845
844.114 .0277794
844.800 .0277740
845.485 .0277685
846.170 .0277624
846.855 .0277559
847.540 .0277483
848.224 .0277400
848.908 .0277310
849.592 .0277212
850.275 .0277110
850.958 .0277002
851.641 .0276892
852.323 .0276777
853.005 .0276653
853.687 .0276515
854.368 .0276363
855.049 .0276193
855.730 .0276005
856.410 .0275801
857.090 .0275591
857.769 .0275378
858.449 .0275167
859.128 .0274960
859.806 .0274758
860.485 .0274561
861.163 .0274370
861.840 .0274176
862.518 .0273979
863.195 .0273774
863.871 .0273563
864.548 .0273347
865.224 .0273133
865.899 .0272925
866.574 .0272725
867.249 .0272538
867.924 .0272367
868.598 .0272205
869.272 .0272053
869.946 .0271908
870.619 .0271767
871.292 .0271624
871.964 .0271471
872.636 .0271308
873.308 .0271135
873.979 .0270958
874.651 .0270779
875.321 .0270598
875.992 .0270426
876.662 .0270266
877.331 .0270119
878.001 .0269985
878.670 .0269860
879.338 .0269740
880.007 .0269619
880.675 .0269496
881.342 .0269365
882.009 .0269225
882.676 .0269082
883.343 .0268936
884.009 .0268794
884.675 .0268658
885.340 .0268528
886.005 .0268408
886.670 .0268300
887.334 .0268198
887.998 .0268100
888.662 .0268003
889.325 .0267906
889.988 .0267809
890.650 .0267712
891.312 .0267613
891.974 .0267518
892.636 .0267428
893.297 .0267349
893.957 .0267280
894.618 .0267221
895.278 .0267168
895.937 .0267124
896.596 .0267088
897.255 .0267054
897.914 .0267022
898.572 .0266989
899.230 .0266957
899.887 .0266922
900.544 .0266881
901.201 .0266835
901.857 .0266782
902.513 .0266724
903.168 .0266658
903.823 .0266581
904.478 .0266498
905.132 .0266406
905.786 .0266308
906.440 .0266203
907.093 .0266089
907.746 .0265966
908.399 .0265836
909.051 .0265701
909.703 .0265561
910.354 .0265413
911.005 .0265263
911.656 .0265111
912.306 .0264960
912.956 .0264810
913.605 .0264662
914.254 .0264523
914.903 .0264390
915.551 .0264268
916.199 .0264161
916.847 .0264065
917.494 .0263984
918.141 .0263912
918.788 .0263844
919.434 .0263774
920.079 .0263695
920.725 .0263604
921.370 .0263501
922.014 .0263387
922.658 .0263265
923.302 .0263134
923.946 .0263001
924.589 .0262865
925.231 .0262721
925.873 .0262572
926.515 .0262414
927.157 .0262243
927.798 .0262060
928.439 .0261867
929.079 .0261671
929.719 .0261476
930.359 .0261292
930.998 .0261122
931.637 .0260975
932.275 .0260851
932.913 .0260745
933.551 .0260654
934.188 .0260579
934.825 .0260511
935.462 .0260452
936.098 .0260403
936.733 .0260364
937.369 .0260335
938.004 .0260324
938.638 .0260325
939.273 .0260341
939.907 .0260369
940.540 .0260408
941.173 .0260450
941.806 .0260498
942.438 .0260545
943.070 .0260590
943.702 .0260635
944.333 .0260675
944.964 .0260711
945.594 .0260746
946.224 .0260777
946.854 .0260805
947.483 .0260829
948.112 .0260850
948.741 .0260861
949.369 .0260864
949.996 .0260862
950.624 .0260850
951.251 .0260832
951.878 .0260806
952.504 .0260771
953.130 .0260729
953.755 .0260681
954.380 .0260625
955.005 .0260565
955.629 .0260500
956.253 .0260435
956.877 .0260371
957.500 .0260314
958.123 .0260262
958.746 .0260211
959.368 .0260161
959.990 .0260110
960.611 .0260052
961.232 .0259986
961.853 .0259914
962.473 .0259838
963.093 .0259757
963.712 .0259675
964.331 .0259587
964.950 .0259501
965.569 .0259419
966.187 .0259344
966.804 .0259272
967.422 .0259211
968.039 .0259157
968.655 .0259109
969.272 .0259066
969.887 .0259025
970.503 .0258986
971.118 .0258951
971.733 .0258917
972.347 .0258886
972.961 .0258860
973.575 .0258842
974.188 .0258820
974.801 .0258797
975.414 .0258760
976.026 .0258703
976.638 .0258622
977.250 .0258513
977.861 .0258383
978.472 .0258232
979.083 .0258066
979.693 .0257891
980.303 .0257710
980.912 .0257523
981.521 .0257326
982.130 .0257119
982.738 .0256898
983.346 .0256663
983.954 .0256419
984.562 .0256170
985.169 .0255926
985.775 .0255694
986.382 .0255476
986.988 .0255271
987.594 .0255075
988.199 .0254882
988.804 .0254691
989.409 .0254495
990.013 .0254295
990.617 .0254095
991.221 .0253901
991.824 .0253723
992.427 .0253566
993.030 .0253438
993.632 .0253338
994.234 .0253261
994.836 .0253201
995.438 .0253148
996.039 .0253093
996.640 .0253029
997.240 .0252958
997.840 .0252884
998.440 .0252807
999.040 .0252737
999.639 .0252678
1000.238 .0252628
1000.836 .0252586
1001.435 .0252544
1002.033 .0252486
1002.630 .0252415
1003.228 .0252324
1003.825 .0252214
1004.422 .0252090
1005.018 .0251964
1005.614 .0251845
1006.210 .0251743
1006.806 .0251663
1007.401 .0251598
1007.996 .0251543
1008.591 .0251500
1009.186 .0251451
1009.780 .0251400
1010.374 .0251345
1010.967 .0251289
1011.561 .0251228
1012.154 .0251178
1012.746 .0251138
1013.339 .0251107
1013.931 .0251085
1014.523 .0251074
1015.115 .0251061
1015.706 .0251046
1016.298 .0251024
1016.888 .0251001
1017.479 .0250980
1018.069 .0250970
1018.660 .0250963
1019.250 .0250965
1019.839 .0250975
1020.429 .0250989
1021.018 .0251002
1021.607 .0251018
1022.195 .0251031
1022.784 .0251042
1023.372 .0251049
1023.960 .0251066
1024.547 .0251080
1025.135 .0251100
1025.722 .0251129
1026.309 .0251163
1026.896 .0251201
1027.483 .0251243
1028.069 .0251289
1028.655 .0251333
1029.241 .0251383
1029.827 .0251432
1030.412 .0251476
1030.997 .0251527
1031.582 .0251581
1032.167 .0251638
1032.752 .0251702
1033.336 .0251778
1033.921 .0251857
1034.505 .0251928
1035.089 .0251994
1035.672 .0252033
1036.256 .0252048
1036.839 .0252034
1037.422 .0251997
1038.005 .0251944
1038.588 .0251898
1039.171 .0251857
1039.753 .0251833
1040.335 .0251838
1040.918 .0251864
1041.500 .0251901
1042.081 .0251941
1042.663 .0251966
1043.244 .0251973
1043.826 .0251950
1044.407 .0251919
1044.988 .0251881
1045.569 .0251858
1046.150 .0251855
1046.730 .0251878
1047.311 .0251940
1047.891 .0252017
1048.471 .0252099
1049.052 .0252176
1049.632 .0252234
1050.211 .0252273
1050.791 .0252280
1051.371 .0252273
1051.950 .0252264
1052.530 .0252255
1053.109 .0252253
1053.688 .0252265
1054.268 .0252296
1054.847 .0252343
1055.426 .0252406
1056.005 .0252483
1056.583 .0252567
1057.162 .0252660
1057.741 .0252773
1058.319 .0252893
1058.898 .0253027
1059.476 .0253175
1060.055 .0253330
1060.633 .0253493
1061.211 .0253653
1061.790 .0253807
1062.368 .0253959
1062.946 .0254108
1063.524 .0254249
1064.102 .0254377
1064.680 .0254508
1065.258 .0254628
1065.836 .0254726
1066.414 .0254807
1066.992 .0254850
1067.570 .0254849
1068.148 .0254813
1068.726 .0254747
1069.304 .0254660
1069.882 .0254568
1070.460 .0254484
1071.038 .0254421
1071.616 .0254385
1072.194 .0254382
1072.772 .0254396
1073.350 .0254446
1073.928 .0254520
1074.506 .0254589
1075.084 .0254657
1075.662 .0254740
1076.240 .0254835
1076.819 .0254948
1077.397 .0255089
1077.976 .0255270
1078.554 .0255484
1079.133 .0255733
1079.711 .0255991
1080.290 .0256255
1080.869 .0256514
1081.448 .0256757
1082.027 .0256962
1082.606 .0257140
1083.185 .0257301
1083.764 .0257456
1084.343 .0257612
1084.923 .0257771
1085.502 .0257924
1086.082 .0258076
1086.662 .0258218
1087.242 .0258334
1087.822 .0258414
1088.402 .0258466
1088.983 .0258489
1089.563 .0258505
1090.144 .0258515
1090.725 .0258530
1091.306 .0258565
1091.887 .0258639
1092.469 .0258737
1093.050 .0258844
1093.632 .0258958
1094.214 .0259082
1094.796 .0259214
1095.379 .0259361
1095.961 .0259507
1096.544 .0259687
1097.127 .0259904
1097.710 .0260139
1098.294 .0260379
1098.877 .0260620
1099.461 .0260858
1100.046 .0261081
1100.630 .0261280
1101.215 .0261455
1101.800 .0261603
1102.385 .0261760
1102.970 .0261921
1103.556 .0262098
1104.142 .0262290
1104.728 .0262501
1105.315 .0262734
1105.902 .0262978
1106.489 .0263214
1107.077 .0263437
1107.664 .0263658
1108.253 .0263874
1108.841 .0264083
1109.430 .0264286
1110.019 .0264490
1110.609 .0264726
1111.198 .0264982
1111.789 .0265283
1112.379 .0265614
1112.970 .0265987
1113.561 .0266398
1114.153 .0266830
1114.745 .0267286
1115.338 .0267732
1115.931 .0268168
1116.524 .0268592
1117.117 .0268994
1117.712 .0269398
1118.306 .0269798
1118.901 .0270215
1119.496 .0270620
1120.092 .0271009
1120.689 .0271366
1121.285 .0271663
1121.882 .0271908
1122.480 .0272117
1123.078 .0272288
1123.677 .0272467
1124.276 .0272708
1124.875 .0273036
1125.476 .0273482
1126.076 .0274036
1126.677 .0274657
1127.279 .0275338
1127.881 .0276053
1128.484 .0276796
1129.087 .0277555
1129.691 .0278362
1130.295 .0279242
1130.900 .0280190
1131.505 .0281270
1132.111 .0282427
1132.718 .0283638
1133.325 .0284896
1133.933 .0286105
1134.541 .0287245
1135.150 .0288291
1135.760 .0289257
1136.370 .0290203
1136.981 .0291172
1137.592 .0292186
1138.204 .0293221
1138.817 .0294364
1139.431 .0295598
1140.045 .0296821
1140.660 .0298059
1141.275 .0299335
1141.891 .0300723
1142.508 .0302325
1143.126 .0302507
1143.744 .0303498
1144.363 .0306462
1144.983 .0310820
