Measurement Sequence started on: 15-12-46-377
Integration time: 28
Scans to Average: 2 
>>>>>Begin Spectral Data<<<<<
432.689 .0000100
433.621 .0000100
434.552 .0000100
435.482 .0000100
436.410 .0000100
437.337 .0000100
438.262 .0276041
439.187 .0584386
440.110 .0967183
441.031 .1398241
441.952 .1816986
442.871 .2146529
443.789 .2327095
444.705 .2338652
445.621 .2206318
446.535 .1984969
447.447 .1734605
448.359 .1349779
449.269 .1160245
450.178 .1040568
451.086 .0955578
451.993 .0889309
452.898 .0836405
453.803 .0792924
454.706 .0756573
455.608 .0725780
456.508 .0699396
457.408 .0676445
458.306 .0656553
459.204 .0638896
460.100 .0623223
460.995 .0609207
461.888 .0596361
462.781 .0584160
463.673 .0572573
464.563 .0561625
465.452 .0551245
466.340 .0541471
467.228 .0532545
468.114 .0524332
468.999 .0517068
469.882 .0510575
470.765 .0504751
471.647 .0499453
472.528 .0494686
473.407 .0490273
474.286 .0486246
475.163 .0482599
476.040 .0479381
476.915 .0476590
477.790 .0474288
478.663 .0472411
479.535 .0470856
480.407 .0469564
481.277 .0468507
482.147 .0467538
483.015 .0466711
483.883 .0465918
484.749 .0465284
485.615 .0464820
486.479 .0464555
487.343 .0464436
488.206 .0464449
489.067 .0464600
489.928 .0464763
490.788 .0464970
491.647 .0465271
492.505 .0465729
493.362 .0466381
494.218 .0467256
495.073 .0468380
495.928 .0469767
496.781 .0471447
497.634 .0473351
498.486 .0475407
499.337 .0477613
500.187 .0479983
501.036 .0482616
501.884 .0485568
502.731 .0488927
503.578 .0492669
504.424 .0496858
505.268 .0501307
506.113 .0505939
506.956 .0510801
507.798 .0515933
508.640 .0521403
509.480 .0527346
510.320 .0533983
511.160 .0541529
511.998 .0550018
512.836 .0559745
513.672 .0570500
514.508 .0582308
515.344 .0594983
516.178 .0608696
517.012 .0623643
517.845 .0640390
518.677 .0659551
519.508 .0681746
520.339 .0707849
521.169 .0738506
521.998 .0773750
522.826 .0814057
523.654 .0859568
524.481 .0910394
525.307 .0966552
526.133 .1027683
526.958 .1093546
527.782 .1163655
528.605 .1236414
529.428 .1310849
530.250 .1382011
531.072 .1447471
531.892 .1503190
532.712 .1545684
533.532 .1573000
534.350 .1582681
535.168 .1574307
535.986 .1548909
536.802 .1508375
537.618 .1455759
538.434 .1393067
539.249 .1325223
540.063 .1254328
540.876 .1183016
541.689 .1113610
542.501 .1047492
543.313 .0986612
544.124 .0931298
544.934 .0881089
545.744 .0835820
546.553 .0795138
547.361 .0759046
548.169 .0727150
548.976 .0698313
549.783 .0672644
550.589 .0649534
551.395 .0628537
552.200 .0609509
553.004 .0592312
553.808 .0576652
554.611 .0562545
555.414 .0549911
556.216 .0538527
557.018 .0528265
557.819 .0519176
558.619 .0510847
559.419 .0503069
560.218 .0495789
561.017 .0488689
561.815 .0481703
562.613 .0474891
563.410 .0468158
564.207 .0461543
565.003 .0455048
565.799 .0448687
566.594 .0442318
567.388 .0436065
568.182 .0429879
568.976 .0423750
569.769 .0417807
570.562 .0412084
571.354 .0406530
572.145 .0401256
572.936 .0396236
573.727 .0391410
574.517 .0386789
575.307 .0382381
576.096 .0378118
576.885 .0374029
577.673 .0370137
578.461 .0366468
579.248 .0363034
580.035 .0359902
580.821 .0357052
581.607 .0354455
582.392 .0352095
583.177 .0349938
583.962 .0347939
584.746 .0346116
585.529 .0344444
586.313 .0342907
587.095 .0341500
587.878 .0340211
588.660 .0339027
589.441 .0337941
590.222 .0336954
591.003 .0336044
591.783 .0335201
592.563 .0334431
593.342 .0333714
594.121 .0333043
594.899 .0332423
595.678 .0331859
596.455 .0331315
597.233 .0330797
598.009 .0330304
598.786 .0329821
599.562 .0329354
600.338 .0328907
601.113 .0328486
601.888 .0328090
602.663 .0327727
603.437 .0327388
604.211 .0327060
604.984 .0326750
605.757 .0326441
606.530 .0326121
607.302 .0325787
608.074 .0325443
608.845 .0325079
609.616 .0324712
610.387 .0324350
611.158 .0323996
611.928 .0323652
612.697 .0323322
613.467 .0323002
614.236 .0322688
615.004 .0322368
615.773 .0322051
616.541 .0321727
617.308 .0321403
618.076 .0321074
618.843 .0320740
619.609 .0320409
620.375 .0320087
621.141 .0319770
621.907 .0319455
622.672 .0319147
623.437 .0318840
624.202 .0318520
624.966 .0318198
625.730 .0317867
626.493 .0317529
627.257 .0317186
628.020 .0316848
628.782 .0316510
629.545 .0316176
630.307 .0315855
631.068 .0315538
631.830 .0315229
632.591 .0314925
633.352 .0314618
634.112 .0314309
634.872 .0313996
635.632 .0313676
636.392 .0313355
637.151 .0313046
637.910 .0312748
638.668 .0312462
639.427 .0312197
640.185 .0311945
640.943 .0311700
641.700 .0311461
642.457 .0311232
643.214 .0310998
643.971 .0310763
644.727 .0310524
645.483 .0310291
646.239 .0310066
646.994 .0309854
647.750 .0309658
648.505 .0309485
649.259 .0309327
650.014 .0309179
650.768 .0309030
651.521 .0308883
652.275 .0308728
653.028 .0308566
653.781 .0308394
654.534 .0308215
655.286 .0308026
656.039 .0307838
656.791 .0307654
657.542 .0307474
658.294 .0307290
659.045 .0307117
659.796 .0306949
660.546 .0306783
661.297 .0306611
662.047 .0306436
662.796 .0306250
663.546 .0306061
664.295 .0305864
665.044 .0305657
665.793 .0305446
666.542 .0305234
667.290 .0305020
668.038 .0304805
668.786 .0304596
669.533 .0304394
670.281 .0304193
671.028 .0304001
671.774 .0303805
672.521 .0303606
673.267 .0303415
674.013 .0303222
674.759 .0303022
675.505 .0302817
676.250 .0302603
676.995 .0302385
677.740 .0302165
678.484 .0301952
679.229 .0301741
679.973 .0301532
680.717 .0301329
681.460 .0301122
682.204 .0300913
682.947 .0300704
683.690 .0300491
684.433 .0300277
685.175 .0300058
685.917 .0299836
686.659 .0299618
687.401 .0299410
688.142 .0299215
688.884 .0299028
689.625 .0298843
690.365 .0298659
691.106 .0298467
691.846 .0298273
692.586 .0298079
693.326 .0297875
694.066 .0297669
694.805 .0297462
695.545 .0297254
696.284 .0297052
697.022 .0296852
697.761 .0296656
698.499 .0296457
699.237 .0296258
699.975 .0296053
700.713 .0295845
701.450 .0295646
702.187 .0295451
702.924 .0295262
703.661 .0295081
704.397 .0294899
705.133 .0294723
705.869 .0294554
706.605 .0294390
707.341 .0294227
708.076 .0294074
708.811 .0293922
709.546 .0293777
710.281 .0293637
711.015 .0293498
711.749 .0293361
712.483 .0293226
713.217 .0293082
713.950 .0292924
714.684 .0292760
715.417 .0292589
716.150 .0292413
716.882 .0292241
717.615 .0292066
718.347 .0291895
719.079 .0291727
719.811 .0291562
720.542 .0291395
721.273 .0291228
722.005 .0291055
722.735 .0290876
723.466 .0290698
724.196 .0290519
724.927 .0290339
725.656 .0290165
726.386 .0289993
727.116 .0289825
727.845 .0289659
728.574 .0289494
729.303 .0289330
730.031 .0289174
730.760 .0289021
731.488 .0288874
732.216 .0288739
732.944 .0288619
733.671 .0288507
734.398 .0288410
735.125 .0288322
735.852 .0288236
736.579 .0288153
737.305 .0288065
738.031 .0287971
738.757 .0287878
739.483 .0287783
740.208 .0287690
740.933 .0287601
741.658 .0287521
742.383 .0287444
743.108 .0287374
743.832 .0287309
744.556 .0287238
745.280 .0287163
746.004 .0287085
746.727 .0286997
747.450 .0286907
748.173 .0286816
748.896 .0286729
749.618 .0286648
750.340 .0286572
751.062 .0286500
751.784 .0286432
752.506 .0286361
753.227 .0286280
753.948 .0286185
754.669 .0286076
755.389 .0285947
756.110 .0285805
756.830 .0285657
757.550 .0285503
758.269 .0285347
758.989 .0285192
759.708 .0285035
760.427 .0284877
761.146 .0284713
761.864 .0284541
762.582 .0284364
763.300 .0284184
764.018 .0284004
764.736 .0283829
765.453 .0283664
766.170 .0283511
766.887 .0283368
767.603 .0283236
768.320 .0283103
769.036 .0282968
769.751 .0282824
770.467 .0282672
771.182 .0282508
771.897 .0282335
772.612 .0282156
773.327 .0281981
774.041 .0281814
774.755 .0281656
775.469 .0281511
776.183 .0281378
776.896 .0281256
777.609 .0281142
778.322 .0281032
779.035 .0280923
779.747 .0280814
780.459 .0280714
781.171 .0280619
781.882 .0280528
782.594 .0280441
783.305 .0280362
784.016 .0280292
784.726 .0280227
785.436 .0280164
786.147 .0280102
786.856 .0280047
787.566 .0279991
788.275 .0279932
788.984 .0279877
789.693 .0279823
790.401 .0279770
791.110 .0279716
791.818 .0279656
792.525 .0279588
793.233 .0279516
793.940 .0279440
794.647 .0279357
795.353 .0279273
796.060 .0279186
796.766 .0279093
797.472 .0279002
798.177 .0278907
798.883 .0278802
799.588 .0278688
800.292 .0278566
800.997 .0278429
801.701 .0278281
802.405 .0278129
803.109 .0277979
803.812 .0277838
804.515 .0277709
805.218 .0277584
805.921 .0277468
806.623 .0277356
807.325 .0277243
808.027 .0277126
808.728 .0277007
809.429 .0276878
810.130 .0276746
810.831 .0276613
811.531 .0276481
812.231 .0276352
812.931 .0276228
813.630 .0276104
814.330 .0275981
815.029 .0275861
815.727 .0275741
816.426 .0275623
817.124 .0275514
817.821 .0275409
818.519 .0275311
819.216 .0275222
819.913 .0275142
820.609 .0275069
821.306 .0275003
822.002 .0274944
822.697 .0274892
823.393 .0274845
824.088 .0274810
824.783 .0274777
825.477 .0274751
826.171 .0274724
826.865 .0274694
827.559 .0274662
828.252 .0274625
828.945 .0274583
829.638 .0274535
830.330 .0274486
831.023 .0274437
831.714 .0274381
832.406 .0274328
833.097 .0274270
833.788 .0274206
834.479 .0274136
835.169 .0274067
835.859 .0273998
836.548 .0273935
837.238 .0273881
837.927 .0273834
838.615 .0273793
839.304 .0273752
839.992 .0273708
840.680 .0273655
841.367 .0273593
842.054 .0273521
842.741 .0273439
843.428 .0273360
844.114 .0273285
844.800 .0273217
845.485 .0273155
846.170 .0273098
846.855 .0273036
847.540 .0272963
848.224 .0272875
848.908 .0272766
849.592 .0272635
850.275 .0272487
850.958 .0272330
851.641 .0272167
852.323 .0272004
853.005 .0271848
853.687 .0271698
854.368 .0271556
855.049 .0271413
855.730 .0271270
856.410 .0271119
857.090 .0270959
857.769 .0270788
858.449 .0270604
859.128 .0270413
859.806 .0270219
860.485 .0270024
861.163 .0269832
861.840 .0269642
862.518 .0269454
863.195 .0269262
863.871 .0269069
864.548 .0268867
865.224 .0268654
865.899 .0268434
866.574 .0268211
867.249 .0267987
867.924 .0267771
868.598 .0267570
869.272 .0267382
869.946 .0267216
870.619 .0267064
871.292 .0266925
871.964 .0266795
872.636 .0266669
873.308 .0266546
873.979 .0266420
874.651 .0266295
875.321 .0266170
875.992 .0266052
876.662 .0265944
877.331 .0265844
878.001 .0265752
878.670 .0265664
879.338 .0265577
880.007 .0265484
880.675 .0265388
881.342 .0265284
882.009 .0265176
882.676 .0265065
883.343 .0264961
884.009 .0264869
884.675 .0264786
885.340 .0264717
886.005 .0264662
886.670 .0264616
887.334 .0264579
887.998 .0264544
888.662 .0264517
889.325 .0264497
889.988 .0264478
890.650 .0264459
891.312 .0264442
891.974 .0264430
892.636 .0264423
893.297 .0264418
893.957 .0264419
894.618 .0264422
895.278 .0264426
895.937 .0264431
896.596 .0264436
897.255 .0264439
897.914 .0264439
898.572 .0264434
899.230 .0264426
899.887 .0264408
900.544 .0264384
901.201 .0264354
901.857 .0264316
902.513 .0264272
903.168 .0264217
903.823 .0264152
904.478 .0264082
905.132 .0264001
905.786 .0263913
906.440 .0263816
907.093 .0263710
907.746 .0263595
908.399 .0263469
909.051 .0263333
909.703 .0263184
910.354 .0263029
911.005 .0262869
911.656 .0262709
912.306 .0262554
912.956 .0262409
913.605 .0262277
914.254 .0262159
914.903 .0262053
915.551 .0261956
916.199 .0261870
916.847 .0261788
917.494 .0261704
918.141 .0261625
918.788 .0261544
919.434 .0261471
920.079 .0261400
920.725 .0261334
921.370 .0261275
922.014 .0261217
922.658 .0261159
923.302 .0261095
923.946 .0261026
924.589 .0260945
925.231 .0260849
925.873 .0260738
926.515 .0260607
927.157 .0260458
927.798 .0260291
928.439 .0260109
929.079 .0259917
929.719 .0259722
930.359 .0259526
930.998 .0259336
931.637 .0259157
932.275 .0258991
932.913 .0258837
933.551 .0258695
934.188 .0258564
934.825 .0258442
935.462 .0258330
936.098 .0258227
936.733 .0258134
937.369 .0258053
938.004 .0257984
938.638 .0257928
939.273 .0257887
939.907 .0257860
940.540 .0257846
941.173 .0257839
941.806 .0257844
942.438 .0257852
943.070 .0257861
943.702 .0257867
944.333 .0257867
944.964 .0257859
945.594 .0257842
946.224 .0257819
946.854 .0257794
947.483 .0257770
948.112 .0257755
948.741 .0257746
949.369 .0257749
949.996 .0257755
950.624 .0257761
951.251 .0257760
951.878 .0257754
952.504 .0257734
953.130 .0257700
953.755 .0257653
954.380 .0257598
955.005 .0257537
955.629 .0257479
956.253 .0257422
956.877 .0257372
957.500 .0257324
958.123 .0257275
958.746 .0257214
959.368 .0257142
959.990 .0257051
960.611 .0256948
961.232 .0256829
961.853 .0256701
962.473 .0256566
963.093 .0256431
963.712 .0256294
964.331 .0256158
964.950 .0256018
965.569 .0255872
966.187 .0255716
966.804 .0255554
967.422 .0255383
968.039 .0255211
968.655 .0255039
969.272 .0254876
969.887 .0254723
970.503 .0254587
971.118 .0254461
971.733 .0254348
972.347 .0254243
972.961 .0254144
973.575 .0254045
974.188 .0253945
974.801 .0253838
975.414 .0253727
976.026 .0253606
976.638 .0253481
977.250 .0253350
977.861 .0253213
978.472 .0253073
979.083 .0252928
979.693 .0252769
980.303 .0252597
980.912 .0252407
981.521 .0252204
982.130 .0251985
982.738 .0251761
983.346 .0251535
983.954 .0251315
984.562 .0251106
985.169 .0250907
985.775 .0250719
986.382 .0250545
986.988 .0250379
987.594 .0250213
988.199 .0250047
988.804 .0249883
989.409 .0249719
990.013 .0249564
990.617 .0249421
991.221 .0249293
991.824 .0249182
992.427 .0249087
993.030 .0249005
993.632 .0248934
994.234 .0248869
994.836 .0248805
995.438 .0248739
996.039 .0248662
996.640 .0248580
997.240 .0248490
997.840 .0248402
998.440 .0248315
999.040 .0248234
999.639 .0248157
1000.238 .0248082
1000.836 .0248011
1001.435 .0247931
1002.033 .0247842
1002.630 .0247744
1003.228 .0247630
1003.825 .0247508
1004.422 .0247378
1005.018 .0247250
1005.614 .0247131
1006.210 .0247029
1006.806 .0246942
1007.401 .0246866
1007.996 .0246799
1008.591 .0246742
1009.186 .0246684
1009.780 .0246625
1010.374 .0246563
1010.967 .0246494
1011.561 .0246425
1012.154 .0246355
1012.746 .0246286
1013.339 .0246222
1013.931 .0246167
1014.523 .0246119
1015.115 .0246072
1015.706 .0246031
1016.298 .0245995
1016.888 .0245955
1017.479 .0245918
1018.069 .0245881
1018.660 .0245836
1019.250 .0245798
1019.839 .0245762
1020.429 .0245730
1021.018 .0245715
1021.607 .0245716
1022.195 .0245732
1022.784 .0245768
1023.372 .0245822
1023.960 .0245884
1024.547 .0245953
1025.135 .0246034
1025.722 .0246110
1026.309 .0246192
1026.896 .0246283
1027.483 .0246379
1028.069 .0246487
1028.655 .0246609
1029.241 .0246738
1029.827 .0246881
1030.412 .0247029
1030.997 .0247175
1031.582 .0247308
1032.167 .0247432
1032.752 .0247539
1033.336 .0247625
1033.921 .0247702
1034.505 .0247768
1035.089 .0247825
1035.672 .0247883
1036.256 .0247934
1036.839 .0247984
1037.422 .0248035
1038.005 .0248085
1038.588 .0248129
1039.171 .0248173
1039.753 .0248216
1040.335 .0248266
1040.918 .0248318
1041.500 .0248385
1042.081 .0248447
1042.663 .0248515
1043.244 .0248588
1043.826 .0248646
1044.407 .0248698
1044.988 .0248749
1045.569 .0248797
1046.150 .0248848
1046.730 .0248903
1047.311 .0248966
1047.891 .0249029
1048.471 .0249104
1049.052 .0249175
1049.632 .0249238
1050.211 .0249296
1050.791 .0249348
1051.371 .0249391
1051.950 .0249444
1052.530 .0249507
1053.109 .0249579
1053.688 .0249669
1054.268 .0249770
1054.847 .0249865
1055.426 .0249956
1056.005 .0250035
1056.583 .0250109
1057.162 .0250173
1057.741 .0250236
1058.319 .0250298
1058.898 .0250374
1059.476 .0250463
1060.055 .0250564
1060.633 .0250673
1061.211 .0250783
1061.790 .0250892
1062.368 .0251004
1062.946 .0251111
1063.524 .0251230
1064.102 .0251357
1064.680 .0251500
1065.258 .0251643
1065.836 .0251797
1066.414 .0251944
1066.992 .0252092
1067.570 .0252243
1068.148 .0252384
1068.726 .0252515
1069.304 .0252660
1069.882 .0252802
1070.460 .0252958
1071.038 .0253136
1071.616 .0253330
1072.194 .0253525
1072.772 .0253733
1073.350 .0253923
1073.928 .0254113
1074.506 .0254297
1075.084 .0254479
1075.662 .0254641
1076.240 .0254807
1076.819 .0254962
1077.397 .0255100
1077.976 .0255235
1078.554 .0255361
1079.133 .0255471
1079.711 .0255576
1080.290 .0255653
1080.869 .0255711
1081.448 .0255756
1082.027 .0255793
1082.606 .0255813
1083.185 .0255852
1083.764 .0255881
1084.343 .0255915
1084.923 .0255958
1085.502 .0256021
1086.082 .0256098
1086.662 .0256197
1087.242 .0256304
1087.822 .0256416
1088.402 .0256537
1088.983 .0256664
1089.563 .0256787
1090.144 .0256941
1090.725 .0257103
1091.306 .0257282
1091.887 .0257490
1092.469 .0257734
1093.050 .0257993
1093.632 .0258270
1094.214 .0258548
1094.796 .0258822
1095.379 .0259073
1095.961 .0259289
1096.544 .0259473
1097.127 .0259648
1097.710 .0259807
1098.294 .0259969
1098.877 .0260126
1099.461 .0260304
1100.046 .0260482
1100.630 .0260669
1101.215 .0260845
1101.800 .0261014
1102.385 .0261177
1102.970 .0261327
1103.556 .0261476
1104.142 .0261641
1104.728 .0261809
1105.315 .0262010
1105.902 .0262238
1106.489 .0262494
1107.077 .0262770
1107.664 .0263057
1108.253 .0263349
1108.841 .0263638
1109.430 .0263913
1110.019 .0264183
1110.609 .0264432
1111.198 .0264688
1111.789 .0264948
1112.379 .0265202
1112.970 .0265477
1113.561 .0265788
1114.153 .0266143
1114.745 .0266551
1115.338 .0267004
1115.931 .0267492
1116.524 .0267986
1117.117 .0268489
1117.712 .0268992
1118.306 .0269473
1118.901 .0269959
1119.496 .0270442
1120.092 .0270931
1120.689 .0271482
1121.285 .0272069
1121.882 .0272691
1122.480 .0273360
1123.078 .0274040
1123.677 .0274717
1124.276 .0275331
1124.875 .0275913
1125.476 .0276437
1126.076 .0276955
1126.677 .0277476
1127.279 .0277993
1127.881 .0278572
1128.484 .0279222
1129.087 .0279901
1129.691 .0280612
1130.295 .0281299
1130.900 .0281966
1131.505 .0282583
1132.111 .0283141
1132.718 .0283626
1133.325 .0284095
1133.933 .0284580
1134.541 .0285139
1135.150 .0285759
1135.760 .0286498
1136.370 .0287284
1136.981 .0288183
1137.592 .0289130
1138.204 .0290065
1138.817 .0291074
1139.431 .0292174
1140.045 .0293348
1140.660 .0294684
1141.275 .0296027
1141.891 .0297649
1142.508 .0299786
1143.126 .0301173
1143.744 .0304233
1144.363 .0302389
1144.983 .0308666
