Measurement Sequence started on: 15-12-46-377
Integration time: 28
Scans to Average: 2 
>>>>>Begin Spectral Data<<<<<
432.689 .0000100
433.621 .0000100
434.552 .0000100
435.482 .0000100
436.410 .0000100
437.337 .0000100
438.262 .0287764
439.187 .0610116
440.110 .1010195
441.031 .1461661
441.952 .1900461
442.871 .2245408
443.789 .2434178
444.705 .2445141
445.621 .2304798
446.535 .2070678
447.447 .1805694
448.359 .1400766
449.269 .1199535
450.178 .1072796
451.086 .0983052
451.993 .0914203
452.898 .0860159
453.803 .0815844
454.706 .0778955
455.608 .0747266
456.508 .0719752
457.408 .0695788
458.306 .0674735
459.204 .0656012
460.100 .0639245
460.995 .0624213
461.888 .0610769
462.781 .0598746
463.673 .0587898
464.563 .0578253
465.452 .0569581
466.340 .0561634
467.228 .0554283
468.114 .0547413
468.999 .0541005
469.882 .0534877
470.765 .0529185
471.647 .0523931
472.528 .0519083
473.407 .0514788
474.286 .0510952
475.163 .0507540
476.040 .0504558
476.915 .0501844
477.790 .0499332
478.663 .0497032
479.535 .0494942
480.407 .0493058
481.277 .0491438
482.147 .0490193
483.015 .0489184
483.883 .0488456
484.749 .0487966
485.615 .0487569
486.479 .0487274
487.343 .0487076
488.206 .0486922
489.067 .0486886
489.928 .0487027
490.788 .0487379
491.647 .0487964
492.505 .0488859
493.362 .0489975
494.218 .0491219
495.073 .0492576
495.928 .0494082
496.781 .0495546
497.634 .0497228
498.486 .0499129
499.337 .0501370
500.187 .0504010
501.036 .0507169
501.884 .0510801
502.731 .0514885
503.578 .0519390
504.424 .0524235
505.268 .0529283
506.113 .0534668
506.956 .0540202
507.798 .0546084
508.640 .0552480
509.480 .0559441
510.320 .0566947
511.160 .0575431
511.998 .0584772
512.836 .0595022
513.672 .0606344
514.508 .0618819
515.344 .0632290
516.178 .0647097
517.012 .0663472
517.845 .0681642
518.677 .0701954
519.508 .0724770
520.339 .0750516
521.169 .0779782
521.998 .0813046
522.826 .0850784
523.654 .0893494
524.481 .0941354
525.307 .0994740
526.133 .1053392
526.958 .1116873
527.782 .1184036
528.605 .1253645
529.428 .1324269
530.250 .1390054
531.072 .1448703
531.892 .1496914
532.712 .1532139
533.532 .1552663
534.350 .1556586
535.168 .1544530
535.986 .1517514
536.802 .1477459
537.618 .1426841
538.434 .1367863
539.249 .1305445
540.063 .1240205
540.876 .1174960
541.689 .1111580
542.501 .1051808
543.313 .0996869
544.124 .0947031
544.934 .0902063
545.744 .0861504
546.553 .0824443
547.361 .0791040
548.169 .0761071
548.976 .0733729
549.783 .0708439
550.589 .0685035
551.395 .0663096
552.200 .0642538
553.004 .0623104
553.808 .0605016
554.611 .0588234
555.414 .0572951
556.216 .0559010
557.018 .0546488
557.819 .0535390
558.619 .0525478
559.419 .0516689
560.218 .0508851
561.017 .0501711
561.815 .0495047
562.613 .0488843
563.410 .0482917
564.207 .0477163
565.003 .0471545
565.799 .0466076
566.594 .0460709
567.388 .0455505
568.182 .0450402
568.976 .0445313
569.769 .0440218
570.562 .0435055
571.354 .0429680
572.145 .0424235
572.936 .0418670
573.727 .0413089
574.517 .0407490
575.307 .0402000
576.096 .0396700
576.885 .0391684
577.673 .0387008
578.461 .0382649
579.248 .0378580
580.035 .0374836
580.821 .0371328
581.607 .0368082
582.392 .0365090
583.177 .0362417
583.962 .0360025
584.746 .0357958
585.529 .0356147
586.313 .0354586
587.095 .0353244
587.878 .0352085
588.660 .0351038
589.441 .0350074
590.222 .0349151
591.003 .0348280
591.783 .0347450
592.563 .0346669
593.342 .0345922
594.121 .0345232
594.899 .0344595
595.678 .0344005
596.455 .0343451
597.233 .0342942
598.009 .0342448
598.786 .0341975
599.562 .0341517
600.338 .0341070
601.113 .0340631
601.888 .0340208
602.663 .0339806
603.437 .0339429
604.211 .0339058
604.984 .0338695
605.757 .0338344
606.530 .0337991
607.302 .0337637
608.074 .0337289
608.845 .0336949
609.616 .0336619
610.387 .0336299
611.158 .0335995
611.928 .0335700
612.697 .0335406
613.467 .0335109
614.236 .0334806
615.004 .0334502
615.773 .0334192
616.541 .0333878
617.308 .0333573
618.076 .0333289
618.843 .0333015
619.609 .0332756
620.375 .0332499
621.141 .0332239
621.907 .0331960
622.672 .0331660
623.437 .0331331
624.202 .0330985
624.966 .0330629
625.730 .0330272
626.493 .0329920
627.257 .0329576
628.020 .0329238
628.782 .0328904
629.545 .0328562
630.307 .0328208
631.068 .0327832
631.830 .0327449
632.591 .0327050
633.352 .0326654
634.112 .0326261
634.872 .0325885
635.632 .0325525
636.392 .0325179
637.151 .0324836
637.910 .0324495
638.668 .0324151
639.427 .0323800
640.185 .0323447
640.943 .0323099
641.700 .0322753
642.457 .0322426
643.214 .0322120
643.971 .0321837
644.727 .0321569
645.483 .0321320
646.239 .0321078
646.994 .0320837
647.750 .0320595
648.505 .0320350
649.259 .0320115
650.014 .0319892
650.768 .0319673
651.521 .0319465
652.275 .0319270
653.028 .0319083
653.781 .0318891
654.534 .0318692
655.286 .0318480
656.039 .0318249
656.791 .0317999
657.542 .0317729
658.294 .0317454
659.045 .0317185
659.796 .0316923
660.546 .0316673
661.297 .0316431
662.047 .0316197
662.796 .0315955
663.546 .0315709
664.295 .0315455
665.044 .0315189
665.793 .0314920
666.542 .0314654
667.290 .0314402
668.038 .0314173
668.786 .0313965
669.533 .0313783
670.281 .0313618
671.028 .0313466
671.774 .0313311
672.521 .0313156
673.267 .0313003
674.013 .0312851
674.759 .0312699
675.505 .0312556
676.250 .0312420
676.995 .0312293
677.740 .0312174
678.484 .0312053
679.229 .0311933
679.973 .0311803
680.717 .0311660
681.460 .0311510
682.204 .0311347
682.947 .0311180
683.690 .0311011
684.433 .0310844
685.175 .0310673
685.917 .0310498
686.659 .0310320
687.401 .0310136
688.142 .0309950
688.884 .0309755
689.625 .0309552
690.365 .0309344
691.106 .0309131
691.846 .0308908
692.586 .0308686
693.326 .0308458
694.066 .0308223
694.805 .0307986
695.545 .0307743
696.284 .0307496
697.022 .0307246
697.761 .0306992
698.499 .0306729
699.237 .0306459
699.975 .0306184
700.713 .0305907
701.450 .0305642
702.187 .0305389
702.924 .0305153
703.661 .0304939
704.397 .0304743
705.133 .0304566
705.869 .0304404
706.605 .0304250
707.341 .0304095
708.076 .0303937
708.811 .0303766
709.546 .0303581
710.281 .0303388
711.015 .0303185
711.749 .0302977
712.483 .0302766
713.217 .0302549
713.950 .0302329
714.684 .0302110
715.417 .0301884
716.150 .0301656
716.882 .0301425
717.615 .0301186
718.347 .0300948
719.079 .0300719
719.811 .0300498
720.542 .0300294
721.273 .0300107
722.005 .0299931
722.735 .0299768
723.466 .0299612
724.196 .0299457
724.927 .0299302
725.656 .0299144
726.386 .0298978
727.116 .0298805
727.845 .0298633
728.574 .0298456
729.303 .0298285
730.031 .0298115
730.760 .0297944
731.488 .0297774
732.216 .0297608
732.944 .0297444
733.671 .0297291
734.398 .0297151
735.125 .0297025
735.852 .0296921
736.579 .0296833
737.305 .0296758
738.031 .0296697
738.757 .0296642
739.483 .0296583
740.208 .0296514
740.933 .0296440
741.658 .0296351
742.383 .0296260
743.108 .0296164
743.832 .0296068
744.556 .0295973
745.280 .0295878
746.004 .0295778
746.727 .0295672
747.450 .0295560
748.173 .0295438
748.896 .0295305
749.618 .0295167
750.340 .0295023
751.062 .0294885
751.784 .0294752
752.506 .0294632
753.227 .0294519
753.948 .0294419
754.669 .0294325
755.389 .0294231
756.110 .0294133
756.830 .0294029
757.550 .0293915
758.269 .0293787
758.989 .0293649
759.708 .0293500
760.427 .0293341
761.146 .0293183
761.864 .0293023
762.582 .0292867
763.300 .0292714
764.018 .0292565
764.736 .0292416
765.453 .0292269
766.170 .0292118
766.887 .0291962
767.603 .0291805
768.320 .0291648
769.036 .0291489
769.751 .0291335
770.467 .0291187
771.182 .0291048
771.897 .0290917
772.612 .0290792
773.327 .0290672
774.041 .0290556
774.755 .0290436
775.469 .0290317
776.183 .0290196
776.896 .0290079
777.609 .0289967
778.322 .0289863
779.035 .0289770
779.747 .0289686
780.459 .0289613
781.171 .0289548
781.882 .0289487
782.594 .0289431
783.305 .0289377
784.016 .0289327
784.726 .0289278
785.436 .0289233
786.147 .0289189
786.856 .0289145
787.566 .0289097
788.275 .0289039
788.984 .0288970
789.693 .0288886
790.401 .0288787
791.110 .0288671
791.818 .0288545
792.525 .0288407
793.233 .0288262
793.940 .0288111
794.647 .0287955
795.353 .0287794
796.060 .0287630
796.766 .0287463
797.472 .0287295
798.177 .0287130
798.883 .0286970
799.588 .0286820
800.292 .0286686
800.997 .0286564
801.701 .0286456
802.405 .0286356
803.109 .0286262
803.812 .0286169
804.515 .0286071
805.218 .0285963
805.921 .0285844
806.623 .0285716
807.325 .0285578
808.027 .0285436
808.728 .0285288
809.429 .0285137
810.130 .0284984
810.831 .0284831
811.531 .0284672
812.231 .0284506
812.931 .0284337
813.630 .0284160
814.330 .0283977
815.029 .0283793
815.727 .0283605
816.426 .0283423
817.124 .0283250
817.821 .0283085
818.519 .0282931
819.216 .0282793
819.913 .0282663
820.609 .0282547
821.306 .0282442
822.002 .0282339
822.697 .0282241
823.393 .0282153
824.088 .0282068
824.783 .0281982
825.477 .0281898
826.171 .0281816
826.865 .0281737
827.559 .0281665
828.252 .0281591
828.945 .0281524
829.638 .0281466
830.330 .0281414
831.023 .0281366
831.714 .0281325
832.406 .0281290
833.097 .0281256
833.788 .0281224
834.479 .0281190
835.169 .0281154
835.859 .0281117
836.548 .0281081
837.238 .0281045
837.927 .0281011
838.615 .0280981
839.304 .0280956
839.992 .0280935
840.680 .0280914
841.367 .0280890
842.054 .0280867
842.741 .0280841
843.428 .0280810
844.114 .0280772
844.800 .0280731
845.485 .0280684
846.170 .0280629
846.855 .0280564
847.540 .0280491
848.224 .0280409
848.908 .0280323
849.592 .0280227
850.275 .0280127
850.958 .0280022
851.641 .0279919
852.323 .0279814
853.005 .0279708
853.687 .0279597
854.368 .0279480
855.049 .0279355
855.730 .0279220
856.410 .0279075
857.090 .0278923
857.769 .0278768
858.449 .0278616
859.128 .0278465
859.806 .0278320
860.485 .0278185
861.163 .0278061
861.840 .0277946
862.518 .0277835
863.195 .0277723
863.871 .0277610
864.548 .0277498
865.224 .0277383
865.899 .0277268
866.574 .0277162
867.249 .0277067
867.924 .0276987
868.598 .0276919
869.272 .0276861
869.946 .0276811
870.619 .0276765
871.292 .0276713
871.964 .0276651
872.636 .0276578
873.308 .0276490
873.979 .0276393
874.651 .0276291
875.321 .0276185
875.992 .0276079
876.662 .0275974
877.331 .0275868
878.001 .0275760
878.670 .0275649
879.338 .0275531
880.007 .0275409
880.675 .0275285
881.342 .0275160
882.009 .0275034
882.676 .0274912
883.343 .0274798
884.009 .0274690
884.675 .0274586
885.340 .0274486
886.005 .0274386
886.670 .0274291
887.334 .0274200
887.998 .0274113
888.662 .0274032
889.325 .0273958
889.988 .0273888
890.650 .0273820
891.312 .0273753
891.974 .0273683
892.636 .0273608
893.297 .0273532
893.957 .0273456
894.618 .0273380
895.278 .0273312
895.937 .0273254
896.596 .0273207
897.255 .0273166
897.914 .0273128
898.572 .0273082
899.230 .0273028
899.887 .0272962
900.544 .0272877
901.201 .0272781
901.857 .0272675
902.513 .0272565
903.168 .0272453
903.823 .0272343
904.478 .0272228
905.132 .0272104
905.786 .0271970
906.440 .0271815
907.093 .0271639
907.746 .0271443
908.399 .0271232
909.051 .0271011
909.703 .0270790
910.354 .0270572
911.005 .0270360
911.656 .0270161
912.306 .0269967
912.956 .0269775
913.605 .0269582
914.254 .0269385
914.903 .0269179
915.551 .0268968
916.199 .0268755
916.847 .0268538
917.494 .0268326
918.141 .0268119
918.788 .0267921
919.434 .0267737
920.079 .0267563
920.725 .0267398
921.370 .0267237
922.014 .0267076
922.658 .0266908
923.302 .0266734
923.946 .0266550
924.589 .0266356
925.231 .0266150
925.873 .0265940
926.515 .0265728
927.157 .0265518
927.798 .0265312
928.439 .0265108
929.079 .0264899
929.719 .0264681
930.359 .0264447
930.998 .0264199
931.637 .0263937
932.275 .0263669
932.913 .0263399
933.551 .0263135
934.188 .0262880
934.825 .0262642
935.462 .0262421
936.098 .0262221
936.733 .0262037
937.369 .0261869
938.004 .0261714
938.638 .0261573
939.273 .0261446
939.907 .0261334
940.540 .0261243
941.173 .0261174
941.806 .0261122
942.438 .0261091
943.070 .0261071
943.702 .0261064
944.333 .0261060
944.964 .0261056
945.594 .0261050
946.224 .0261040
946.854 .0261027
947.483 .0261010
948.112 .0260992
948.741 .0260974
949.369 .0260953
949.996 .0260932
950.624 .0260905
951.251 .0260873
951.878 .0260828
952.504 .0260772
953.130 .0260703
953.755 .0260622
954.380 .0260532
955.005 .0260435
955.629 .0260335
956.253 .0260233
956.877 .0260139
957.500 .0260050
958.123 .0259967
958.746 .0259886
959.368 .0259803
959.990 .0259716
960.611 .0259623
961.232 .0259526
961.853 .0259426
962.473 .0259327
963.093 .0259230
963.712 .0259133
964.331 .0259044
964.950 .0258958
965.569 .0258882
966.187 .0258818
966.804 .0258768
967.422 .0258725
968.039 .0258695
968.655 .0258675
969.272 .0258662
969.887 .0258654
970.503 .0258651
971.118 .0258646
971.733 .0258651
972.347 .0258658
972.961 .0258676
973.575 .0258703
974.188 .0258745
974.801 .0258789
975.414 .0258834
976.026 .0258872
976.638 .0258898
977.250 .0258905
977.861 .0258897
978.472 .0258870
979.083 .0258830
979.693 .0258782
980.303 .0258735
980.912 .0258691
981.521 .0258654
982.130 .0258616
982.738 .0258576
983.346 .0258530
983.954 .0258476
984.562 .0258407
985.169 .0258327
985.775 .0258242
986.382 .0258154
986.988 .0258064
987.594 .0257983
988.199 .0257914
988.804 .0257855
989.409 .0257809
990.013 .0257769
990.617 .0257736
991.221 .0257708
991.824 .0257683
992.427 .0257663
993.030 .0257653
993.632 .0257650
994.234 .0257656
994.836 .0257677
995.438 .0257708
996.039 .0257747
996.640 .0257790
997.240 .0257836
997.840 .0257883
998.440 .0257927
999.040 .0257965
999.639 .0258005
1000.238 .0258045
1000.836 .0258084
1001.435 .0258121
1002.033 .0258164
1002.630 .0258208
1003.228 .0258255
1003.825 .0258310
1004.422 .0258372
1005.018 .0258444
1005.614 .0258530
1006.210 .0258623
1006.806 .0258726
1007.401 .0258835
1007.996 .0258939
1008.591 .0259039
1009.186 .0259133
1009.780 .0259212
1010.374 .0259275
1010.967 .0259322
1011.561 .0259348
1012.154 .0259356
1012.746 .0259345
1013.339 .0259317
1013.931 .0259267
1014.523 .0259209
1015.115 .0259134
1015.706 .0259050
1016.298 .0258969
1016.888 .0258891
1017.479 .0258822
1018.069 .0258768
1018.660 .0258725
1019.250 .0258698
1019.839 .0258686
1020.429 .0258690
1021.018 .0258707
1021.607 .0258736
1022.195 .0258771
1022.784 .0258810
1023.372 .0258853
1023.960 .0258907
1024.547 .0258966
1025.135 .0259040
1025.722 .0259127
1026.309 .0259218
1026.896 .0259315
1027.483 .0259411
1028.069 .0259506
1028.655 .0259586
1029.241 .0259655
1029.827 .0259711
1030.412 .0259759
1030.997 .0259807
1031.582 .0259863
1032.167 .0259932
1032.752 .0260020
1033.336 .0260118
1033.921 .0260221
1034.505 .0260319
1035.089 .0260405
1035.672 .0260462
1036.256 .0260487
1036.839 .0260477
1037.422 .0260437
1038.005 .0260362
1038.588 .0260277
1039.171 .0260189
1039.753 .0260109
1040.335 .0260039
1040.918 .0259980
1041.500 .0259931
1042.081 .0259888
1042.663 .0259839
1043.244 .0259778
1043.826 .0259700
1044.407 .0259612
1044.988 .0259509
1045.569 .0259404
1046.150 .0259312
1046.730 .0259238
1047.311 .0259185
1047.891 .0259153
1048.471 .0259129
1049.052 .0259105
1049.632 .0259072
1050.211 .0259025
1050.791 .0258963
1051.371 .0258885
1051.950 .0258802
1052.530 .0258720
1053.109 .0258654
1053.688 .0258602
1054.268 .0258561
1054.847 .0258535
1055.426 .0258508
1056.005 .0258477
1056.583 .0258445
1057.162 .0258402
1057.741 .0258362
1058.319 .0258325
1058.898 .0258296
1059.476 .0258271
1060.055 .0258251
1060.633 .0258225
1061.211 .0258177
1061.790 .0258115
1062.368 .0258034
1062.946 .0257929
1063.524 .0257819
1064.102 .0257707
1064.680 .0257604
1065.258 .0257501
1065.836 .0257398
1066.414 .0257284
1066.992 .0257159
1067.570 .0257013
1068.148 .0256849
1068.726 .0256662
1069.304 .0256474
1069.882 .0256288
1070.460 .0256115
1071.038 .0255971
1071.616 .0255846
1072.194 .0255744
1072.772 .0255656
1073.350 .0255581
1073.928 .0255517
1074.506 .0255459
1075.084 .0255427
1075.662 .0255411
1076.240 .0255417
1076.819 .0255445
1077.397 .0255489
1077.976 .0255562
1078.554 .0255650
1079.133 .0255734
1079.711 .0255806
1080.290 .0255863
1080.869 .0255894
1081.448 .0255897
1082.027 .0255879
1082.606 .0255849
1083.185 .0255818
1083.764 .0255796
1084.343 .0255772
1084.923 .0255753
1085.502 .0255763
1086.082 .0255780
1086.662 .0255806
1087.242 .0255837
1087.822 .0255858
1088.402 .0255887
1088.983 .0255922
1089.563 .0255964
1090.144 .0256022
1090.725 .0256117
1091.306 .0256242
1091.887 .0256384
1092.469 .0256561
1093.050 .0256745
1093.632 .0256928
1094.214 .0257132
1094.796 .0257337
1095.379 .0257520
1095.961 .0257700
1096.544 .0257872
1097.127 .0258041
1097.710 .0258193
1098.294 .0258334
1098.877 .0258466
1099.461 .0258602
1100.046 .0258732
1100.630 .0258854
1101.215 .0258990
1101.800 .0259150
1102.385 .0259307
1102.970 .0259473
1103.556 .0259622
1104.142 .0259757
1104.728 .0259887
1105.315 .0260016
1105.902 .0260131
1106.489 .0260273
1107.077 .0260420
1107.664 .0260591
1108.253 .0260786
1108.841 .0260991
1109.430 .0261204
1110.019 .0261423
1110.609 .0261630
1111.198 .0261799
1111.789 .0261950
1112.379 .0262124
1112.970 .0262287
1113.561 .0262481
1114.153 .0262703
1114.745 .0262953
1115.338 .0263252
1115.931 .0263607
1116.524 .0263995
1117.117 .0264440
1117.712 .0264943
1118.306 .0265489
1118.901 .0266075
1119.496 .0266677
1120.092 .0267310
1120.689 .0267942
1121.285 .0268573
1121.882 .0269153
1122.480 .0269658
1123.078 .0270137
1123.677 .0270584
1124.276 .0271012
1124.875 .0271460
1125.476 .0271904
1126.076 .0272385
1126.677 .0272873
1127.279 .0273368
1127.881 .0273827
1128.484 .0274246
1129.087 .0274600
1129.691 .0274941
1130.295 .0275270
1130.900 .0275664
1131.505 .0276158
1132.111 .0276850
1132.718 .0277736
1133.325 .0278817
1133.933 .0280026
1134.541 .0281333
1135.150 .0282676
1135.760 .0284033
1136.370 .0285335
1136.981 .0286608
1137.592 .0287859
1138.204 .0289184
1138.817 .0290592
1139.431 .0292098
1140.045 .0293703
1140.660 .0295294
1141.275 .0297033
1141.891 .0298648
1142.508 .0301156
1143.126 .0302640
1143.744 .0300357
1144.363 .0306949
1144.983 .0304575
