Measurement Sequence started on: 15-12-46-377
Integration time: 28
Scans to Average: 2 
>>>>>Begin Spectral Data<<<<<
432.689 .0000100
433.621 .0000100
434.552 .0000100
435.482 .0000100
436.410 .0000100
437.337 .0000100
438.262 .0269876
439.187 .0571309
440.110 .0945678
441.031 .1367862
441.952 .1778440
442.871 .2101821
443.789 .2279863
444.705 .2292171
445.621 .2164048
446.535 .1948940
447.447 .1705454
448.359 .1330644
449.269 .1146757
450.178 .1031219
451.086 .0949622
451.993 .0886585
452.898 .0836680
453.803 .0795473
454.706 .0761159
455.608 .0731275
456.508 .0705188
457.408 .0682013
458.306 .0661338
459.204 .0642528
460.100 .0625451
460.995 .0609741
461.888 .0595453
462.781 .0582506
463.673 .0570859
464.563 .0560379
465.452 .0550798
466.340 .0541907
467.228 .0533732
468.114 .0526009
468.999 .0518873
469.882 .0512111
470.765 .0505945
471.647 .0500341
472.528 .0495329
473.407 .0490835
474.286 .0486904
475.163 .0483373
476.040 .0480186
476.915 .0477263
477.790 .0474596
478.663 .0472075
479.535 .0469761
480.407 .0467684
481.277 .0465856
482.147 .0464272
483.015 .0462935
483.883 .0461833
484.749 .0460943
485.615 .0460281
486.479 .0459800
487.343 .0459511
488.206 .0459419
489.067 .0459421
489.928 .0459497
490.788 .0459657
491.647 .0459927
492.505 .0460237
493.362 .0460729
494.218 .0461465
495.073 .0462454
495.928 .0463763
496.781 .0465396
497.634 .0467434
498.486 .0469754
499.337 .0472418
500.187 .0475244
501.036 .0478200
501.884 .0481400
502.731 .0484800
503.578 .0488480
504.424 .0492487
505.268 .0496802
506.113 .0501417
506.956 .0506382
507.798 .0511746
508.640 .0517462
509.480 .0523707
510.320 .0530590
511.160 .0538176
511.998 .0546485
512.836 .0555893
513.672 .0566383
514.508 .0578105
515.344 .0591307
516.178 .0606059
517.012 .0622749
517.845 .0641833
518.677 .0663745
519.508 .0688959
520.339 .0717828
521.169 .0750939
521.998 .0787945
522.826 .0829512
523.654 .0875722
524.481 .0926639
525.307 .0982794
526.133 .1044411
526.958 .1111045
527.782 .1182854
528.605 .1258846
529.428 .1337656
530.250 .1413752
531.072 .1484735
531.892 .1546000
532.712 .1594301
533.532 .1626315
534.350 .1639899
535.168 .1633947
535.986 .1610136
536.802 .1569751
537.618 .1515697
538.434 .1451141
539.249 .1380797
540.063 .1306267
540.876 .1230835
541.689 .1156528
542.501 .1085833
543.313 .1019689
544.124 .0959233
544.934 .0903915
545.744 .0853804
546.553 .0808720
547.361 .0768643
548.169 .0733380
548.976 .0702151
549.783 .0674395
550.589 .0649839
551.395 .0627873
552.200 .0608336
553.004 .0590790
553.808 .0575094
554.611 .0561193
555.414 .0548956
556.216 .0537939
557.018 .0528261
557.819 .0519613
558.619 .0511681
559.419 .0504377
560.218 .0497569
561.017 .0491150
561.815 .0484893
562.613 .0478818
563.410 .0472828
564.207 .0466800
565.003 .0460808
565.799 .0454678
566.594 .0448406
567.388 .0442112
568.182 .0435753
568.976 .0429402
569.769 .0423248
570.562 .0417318
571.354 .0411661
572.145 .0406324
572.936 .0401287
573.727 .0396432
574.517 .0391763
575.307 .0387303
576.096 .0382995
576.885 .0378844
577.673 .0374861
578.461 .0371023
579.248 .0367417
580.035 .0364055
580.821 .0360932
581.607 .0358041
582.392 .0355361
583.177 .0352863
583.962 .0350557
584.746 .0348455
585.529 .0346540
586.313 .0344816
587.095 .0343257
587.878 .0341858
588.660 .0340627
589.441 .0339528
590.222 .0338534
591.003 .0337665
591.783 .0336897
592.563 .0336201
593.342 .0335584
594.121 .0335009
594.899 .0334464
595.678 .0333928
596.455 .0333387
597.233 .0332814
598.009 .0332234
598.786 .0331640
599.562 .0331021
600.338 .0330402
601.113 .0329787
601.888 .0329163
602.663 .0328553
603.437 .0327957
604.211 .0327366
604.984 .0326787
605.757 .0326227
606.530 .0325679
607.302 .0325153
608.074 .0324649
608.845 .0324173
609.616 .0323730
610.387 .0323328
611.158 .0322962
611.928 .0322637
612.697 .0322359
613.467 .0322117
614.236 .0321903
615.004 .0321712
615.773 .0321536
616.541 .0321369
617.308 .0321203
618.076 .0321042
618.843 .0320876
619.609 .0320700
620.375 .0320520
621.141 .0320337
621.907 .0320142
622.672 .0319939
623.437 .0319720
624.202 .0319475
624.966 .0319211
625.730 .0318926
626.493 .0318619
627.257 .0318305
628.020 .0317982
628.782 .0317649
629.545 .0317316
630.307 .0316979
631.068 .0316632
631.830 .0316288
632.591 .0315949
633.352 .0315617
634.112 .0315292
634.872 .0314987
635.632 .0314696
636.392 .0314423
637.151 .0314167
637.910 .0313908
638.668 .0313653
639.427 .0313404
640.185 .0313150
640.943 .0312903
641.700 .0312663
642.457 .0312442
643.214 .0312238
643.971 .0312050
644.727 .0311872
645.483 .0311705
646.239 .0311547
646.994 .0311388
647.750 .0311222
648.505 .0311055
649.259 .0310886
650.014 .0310715
650.768 .0310551
651.521 .0310385
652.275 .0310220
653.028 .0310055
653.781 .0309878
654.534 .0309693
655.286 .0309487
656.039 .0309269
656.791 .0309037
657.542 .0308791
658.294 .0308537
659.045 .0308276
659.796 .0308013
660.546 .0307751
661.297 .0307487
662.047 .0307222
662.796 .0306955
663.546 .0306688
664.295 .0306420
665.044 .0306151
665.793 .0305888
666.542 .0305628
667.290 .0305375
668.038 .0305134
668.786 .0304895
669.533 .0304660
670.281 .0304432
671.028 .0304204
671.774 .0303975
672.521 .0303748
673.267 .0303527
674.013 .0303313
674.759 .0303110
675.505 .0302919
676.250 .0302740
676.995 .0302573
677.740 .0302414
678.484 .0302250
679.229 .0302086
679.973 .0301911
680.717 .0301722
681.460 .0301525
682.204 .0301319
682.947 .0301111
683.690 .0300905
684.433 .0300705
685.175 .0300510
685.917 .0300324
686.659 .0300150
687.401 .0299980
688.142 .0299816
688.884 .0299647
689.625 .0299472
690.365 .0299284
691.106 .0299085
691.846 .0298876
692.586 .0298664
693.326 .0298450
694.066 .0298237
694.805 .0298027
695.545 .0297819
696.284 .0297608
697.022 .0297392
697.761 .0297167
698.499 .0296937
699.237 .0296692
699.975 .0296444
700.713 .0296197
701.450 .0295960
702.187 .0295738
702.924 .0295535
703.661 .0295354
704.397 .0295191
705.133 .0295042
705.869 .0294899
706.605 .0294765
707.341 .0294637
708.076 .0294513
708.811 .0294391
709.546 .0294271
710.281 .0294148
711.015 .0294020
711.749 .0293885
712.483 .0293742
713.217 .0293580
713.950 .0293406
714.684 .0293210
715.417 .0293001
716.150 .0292785
716.882 .0292567
717.615 .0292351
718.347 .0292145
719.079 .0291944
719.811 .0291750
720.542 .0291561
721.273 .0291383
722.005 .0291208
722.735 .0291041
723.466 .0290874
724.196 .0290707
724.927 .0290538
725.656 .0290371
726.386 .0290202
727.116 .0290037
727.845 .0289873
728.574 .0289705
729.303 .0289533
730.031 .0289359
730.760 .0289180
731.488 .0289001
732.216 .0288820
732.944 .0288641
733.671 .0288462
734.398 .0288291
735.125 .0288129
735.852 .0287981
736.579 .0287849
737.305 .0287726
738.031 .0287612
738.757 .0287501
739.483 .0287387
740.208 .0287272
740.933 .0287160
741.658 .0287046
742.383 .0286934
743.108 .0286828
743.832 .0286726
744.556 .0286630
745.280 .0286539
746.004 .0286447
746.727 .0286351
747.450 .0286248
748.173 .0286130
748.896 .0286004
749.618 .0285874
750.340 .0285745
751.062 .0285621
751.784 .0285506
752.506 .0285400
753.227 .0285297
753.948 .0285199
754.669 .0285099
755.389 .0284987
756.110 .0284863
756.830 .0284724
757.550 .0284575
758.269 .0284416
758.989 .0284251
759.708 .0284078
760.427 .0283906
761.146 .0283726
761.864 .0283542
762.582 .0283354
763.300 .0283160
764.018 .0282963
764.736 .0282766
765.453 .0282572
766.170 .0282388
766.887 .0282212
767.603 .0282050
768.320 .0281895
769.036 .0281753
769.751 .0281613
770.467 .0281478
771.182 .0281352
771.897 .0281233
772.612 .0281121
773.327 .0281020
774.041 .0280930
774.755 .0280851
775.469 .0280782
776.183 .0280720
776.896 .0280659
777.609 .0280600
778.322 .0280535
779.035 .0280466
779.747 .0280393
780.459 .0280317
781.171 .0280237
781.882 .0280158
782.594 .0280081
783.305 .0280008
784.016 .0279941
784.726 .0279883
785.436 .0279830
786.147 .0279779
786.856 .0279727
787.566 .0279670
788.275 .0279610
788.984 .0279545
789.693 .0279469
790.401 .0279388
791.110 .0279298
791.818 .0279205
792.525 .0279108
793.233 .0279006
793.940 .0278901
794.647 .0278791
795.353 .0278672
796.060 .0278547
796.766 .0278416
797.472 .0278280
798.177 .0278142
798.883 .0278004
799.588 .0277866
800.292 .0277730
800.997 .0277599
801.701 .0277470
802.405 .0277341
803.109 .0277219
803.812 .0277099
804.515 .0276985
805.218 .0276875
805.921 .0276768
806.623 .0276661
807.325 .0276553
808.027 .0276441
808.728 .0276318
809.429 .0276185
810.130 .0276043
810.831 .0275893
811.531 .0275742
812.231 .0275590
812.931 .0275441
813.630 .0275299
814.330 .0275163
815.029 .0275030
815.727 .0274898
816.426 .0274767
817.124 .0274640
817.821 .0274511
818.519 .0274385
819.216 .0274265
819.913 .0274150
820.609 .0274046
821.306 .0273947
822.002 .0273856
822.697 .0273773
823.393 .0273695
824.088 .0273621
824.783 .0273549
825.477 .0273481
826.171 .0273415
826.865 .0273352
827.559 .0273296
828.252 .0273245
828.945 .0273195
829.638 .0273147
830.330 .0273105
831.023 .0273060
831.714 .0273018
832.406 .0272978
833.097 .0272941
833.788 .0272902
834.479 .0272867
835.169 .0272828
835.859 .0272793
836.548 .0272758
837.238 .0272721
837.927 .0272679
838.615 .0272638
839.304 .0272593
839.992 .0272545
840.680 .0272496
841.367 .0272448
842.054 .0272400
842.741 .0272355
843.428 .0272306
844.114 .0272257
844.800 .0272207
845.485 .0272151
846.170 .0272088
846.855 .0272017
847.540 .0271935
848.224 .0271846
848.908 .0271748
849.592 .0271646
850.275 .0271536
850.958 .0271426
851.641 .0271311
852.323 .0271196
853.005 .0271078
853.687 .0270951
854.368 .0270820
855.049 .0270686
855.730 .0270547
856.410 .0270404
857.090 .0270264
857.769 .0270123
858.449 .0269983
859.128 .0269844
859.806 .0269704
860.485 .0269568
861.163 .0269432
861.840 .0269295
862.518 .0269159
863.195 .0269027
863.871 .0268896
864.548 .0268772
865.224 .0268657
865.899 .0268546
866.574 .0268442
867.249 .0268341
867.924 .0268242
868.598 .0268145
869.272 .0268052
869.946 .0267965
870.619 .0267884
871.292 .0267809
871.964 .0267737
872.636 .0267672
873.308 .0267613
873.979 .0267552
874.651 .0267489
875.321 .0267425
875.992 .0267357
876.662 .0267286
877.331 .0267217
878.001 .0267151
878.670 .0267095
879.338 .0267043
880.007 .0266998
880.675 .0266953
881.342 .0266904
882.009 .0266849
882.676 .0266786
883.343 .0266713
884.009 .0266629
884.675 .0266539
885.340 .0266446
886.005 .0266354
886.670 .0266265
887.334 .0266183
887.998 .0266111
888.662 .0266047
889.325 .0265988
889.988 .0265935
890.650 .0265888
891.312 .0265843
891.974 .0265800
892.636 .0265761
893.297 .0265729
893.957 .0265702
894.618 .0265682
895.278 .0265671
895.937 .0265670
896.596 .0265679
897.255 .0265692
897.914 .0265709
898.572 .0265720
899.230 .0265723
899.887 .0265711
900.544 .0265680
901.201 .0265633
901.857 .0265565
902.513 .0265483
903.168 .0265391
903.823 .0265290
904.478 .0265179
905.132 .0265062
905.786 .0264940
906.440 .0264808
907.093 .0264662
907.746 .0264504
908.399 .0264336
909.051 .0264160
909.703 .0263981
910.354 .0263800
911.005 .0263622
911.656 .0263448
912.306 .0263273
912.956 .0263098
913.605 .0262920
914.254 .0262739
914.903 .0262554
915.551 .0262367
916.199 .0262183
916.847 .0262000
917.494 .0261829
918.141 .0261670
918.788 .0261522
919.434 .0261385
920.079 .0261248
920.725 .0261109
921.370 .0260966
922.014 .0260819
922.658 .0260665
923.302 .0260500
923.946 .0260335
924.589 .0260164
925.231 .0259988
925.873 .0259811
926.515 .0259630
927.157 .0259446
927.798 .0259256
928.439 .0259057
929.079 .0258844
929.719 .0258620
930.359 .0258389
930.998 .0258148
931.637 .0257900
932.275 .0257648
932.913 .0257395
933.551 .0257142
934.188 .0256900
934.825 .0256664
935.462 .0256441
936.098 .0256232
936.733 .0256035
937.369 .0255848
938.004 .0255673
938.638 .0255509
939.273 .0255354
939.907 .0255209
940.540 .0255073
941.173 .0254945
941.806 .0254833
942.438 .0254732
943.070 .0254638
943.702 .0254550
944.333 .0254463
944.964 .0254375
945.594 .0254283
946.224 .0254189
946.854 .0254099
947.483 .0254018
948.112 .0253951
948.741 .0253892
949.369 .0253843
949.996 .0253796
950.624 .0253747
951.251 .0253690
951.878 .0253621
952.504 .0253540
953.130 .0253449
953.755 .0253353
954.380 .0253259
955.005 .0253170
955.629 .0253086
956.253 .0253007
956.877 .0252929
957.500 .0252837
958.123 .0252731
958.746 .0252605
959.368 .0252468
959.990 .0252316
960.611 .0252161
961.232 .0252007
961.853 .0251863
962.473 .0251732
963.093 .0251619
963.712 .0251520
964.331 .0251437
964.950 .0251360
965.569 .0251296
966.187 .0251245
966.804 .0251209
967.422 .0251183
968.039 .0251177
968.655 .0251183
969.272 .0251200
969.887 .0251215
970.503 .0251227
971.118 .0251231
971.733 .0251225
972.347 .0251201
972.961 .0251160
973.575 .0251101
974.188 .0251030
974.801 .0250944
975.414 .0250848
976.026 .0250737
976.638 .0250613
977.250 .0250480
977.861 .0250338
978.472 .0250187
979.083 .0250029
979.693 .0249863
980.303 .0249695
980.912 .0249523
981.521 .0249347
982.130 .0249174
982.738 .0249005
983.346 .0248841
983.954 .0248683
984.562 .0248537
985.169 .0248398
985.775 .0248269
986.382 .0248149
986.988 .0248039
987.594 .0247932
988.199 .0247834
988.804 .0247742
989.409 .0247661
990.013 .0247593
990.617 .0247533
991.221 .0247482
991.824 .0247446
992.427 .0247420
993.030 .0247402
993.632 .0247391
994.234 .0247392
994.836 .0247397
995.438 .0247407
996.039 .0247419
996.640 .0247427
997.240 .0247431
997.840 .0247436
998.440 .0247438
999.040 .0247437
999.639 .0247437
1000.238 .0247436
1000.836 .0247437
1001.435 .0247446
1002.033 .0247458
1002.630 .0247476
1003.228 .0247502
1003.825 .0247538
1004.422 .0247573
1005.018 .0247612
1005.614 .0247653
1006.210 .0247687
1006.806 .0247721
1007.401 .0247748
1007.996 .0247759
1008.591 .0247765
1009.186 .0247773
1009.780 .0247781
1010.374 .0247792
1010.967 .0247815
1011.561 .0247844
1012.154 .0247876
1012.746 .0247906
1013.339 .0247930
1013.931 .0247944
1014.523 .0247954
1015.115 .0247951
1015.706 .0247941
1016.298 .0247934
1016.888 .0247934
1017.479 .0247940
1018.069 .0247961
1018.660 .0247992
1019.250 .0248026
1019.839 .0248061
1020.429 .0248098
1021.018 .0248132
1021.607 .0248162
1022.195 .0248192
1022.784 .0248225
1023.372 .0248263
1023.960 .0248312
1024.547 .0248366
1025.135 .0248433
1025.722 .0248515
1026.309 .0248611
1026.896 .0248720
1027.483 .0248845
1028.069 .0248983
1028.655 .0249135
1029.241 .0249292
1029.827 .0249455
1030.412 .0249617
1030.997 .0249770
1031.582 .0249914
1032.167 .0250039
1032.752 .0250146
1033.336 .0250239
1033.921 .0250318
1034.505 .0250390
1035.089 .0250454
1035.672 .0250513
1036.256 .0250555
1036.839 .0250581
1037.422 .0250588
1038.005 .0250575
1038.588 .0250543
1039.171 .0250499
1039.753 .0250447
1040.335 .0250400
1040.918 .0250365
1041.500 .0250344
1042.081 .0250348
1042.663 .0250369
1043.244 .0250404
1043.826 .0250454
1044.407 .0250506
1044.988 .0250567
1045.569 .0250624
1046.150 .0250678
1046.730 .0250728
1047.311 .0250782
1047.891 .0250839
1048.471 .0250895
1049.052 .0250960
1049.632 .0251023
1050.211 .0251085
1050.791 .0251145
1051.371 .0251198
1051.950 .0251255
1052.530 .0251315
1053.109 .0251381
1053.688 .0251445
1054.268 .0251523
1054.847 .0251604
1055.426 .0251686
1056.005 .0251767
1056.583 .0251835
1057.162 .0251883
1057.741 .0251910
1058.319 .0251925
1058.898 .0251925
1059.476 .0251920
1060.055 .0251917
1060.633 .0251908
1061.211 .0251903
1061.790 .0251893
1062.368 .0251882
1062.946 .0251863
1063.524 .0251850
1064.102 .0251831
1064.680 .0251809
1065.258 .0251793
1065.836 .0251801
1066.414 .0251846
1066.992 .0251935
1067.570 .0252073
1068.148 .0252242
1068.726 .0252431
1069.304 .0252633
1069.882 .0252823
1070.460 .0252999
1071.038 .0253152
1071.616 .0253282
1072.194 .0253387
1072.772 .0253477
1073.350 .0253556
1073.928 .0253622
1074.506 .0253683
1075.084 .0253738
1075.662 .0253767
1076.240 .0253780
1076.819 .0253773
1077.397 .0253746
1077.976 .0253718
1078.554 .0253678
1079.133 .0253645
1079.711 .0253627
1080.290 .0253640
1080.869 .0253687
1081.448 .0253768
1082.027 .0253882
1082.606 .0254016
1083.185 .0254176
1083.764 .0254344
1084.343 .0254521
1084.923 .0254703
1085.502 .0254885
1086.082 .0255061
1086.662 .0255230
1087.242 .0255395
1087.822 .0255536
1088.402 .0255676
1088.983 .0255794
1089.563 .0255876
1090.144 .0255948
1090.725 .0255997
1091.306 .0256034
1091.887 .0256061
1092.469 .0256104
1093.050 .0256144
1093.632 .0256201
1094.214 .0256281
1094.796 .0256376
1095.379 .0256494
1095.961 .0256644
1096.544 .0256802
1097.127 .0256973
1097.710 .0257171
1098.294 .0257385
1098.877 .0257601
1099.461 .0257853
1100.046 .0258119
1100.630 .0258396
1101.215 .0258695
1101.800 .0259025
1102.385 .0259353
1102.970 .0259687
1103.556 .0260020
1104.142 .0260327
1104.728 .0260627
1105.315 .0260912
1105.902 .0261164
1106.489 .0261394
1107.077 .0261613
1107.664 .0261810
1108.253 .0261991
1108.841 .0262177
1109.430 .0262340
1110.019 .0262453
1110.609 .0262552
1111.198 .0262605
1111.789 .0262643
1112.379 .0262685
1112.970 .0262751
1113.561 .0262848
1114.153 .0262981
1114.745 .0263150
1115.338 .0263344
1115.931 .0263541
1116.524 .0263739
1117.117 .0263893
1117.712 .0264020
1118.306 .0264116
1118.901 .0264220
1119.496 .0264334
1120.092 .0264534
1120.689 .0264821
1121.285 .0265187
1121.882 .0265579
1122.480 .0266001
1123.078 .0266398
1123.677 .0266778
1124.276 .0267125
1124.875 .0267462
1125.476 .0267804
1126.076 .0268232
1126.677 .0268725
1127.279 .0269300
1127.881 .0269986
1128.484 .0270747
1129.087 .0271506
1129.691 .0272263
1130.295 .0272975
1130.900 .0273654
1131.505 .0274346
1132.111 .0275076
1132.718 .0275839
1133.325 .0276708
1133.933 .0277631
1134.541 .0278613
1135.150 .0279661
1135.760 .0280785
1136.370 .0281942
1136.981 .0283154
1137.592 .0284437
1138.204 .0285781
1138.817 .0287248
1139.431 .0288821
1140.045 .0290500
1140.660 .0292292
1141.275 .0294373
1141.891 .0296334
1142.508 .0297891
1143.126 .0300390
1143.744 .0301505
1144.363 .0310259
1144.983 .0303348
