Measurement Sequence started on: 15-12-46-377
Integration time: 28
Scans to Average: 2 
>>>>>Begin Spectral Data<<<<<
432.689 .0000100
433.621 .0000100
434.552 .0000100
435.482 .0000100
436.410 .0000100
437.337 .0000100
438.262 .0294452
439.187 .0623042
440.110 .1031214
441.031 .1491876
441.952 .1938187
442.871 .2288525
443.789 .2479290
444.705 .2488665
445.621 .2343907
446.535 .2103930
447.447 .1832971
448.359 .1419336
449.269 .1215120
450.178 .1086275
451.086 .0994870
451.993 .0925540
452.898 .0870746
453.803 .0825703
454.706 .0788250
455.608 .0756316
456.508 .0728796
457.408 .0704949
458.306 .0683919
459.204 .0665137
460.100 .0648266
460.995 .0633139
461.888 .0619386
462.781 .0606883
463.673 .0595566
464.563 .0585384
465.452 .0576079
466.340 .0567491
467.228 .0559576
468.114 .0552193
468.999 .0545452
469.882 .0539192
470.765 .0533412
471.647 .0528097
472.528 .0523249
473.407 .0518957
474.286 .0515188
475.163 .0511906
476.040 .0509048
476.915 .0506533
477.790 .0504359
478.663 .0502371
479.535 .0500584
480.407 .0499026
481.277 .0497660
482.147 .0496426
483.015 .0495300
483.883 .0494244
484.749 .0493281
485.615 .0492428
486.479 .0491697
487.343 .0491098
488.206 .0490735
489.067 .0490567
489.928 .0490586
490.788 .0490932
491.647 .0491579
492.505 .0492535
493.362 .0493806
494.218 .0495322
495.073 .0497039
495.928 .0498928
496.781 .0500954
497.634 .0503211
498.486 .0505721
499.337 .0508498
500.187 .0511551
501.036 .0514963
501.884 .0518724
502.731 .0522794
503.578 .0527179
504.424 .0531820
505.268 .0536503
506.113 .0541292
506.956 .0546113
507.798 .0551133
508.640 .0556484
509.480 .0562343
510.320 .0568966
511.160 .0576552
511.998 .0585165
512.836 .0594930
513.672 .0606018
514.508 .0618541
515.344 .0632427
516.178 .0647825
517.012 .0664890
517.845 .0683983
518.677 .0705568
519.508 .0729995
520.339 .0757942
521.169 .0790349
521.998 .0827227
522.826 .0869492
523.654 .0917441
524.481 .0970891
525.307 .1030435
526.133 .1095531
526.958 .1165421
527.782 .1239163
528.605 .1315254
529.428 .1392302
530.250 .1465476
531.072 .1531996
531.892 .1587999
532.712 .1630988
533.532 .1658735
534.350 .1668712
535.168 .1659853
535.986 .1633493
536.802 .1590638
537.618 .1534145
538.434 .1466801
539.249 .1393246
540.063 .1316682
540.876 .1240129
541.689 .1166149
542.501 .1096987
543.313 .1033856
544.124 .0977486
544.934 .0926754
545.744 .0881360
546.553 .0840298
547.361 .0803431
548.169 .0770807
548.976 .0741533
549.783 .0715220
550.589 .0691470
551.395 .0669767
552.200 .0650011
553.004 .0631828
553.808 .0614913
554.611 .0599649
555.414 .0585967
556.216 .0573566
557.018 .0562576
557.819 .0552744
558.619 .0543719
559.419 .0535378
560.218 .0527575
561.017 .0520027
561.815 .0512680
562.613 .0505531
563.410 .0498538
564.207 .0491800
565.003 .0485395
565.799 .0479201
566.594 .0473257
567.388 .0467633
568.182 .0462072
568.976 .0456560
569.769 .0451125
570.562 .0445684
571.354 .0440232
572.145 .0434825
572.936 .0429447
573.727 .0424094
574.517 .0418861
575.307 .0413747
576.096 .0408763
576.885 .0403939
577.673 .0399327
578.461 .0394865
579.248 .0390615
580.035 .0386589
580.821 .0382745
581.607 .0379149
582.392 .0375805
583.177 .0372692
583.962 .0369843
584.746 .0367286
585.529 .0364989
586.313 .0362925
587.095 .0361100
587.878 .0359473
588.660 .0358007
589.441 .0356688
590.222 .0355475
591.003 .0354373
591.783 .0353398
592.563 .0352514
593.342 .0351709
594.121 .0350970
594.899 .0350292
595.678 .0349645
596.455 .0349017
597.233 .0348403
598.009 .0347790
598.786 .0347206
599.562 .0346643
600.338 .0346107
601.113 .0345605
601.888 .0345123
602.663 .0344649
603.437 .0344171
604.211 .0343681
604.984 .0343173
605.757 .0342665
606.530 .0342172
607.302 .0341697
608.074 .0341257
608.845 .0340852
609.616 .0340478
610.387 .0340136
611.158 .0339823
611.928 .0339513
612.697 .0339213
613.467 .0338927
614.236 .0338651
615.004 .0338392
615.773 .0338153
616.541 .0337937
617.308 .0337732
618.076 .0337539
618.843 .0337332
619.609 .0337109
620.375 .0336865
621.141 .0336593
621.907 .0336299
622.672 .0335994
623.437 .0335669
624.202 .0335328
624.966 .0334977
625.730 .0334617
626.493 .0334236
627.257 .0333851
628.020 .0333458
628.782 .0333070
629.545 .0332684
630.307 .0332306
631.068 .0331939
631.830 .0331594
632.591 .0331259
633.352 .0330941
634.112 .0330629
634.872 .0330332
635.632 .0330049
636.392 .0329780
637.151 .0329529
637.910 .0329287
638.668 .0329050
639.427 .0328809
640.185 .0328550
640.943 .0328270
641.700 .0327967
642.457 .0327651
643.214 .0327325
643.971 .0326993
644.727 .0326674
645.483 .0326369
646.239 .0326083
646.994 .0325809
647.750 .0325539
648.505 .0325273
649.259 .0325005
650.014 .0324727
650.768 .0324454
651.521 .0324184
652.275 .0323928
653.028 .0323689
653.781 .0323462
654.534 .0323250
655.286 .0323045
656.039 .0322844
656.791 .0322635
657.542 .0322419
658.294 .0322193
659.045 .0321956
659.796 .0321718
660.546 .0321476
661.297 .0321226
662.047 .0320980
662.796 .0320734
663.546 .0320485
664.295 .0320229
665.044 .0319964
665.793 .0319688
666.542 .0319407
667.290 .0319113
668.038 .0318815
668.786 .0318516
669.533 .0318223
670.281 .0317930
671.028 .0317645
671.774 .0317365
672.521 .0317094
673.267 .0316834
674.013 .0316586
674.759 .0316343
675.505 .0316111
676.250 .0315880
676.995 .0315657
677.740 .0315437
678.484 .0315224
679.229 .0315010
679.973 .0314809
680.717 .0314610
681.460 .0314408
682.204 .0314206
682.947 .0314002
683.690 .0313791
684.433 .0313572
685.175 .0313335
685.917 .0313085
686.659 .0312821
687.401 .0312545
688.142 .0312256
688.884 .0311965
689.625 .0311673
690.365 .0311373
691.106 .0311070
691.846 .0310764
692.586 .0310449
693.326 .0310129
694.066 .0309803
694.805 .0309471
695.545 .0309141
696.284 .0308813
697.022 .0308490
697.761 .0308181
698.499 .0307886
699.237 .0307602
699.975 .0307329
700.713 .0307071
701.450 .0306822
702.187 .0306585
702.924 .0306368
703.661 .0306169
704.397 .0305988
705.133 .0305825
705.869 .0305677
706.605 .0305540
707.341 .0305408
708.076 .0305279
708.811 .0305149
709.546 .0305017
710.281 .0304879
711.015 .0304734
711.749 .0304588
712.483 .0304441
713.217 .0304290
713.950 .0304135
714.684 .0303976
715.417 .0303814
716.150 .0303647
716.882 .0303476
717.615 .0303302
718.347 .0303127
719.079 .0302955
719.811 .0302787
720.542 .0302626
721.273 .0302472
722.005 .0302327
722.735 .0302189
723.466 .0302057
724.196 .0301927
724.927 .0301803
725.656 .0301678
726.386 .0301554
727.116 .0301427
727.845 .0301299
728.574 .0301167
729.303 .0301037
730.031 .0300908
730.760 .0300784
731.488 .0300662
732.216 .0300550
732.944 .0300444
733.671 .0300346
734.398 .0300256
735.125 .0300174
735.852 .0300097
736.579 .0300028
737.305 .0299961
738.031 .0299902
738.757 .0299853
739.483 .0299809
740.208 .0299768
740.933 .0299731
741.658 .0299700
742.383 .0299666
743.108 .0299629
743.832 .0299590
744.556 .0299546
745.280 .0299496
746.004 .0299435
746.727 .0299365
747.450 .0299288
748.173 .0299203
748.896 .0299110
749.618 .0299007
750.340 .0298893
751.062 .0298772
751.784 .0298646
752.506 .0298516
753.227 .0298385
753.948 .0298251
754.669 .0298120
755.389 .0297990
756.110 .0297851
756.830 .0297703
757.550 .0297540
758.269 .0297364
758.989 .0297166
759.708 .0296946
760.427 .0296711
761.146 .0296463
761.864 .0296205
762.582 .0295937
763.300 .0295656
764.018 .0295366
764.736 .0295061
765.453 .0294747
766.170 .0294422
766.887 .0294092
767.603 .0293764
768.320 .0293447
769.036 .0293146
769.751 .0292864
770.467 .0292599
771.182 .0292360
771.897 .0292138
772.612 .0291933
773.327 .0291742
774.041 .0291567
774.755 .0291400
775.469 .0291247
776.183 .0291101
776.896 .0290964
777.609 .0290831
778.322 .0290697
779.035 .0290559
779.747 .0290416
780.459 .0290270
781.171 .0290115
781.882 .0289958
782.594 .0289805
783.305 .0289649
784.016 .0289496
784.726 .0289348
785.436 .0289202
786.147 .0289060
786.856 .0288923
787.566 .0288791
788.275 .0288666
788.984 .0288551
789.693 .0288444
790.401 .0288350
791.110 .0288261
791.818 .0288177
792.525 .0288092
793.233 .0288006
793.940 .0287913
794.647 .0287814
795.353 .0287712
796.060 .0287606
796.766 .0287498
797.472 .0287388
798.177 .0287273
798.883 .0287163
799.588 .0287049
800.292 .0286938
800.997 .0286829
801.701 .0286724
802.405 .0286622
803.109 .0286530
803.812 .0286449
804.515 .0286379
805.218 .0286318
805.921 .0286267
806.623 .0286222
807.325 .0286187
808.027 .0286159
808.728 .0286136
809.429 .0286123
810.130 .0286117
810.831 .0286115
811.531 .0286120
812.231 .0286124
812.931 .0286126
813.630 .0286120
814.330 .0286107
815.029 .0286078
815.727 .0286039
816.426 .0285991
817.124 .0285940
817.821 .0285893
818.519 .0285851
819.216 .0285817
819.913 .0285796
820.609 .0285781
821.306 .0285773
822.002 .0285770
822.697 .0285776
823.393 .0285788
824.088 .0285808
824.783 .0285833
825.477 .0285871
826.171 .0285919
826.865 .0285979
827.559 .0286043
828.252 .0286113
828.945 .0286180
829.638 .0286241
830.330 .0286295
831.023 .0286335
831.714 .0286363
832.406 .0286384
833.097 .0286390
833.788 .0286390
834.479 .0286381
835.169 .0286370
835.859 .0286358
836.548 .0286348
837.238 .0286335
837.927 .0286318
838.615 .0286302
839.304 .0286287
839.992 .0286265
840.680 .0286240
841.367 .0286209
842.054 .0286171
842.741 .0286129
843.428 .0286082
844.114 .0286031
844.800 .0285979
845.485 .0285921
846.170 .0285850
846.855 .0285764
847.540 .0285659
848.224 .0285534
848.908 .0285388
849.592 .0285222
850.275 .0285036
850.958 .0284832
851.641 .0284618
852.323 .0284399
853.005 .0284174
853.687 .0283945
854.368 .0283708
855.049 .0283466
855.730 .0283215
856.410 .0282952
857.090 .0282681
857.769 .0282407
858.449 .0282132
859.128 .0281860
859.806 .0281590
860.485 .0281336
861.163 .0281091
861.840 .0280861
862.518 .0280638
863.195 .0280424
863.871 .0280213
864.548 .0280008
865.224 .0279804
865.899 .0279602
866.574 .0279401
867.249 .0279199
867.924 .0278995
868.598 .0278789
869.272 .0278575
869.946 .0278356
870.619 .0278130
871.292 .0277904
871.964 .0277670
872.636 .0277435
873.308 .0277192
873.979 .0276944
874.651 .0276689
875.321 .0276425
875.992 .0276154
876.662 .0275881
877.331 .0275610
878.001 .0275342
878.670 .0275087
879.338 .0274845
880.007 .0274619
880.675 .0274410
881.342 .0274209
882.009 .0274016
882.676 .0273819
883.343 .0273618
884.009 .0273411
884.675 .0273200
885.340 .0272990
886.005 .0272780
886.670 .0272578
887.334 .0272383
887.998 .0272200
888.662 .0272024
889.325 .0271856
889.988 .0271694
890.650 .0271536
891.312 .0271384
891.974 .0271240
892.636 .0271105
893.297 .0270983
893.957 .0270878
894.618 .0270786
895.278 .0270708
895.937 .0270647
896.596 .0270599
897.255 .0270567
897.914 .0270547
898.572 .0270531
899.230 .0270516
899.887 .0270502
900.544 .0270480
901.201 .0270445
901.857 .0270397
902.513 .0270334
903.168 .0270257
903.823 .0270167
904.478 .0270066
905.132 .0269962
905.786 .0269853
906.440 .0269738
907.093 .0269615
907.746 .0269483
908.399 .0269339
909.051 .0269184
909.703 .0269023
910.354 .0268856
911.005 .0268691
911.656 .0268532
912.306 .0268382
912.956 .0268245
913.605 .0268120
914.254 .0268004
914.903 .0267898
915.551 .0267800
916.199 .0267708
916.847 .0267629
917.494 .0267565
918.141 .0267519
918.788 .0267492
919.434 .0267482
920.079 .0267485
920.725 .0267502
921.370 .0267525
922.014 .0267550
922.658 .0267574
923.302 .0267596
923.946 .0267611
924.589 .0267618
925.231 .0267613
925.873 .0267601
926.515 .0267579
927.157 .0267548
927.798 .0267508
928.439 .0267460
929.079 .0267404
929.719 .0267344
930.359 .0267282
930.998 .0267218
931.637 .0267154
932.275 .0267092
932.913 .0267030
933.551 .0266968
934.188 .0266907
934.825 .0266854
935.462 .0266808
936.098 .0266772
936.733 .0266746
937.369 .0266731
938.004 .0266729
938.638 .0266733
939.273 .0266747
939.907 .0266766
940.540 .0266790
941.173 .0266820
941.806 .0266854
942.438 .0266889
943.070 .0266929
943.702 .0266969
944.333 .0267007
944.964 .0267040
945.594 .0267068
946.224 .0267095
946.854 .0267130
947.483 .0267178
948.112 .0267240
948.741 .0267313
949.369 .0267401
949.996 .0267489
950.624 .0267577
951.251 .0267655
951.878 .0267721
952.504 .0267780
953.130 .0267830
953.755 .0267873
954.380 .0267919
955.005 .0267967
955.629 .0268017
956.253 .0268060
956.877 .0268094
957.500 .0268105
958.123 .0268093
958.746 .0268059
959.368 .0268001
959.990 .0267929
960.611 .0267848
961.232 .0267765
961.853 .0267687
962.473 .0267610
963.093 .0267529
963.712 .0267445
964.331 .0267351
964.950 .0267242
965.569 .0267125
966.187 .0267009
966.804 .0266902
967.422 .0266817
968.039 .0266755
968.655 .0266715
969.272 .0266691
969.887 .0266673
970.503 .0266648
971.118 .0266610
971.733 .0266557
972.347 .0266482
972.961 .0266395
973.575 .0266301
974.188 .0266204
974.801 .0266103
975.414 .0266004
976.026 .0265899
976.638 .0265780
977.250 .0265644
977.861 .0265487
978.472 .0265310
979.083 .0265116
979.693 .0264906
980.303 .0264690
980.912 .0264469
981.521 .0264247
982.130 .0264020
982.738 .0263795
983.346 .0263571
983.954 .0263346
984.562 .0263119
985.169 .0262897
985.775 .0262678
986.382 .0262460
986.988 .0262241
987.594 .0262020
988.199 .0261793
988.804 .0261561
989.409 .0261320
990.013 .0261074
990.617 .0260823
991.221 .0260578
991.824 .0260341
992.427 .0260119
993.030 .0259914
993.632 .0259723
994.234 .0259545
994.836 .0259379
995.438 .0259219
996.039 .0259058
996.640 .0258899
997.240 .0258748
997.840 .0258599
998.440 .0258454
999.040 .0258315
999.639 .0258180
1000.238 .0258048
1000.836 .0257920
1001.435 .0257783
1002.033 .0257639
1002.630 .0257488
1003.228 .0257326
1003.825 .0257152
1004.422 .0256975
1005.018 .0256800
1005.614 .0256626
1006.210 .0256456
1006.806 .0256293
1007.401 .0256126
1007.996 .0255955
1008.591 .0255781
1009.186 .0255599
1009.780 .0255409
1010.374 .0255210
1010.967 .0255000
1011.561 .0254782
1012.154 .0254562
1012.746 .0254341
1013.339 .0254118
1013.931 .0253895
1014.523 .0253671
1015.115 .0253436
1015.706 .0253202
1016.298 .0252964
1016.888 .0252731
1017.479 .0252505
1018.069 .0252293
1018.660 .0252090
1019.250 .0251902
1019.839 .0251731
1020.429 .0251579
1021.018 .0251446
1021.607 .0251327
1022.195 .0251216
1022.784 .0251113
1023.372 .0251016
1023.960 .0250939
1024.547 .0250877
1025.135 .0250839
1025.722 .0250820
1026.309 .0250824
1026.896 .0250848
1027.483 .0250887
1028.069 .0250936
1028.655 .0250991
1029.241 .0251045
1029.827 .0251093
1030.412 .0251126
1030.997 .0251150
1031.582 .0251176
1032.167 .0251207
1032.752 .0251242
1033.336 .0251290
1033.921 .0251338
1034.505 .0251390
1035.089 .0251442
1035.672 .0251489
1036.256 .0251525
1036.839 .0251550
1037.422 .0251566
1038.005 .0251576
1038.588 .0251586
1039.171 .0251601
1039.753 .0251630
1040.335 .0251672
1040.918 .0251723
1041.500 .0251768
1042.081 .0251805
1042.663 .0251835
1043.244 .0251846
1043.826 .0251849
1044.407 .0251841
1044.988 .0251820
1045.569 .0251798
1046.150 .0251772
1046.730 .0251750
1047.311 .0251730
1047.891 .0251722
1048.471 .0251729
1049.052 .0251743
1049.632 .0251769
1050.211 .0251804
1050.791 .0251845
1051.371 .0251900
1051.950 .0251958
1052.530 .0252017
1053.109 .0252087
1053.688 .0252158
1054.268 .0252239
1054.847 .0252325
1055.426 .0252423
1056.005 .0252538
1056.583 .0252656
1057.162 .0252776
1057.741 .0252888
1058.319 .0252984
1058.898 .0253066
1059.476 .0253120
1060.055 .0253176
1060.633 .0253226
1061.211 .0253291
1061.790 .0253373
1062.368 .0253474
1062.946 .0253584
1063.524 .0253705
1064.102 .0253819
1064.680 .0253926
1065.258 .0254014
1065.836 .0254087
1066.414 .0254143
1066.992 .0254220
1067.570 .0254322
1068.148 .0254462
1068.726 .0254640
1069.304 .0254867
1069.882 .0255110
1070.460 .0255373
1071.038 .0255629
1071.616 .0255876
1072.194 .0256106
1072.772 .0256320
1073.350 .0256505
1073.928 .0256686
1074.506 .0256864
1075.084 .0257040
1075.662 .0257208
1076.240 .0257392
1076.819 .0257549
1077.397 .0257696
1077.976 .0257824
1078.554 .0257950
1079.133 .0258069
1079.711 .0258204
1080.290 .0258343
1080.869 .0258495
1081.448 .0258676
1082.027 .0258877
1082.606 .0259095
1083.185 .0259349
1083.764 .0259619
1084.343 .0259910
1084.923 .0260216
1085.502 .0260532
1086.082 .0260847
1086.662 .0261173
1087.242 .0261493
1087.822 .0261793
1088.402 .0262083
1088.983 .0262362
1089.563 .0262620
1090.144 .0262869
1090.725 .0263110
1091.306 .0263330
1091.887 .0263542
1092.469 .0263750
1093.050 .0263958
1093.632 .0264182
1094.214 .0264431
1094.796 .0264711
1095.379 .0265032
1095.961 .0265406
1096.544 .0265809
1097.127 .0266226
1097.710 .0266657
1098.294 .0267072
1098.877 .0267452
1099.461 .0267792
1100.046 .0268099
1100.630 .0268391
1101.215 .0268677
1101.800 .0268984
1102.385 .0269324
1102.970 .0269696
1103.556 .0270080
1104.142 .0270461
1104.728 .0270824
1105.315 .0271149
1105.902 .0271414
1106.489 .0271654
1107.077 .0271872
1107.664 .0272101
1108.253 .0272339
1108.841 .0272588
1109.430 .0272877
1110.019 .0273181
1110.609 .0273470
1111.198 .0273756
1111.789 .0274027
1112.379 .0274282
1112.970 .0274517
1113.561 .0274770
1114.153 .0275015
1114.745 .0275283
1115.338 .0275572
1115.931 .0275867
1116.524 .0276157
1117.117 .0276463
1117.712 .0276769
1118.306 .0277104
1118.901 .0277497
1119.496 .0277932
1120.092 .0278418
1120.689 .0278993
1121.285 .0279604
1121.882 .0280227
1122.480 .0280887
1123.078 .0281550
1123.677 .0282174
1124.276 .0282814
1124.875 .0283466
1125.476 .0284126
1126.076 .0284830
1126.677 .0285586
1127.279 .0286368
1127.881 .0287172
1128.484 .0287970
1129.087 .0288701
1129.691 .0289411
1130.295 .0290084
1130.900 .0290660
1131.505 .0291199
1132.111 .0291751
1132.718 .0292263
1133.325 .0292773
1133.933 .0293315
1134.541 .0293920
1135.150 .0294599
1135.760 .0295372
1136.370 .0296196
1136.981 .0297081
1137.592 .0298000
1138.204 .0298965
1138.817 .0299923
1139.431 .0301003
1140.045 .0302170
1140.660 .0303524
1141.275 .0304964
1141.891 .0306282
1142.508 .0308541
1143.126 .0310609
1143.744 .0314084
1144.363 .0312791
1144.983 .0307082
