Measurement Sequence started on: 15-12-46-377
Integration time: 28
Scans to Average: 2 
>>>>>Begin Spectral Data<<<<<
432.689 .0000100
433.621 .0000100
434.552 .0000100
435.482 .0000100
436.410 .0000100
437.337 .0000100
438.262 .0283215
439.187 .0600765
440.110 .0995871
441.031 .1442763
441.952 .1877998
442.871 .2222110
443.789 .2413248
444.705 .2429670
445.621 .2296784
446.535 .2070551
447.447 .1812054
448.359 .1414086
449.269 .1214916
450.178 .1087369
451.086 .0995259
451.993 .0923696
452.898 .0866564
453.803 .0819277
454.706 .0779582
455.608 .0745503
456.508 .0715811
457.408 .0689971
458.306 .0666827
459.204 .0645876
460.100 .0626849
460.995 .0609719
461.888 .0594174
462.781 .0580162
463.673 .0567587
464.563 .0556449
465.452 .0546445
466.340 .0537655
467.228 .0529831
468.114 .0522793
468.999 .0516449
469.882 .0510655
470.765 .0505294
471.647 .0500460
472.528 .0496023
473.407 .0492032
474.286 .0488420
475.163 .0485211
476.040 .0482290
476.915 .0479710
477.790 .0477318
478.663 .0475098
479.535 .0473023
480.407 .0471075
481.277 .0469165
482.147 .0467424
483.015 .0465912
483.883 .0464621
484.749 .0463619
485.615 .0462980
486.479 .0462595
487.343 .0462555
488.206 .0462777
489.067 .0463214
489.928 .0463795
490.788 .0464477
491.647 .0465193
492.505 .0466035
493.362 .0467008
494.218 .0468088
495.073 .0469364
495.928 .0470895
496.781 .0472514
497.634 .0474311
498.486 .0476308
499.337 .0478437
500.187 .0480687
501.036 .0483195
501.884 .0485813
502.731 .0488731
503.578 .0491966
504.424 .0495528
505.268 .0499458
506.113 .0503829
506.956 .0508627
507.798 .0513898
508.640 .0519806
509.480 .0526297
510.320 .0533361
511.160 .0541286
511.998 .0549882
512.836 .0559243
513.672 .0569368
514.508 .0580213
515.344 .0591728
516.178 .0604323
517.012 .0618303
517.845 .0634139
518.677 .0652283
519.508 .0673153
520.339 .0697097
521.169 .0724792
521.998 .0756446
522.826 .0792336
523.654 .0832800
524.481 .0877947
525.307 .0927874
526.133 .0982538
526.958 .1041441
527.782 .1104209
528.605 .1169650
529.428 .1237031
530.250 .1301243
531.072 .1359903
531.892 .1409567
532.712 .1447469
533.532 .1471501
534.350 .1480164
535.168 .1472286
535.986 .1449127
536.802 .1411765
537.618 .1362770
538.434 .1304230
539.249 .1241019
540.063 .1174803
540.876 .1108410
541.689 .1043918
542.501 .0983297
543.313 .0927575
544.124 .0877964
544.934 .0833328
545.744 .0793406
546.553 .0757397
547.361 .0725057
548.169 .0696400
548.976 .0670929
549.783 .0648233
550.589 .0628100
551.395 .0609972
552.200 .0593661
553.004 .0578686
553.808 .0564874
554.611 .0552204
555.414 .0540700
556.216 .0530253
557.018 .0520774
557.819 .0512269
558.619 .0504590
559.419 .0497447
560.218 .0490789
561.017 .0484462
561.815 .0478261
562.613 .0472150
563.410 .0465978
564.207 .0459698
565.003 .0453465
565.799 .0447127
566.594 .0440792
567.388 .0434553
568.182 .0428396
568.976 .0422369
569.769 .0416580
570.562 .0411112
571.354 .0405932
572.145 .0401042
572.936 .0396447
573.727 .0392021
574.517 .0387770
575.307 .0383572
576.096 .0379444
576.885 .0375405
577.673 .0371507
578.461 .0367751
579.248 .0364221
580.035 .0360942
580.821 .0357936
581.607 .0355172
582.392 .0352595
583.177 .0350181
583.962 .0347907
584.746 .0345770
585.529 .0343757
586.313 .0341863
587.095 .0340102
587.878 .0338501
588.660 .0337068
589.441 .0335779
590.222 .0334645
591.003 .0333642
591.783 .0332737
592.563 .0331892
593.342 .0331115
594.121 .0330368
594.899 .0329651
595.678 .0328968
596.455 .0328319
597.233 .0327710
598.009 .0327142
598.786 .0326610
599.562 .0326126
600.338 .0325687
601.113 .0325288
601.888 .0324906
602.663 .0324554
603.437 .0324212
604.211 .0323881
604.984 .0323553
605.757 .0323243
606.530 .0322942
607.302 .0322659
608.074 .0322396
608.845 .0322165
609.616 .0321962
610.387 .0321782
611.158 .0321610
611.928 .0321450
612.697 .0321284
613.467 .0321109
614.236 .0320922
615.004 .0320732
615.773 .0320534
616.541 .0320337
617.308 .0320137
618.076 .0319952
618.843 .0319773
619.609 .0319601
620.375 .0319430
621.141 .0319259
621.907 .0319078
622.672 .0318885
623.437 .0318676
624.202 .0318461
624.966 .0318231
625.730 .0317995
626.493 .0317742
627.257 .0317476
628.020 .0317205
628.782 .0316925
629.545 .0316640
630.307 .0316347
631.068 .0316043
631.830 .0315733
632.591 .0315414
633.352 .0315088
634.112 .0314753
634.872 .0314411
635.632 .0314064
636.392 .0313714
637.151 .0313369
637.910 .0313035
638.668 .0312715
639.427 .0312418
640.185 .0312134
640.943 .0311862
641.700 .0311612
642.457 .0311371
643.214 .0311151
643.971 .0310945
644.727 .0310757
645.483 .0310588
646.239 .0310437
646.994 .0310303
647.750 .0310173
648.505 .0310051
649.259 .0309929
650.014 .0309792
650.768 .0309650
651.521 .0309499
652.275 .0309346
653.028 .0309198
653.781 .0309048
654.534 .0308905
655.286 .0308763
656.039 .0308615
656.791 .0308457
657.542 .0308274
658.294 .0308072
659.045 .0307853
659.796 .0307614
660.546 .0307369
661.297 .0307119
662.047 .0306878
662.796 .0306647
663.546 .0306422
664.295 .0306208
665.044 .0305996
665.793 .0305794
666.542 .0305599
667.290 .0305402
668.038 .0305212
668.786 .0305029
669.533 .0304853
670.281 .0304688
671.028 .0304526
671.774 .0304369
672.521 .0304219
673.267 .0304077
674.013 .0303939
674.759 .0303805
675.505 .0303683
676.250 .0303570
676.995 .0303457
677.740 .0303352
678.484 .0303241
679.229 .0303127
679.973 .0303007
680.717 .0302872
681.460 .0302725
682.204 .0302569
682.947 .0302411
683.690 .0302251
684.433 .0302095
685.175 .0301947
685.917 .0301802
686.659 .0301661
687.401 .0301519
688.142 .0301371
688.884 .0301215
689.625 .0301050
690.365 .0300869
691.106 .0300676
691.846 .0300478
692.586 .0300274
693.326 .0300069
694.066 .0299869
694.805 .0299670
695.545 .0299467
696.284 .0299262
697.022 .0299047
697.761 .0298821
698.499 .0298584
699.237 .0298337
699.975 .0298087
700.713 .0297837
701.450 .0297593
702.187 .0297351
702.924 .0297116
703.661 .0296881
704.397 .0296641
705.133 .0296399
705.869 .0296151
706.605 .0295898
707.341 .0295646
708.076 .0295396
708.811 .0295155
709.546 .0294921
710.281 .0294693
711.015 .0294468
711.749 .0294241
712.483 .0294008
713.217 .0293761
713.950 .0293505
714.684 .0293243
715.417 .0292978
716.150 .0292718
716.882 .0292472
717.615 .0292240
718.347 .0292032
719.079 .0291845
719.811 .0291675
720.542 .0291521
721.273 .0291374
722.005 .0291230
722.735 .0291084
723.466 .0290938
724.196 .0290793
724.927 .0290648
725.656 .0290511
726.386 .0290374
727.116 .0290245
727.845 .0290126
728.574 .0290010
729.303 .0289898
730.031 .0289786
730.760 .0289671
731.488 .0289551
732.216 .0289429
732.944 .0289307
733.671 .0289188
734.398 .0289080
735.125 .0288982
735.852 .0288893
736.579 .0288812
737.305 .0288742
738.031 .0288678
738.757 .0288621
739.483 .0288557
740.208 .0288490
740.933 .0288426
741.658 .0288358
742.383 .0288290
743.108 .0288222
743.832 .0288153
744.556 .0288085
745.280 .0288011
746.004 .0287929
746.727 .0287838
747.450 .0287744
748.173 .0287647
748.896 .0287548
749.618 .0287456
750.340 .0287373
751.062 .0287305
751.784 .0287255
752.506 .0287215
753.227 .0287179
753.948 .0287147
754.669 .0287114
755.389 .0287075
756.110 .0287031
756.830 .0286981
757.550 .0286932
758.269 .0286886
758.989 .0286844
759.708 .0286802
760.427 .0286762
761.146 .0286722
761.864 .0286671
762.582 .0286606
763.300 .0286523
764.018 .0286429
764.736 .0286320
765.453 .0286200
766.170 .0286067
766.887 .0285926
767.603 .0285784
768.320 .0285636
769.036 .0285486
769.751 .0285335
770.467 .0285182
771.182 .0285029
771.897 .0284870
772.612 .0284712
773.327 .0284548
774.041 .0284381
774.755 .0284209
775.469 .0284031
776.183 .0283850
776.896 .0283668
777.609 .0283492
778.322 .0283315
779.035 .0283135
779.747 .0282951
780.459 .0282762
781.171 .0282561
781.882 .0282348
782.594 .0282121
783.305 .0281884
784.016 .0281643
784.726 .0281394
785.436 .0281146
786.147 .0280900
786.856 .0280660
787.566 .0280422
788.275 .0280183
788.984 .0279949
789.693 .0279710
790.401 .0279473
791.110 .0279238
791.818 .0279003
792.525 .0278776
793.233 .0278554
793.940 .0278341
794.647 .0278133
795.353 .0277933
796.060 .0277737
796.766 .0277540
797.472 .0277346
798.177 .0277148
798.883 .0276947
799.588 .0276745
800.292 .0276541
800.997 .0276335
801.701 .0276135
802.405 .0275936
803.109 .0275744
803.812 .0275560
804.515 .0275383
805.218 .0275207
805.921 .0275037
806.623 .0274869
807.325 .0274702
808.027 .0274535
808.728 .0274375
809.429 .0274216
810.130 .0274067
810.831 .0273925
811.531 .0273792
812.231 .0273666
812.931 .0273546
813.630 .0273424
814.330 .0273305
815.029 .0273181
815.727 .0273057
816.426 .0272927
817.124 .0272803
817.821 .0272682
818.519 .0272571
819.216 .0272473
819.913 .0272392
820.609 .0272320
821.306 .0272265
822.002 .0272219
822.697 .0272185
823.393 .0272164
824.088 .0272157
824.783 .0272159
825.477 .0272175
826.171 .0272200
826.865 .0272235
827.559 .0272275
828.252 .0272322
828.945 .0272368
829.638 .0272413
830.330 .0272455
831.023 .0272492
831.714 .0272527
832.406 .0272564
833.097 .0272593
833.788 .0272618
834.479 .0272637
835.169 .0272650
835.859 .0272657
836.548 .0272661
837.238 .0272665
837.927 .0272672
838.615 .0272683
839.304 .0272701
839.992 .0272727
840.680 .0272764
841.367 .0272808
842.054 .0272858
842.741 .0272912
843.428 .0272971
844.114 .0273033
844.800 .0273102
845.485 .0273173
846.170 .0273246
846.855 .0273316
847.540 .0273380
848.224 .0273437
848.908 .0273483
849.592 .0273519
850.275 .0273543
850.958 .0273559
851.641 .0273568
852.323 .0273574
853.005 .0273572
853.687 .0273567
854.368 .0273555
855.049 .0273530
855.730 .0273494
856.410 .0273440
857.090 .0273375
857.769 .0273297
858.449 .0273209
859.128 .0273116
859.806 .0273023
860.485 .0272934
861.163 .0272851
861.840 .0272776
862.518 .0272705
863.195 .0272630
863.871 .0272554
864.548 .0272470
865.224 .0272373
865.899 .0272265
866.574 .0272145
867.249 .0272011
867.924 .0271876
868.598 .0271734
869.272 .0271588
869.946 .0271440
870.619 .0271291
871.292 .0271130
871.964 .0270962
872.636 .0270782
873.308 .0270588
873.979 .0270383
874.651 .0270173
875.321 .0269950
875.992 .0269724
876.662 .0269498
877.331 .0269272
878.001 .0269047
878.670 .0268827
879.338 .0268605
880.007 .0268383
880.675 .0268163
881.342 .0267941
882.009 .0267712
882.676 .0267480
883.343 .0267237
884.009 .0266981
884.675 .0266712
885.340 .0266436
886.005 .0266151
886.670 .0265866
887.334 .0265584
887.998 .0265301
888.662 .0265025
889.325 .0264753
889.988 .0264481
890.650 .0264209
891.312 .0263937
891.974 .0263661
892.636 .0263386
893.297 .0263114
893.957 .0262849
894.618 .0262592
895.278 .0262346
895.937 .0262109
896.596 .0261878
897.255 .0261648
897.914 .0261413
898.572 .0261169
899.230 .0260921
899.887 .0260662
900.544 .0260399
901.201 .0260136
901.857 .0259878
902.513 .0259624
903.168 .0259377
903.823 .0259130
904.478 .0258886
905.132 .0258637
905.786 .0258378
906.440 .0258106
907.093 .0257826
907.746 .0257540
908.399 .0257254
909.051 .0256976
909.703 .0256711
910.354 .0256456
911.005 .0256221
911.656 .0255998
912.306 .0255785
912.956 .0255576
913.605 .0255365
914.254 .0255153
914.903 .0254941
915.551 .0254731
916.199 .0254531
916.847 .0254348
917.494 .0254188
918.141 .0254049
918.788 .0253929
919.434 .0253832
920.079 .0253748
920.725 .0253672
921.370 .0253601
922.014 .0253527
922.658 .0253453
923.302 .0253376
923.946 .0253298
924.589 .0253221
925.231 .0253143
925.873 .0253070
926.515 .0252998
927.157 .0252927
927.798 .0252861
928.439 .0252794
929.079 .0252725
929.719 .0252651
930.359 .0252569
930.998 .0252481
931.637 .0252389
932.275 .0252299
932.913 .0252211
933.551 .0252128
934.188 .0252057
934.825 .0251999
935.462 .0251952
936.098 .0251920
936.733 .0251894
937.369 .0251875
938.004 .0251858
938.638 .0251837
939.273 .0251815
939.907 .0251798
940.540 .0251787
941.173 .0251782
941.806 .0251790
942.438 .0251811
943.070 .0251841
943.702 .0251885
944.333 .0251932
944.964 .0251982
945.594 .0252031
946.224 .0252081
946.854 .0252133
947.483 .0252192
948.112 .0252257
948.741 .0252328
949.369 .0252413
949.996 .0252508
950.624 .0252607
951.251 .0252712
951.878 .0252819
952.504 .0252918
953.130 .0253009
953.755 .0253094
954.380 .0253171
955.005 .0253245
955.629 .0253316
956.253 .0253389
956.877 .0253465
957.500 .0253549
958.123 .0253635
958.746 .0253722
959.368 .0253814
959.990 .0253899
960.611 .0253975
961.232 .0254047
961.853 .0254117
962.473 .0254185
963.093 .0254259
963.712 .0254340
964.331 .0254425
964.950 .0254516
965.569 .0254608
966.187 .0254700
966.804 .0254791
967.422 .0254876
968.039 .0254955
968.655 .0255035
969.272 .0255117
969.887 .0255198
970.503 .0255285
971.118 .0255383
971.733 .0255482
972.347 .0255581
972.961 .0255677
973.575 .0255766
974.188 .0255843
974.801 .0255910
975.414 .0255958
976.026 .0255997
976.638 .0256021
977.250 .0256035
977.861 .0256038
978.472 .0256034
979.083 .0256021
979.693 .0255993
980.303 .0255951
980.912 .0255891
981.521 .0255809
982.130 .0255709
982.738 .0255592
983.346 .0255465
983.954 .0255331
984.562 .0255199
985.169 .0255070
985.775 .0254949
986.382 .0254834
986.988 .0254725
987.594 .0254611
988.199 .0254495
988.804 .0254375
989.409 .0254251
990.013 .0254132
990.617 .0254020
991.221 .0253917
991.824 .0253830
992.427 .0253763
993.030 .0253714
993.632 .0253679
994.234 .0253653
994.836 .0253624
995.438 .0253587
996.039 .0253542
996.640 .0253483
997.240 .0253418
997.840 .0253360
998.440 .0253307
999.040 .0253259
999.639 .0253223
1000.238 .0253192
1000.836 .0253162
1001.435 .0253125
1002.033 .0253074
1002.630 .0252995
1003.228 .0252889
1003.825 .0252762
1004.422 .0252616
1005.018 .0252458
1005.614 .0252296
1006.210 .0252130
1006.806 .0251963
1007.401 .0251794
1007.996 .0251614
1008.591 .0251424
1009.186 .0251225
1009.780 .0251007
1010.374 .0250769
1010.967 .0250513
1011.561 .0250243
1012.154 .0249966
1012.746 .0249692
1013.339 .0249422
1013.931 .0249159
1014.523 .0248908
1015.115 .0248663
1015.706 .0248427
1016.298 .0248200
1016.888 .0247974
1017.479 .0247750
1018.069 .0247532
1018.660 .0247309
1019.250 .0247088
1019.839 .0246875
1020.429 .0246675
1021.018 .0246487
1021.607 .0246321
1022.195 .0246169
1022.784 .0246032
1023.372 .0245916
1023.960 .0245812
1024.547 .0245714
1025.135 .0245627
1025.722 .0245537
1026.309 .0245440
1026.896 .0245336
1027.483 .0245225
1028.069 .0245099
1028.655 .0244972
1029.241 .0244840
1029.827 .0244706
1030.412 .0244575
1030.997 .0244451
1031.582 .0244325
1032.167 .0244204
1032.752 .0244084
1033.336 .0243951
1033.921 .0243814
1034.505 .0243668
1035.089 .0243510
1035.672 .0243350
1036.256 .0243188
1036.839 .0243026
1037.422 .0242868
1038.005 .0242728
1038.588 .0242608
1039.171 .0242502
1039.753 .0242417
1040.335 .0242343
1040.918 .0242280
1041.500 .0242221
1042.081 .0242154
1042.663 .0242073
1043.244 .0241981
1043.826 .0241871
1044.407 .0241739
1044.988 .0241603
1045.569 .0241468
1046.150 .0241339
1046.730 .0241223
1047.311 .0241121
1047.891 .0241027
1048.471 .0240930
1049.052 .0240832
1049.632 .0240711
1050.211 .0240569
1050.791 .0240418
1051.371 .0240260
1051.950 .0240118
1052.530 .0240003
1053.109 .0239923
1053.688 .0239877
1054.268 .0239866
1054.847 .0239877
1055.426 .0239890
1056.005 .0239916
1056.583 .0239942
1057.162 .0239956
1057.741 .0239968
1058.319 .0239996
1058.898 .0240036
1059.476 .0240084
1060.055 .0240145
1060.633 .0240204
1061.211 .0240253
1061.790 .0240283
1062.368 .0240293
1062.946 .0240290
1063.524 .0240289
1064.102 .0240287
1064.680 .0240287
1065.258 .0240298
1065.836 .0240316
1066.414 .0240338
1066.992 .0240368
1067.570 .0240407
1068.148 .0240439
1068.726 .0240462
1069.304 .0240496
1069.882 .0240540
1070.460 .0240605
1071.038 .0240694
1071.616 .0240803
1072.194 .0240929
1072.772 .0241053
1073.350 .0241170
1073.928 .0241283
1074.506 .0241393
1075.084 .0241500
1075.662 .0241599
1076.240 .0241708
1076.819 .0241825
1077.397 .0241935
1077.976 .0242052
1078.554 .0242176
1079.133 .0242311
1079.711 .0242436
1080.290 .0242554
1080.869 .0242672
1081.448 .0242799
1082.027 .0242927
1082.606 .0243067
1083.185 .0243211
1083.764 .0243370
1084.343 .0243525
1084.923 .0243679
1085.502 .0243825
1086.082 .0243975
1086.662 .0244131
1087.242 .0244297
1087.822 .0244466
1088.402 .0244660
1088.983 .0244863
1089.563 .0245099
1090.144 .0245346
1090.725 .0245597
1091.306 .0245837
1091.887 .0246082
1092.469 .0246316
1093.050 .0246548
1093.632 .0246788
1094.214 .0247054
1094.796 .0247347
1095.379 .0247691
1095.961 .0248060
1096.544 .0248466
1097.127 .0248885
1097.710 .0249318
1098.294 .0249738
1098.877 .0250169
1099.461 .0250588
1100.046 .0251028
1100.630 .0251481
1101.215 .0251940
1101.800 .0252410
1102.385 .0252885
1102.970 .0253334
1103.556 .0253751
1104.142 .0254124
1104.728 .0254470
1105.315 .0254780
1105.902 .0255088
1106.489 .0255381
1107.077 .0255722
1107.664 .0256108
1108.253 .0256509
1108.841 .0256917
1109.430 .0257333
1110.019 .0257708
1110.609 .0258025
1111.198 .0258313
1111.789 .0258588
1112.379 .0258887
1112.970 .0259244
1113.561 .0259691
1114.153 .0260236
1114.745 .0260854
1115.338 .0261516
1115.931 .0262177
1116.524 .0262823
1117.117 .0263402
1117.712 .0263889
1118.306 .0264345
1118.901 .0264811
1119.496 .0265324
1120.092 .0265910
1120.689 .0266612
1121.285 .0267421
1121.882 .0268281
1122.480 .0269146
1123.078 .0269991
1123.677 .0270784
1124.276 .0271521
1124.875 .0272220
1125.476 .0272906
1126.076 .0273638
1126.677 .0274409
1127.279 .0275243
1127.881 .0276157
1128.484 .0277111
1129.087 .0278027
1129.691 .0278899
1130.295 .0279729
1130.900 .0280500
1131.505 .0281235
1132.111 .0281967
1132.718 .0282713
1133.325 .0283518
1133.933 .0284345
1134.541 .0285203
1135.150 .0286113
1135.760 .0287106
1136.370 .0288091
1136.981 .0289093
1137.592 .0290100
1138.204 .0291104
1138.817 .0292095
1139.431 .0293086
1140.045 .0294015
1140.660 .0294932
1141.275 .0295855
1141.891 .0296575
1142.508 .0298018
1143.126 .0297806
1143.744 .0299066
1144.363 .0301279
1144.983 .0296501
