Measurement Sequence started on: 15-12-46-377
Integration time: 28
Scans to Average: 2 
>>>>>Begin Spectral Data<<<<<
432.689 .0000100
433.621 .0000100
434.552 .0000100
435.482 .0000100
436.410 .0000100
437.337 .0000100
438.262 .0277566
439.187 .0586428
440.110 .0970645
441.031 .1403435
441.952 .1822938
442.871 .2152272
443.789 .2331441
444.705 .2340316
445.621 .2204656
446.535 .1979735
447.447 .1725618
448.359 .1336885
449.269 .1145902
450.178 .1024930
451.086 .0939810
451.993 .0874904
452.898 .0823715
453.803 .0782178
454.706 .0747889
455.608 .0718828
456.508 .0693876
457.408 .0672222
458.306 .0652788
459.204 .0634980
460.100 .0618799
460.995 .0604001
461.888 .0590534
462.781 .0578308
463.673 .0567150
464.563 .0557017
465.452 .0547724
466.340 .0539163
467.228 .0531216
468.114 .0523729
468.999 .0516699
469.882 .0509949
470.765 .0503587
471.647 .0497621
472.528 .0492114
473.407 .0487112
474.286 .0482685
475.163 .0478730
476.040 .0475192
476.915 .0472062
477.790 .0469259
478.663 .0466721
479.535 .0464500
480.407 .0462564
481.277 .0460874
482.147 .0459416
483.015 .0458234
483.883 .0457295
484.749 .0456645
485.615 .0456247
486.479 .0456121
487.343 .0456234
488.206 .0456634
489.067 .0457229
489.928 .0457966
490.788 .0458882
491.647 .0459909
492.505 .0461085
493.362 .0462356
494.218 .0463706
495.073 .0465154
495.928 .0466749
496.781 .0468460
497.634 .0470315
498.486 .0472276
499.337 .0474418
500.187 .0476723
501.036 .0479245
501.884 .0481959
502.731 .0484994
503.578 .0488404
504.424 .0492201
505.268 .0496346
506.113 .0500821
506.956 .0505593
507.798 .0510816
508.640 .0516488
509.480 .0522748
510.320 .0529685
511.160 .0537565
511.998 .0546384
512.836 .0556330
513.672 .0567440
514.508 .0579661
515.344 .0592954
516.178 .0607474
517.012 .0623230
517.845 .0640483
518.677 .0659612
519.508 .0680956
520.339 .0705010
521.169 .0732144
521.998 .0762642
522.826 .0797137
523.654 .0835839
524.481 .0879137
525.307 .0927201
526.133 .0980182
526.958 .1038234
527.782 .1100896
528.605 .1167026
529.428 .1236000
530.250 .1303043
531.072 .1365819
531.892 .1420606
532.712 .1465234
533.532 .1497325
534.350 .1514935
535.168 .1517222
535.986 .1504361
536.802 .1476969
537.618 .1437038
538.434 .1385334
539.249 .1326353
540.063 .1261498
540.876 .1193762
541.689 .1125568
542.501 .1059760
543.313 .0998296
544.124 .0942360
544.934 .0891960
545.744 .0846774
546.553 .0805799
547.361 .0769018
548.169 .0735903
548.976 .0705873
549.783 .0678722
550.589 .0654138
551.395 .0631884
552.200 .0611935
553.004 .0593914
553.808 .0577661
554.611 .0563249
555.414 .0550393
556.216 .0538675
557.018 .0527863
557.819 .0517996
558.619 .0508770
559.419 .0500198
560.218 .0492247
561.017 .0484838
561.815 .0477771
562.613 .0470940
563.410 .0464320
564.207 .0457799
565.003 .0451386
565.799 .0445029
566.594 .0438684
567.388 .0432605
568.182 .0426621
568.976 .0420727
569.769 .0415034
570.562 .0409572
571.354 .0404260
572.145 .0399104
572.936 .0394174
573.727 .0389419
574.517 .0384855
575.307 .0380482
576.096 .0376307
576.885 .0372340
577.673 .0368615
578.461 .0365088
579.248 .0361813
580.035 .0358827
580.821 .0356108
581.607 .0353622
582.392 .0351354
583.177 .0349244
583.962 .0347249
584.746 .0345368
585.529 .0343609
586.313 .0341949
587.095 .0340399
587.878 .0338980
588.660 .0337705
589.441 .0336553
590.222 .0335554
591.003 .0334677
591.783 .0333914
592.563 .0333220
593.342 .0332568
594.121 .0331903
594.899 .0331236
595.678 .0330555
596.455 .0329864
597.233 .0329177
598.009 .0328498
598.786 .0327846
599.562 .0327232
600.338 .0326659
601.113 .0326122
601.888 .0325614
602.663 .0325131
603.437 .0324652
604.211 .0324172
604.984 .0323697
605.757 .0323242
606.530 .0322806
607.302 .0322402
608.074 .0322031
608.845 .0321698
609.616 .0321402
610.387 .0321129
611.158 .0320875
611.928 .0320616
612.697 .0320348
613.467 .0320056
614.236 .0319749
615.004 .0319440
615.773 .0319139
616.541 .0318853
617.308 .0318590
618.076 .0318343
618.843 .0318110
619.609 .0317883
620.375 .0317653
621.141 .0317417
621.907 .0317166
622.672 .0316901
623.437 .0316630
624.202 .0316357
624.966 .0316093
625.730 .0315830
626.493 .0315577
627.257 .0315320
628.020 .0315051
628.782 .0314769
629.545 .0314467
630.307 .0314157
631.068 .0313844
631.830 .0313528
632.591 .0313217
633.352 .0312916
634.112 .0312624
634.872 .0312343
635.632 .0312074
636.392 .0311812
637.151 .0311554
637.910 .0311307
638.668 .0311070
639.427 .0310837
640.185 .0310611
640.943 .0310386
641.700 .0310156
642.457 .0309915
643.214 .0309663
643.971 .0309394
644.727 .0309119
645.483 .0308842
646.239 .0308561
646.994 .0308287
647.750 .0308018
648.505 .0307749
649.259 .0307491
650.014 .0307238
650.768 .0306991
651.521 .0306749
652.275 .0306527
653.028 .0306328
653.781 .0306150
654.534 .0305991
655.286 .0305845
656.039 .0305705
656.791 .0305559
657.542 .0305389
658.294 .0305201
659.045 .0304999
659.796 .0304787
660.546 .0304574
661.297 .0304371
662.047 .0304180
662.796 .0304002
663.546 .0303830
664.295 .0303662
665.044 .0303486
665.793 .0303294
666.542 .0303085
667.290 .0302863
668.038 .0302636
668.786 .0302410
669.533 .0302193
670.281 .0301992
671.028 .0301806
671.774 .0301630
672.521 .0301464
673.267 .0301304
674.013 .0301147
674.759 .0300992
675.505 .0300840
676.250 .0300688
676.995 .0300535
677.740 .0300388
678.484 .0300246
679.229 .0300102
679.973 .0299959
680.717 .0299811
681.460 .0299655
682.204 .0299491
682.947 .0299318
683.690 .0299130
684.433 .0298935
685.175 .0298726
685.917 .0298502
686.659 .0298268
687.401 .0298027
688.142 .0297778
688.884 .0297526
689.625 .0297279
690.365 .0297034
691.106 .0296792
691.846 .0296564
692.586 .0296339
693.326 .0296124
694.066 .0295917
694.805 .0295717
695.545 .0295521
696.284 .0295331
697.022 .0295141
697.761 .0294951
698.499 .0294763
699.237 .0294574
699.975 .0294379
700.713 .0294181
701.450 .0293979
702.187 .0293771
702.924 .0293557
703.661 .0293345
704.397 .0293132
705.133 .0292930
705.869 .0292733
706.605 .0292542
707.341 .0292361
708.076 .0292187
708.811 .0292018
709.546 .0291849
710.281 .0291678
711.015 .0291500
711.749 .0291312
712.483 .0291119
713.217 .0290913
713.950 .0290702
714.684 .0290487
715.417 .0290271
716.150 .0290050
716.882 .0289828
717.615 .0289608
718.347 .0289392
719.079 .0289178
719.811 .0288967
720.542 .0288756
721.273 .0288548
722.005 .0288345
722.735 .0288151
723.466 .0287962
724.196 .0287778
724.927 .0287594
725.656 .0287408
726.386 .0287218
727.116 .0287025
727.845 .0286823
728.574 .0286619
729.303 .0286414
730.031 .0286208
730.760 .0286003
731.488 .0285806
732.216 .0285617
732.944 .0285441
733.671 .0285275
734.398 .0285114
735.125 .0284964
735.852 .0284825
736.579 .0284691
737.305 .0284566
738.031 .0284453
738.757 .0284351
739.483 .0284253
740.208 .0284164
740.933 .0284082
741.658 .0284005
742.383 .0283932
743.108 .0283859
743.832 .0283786
744.556 .0283709
745.280 .0283623
746.004 .0283530
746.727 .0283432
747.450 .0283331
748.173 .0283228
748.896 .0283133
749.618 .0283044
750.340 .0282964
751.062 .0282887
751.784 .0282817
752.506 .0282747
753.227 .0282669
753.948 .0282582
754.669 .0282483
755.389 .0282375
756.110 .0282259
756.830 .0282139
757.550 .0282024
758.269 .0281910
758.989 .0281801
759.708 .0281685
760.427 .0281563
761.146 .0281432
761.864 .0281289
762.582 .0281134
763.300 .0280977
764.018 .0280822
764.736 .0280673
765.453 .0280538
766.170 .0280420
766.887 .0280314
767.603 .0280216
768.320 .0280119
769.036 .0280017
769.751 .0279908
770.467 .0279788
771.182 .0279664
771.897 .0279539
772.612 .0279422
773.327 .0279316
774.041 .0279227
774.755 .0279152
775.469 .0279090
776.183 .0279034
776.896 .0278980
777.609 .0278924
778.322 .0278857
779.035 .0278780
779.747 .0278698
780.459 .0278610
781.171 .0278522
781.882 .0278435
782.594 .0278360
783.305 .0278293
784.016 .0278239
784.726 .0278189
785.436 .0278141
786.147 .0278093
786.856 .0278039
787.566 .0277977
788.275 .0277906
788.984 .0277829
789.693 .0277749
790.401 .0277667
791.110 .0277589
791.818 .0277509
792.525 .0277433
793.233 .0277358
793.940 .0277281
794.647 .0277195
795.353 .0277102
796.060 .0277000
796.766 .0276886
797.472 .0276758
798.177 .0276621
798.883 .0276474
799.588 .0276318
800.292 .0276158
800.997 .0275996
801.701 .0275828
802.405 .0275661
803.109 .0275491
803.812 .0275320
804.515 .0275148
805.218 .0274969
805.921 .0274783
806.623 .0274594
807.325 .0274404
808.027 .0274206
808.728 .0274009
809.429 .0273810
810.130 .0273605
810.831 .0273395
811.531 .0273181
812.231 .0272961
812.931 .0272734
813.630 .0272503
814.330 .0272268
815.029 .0272032
815.727 .0271799
816.426 .0271570
817.124 .0271351
817.821 .0271140
818.519 .0270939
819.216 .0270744
819.913 .0270557
820.609 .0270376
821.306 .0270201
822.002 .0270033
822.697 .0269877
823.393 .0269732
824.088 .0269602
824.783 .0269488
825.477 .0269387
826.171 .0269294
826.865 .0269210
827.559 .0269124
828.252 .0269038
828.945 .0268948
829.638 .0268854
830.330 .0268758
831.023 .0268661
831.714 .0268565
832.406 .0268476
833.097 .0268387
833.788 .0268298
834.479 .0268207
835.169 .0268116
835.859 .0268017
836.548 .0267912
837.238 .0267801
837.927 .0267688
838.615 .0267571
839.304 .0267454
839.992 .0267335
840.680 .0267220
841.367 .0267111
842.054 .0267006
842.741 .0266907
843.428 .0266819
844.114 .0266739
844.800 .0266670
845.485 .0266614
846.170 .0266568
846.855 .0266529
847.540 .0266495
848.224 .0266468
848.908 .0266443
849.592 .0266419
850.275 .0266398
850.958 .0266377
851.641 .0266359
852.323 .0266337
853.005 .0266311
853.687 .0266278
854.368 .0266235
855.049 .0266178
855.730 .0266108
856.410 .0266027
857.090 .0265933
857.769 .0265828
858.449 .0265711
859.128 .0265584
859.806 .0265444
860.485 .0265294
861.163 .0265137
861.840 .0264976
862.518 .0264817
863.195 .0264664
863.871 .0264523
864.548 .0264399
865.224 .0264293
865.899 .0264206
866.574 .0264132
867.249 .0264067
867.924 .0264007
868.598 .0263954
869.272 .0263908
869.946 .0263870
870.619 .0263843
871.292 .0263829
871.964 .0263828
872.636 .0263837
873.308 .0263851
873.979 .0263864
874.651 .0263875
875.321 .0263875
875.992 .0263866
876.662 .0263848
877.331 .0263828
878.001 .0263810
878.670 .0263796
879.338 .0263787
880.007 .0263784
880.675 .0263786
881.342 .0263792
882.009 .0263799
882.676 .0263808
883.343 .0263817
884.009 .0263830
884.675 .0263846
885.340 .0263865
886.005 .0263883
886.670 .0263904
887.334 .0263924
887.998 .0263945
888.662 .0263961
889.325 .0263974
889.988 .0263987
890.650 .0263997
891.312 .0264006
891.974 .0264013
892.636 .0264020
893.297 .0264029
893.957 .0264036
894.618 .0264046
895.278 .0264057
895.937 .0264067
896.596 .0264079
897.255 .0264086
897.914 .0264089
898.572 .0264083
899.230 .0264068
899.887 .0264041
900.544 .0264008
901.201 .0263965
901.857 .0263920
902.513 .0263873
903.168 .0263824
903.823 .0263765
904.478 .0263696
905.132 .0263610
905.786 .0263504
906.440 .0263373
907.093 .0263223
907.746 .0263052
908.399 .0262869
909.051 .0262676
909.703 .0262481
910.354 .0262284
911.005 .0262091
911.656 .0261895
912.306 .0261700
912.956 .0261501
913.605 .0261301
914.254 .0261098
914.903 .0260900
915.551 .0260705
916.199 .0260520
916.847 .0260339
917.494 .0260170
918.141 .0260007
918.788 .0259852
919.434 .0259699
920.079 .0259544
920.725 .0259381
921.370 .0259211
922.014 .0259026
922.658 .0258829
923.302 .0258617
923.946 .0258392
924.589 .0258150
925.231 .0257894
925.873 .0257626
926.515 .0257347
927.157 .0257061
927.798 .0256768
928.439 .0256466
929.079 .0256165
929.719 .0255859
930.359 .0255554
930.998 .0255258
931.637 .0254972
932.275 .0254700
932.913 .0254440
933.551 .0254191
934.188 .0253952
934.825 .0253722
935.462 .0253496
936.098 .0253274
936.733 .0253060
937.369 .0252853
938.004 .0252652
938.638 .0252461
939.273 .0252280
939.907 .0252108
940.540 .0251946
941.173 .0251794
941.806 .0251648
942.438 .0251509
943.070 .0251374
943.702 .0251242
944.333 .0251111
944.964 .0250975
945.594 .0250836
946.224 .0250694
946.854 .0250548
947.483 .0250394
948.112 .0250238
948.741 .0250084
949.369 .0249935
949.996 .0249792
950.624 .0249655
951.251 .0249524
951.878 .0249395
952.504 .0249262
953.130 .0249120
953.755 .0248964
954.380 .0248797
955.005 .0248615
955.629 .0248422
956.253 .0248226
956.877 .0248035
957.500 .0247858
958.123 .0247699
958.746 .0247554
959.368 .0247420
959.990 .0247287
960.611 .0247151
961.232 .0247006
961.853 .0246849
962.473 .0246688
963.093 .0246524
963.712 .0246361
964.331 .0246206
964.950 .0246063
965.569 .0245939
966.187 .0245832
966.804 .0245739
967.422 .0245653
968.039 .0245570
968.655 .0245487
969.272 .0245400
969.887 .0245304
970.503 .0245200
971.118 .0245087
971.733 .0244965
972.347 .0244836
972.961 .0244704
973.575 .0244571
974.188 .0244443
974.801 .0244318
975.414 .0244198
976.026 .0244079
976.638 .0243962
977.250 .0243843
977.861 .0243727
978.472 .0243608
979.083 .0243489
979.693 .0243370
980.303 .0243256
980.912 .0243148
981.521 .0243049
982.130 .0242957
982.738 .0242879
983.346 .0242807
983.954 .0242736
984.562 .0242661
985.169 .0242587
985.775 .0242509
986.382 .0242431
986.988 .0242360
987.594 .0242298
988.199 .0242246
988.804 .0242211
989.409 .0242183
990.013 .0242165
990.617 .0242156
991.221 .0242152
991.824 .0242155
992.427 .0242172
993.030 .0242200
993.632 .0242242
994.234 .0242310
994.836 .0242402
995.438 .0242504
996.039 .0242615
996.640 .0242730
997.240 .0242840
997.840 .0242942
998.440 .0243035
999.040 .0243117
999.639 .0243198
1000.238 .0243273
1000.836 .0243345
1001.435 .0243419
1002.033 .0243497
1002.630 .0243572
1003.228 .0243646
1003.825 .0243715
1004.422 .0243780
1005.018 .0243840
1005.614 .0243902
1006.210 .0243964
1006.806 .0244037
1007.401 .0244112
1007.996 .0244194
1008.591 .0244283
1009.186 .0244380
1009.780 .0244483
1010.374 .0244590
1010.967 .0244700
1011.561 .0244811
1012.154 .0244916
1012.746 .0245014
1013.339 .0245100
1013.931 .0245181
1014.523 .0245253
1015.115 .0245320
1015.706 .0245385
1016.298 .0245458
1016.888 .0245539
1017.479 .0245635
1018.069 .0245748
1018.660 .0245870
1019.250 .0246002
1019.839 .0246142
1020.429 .0246291
1021.018 .0246450
1021.607 .0246619
1022.195 .0246801
1022.784 .0246999
1023.372 .0247215
1023.960 .0247445
1024.547 .0247681
1025.135 .0247922
1025.722 .0248156
1026.309 .0248372
1026.896 .0248570
1027.483 .0248751
1028.069 .0248907
1028.655 .0249053
1029.241 .0249183
1029.827 .0249311
1030.412 .0249437
1030.997 .0249565
1031.582 .0249696
1032.167 .0249824
1032.752 .0249953
1033.336 .0250076
1033.921 .0250196
1034.505 .0250323
1035.089 .0250453
1035.672 .0250594
1036.256 .0250747
1036.839 .0250906
1037.422 .0251075
1038.005 .0251251
1038.588 .0251427
1039.171 .0251599
1039.753 .0251757
1040.335 .0251904
1040.918 .0252037
1041.500 .0252150
1042.081 .0252252
1042.663 .0252342
1043.244 .0252430
1043.826 .0252503
1044.407 .0252567
1044.988 .0252630
1045.569 .0252688
1046.150 .0252740
1046.730 .0252786
1047.311 .0252820
1047.891 .0252858
1048.471 .0252891
1049.052 .0252920
1049.632 .0252942
1050.211 .0252966
1050.791 .0252988
1051.371 .0253012
1051.950 .0253039
1052.530 .0253067
1053.109 .0253088
1053.688 .0253107
1054.268 .0253110
1054.847 .0253092
1055.426 .0253054
1056.005 .0253003
1056.583 .0252940
1057.162 .0252874
1057.741 .0252803
1058.319 .0252747
1058.898 .0252709
1059.476 .0252687
1060.055 .0252672
1060.633 .0252645
1061.211 .0252606
1061.790 .0252550
1062.368 .0252473
1062.946 .0252383
1063.524 .0252285
1064.102 .0252198
1064.680 .0252116
1065.258 .0252054
1065.836 .0252008
1066.414 .0251980
1066.992 .0251975
1067.570 .0251973
1068.148 .0251953
1068.726 .0251919
1069.304 .0251877
1069.882 .0251820
1070.460 .0251766
1071.038 .0251734
1071.616 .0251716
1072.194 .0251725
1072.772 .0251756
1073.350 .0251800
1073.928 .0251857
1074.506 .0251913
1075.084 .0251950
1075.662 .0251964
1076.240 .0251973
1076.819 .0251963
1077.397 .0251949
1077.976 .0251954
1078.554 .0251973
1079.133 .0251997
1079.711 .0252026
1080.290 .0252053
1080.869 .0252066
1081.448 .0252076
1082.027 .0252074
1082.606 .0252058
1083.185 .0252061
1083.764 .0252069
1084.343 .0252094
1084.923 .0252136
1085.502 .0252198
1086.082 .0252247
1086.662 .0252275
1087.242 .0252275
1087.822 .0252228
1088.402 .0252147
1088.983 .0252036
1089.563 .0251892
1090.144 .0251738
1090.725 .0251585
1091.306 .0251432
1091.887 .0251291
1092.469 .0251183
1093.050 .0251095
1093.632 .0251044
1094.214 .0251036
1094.796 .0251069
1095.379 .0251137
1095.961 .0251245
1096.544 .0251392
1097.127 .0251557
1097.710 .0251744
1098.294 .0251953
1098.877 .0252181
1099.461 .0252436
1100.046 .0252715
1100.630 .0253005
1101.215 .0253313
1101.800 .0253634
1102.385 .0253938
1102.970 .0254214
1103.556 .0254450
1104.142 .0254628
1104.728 .0254750
1105.315 .0254808
1105.902 .0254810
1106.489 .0254766
1107.077 .0254690
1107.664 .0254590
1108.253 .0254459
1108.841 .0254329
1109.430 .0254199
1110.019 .0254062
1110.609 .0253946
1111.198 .0253839
1111.789 .0253760
1112.379 .0253713
1112.970 .0253702
1113.561 .0253726
1114.153 .0253801
1114.745 .0253929
1115.338 .0254109
1115.931 .0254339
1116.524 .0254633
1117.117 .0254982
1117.712 .0255402
1118.306 .0255891
1118.901 .0256413
1119.496 .0256953
1120.092 .0257512
1120.689 .0258030
1121.285 .0258492
1121.882 .0258896
1122.480 .0259263
1123.078 .0259602
1123.677 .0259956
1124.276 .0260324
1124.875 .0260729
1125.476 .0261187
1126.076 .0261659
1126.677 .0262115
1127.279 .0262559
1127.881 .0262976
1128.484 .0263367
1129.087 .0263775
1129.691 .0264210
1130.295 .0264684
1130.900 .0265257
1131.505 .0265914
1132.111 .0266634
1132.718 .0267405
1133.325 .0268172
1133.933 .0268925
1134.541 .0269708
1135.150 .0270523
1135.760 .0271383
1136.370 .0272351
1136.981 .0273441
1137.592 .0274621
1138.204 .0275866
1138.817 .0277220
1139.431 .0278658
1140.045 .0280201
1140.660 .0281874
1141.275 .0283524
1141.891 .0285304
1142.508 .0287196
1143.126 .0289682
1143.744 .0292835
1144.363 .0291268
1144.983 .0295163
