Measurement Sequence started on: 15-12-46-377
Integration time: 28
Scans to Average: 2 
>>>>>Begin Spectral Data<<<<<
432.689 .0000100
433.621 .0000100
434.552 .0000100
435.482 .0000100
436.410 .0000100
437.337 .0000100
438.262 .0245448
439.187 .0521201
440.110 .0865229
441.031 .1253995
441.952 .1633337
442.871 .1934173
443.789 .2102907
444.705 .2120373
445.621 .2008699
446.535 .1816006
447.447 .1595590
448.359 .1254557
449.269 .1085682
450.178 .0978865
451.086 .0903882
451.993 .0846324
452.898 .0801062
453.803 .0764016
454.706 .0733262
455.608 .0706671
456.508 .0683575
457.408 .0663048
458.306 .0644377
459.204 .0627238
460.100 .0611516
460.995 .0597139
461.888 .0584219
462.781 .0572549
463.673 .0561925
464.563 .0552379
465.452 .0543728
466.340 .0535738
467.228 .0528415
468.114 .0521572
468.999 .0515257
469.882 .0509370
470.765 .0504038
471.647 .0499212
472.528 .0494936
473.407 .0491265
474.286 .0488103
475.163 .0485342
476.040 .0482980
476.915 .0480857
477.790 .0478876
478.663 .0477036
479.535 .0475378
480.407 .0473857
481.277 .0472523
482.147 .0471353
483.015 .0470359
483.883 .0469552
484.749 .0468879
485.615 .0468303
486.479 .0467865
487.343 .0467592
488.206 .0467417
489.067 .0467329
489.928 .0467441
490.788 .0467710
491.647 .0468196
492.505 .0468985
493.362 .0470017
494.218 .0471278
495.073 .0472741
495.928 .0474367
496.781 .0476169
497.634 .0478244
498.486 .0480499
499.337 .0483010
500.187 .0485833
501.036 .0488896
501.884 .0492174
502.731 .0495713
503.578 .0499493
504.424 .0503443
505.268 .0507514
506.113 .0511711
506.956 .0515983
507.798 .0520515
508.640 .0525331
509.480 .0530595
510.320 .0536532
511.160 .0543199
511.998 .0550688
512.836 .0559238
513.672 .0568963
514.508 .0580025
515.344 .0592609
516.178 .0606898
517.012 .0623245
517.845 .0642072
518.677 .0663713
519.508 .0688381
520.339 .0716719
521.169 .0749299
521.998 .0786329
522.826 .0828282
523.654 .0875438
524.481 .0927913
525.307 .0986197
526.133 .1049971
526.958 .1118797
527.782 .1191683
528.605 .1266550
529.428 .1341867
530.250 .1412176
531.072 .1474945
531.892 .1525738
532.712 .1561864
533.532 .1581730
534.350 .1583269
535.168 .1566576
535.986 .1533286
536.802 .1485651
537.618 .1426857
538.434 .1358767
539.249 .1286464
540.063 .1211475
540.876 .1137394
541.689 .1065704
542.501 .0998230
543.313 .0936586
544.124 .0881107
544.934 .0831255
545.744 .0786785
546.553 .0747186
547.361 .0712253
548.169 .0681553
548.976 .0654492
549.783 .0630590
550.589 .0609733
551.395 .0591100
552.200 .0574778
553.004 .0560410
553.808 .0547719
554.611 .0536465
555.414 .0526553
556.216 .0517760
557.018 .0509948
557.819 .0502969
558.619 .0496481
559.419 .0490382
560.218 .0484756
561.017 .0479397
561.815 .0474183
562.613 .0469104
563.410 .0464131
564.207 .0459085
565.003 .0454064
565.799 .0448850
566.594 .0443522
567.388 .0438152
568.182 .0432755
568.976 .0427331
569.769 .0421957
570.562 .0416664
571.354 .0411521
572.145 .0406530
572.936 .0401702
573.727 .0396948
574.517 .0392359
575.307 .0387902
576.096 .0383600
576.885 .0379465
577.673 .0375574
578.461 .0371950
579.248 .0368608
580.035 .0365512
580.821 .0362674
581.607 .0360062
582.392 .0357613
583.177 .0355260
583.962 .0353026
584.746 .0350911
585.529 .0348928
586.313 .0347092
587.095 .0345417
587.878 .0343898
588.660 .0342536
589.441 .0341315
590.222 .0340196
591.003 .0339181
591.783 .0338227
592.563 .0337325
593.342 .0336448
594.121 .0335586
594.899 .0334740
595.678 .0333912
596.455 .0333122
597.233 .0332353
598.009 .0331607
598.786 .0330896
599.562 .0330212
600.338 .0329567
601.113 .0328953
601.888 .0328373
602.663 .0327821
603.437 .0327297
604.211 .0326785
604.984 .0326283
605.757 .0325798
606.530 .0325320
607.302 .0324854
608.074 .0324404
608.845 .0323977
609.616 .0323570
610.387 .0323187
611.158 .0322832
611.928 .0322495
612.697 .0322172
613.467 .0321850
614.236 .0321527
615.004 .0321198
615.773 .0320866
616.541 .0320529
617.308 .0320201
618.076 .0319899
618.843 .0319620
619.609 .0319368
620.375 .0319145
621.141 .0318943
621.907 .0318760
622.672 .0318582
623.437 .0318404
624.202 .0318215
624.966 .0318021
625.730 .0317814
626.493 .0317593
627.257 .0317367
628.020 .0317144
628.782 .0316915
629.545 .0316687
630.307 .0316449
631.068 .0316198
631.830 .0315927
632.591 .0315642
633.352 .0315334
634.112 .0315008
634.872 .0314674
635.632 .0314338
636.392 .0314005
637.151 .0313689
637.910 .0313388
638.668 .0313099
639.427 .0312827
640.185 .0312562
640.943 .0312289
641.700 .0312019
642.457 .0311749
643.214 .0311478
643.971 .0311209
644.727 .0310945
645.483 .0310682
646.239 .0310424
646.994 .0310176
647.750 .0309925
648.505 .0309679
649.259 .0309445
650.014 .0309217
650.768 .0308997
651.521 .0308793
652.275 .0308601
653.028 .0308419
653.781 .0308242
654.534 .0308060
655.286 .0307869
656.039 .0307670
656.791 .0307457
657.542 .0307230
658.294 .0306997
659.045 .0306762
659.796 .0306525
660.546 .0306291
661.297 .0306061
662.047 .0305828
662.796 .0305593
663.546 .0305354
664.295 .0305110
665.044 .0304862
665.793 .0304614
666.542 .0304372
667.290 .0304137
668.038 .0303908
668.786 .0303687
669.533 .0303470
670.281 .0303263
671.028 .0303058
671.774 .0302856
672.521 .0302654
673.267 .0302455
674.013 .0302260
674.759 .0302064
675.505 .0301871
676.250 .0301678
676.995 .0301481
677.740 .0301279
678.484 .0301068
679.229 .0300852
679.973 .0300627
680.717 .0300406
681.460 .0300186
682.204 .0299973
682.947 .0299768
683.690 .0299576
684.433 .0299395
685.175 .0299226
685.917 .0299062
686.659 .0298899
687.401 .0298740
688.142 .0298584
688.884 .0298425
689.625 .0298266
690.365 .0298108
691.106 .0297949
691.846 .0297786
692.586 .0297619
693.326 .0297445
694.066 .0297261
694.805 .0297069
695.545 .0296866
696.284 .0296654
697.022 .0296434
697.761 .0296207
698.499 .0295975
699.237 .0295742
699.975 .0295505
700.713 .0295267
701.450 .0295031
702.187 .0294801
702.924 .0294576
703.661 .0294360
704.397 .0294148
705.133 .0293950
705.869 .0293760
706.605 .0293578
707.341 .0293401
708.076 .0293228
708.811 .0293058
709.546 .0292890
710.281 .0292721
711.015 .0292554
711.749 .0292385
712.483 .0292214
713.217 .0292032
713.950 .0291842
714.684 .0291639
715.417 .0291423
716.150 .0291198
716.882 .0290970
717.615 .0290746
718.347 .0290532
719.079 .0290330
719.811 .0290145
720.542 .0289977
721.273 .0289823
722.005 .0289674
722.735 .0289532
723.466 .0289390
724.196 .0289245
724.927 .0289099
725.656 .0288951
726.386 .0288808
727.116 .0288670
727.845 .0288540
728.574 .0288413
729.303 .0288288
730.031 .0288161
730.760 .0288027
731.488 .0287887
732.216 .0287742
732.944 .0287589
733.671 .0287435
734.398 .0287285
735.125 .0287143
735.852 .0287010
736.579 .0286893
737.305 .0286790
738.031 .0286701
738.757 .0286620
739.483 .0286545
740.208 .0286473
740.933 .0286407
741.658 .0286348
742.383 .0286288
743.108 .0286233
743.832 .0286176
744.556 .0286118
745.280 .0286058
746.004 .0285991
746.727 .0285913
747.450 .0285827
748.173 .0285729
748.896 .0285621
749.618 .0285508
750.340 .0285396
751.062 .0285283
751.784 .0285176
752.506 .0285073
753.227 .0284973
753.948 .0284874
754.669 .0284775
755.389 .0284671
756.110 .0284559
756.830 .0284439
757.550 .0284310
758.269 .0284173
758.989 .0284033
759.708 .0283882
760.427 .0283729
761.146 .0283572
761.864 .0283407
762.582 .0283240
763.300 .0283074
764.018 .0282908
764.736 .0282741
765.453 .0282577
766.170 .0282416
766.887 .0282257
767.603 .0282103
768.320 .0281948
769.036 .0281794
769.751 .0281645
770.467 .0281498
771.182 .0281357
771.897 .0281228
772.612 .0281104
773.327 .0280983
774.041 .0280865
774.755 .0280740
775.469 .0280609
776.183 .0280472
776.896 .0280331
777.609 .0280187
778.322 .0280045
779.035 .0279907
779.747 .0279778
780.459 .0279665
781.171 .0279562
781.882 .0279466
782.594 .0279379
783.305 .0279297
784.016 .0279218
784.726 .0279143
785.436 .0279074
786.147 .0279005
786.856 .0278943
787.566 .0278880
788.275 .0278814
788.984 .0278750
789.693 .0278681
790.401 .0278603
791.110 .0278514
791.818 .0278414
792.525 .0278305
793.233 .0278185
793.940 .0278057
794.647 .0277917
795.353 .0277774
796.060 .0277627
796.766 .0277474
797.472 .0277321
798.177 .0277168
798.883 .0277014
799.588 .0276859
800.292 .0276701
800.997 .0276541
801.701 .0276379
802.405 .0276218
803.109 .0276059
803.812 .0275905
804.515 .0275756
805.218 .0275612
805.921 .0275469
806.623 .0275324
807.325 .0275174
808.027 .0275012
808.728 .0274839
809.429 .0274651
810.130 .0274452
810.831 .0274248
811.531 .0274042
812.231 .0273839
812.931 .0273635
813.630 .0273434
814.330 .0273232
815.029 .0273028
815.727 .0272821
816.426 .0272612
817.124 .0272402
817.821 .0272193
818.519 .0271995
819.216 .0271803
819.913 .0271630
820.609 .0271475
821.306 .0271334
822.002 .0271211
822.697 .0271102
823.393 .0271009
824.088 .0270932
824.783 .0270869
825.477 .0270817
826.171 .0270773
826.865 .0270740
827.559 .0270711
828.252 .0270684
828.945 .0270661
829.638 .0270635
830.330 .0270613
831.023 .0270593
831.714 .0270577
832.406 .0270566
833.097 .0270564
833.788 .0270564
834.479 .0270563
835.169 .0270553
835.859 .0270538
836.548 .0270513
837.238 .0270479
837.927 .0270438
838.615 .0270395
839.304 .0270355
839.992 .0270322
840.680 .0270298
841.367 .0270285
842.054 .0270278
842.741 .0270277
843.428 .0270275
844.114 .0270273
844.800 .0270271
845.485 .0270264
846.170 .0270254
846.855 .0270244
847.540 .0270233
848.224 .0270219
848.908 .0270203
849.592 .0270189
850.275 .0270168
850.958 .0270141
851.641 .0270107
852.323 .0270065
853.005 .0270018
853.687 .0269958
854.368 .0269889
855.049 .0269810
855.730 .0269725
856.410 .0269628
857.090 .0269526
857.769 .0269420
858.449 .0269312
859.128 .0269202
859.806 .0269093
860.485 .0268992
861.163 .0268900
861.840 .0268815
862.518 .0268736
863.195 .0268665
863.871 .0268596
864.548 .0268528
865.224 .0268465
865.899 .0268401
866.574 .0268336
867.249 .0268272
867.924 .0268207
868.598 .0268145
869.272 .0268082
869.946 .0268021
870.619 .0267958
871.292 .0267898
871.964 .0267834
872.636 .0267763
873.308 .0267691
873.979 .0267616
874.651 .0267537
875.321 .0267458
875.992 .0267380
876.662 .0267304
877.331 .0267235
878.001 .0267170
878.670 .0267106
879.338 .0267045
880.007 .0266988
880.675 .0266938
881.342 .0266892
882.009 .0266852
882.676 .0266814
883.343 .0266781
884.009 .0266748
884.675 .0266711
885.340 .0266669
886.005 .0266622
886.670 .0266567
887.334 .0266511
887.998 .0266450
888.662 .0266392
889.325 .0266339
889.988 .0266291
890.650 .0266251
891.312 .0266209
891.974 .0266165
892.636 .0266120
893.297 .0266070
893.957 .0266016
894.618 .0265955
895.278 .0265891
895.937 .0265828
896.596 .0265767
897.255 .0265708
897.914 .0265649
898.572 .0265588
899.230 .0265524
899.887 .0265446
900.544 .0265357
901.201 .0265256
901.857 .0265140
902.513 .0265010
903.168 .0264864
903.823 .0264699
904.478 .0264517
905.132 .0264317
905.786 .0264101
906.440 .0263866
907.093 .0263624
907.746 .0263365
908.399 .0263096
909.051 .0262820
909.703 .0262531
910.354 .0262228
911.005 .0261920
911.656 .0261602
912.306 .0261280
912.956 .0260963
913.605 .0260652
914.254 .0260355
914.903 .0260078
915.551 .0259818
916.199 .0259576
916.847 .0259353
917.494 .0259143
918.141 .0258938
918.788 .0258741
919.434 .0258554
920.079 .0258367
920.725 .0258189
921.370 .0258016
922.014 .0257844
922.658 .0257673
923.302 .0257494
923.946 .0257304
924.589 .0257100
925.231 .0256876
925.873 .0256632
926.515 .0256371
927.157 .0256099
927.798 .0255816
928.439 .0255530
929.079 .0255245
929.719 .0254958
930.359 .0254671
930.998 .0254381
931.637 .0254090
932.275 .0253801
932.913 .0253514
933.551 .0253231
934.188 .0252957
934.825 .0252694
935.462 .0252446
936.098 .0252218
936.733 .0252013
937.369 .0251826
938.004 .0251655
938.638 .0251495
939.273 .0251343
939.907 .0251196
940.540 .0251054
941.173 .0250915
941.806 .0250790
942.438 .0250678
943.070 .0250576
943.702 .0250492
944.333 .0250421
944.964 .0250358
945.594 .0250298
946.224 .0250236
946.854 .0250166
947.483 .0250091
948.112 .0250013
948.741 .0249930
949.369 .0249849
949.996 .0249772
950.624 .0249694
951.251 .0249620
951.878 .0249546
952.504 .0249468
953.130 .0249388
953.755 .0249306
954.380 .0249217
955.005 .0249124
955.629 .0249031
956.253 .0248938
956.877 .0248847
957.500 .0248756
958.123 .0248662
958.746 .0248568
959.368 .0248473
959.990 .0248374
960.611 .0248276
961.232 .0248185
961.853 .0248101
962.473 .0248025
963.093 .0247957
963.712 .0247897
964.331 .0247841
964.950 .0247790
965.569 .0247742
966.187 .0247701
966.804 .0247670
967.422 .0247654
968.039 .0247655
968.655 .0247675
969.272 .0247708
969.887 .0247755
970.503 .0247805
971.118 .0247855
971.733 .0247899
972.347 .0247935
972.961 .0247962
973.575 .0247984
974.188 .0248003
974.801 .0248019
975.414 .0248032
976.026 .0248040
976.638 .0248035
977.250 .0248025
977.861 .0248003
978.472 .0247971
979.083 .0247937
979.693 .0247899
980.303 .0247860
980.912 .0247825
981.521 .0247793
982.130 .0247765
982.738 .0247743
983.346 .0247725
983.954 .0247707
984.562 .0247684
985.169 .0247660
985.775 .0247633
986.382 .0247611
986.988 .0247595
987.594 .0247585
988.199 .0247589
988.804 .0247609
989.409 .0247639
990.013 .0247684
990.617 .0247740
991.221 .0247806
991.824 .0247875
992.427 .0247946
993.030 .0248020
993.632 .0248098
994.234 .0248185
994.836 .0248280
995.438 .0248381
996.039 .0248487
996.640 .0248586
997.240 .0248678
997.840 .0248763
998.440 .0248839
999.040 .0248906
999.639 .0248968
1000.238 .0249028
1000.836 .0249086
1001.435 .0249150
1002.033 .0249224
1002.630 .0249301
1003.228 .0249387
1003.825 .0249473
1004.422 .0249560
1005.018 .0249648
1005.614 .0249742
1006.210 .0249841
1006.806 .0249953
1007.401 .0250075
1007.996 .0250196
1008.591 .0250320
1009.186 .0250445
1009.780 .0250564
1010.374 .0250674
1010.967 .0250774
1011.561 .0250862
1012.154 .0250940
1012.746 .0251016
1013.339 .0251083
1013.931 .0251148
1014.523 .0251218
1015.115 .0251284
1015.706 .0251352
1016.298 .0251426
1016.888 .0251510
1017.479 .0251597
1018.069 .0251696
1018.660 .0251793
1019.250 .0251886
1019.839 .0251976
1020.429 .0252055
1021.018 .0252126
1021.607 .0252193
1022.195 .0252254
1022.784 .0252314
1023.372 .0252379
1023.960 .0252455
1024.547 .0252537
1025.135 .0252635
1025.722 .0252736
1026.309 .0252837
1026.896 .0252938
1027.483 .0253036
1028.069 .0253131
1028.655 .0253227
1029.241 .0253319
1029.827 .0253414
1030.412 .0253517
1030.997 .0253630
1031.582 .0253746
1032.167 .0253872
1032.752 .0253998
1033.336 .0254115
1033.921 .0254222
1034.505 .0254315
1035.089 .0254393
1035.672 .0254461
1036.256 .0254520
1036.839 .0254570
1037.422 .0254617
1038.005 .0254664
1038.588 .0254714
1039.171 .0254767
1039.753 .0254821
1040.335 .0254869
1040.918 .0254903
1041.500 .0254922
1042.081 .0254912
1042.663 .0254876
1043.244 .0254821
1043.826 .0254741
1044.407 .0254645
1044.988 .0254532
1045.569 .0254417
1046.150 .0254306
1046.730 .0254200
1047.311 .0254109
1047.891 .0254024
1048.471 .0253949
1049.052 .0253878
1049.632 .0253806
1050.211 .0253749
1050.791 .0253693
1051.371 .0253647
1051.950 .0253616
1052.530 .0253594
1053.109 .0253586
1053.688 .0253593
1054.268 .0253608
1054.847 .0253629
1055.426 .0253639
1056.005 .0253628
1056.583 .0253590
1057.162 .0253524
1057.741 .0253430
1058.319 .0253307
1058.898 .0253174
1059.476 .0253026
1060.055 .0252860
1060.633 .0252701
1061.211 .0252541
1061.790 .0252376
1062.368 .0252216
1062.946 .0252057
1063.524 .0251888
1064.102 .0251718
1064.680 .0251558
1065.258 .0251412
1065.836 .0251292
1066.414 .0251197
1066.992 .0251121
1067.570 .0251073
1068.148 .0251044
1068.726 .0251015
1069.304 .0250982
1069.882 .0250963
1070.460 .0250934
1071.038 .0250906
1071.616 .0250896
1072.194 .0250909
1072.772 .0250948
1073.350 .0251018
1073.928 .0251104
1074.506 .0251184
1075.084 .0251234
1075.662 .0251247
1076.240 .0251214
1076.819 .0251152
1077.397 .0251057
1077.976 .0250948
1078.554 .0250840
1079.133 .0250754
1079.711 .0250658
1080.290 .0250562
1080.869 .0250449
1081.448 .0250312
1082.027 .0250134
1082.606 .0249917
1083.185 .0249683
1083.764 .0249441
1084.343 .0249221
1084.923 .0249031
1085.502 .0248868
1086.082 .0248744
1086.662 .0248633
1087.242 .0248532
1087.822 .0248441
1088.402 .0248348
1088.983 .0248249
1089.563 .0248155
1090.144 .0248083
1090.725 .0248029
1091.306 .0247985
1091.887 .0247956
1092.469 .0247934
1093.050 .0247913
1093.632 .0247891
1094.214 .0247847
1094.796 .0247813
1095.379 .0247803
1095.961 .0247811
1096.544 .0247847
1097.127 .0247914
1097.710 .0247996
1098.294 .0248087
1098.877 .0248182
1099.461 .0248265
1100.046 .0248324
1100.630 .0248366
1101.215 .0248407
1101.800 .0248458
1102.385 .0248546
1102.970 .0248663
1103.556 .0248808
1104.142 .0249003
1104.728 .0249220
1105.315 .0249428
1105.902 .0249637
1106.489 .0249840
1107.077 .0250025
1107.664 .0250179
1108.253 .0250309
1108.841 .0250399
1109.430 .0250502
1110.019 .0250639
1110.609 .0250810
1111.198 .0251025
1111.789 .0251304
1112.379 .0251621
1112.970 .0251992
1113.561 .0252413
1114.153 .0252853
1114.745 .0253302
1115.338 .0253794
1115.931 .0254296
1116.524 .0254791
1117.117 .0255322
1117.712 .0255902
1118.306 .0256527
1118.901 .0257198
1119.496 .0257837
1120.092 .0258462
1120.689 .0259091
1121.285 .0259701
1121.882 .0260255
1122.480 .0260763
1123.078 .0261261
1123.677 .0261722
1124.276 .0262177
1124.875 .0262636
1125.476 .0263058
1126.076 .0263461
1126.677 .0263819
1127.279 .0264146
1127.881 .0264428
1128.484 .0264684
1129.087 .0264976
1129.691 .0265319
1130.295 .0265717
1130.900 .0266174
1131.505 .0266701
1132.111 .0267299
1132.718 .0267969
1133.325 .0268656
1133.933 .0269375
1134.541 .0270161
1135.150 .0271048
1135.760 .0272041
1136.370 .0273167
1136.981 .0274490
1137.592 .0275889
1138.204 .0277442
1138.817 .0279138
1139.431 .0280915
1140.045 .0282863
1140.660 .0284892
1141.275 .0287119
1141.891 .0289540
1142.508 .0291057
1143.126 .0295344
1143.744 .0296239
1144.363 .0300729
1144.983 .0304841
