Measurement Sequence started on: 15-12-46-377
Integration time: 28
Scans to Average: 2 
>>>>>Begin Spectral Data<<<<<
432.689 .0000100
433.621 .0000100
434.552 .0000100
435.482 .0000100
436.410 .0000100
437.337 .0000100
438.262 .0280752
439.187 .0594546
440.110 .0985060
441.031 .1425656
441.952 .1853689
442.871 .2190904
443.789 .2376055
444.705 .2387991
445.621 .2252272
446.535 .2024781
447.447 .1766587
448.359 .1371390
449.269 .1174820
450.178 .1049639
451.086 .0960966
451.993 .0893153
452.898 .0839665
453.803 .0796105
454.706 .0760120
455.608 .0729453
456.508 .0702800
457.408 .0679469
458.306 .0658596
459.204 .0639857
460.100 .0622944
460.995 .0607801
461.888 .0594260
462.781 .0582273
463.673 .0571678
464.563 .0562229
465.452 .0553708
466.340 .0545829
467.228 .0538522
468.114 .0531584
468.999 .0525026
469.882 .0518752
470.765 .0512671
471.647 .0506998
472.528 .0501629
473.407 .0496693
474.286 .0492185
475.163 .0488049
476.040 .0484231
476.915 .0480658
477.790 .0477344
478.663 .0474230
479.535 .0471338
480.407 .0468752
481.277 .0466396
482.147 .0464270
483.015 .0462400
483.883 .0460810
484.749 .0459517
485.615 .0458614
486.479 .0457998
487.343 .0457743
488.206 .0457805
489.067 .0458169
489.928 .0458788
490.788 .0459661
491.647 .0460793
492.505 .0462075
493.362 .0463511
494.218 .0465135
495.073 .0466951
495.928 .0469052
496.781 .0471428
497.634 .0474203
498.486 .0477364
499.337 .0480793
500.187 .0484477
501.036 .0488343
501.884 .0492382
502.731 .0496495
503.578 .0500663
504.424 .0504894
505.268 .0509273
506.113 .0513872
506.956 .0518731
507.798 .0524002
508.640 .0529804
509.480 .0536086
510.320 .0542935
511.160 .0550493
511.998 .0558771
512.836 .0567767
513.672 .0577760
514.508 .0588825
515.344 .0601267
516.178 .0615415
517.012 .0631834
517.845 .0650832
518.677 .0672923
519.508 .0698204
520.339 .0726486
521.169 .0758498
521.998 .0794407
522.826 .0834214
523.654 .0878252
524.481 .0926941
525.307 .0981002
526.133 .1039815
526.958 .1103510
527.782 .1171726
528.605 .1242956
529.428 .1316290
530.250 .1386044
531.072 .1449635
531.892 .1503344
532.712 .1544163
533.532 .1570066
534.350 .1579480
535.168 .1571546
535.986 .1546583
536.802 .1506194
537.618 .1453585
538.434 .1390529
539.249 .1321809
540.063 .1249454
540.876 .1176841
541.689 .1106062
542.501 .1039291
543.313 .0977915
544.124 .0923375
544.934 .0874792
545.744 .0831105
546.553 .0791657
547.361 .0756412
548.169 .0725116
548.976 .0697102
549.783 .0672010
550.589 .0649736
551.395 .0629428
552.200 .0611102
553.004 .0594282
553.808 .0578865
554.611 .0564717
555.414 .0551671
556.216 .0539655
557.018 .0528575
557.819 .0518314
558.619 .0508685
559.419 .0499730
560.218 .0491463
561.017 .0483741
561.815 .0476510
562.613 .0469664
563.410 .0463129
564.207 .0456956
565.003 .0451124
565.799 .0445571
566.594 .0440197
567.388 .0435060
568.182 .0430064
568.976 .0425216
569.769 .0420464
570.562 .0415833
571.354 .0411251
572.145 .0406778
572.936 .0402310
573.727 .0397868
574.517 .0393411
575.307 .0388999
576.096 .0384629
576.885 .0380357
577.673 .0376197
578.461 .0372231
579.248 .0368449
580.035 .0364871
580.821 .0361522
581.607 .0358389
582.392 .0355454
583.177 .0352714
583.962 .0350167
584.746 .0347849
585.529 .0345719
586.313 .0343822
587.095 .0342148
587.878 .0340694
588.660 .0339461
589.441 .0338376
590.222 .0337435
591.003 .0336620
591.783 .0335862
592.563 .0335179
593.342 .0334559
594.121 .0333962
594.899 .0333397
595.678 .0332863
596.455 .0332352
597.233 .0331845
598.009 .0331331
598.786 .0330824
599.562 .0330316
600.338 .0329801
601.113 .0329281
601.888 .0328756
602.663 .0328257
603.437 .0327768
604.211 .0327281
604.984 .0326825
605.757 .0326383
606.530 .0325950
607.302 .0325524
608.074 .0325109
608.845 .0324706
609.616 .0324317
610.387 .0323952
611.158 .0323608
611.928 .0323284
612.697 .0322975
613.467 .0322681
614.236 .0322402
615.004 .0322127
615.773 .0321842
616.541 .0321556
617.308 .0321275
618.076 .0320996
618.843 .0320716
619.609 .0320446
620.375 .0320195
621.141 .0319950
621.907 .0319708
622.672 .0319468
623.437 .0319227
624.202 .0318989
624.966 .0318744
625.730 .0318491
626.493 .0318232
627.257 .0317969
628.020 .0317692
628.782 .0317404
629.545 .0317108
630.307 .0316798
631.068 .0316475
631.830 .0316146
632.591 .0315814
633.352 .0315491
634.112 .0315177
634.872 .0314874
635.632 .0314584
636.392 .0314297
637.151 .0314012
637.910 .0313729
638.668 .0313454
639.427 .0313186
640.185 .0312933
640.943 .0312701
641.700 .0312498
642.457 .0312329
643.214 .0312182
643.971 .0312047
644.727 .0311926
645.483 .0311800
646.239 .0311661
646.994 .0311517
647.750 .0311371
648.505 .0311231
649.259 .0311111
650.014 .0311004
650.768 .0310912
651.521 .0310831
652.275 .0310750
653.028 .0310651
653.781 .0310529
654.534 .0310376
655.286 .0310187
656.039 .0309974
656.791 .0309746
657.542 .0309498
658.294 .0309251
659.045 .0309002
659.796 .0308742
660.546 .0308470
661.297 .0308173
662.047 .0307851
662.796 .0307509
663.546 .0307146
664.295 .0306774
665.044 .0306403
665.793 .0306055
666.542 .0305732
667.290 .0305444
668.038 .0305190
668.786 .0304956
669.533 .0304741
670.281 .0304531
671.028 .0304316
671.774 .0304093
672.521 .0303870
673.267 .0303649
674.013 .0303437
674.759 .0303236
675.505 .0303051
676.250 .0302879
676.995 .0302718
677.740 .0302558
678.484 .0302385
679.229 .0302197
679.973 .0301992
680.717 .0301769
681.460 .0301532
682.204 .0301282
682.947 .0301030
683.690 .0300777
684.433 .0300522
685.175 .0300263
685.917 .0299994
686.659 .0299726
687.401 .0299453
688.142 .0299171
688.884 .0298889
689.625 .0298605
690.365 .0298325
691.106 .0298044
691.846 .0297769
692.586 .0297498
693.326 .0297227
694.066 .0296962
694.805 .0296700
695.545 .0296442
696.284 .0296191
697.022 .0295948
697.761 .0295716
698.499 .0295498
699.237 .0295284
699.975 .0295073
700.713 .0294869
701.450 .0294666
702.187 .0294464
702.924 .0294260
703.661 .0294067
704.397 .0293877
705.133 .0293693
705.869 .0293522
706.605 .0293360
707.341 .0293213
708.076 .0293072
708.811 .0292935
709.546 .0292801
710.281 .0292666
711.015 .0292530
711.749 .0292395
712.483 .0292269
713.217 .0292148
713.950 .0292036
714.684 .0291937
715.417 .0291849
716.150 .0291770
716.882 .0291701
717.615 .0291635
718.347 .0291569
719.079 .0291507
719.811 .0291441
720.542 .0291377
721.273 .0291315
722.005 .0291254
722.735 .0291193
723.466 .0291136
724.196 .0291076
724.927 .0291007
725.656 .0290932
726.386 .0290848
727.116 .0290751
727.845 .0290647
728.574 .0290529
729.303 .0290407
730.031 .0290277
730.760 .0290140
731.488 .0289993
732.216 .0289845
732.944 .0289700
733.671 .0289560
734.398 .0289431
735.125 .0289321
735.852 .0289226
736.579 .0289148
737.305 .0289082
738.031 .0289022
738.757 .0288958
739.483 .0288888
740.208 .0288803
740.933 .0288709
741.658 .0288607
742.383 .0288504
743.108 .0288404
743.832 .0288311
744.556 .0288222
745.280 .0288129
746.004 .0288033
746.727 .0287925
747.450 .0287798
748.173 .0287650
748.896 .0287480
749.618 .0287292
750.340 .0287087
751.062 .0286872
751.784 .0286648
752.506 .0286419
753.227 .0286185
753.948 .0285941
754.669 .0285691
755.389 .0285434
756.110 .0285172
756.830 .0284904
757.550 .0284637
758.269 .0284369
758.989 .0284101
759.708 .0283830
760.427 .0283556
761.146 .0283278
761.864 .0282997
762.582 .0282715
763.300 .0282437
764.018 .0282169
764.736 .0281916
765.453 .0281678
766.170 .0281459
766.887 .0281252
767.603 .0281051
768.320 .0280847
769.036 .0280634
769.751 .0280410
770.467 .0280176
771.182 .0279934
771.897 .0279688
772.612 .0279449
773.327 .0279221
774.041 .0279007
774.755 .0278806
775.469 .0278617
776.183 .0278433
776.896 .0278249
777.609 .0278058
778.322 .0277859
779.035 .0277654
779.747 .0277449
780.459 .0277246
781.171 .0277055
781.882 .0276876
782.594 .0276709
783.305 .0276557
784.016 .0276422
784.726 .0276297
785.436 .0276180
786.147 .0276069
786.856 .0275965
787.566 .0275871
788.275 .0275787
788.984 .0275717
789.693 .0275662
790.401 .0275619
791.110 .0275584
791.818 .0275553
792.525 .0275527
793.233 .0275501
793.940 .0275471
794.647 .0275440
795.353 .0275405
796.060 .0275365
796.766 .0275322
797.472 .0275280
798.177 .0275238
798.883 .0275194
799.588 .0275145
800.292 .0275097
800.997 .0275043
801.701 .0274989
802.405 .0274929
803.109 .0274869
803.812 .0274810
804.515 .0274755
805.218 .0274699
805.921 .0274649
806.623 .0274602
807.325 .0274559
808.027 .0274516
808.728 .0274474
809.429 .0274428
810.130 .0274377
810.831 .0274324
811.531 .0274271
812.231 .0274210
812.931 .0274149
813.630 .0274083
814.330 .0274015
815.029 .0273947
815.727 .0273875
816.426 .0273802
817.124 .0273729
817.821 .0273659
818.519 .0273591
819.216 .0273530
819.913 .0273480
820.609 .0273439
821.306 .0273407
822.002 .0273393
822.697 .0273389
823.393 .0273394
824.088 .0273406
824.783 .0273421
825.477 .0273433
826.171 .0273447
826.865 .0273457
827.559 .0273469
828.252 .0273484
828.945 .0273502
829.638 .0273519
830.330 .0273541
831.023 .0273564
831.714 .0273585
832.406 .0273602
833.097 .0273616
833.788 .0273618
834.479 .0273615
835.169 .0273603
835.859 .0273588
836.548 .0273569
837.238 .0273549
837.927 .0273524
838.615 .0273498
839.304 .0273468
839.992 .0273435
840.680 .0273398
841.367 .0273359
842.054 .0273312
842.741 .0273257
843.428 .0273194
844.114 .0273124
844.800 .0273044
845.485 .0272953
846.170 .0272846
846.855 .0272722
847.540 .0272582
848.224 .0272425
848.908 .0272257
849.592 .0272080
850.275 .0271892
850.958 .0271688
851.641 .0271473
852.323 .0271250
853.005 .0271015
853.687 .0270766
854.368 .0270503
855.049 .0270226
855.730 .0269936
856.410 .0269634
857.090 .0269328
857.769 .0269021
858.449 .0268713
859.128 .0268408
859.806 .0268104
860.485 .0267806
861.163 .0267516
861.840 .0267230
862.518 .0266949
863.195 .0266669
863.871 .0266384
864.548 .0266093
865.224 .0265804
865.899 .0265518
866.574 .0265235
867.249 .0264961
867.924 .0264695
868.598 .0264434
869.272 .0264180
869.946 .0263929
870.619 .0263679
871.292 .0263427
871.964 .0263169
872.636 .0262900
873.308 .0262632
873.979 .0262362
874.651 .0262098
875.321 .0261840
875.992 .0261590
876.662 .0261348
877.331 .0261112
878.001 .0260879
878.670 .0260649
879.338 .0260421
880.007 .0260195
880.675 .0259971
881.342 .0259756
882.009 .0259553
882.676 .0259367
883.343 .0259197
884.009 .0259045
884.675 .0258906
885.340 .0258782
886.005 .0258665
886.670 .0258559
887.334 .0258463
887.998 .0258373
888.662 .0258296
889.325 .0258228
889.988 .0258169
890.650 .0258121
891.312 .0258080
891.974 .0258047
892.636 .0258021
893.297 .0258003
893.957 .0257990
894.618 .0257984
895.278 .0257981
895.937 .0257975
896.596 .0257968
897.255 .0257954
897.914 .0257932
898.572 .0257899
899.230 .0257863
899.887 .0257819
900.544 .0257774
901.201 .0257727
901.857 .0257682
902.513 .0257640
903.168 .0257595
903.823 .0257542
904.478 .0257484
905.132 .0257414
905.786 .0257334
906.440 .0257244
907.093 .0257154
907.746 .0257063
908.399 .0256977
909.051 .0256898
909.703 .0256826
910.354 .0256760
911.005 .0256698
911.656 .0256632
912.306 .0256561
912.956 .0256487
913.605 .0256407
914.254 .0256326
914.903 .0256248
915.551 .0256176
916.199 .0256116
916.847 .0256068
917.494 .0256035
918.141 .0256016
918.788 .0256011
919.434 .0256021
920.079 .0256039
920.725 .0256063
921.370 .0256090
922.014 .0256116
922.658 .0256142
923.302 .0256163
923.946 .0256183
924.589 .0256197
925.231 .0256205
925.873 .0256209
926.515 .0256202
927.157 .0256184
927.798 .0256153
928.439 .0256110
929.079 .0256054
929.719 .0255986
930.359 .0255906
930.998 .0255816
931.637 .0255728
932.275 .0255638
932.913 .0255549
933.551 .0255467
934.188 .0255398
934.825 .0255340
935.462 .0255296
936.098 .0255271
936.733 .0255261
937.369 .0255268
938.004 .0255290
938.638 .0255324
939.273 .0255369
939.907 .0255425
940.540 .0255492
941.173 .0255572
941.806 .0255668
942.438 .0255777
943.070 .0255896
943.702 .0256024
944.333 .0256153
944.964 .0256271
945.594 .0256379
946.224 .0256470
946.854 .0256544
947.483 .0256602
948.112 .0256646
948.741 .0256682
949.369 .0256719
949.996 .0256755
950.624 .0256791
951.251 .0256823
951.878 .0256846
952.504 .0256849
953.130 .0256835
953.755 .0256800
954.380 .0256748
955.005 .0256682
955.629 .0256606
956.253 .0256523
956.877 .0256444
957.500 .0256371
958.123 .0256305
958.746 .0256245
959.368 .0256187
959.990 .0256122
960.611 .0256047
961.232 .0255959
961.853 .0255861
962.473 .0255755
963.093 .0255648
963.712 .0255536
964.331 .0255424
964.950 .0255318
965.569 .0255224
966.187 .0255141
966.804 .0255068
967.422 .0255002
968.039 .0254936
968.655 .0254867
969.272 .0254792
969.887 .0254707
970.503 .0254615
971.118 .0254514
971.733 .0254404
972.347 .0254286
972.961 .0254164
973.575 .0254043
974.188 .0253923
974.801 .0253798
975.414 .0253662
976.026 .0253506
976.638 .0253333
977.250 .0253137
977.861 .0252921
978.472 .0252690
979.083 .0252447
979.693 .0252195
980.303 .0251934
980.912 .0251666
981.521 .0251399
982.130 .0251126
982.738 .0250853
983.346 .0250569
983.954 .0250284
984.562 .0249992
985.169 .0249698
985.775 .0249404
986.382 .0249115
986.988 .0248833
987.594 .0248561
988.199 .0248295
988.804 .0248039
989.409 .0247787
990.013 .0247543
990.617 .0247299
991.221 .0247057
991.824 .0246811
992.427 .0246569
993.030 .0246329
993.632 .0246100
994.234 .0245873
994.836 .0245659
995.438 .0245450
996.039 .0245248
996.640 .0245045
997.240 .0244844
997.840 .0244643
998.440 .0244446
999.040 .0244245
999.639 .0244049
1000.238 .0243849
1000.836 .0243654
1001.435 .0243458
1002.033 .0243262
1002.630 .0243062
1003.228 .0242860
1003.825 .0242655
1004.422 .0242449
1005.018 .0242245
1005.614 .0242053
1006.210 .0241871
1006.806 .0241705
1007.401 .0241548
1007.996 .0241388
1008.591 .0241228
1009.186 .0241066
1009.780 .0240896
1010.374 .0240724
1010.967 .0240555
1011.561 .0240393
1012.154 .0240245
1012.746 .0240114
1013.339 .0239997
1013.931 .0239891
1014.523 .0239798
1015.115 .0239699
1015.706 .0239596
1016.298 .0239489
1016.888 .0239379
1017.479 .0239266
1018.069 .0239166
1018.660 .0239075
1019.250 .0239002
1019.839 .0238951
1020.429 .0238919
1021.018 .0238902
1021.607 .0238899
1022.195 .0238901
1022.784 .0238905
1023.372 .0238911
1023.960 .0238924
1024.547 .0238935
1025.135 .0238962
1025.722 .0238996
1026.309 .0239044
1026.896 .0239100
1027.483 .0239159
1028.069 .0239209
1028.655 .0239248
1029.241 .0239272
1029.827 .0239280
1030.412 .0239275
1030.997 .0239272
1031.582 .0239272
1032.167 .0239284
1032.752 .0239310
1033.336 .0239351
1033.921 .0239398
1034.505 .0239449
1035.089 .0239492
1035.672 .0239531
1036.256 .0239557
1036.839 .0239578
1037.422 .0239600
1038.005 .0239638
1038.588 .0239694
1039.171 .0239768
1039.753 .0239857
1040.335 .0239955
1040.918 .0240050
1041.500 .0240133
1042.081 .0240202
1042.663 .0240263
1043.244 .0240310
1043.826 .0240354
1044.407 .0240398
1044.988 .0240448
1045.569 .0240499
1046.150 .0240561
1046.730 .0240630
1047.311 .0240713
1047.891 .0240806
1048.471 .0240915
1049.052 .0241043
1049.632 .0241199
1050.211 .0241371
1050.791 .0241555
1051.371 .0241755
1051.950 .0241956
1052.530 .0242146
1053.109 .0242327
1053.688 .0242493
1054.268 .0242652
1054.847 .0242800
1055.426 .0242953
1056.005 .0243105
1056.583 .0243257
1057.162 .0243405
1057.741 .0243550
1058.319 .0243684
1058.898 .0243810
1059.476 .0243911
1060.055 .0243996
1060.633 .0244072
1061.211 .0244139
1061.790 .0244207
1062.368 .0244295
1062.946 .0244405
1063.524 .0244536
1064.102 .0244681
1064.680 .0244849
1065.258 .0245026
1065.836 .0245205
1066.414 .0245393
1066.992 .0245579
1067.570 .0245777
1068.148 .0245976
1068.726 .0246179
1069.304 .0246390
1069.882 .0246615
1070.460 .0246839
1071.038 .0247046
1071.616 .0247224
1072.194 .0247377
1072.772 .0247488
1073.350 .0247580
1073.928 .0247651
1074.506 .0247720
1075.084 .0247790
1075.662 .0247883
1076.240 .0247986
1076.819 .0248104
1077.397 .0248232
1077.976 .0248371
1078.554 .0248509
1079.133 .0248643
1079.711 .0248768
1080.290 .0248906
1080.869 .0249052
1081.448 .0249219
1082.027 .0249402
1082.606 .0249595
1083.185 .0249796
1083.764 .0250006
1084.343 .0250215
1084.923 .0250417
1085.502 .0250613
1086.082 .0250800
1086.662 .0250989
1087.242 .0251183
1087.822 .0251375
1088.402 .0251563
1088.983 .0251772
1089.563 .0251978
1090.144 .0252170
1090.725 .0252375
1091.306 .0252586
1091.887 .0252792
1092.469 .0253027
1093.050 .0253278
1093.632 .0253555
1094.214 .0253851
1094.796 .0254167
1095.379 .0254476
1095.961 .0254786
1096.544 .0255078
1097.127 .0255319
1097.710 .0255534
1098.294 .0255736
1098.877 .0255902
1099.461 .0256079
1100.046 .0256285
1100.630 .0256544
1101.215 .0256861
1101.800 .0257244
1102.385 .0257666
1102.970 .0258116
1103.556 .0258570
1104.142 .0259026
1104.728 .0259473
1105.315 .0259908
1105.902 .0260327
1106.489 .0260732
1107.077 .0261145
1107.664 .0261552
1108.253 .0261971
1108.841 .0262403
1109.430 .0262853
1110.019 .0263324
1110.609 .0263788
1111.198 .0264250
1111.789 .0264716
1112.379 .0265156
1112.970 .0265533
1113.561 .0265838
1114.153 .0266091
1114.745 .0266292
1115.338 .0266488
1115.931 .0266677
1116.524 .0266901
1117.117 .0267150
1117.712 .0267454
1118.306 .0267761
1118.901 .0268068
1119.496 .0268363
1120.092 .0268621
1120.689 .0268824
1121.285 .0268982
1121.882 .0269096
1122.480 .0269219
1123.078 .0269397
1123.677 .0269655
1124.276 .0269938
1124.875 .0270291
1125.476 .0270683
1126.076 .0271115
1126.677 .0271560
1127.279 .0272033
1127.881 .0272547
1128.484 .0273105
1129.087 .0273707
1129.691 .0274315
1130.295 .0274962
1130.900 .0275643
1131.505 .0276340
1132.111 .0277024
1132.718 .0277701
1133.325 .0278409
1133.933 .0279165
1134.541 .0280008
1135.150 .0280935
1135.760 .0281933
1136.370 .0282995
1136.981 .0284092
1137.592 .0285191
1138.204 .0286270
1138.817 .0287401
1139.431 .0288563
1140.045 .0289783
1140.660 .0291018
1141.275 .0292265
1141.891 .0293535
1142.508 .0295554
1143.126 .0297409
1143.744 .0297150
1144.363 .0298027
1144.983 .0299118
