Measurement Sequence started on: 15-12-46-377
Integration time: 28
Scans to Average: 2 
>>>>>Begin Spectral Data<<<<<
432.689 .0000100
433.621 .0000100
434.552 .0000100
435.482 .0000100
436.410 .0000100
437.337 .0000100
438.262 .0288725
439.187 .0612294
440.110 .1013947
441.031 .1468030
441.952 .1908945
442.871 .2256573
443.789 .2448181
444.705 .2462618
445.621 .2325811
446.535 .2095170
447.447 .1833254
448.359 .1430071
449.269 .1229779
450.178 .1102761
451.086 .1010794
451.993 .0939456
452.898 .0881696
453.803 .0833558
454.706 .0792978
455.608 .0758683
456.508 .0729443
457.408 .0704468
458.306 .0682795
459.204 .0663679
460.100 .0646367
460.995 .0630986
461.888 .0617053
462.781 .0604522
463.673 .0593092
464.563 .0582707
465.452 .0573126
466.340 .0564347
467.228 .0556211
468.114 .0548671
468.999 .0541737
469.882 .0535198
470.765 .0528917
471.647 .0523035
472.528 .0517483
473.407 .0512460
474.286 .0507959
475.163 .0504058
476.040 .0500647
476.915 .0497793
477.790 .0495379
478.663 .0493318
479.535 .0491622
480.407 .0490197
481.277 .0488959
482.147 .0487941
483.015 .0487104
483.883 .0486552
484.749 .0486312
485.615 .0486449
486.479 .0486845
487.343 .0487519
488.206 .0488401
489.067 .0489353
489.928 .0490368
490.788 .0491404
491.647 .0492473
492.505 .0493618
493.362 .0494882
494.218 .0496291
495.073 .0497908
495.928 .0499828
496.781 .0501952
497.634 .0504347
498.486 .0506846
499.337 .0509455
500.187 .0512199
501.036 .0515081
501.884 .0518131
502.731 .0521337
503.578 .0524875
504.424 .0528714
505.268 .0532875
506.113 .0537390
506.956 .0542183
507.798 .0547422
508.640 .0553076
509.480 .0559178
510.320 .0565900
511.160 .0573452
511.998 .0581861
512.836 .0591413
513.672 .0602207
514.508 .0614155
515.344 .0627436
516.178 .0642334
517.012 .0659003
517.845 .0677780
518.677 .0698932
519.508 .0722787
520.339 .0749889
521.169 .0780944
521.998 .0816187
522.826 .0856019
523.654 .0901305
524.481 .0952018
525.307 .1008653
526.133 .1070734
526.958 .1137804
527.782 .1209755
528.605 .1284796
529.428 .1361482
530.250 .1434919
531.072 .1502566
531.892 .1560297
532.712 .1604994
533.532 .1634564
534.350 .1646476
535.168 .1640130
535.986 .1616004
536.802 .1575513
537.618 .1521181
538.434 .1455619
539.249 .1383268
540.063 .1306667
540.876 .1229320
541.689 .1152978
542.501 .1080383
543.313 .1013608
544.124 .0953531
544.934 .0899673
545.744 .0851447
546.553 .0808868
547.361 .0771218
548.169 .0738316
548.976 .0709062
549.783 .0683293
550.589 .0660779
551.395 .0640413
552.200 .0622073
553.004 .0605558
553.808 .0590739
554.611 .0577456
555.414 .0565627
556.216 .0555078
557.018 .0545655
557.819 .0537104
558.619 .0529171
559.419 .0521679
560.218 .0514518
561.017 .0507475
561.815 .0500458
562.613 .0493493
563.410 .0486576
564.207 .0479654
565.003 .0472923
565.799 .0466375
566.594 .0459960
567.388 .0453721
568.182 .0447653
568.976 .0441762
569.769 .0436071
570.562 .0430527
571.354 .0425196
572.145 .0420079
572.936 .0415185
573.727 .0410440
574.517 .0405893
575.307 .0401565
576.096 .0397363
576.885 .0393299
577.673 .0389415
578.461 .0385683
579.248 .0382105
580.035 .0378709
580.821 .0375511
581.607 .0372504
582.392 .0369705
583.177 .0367099
583.962 .0364700
584.746 .0362529
585.529 .0360534
586.313 .0358718
587.095 .0357076
587.878 .0355593
588.660 .0354242
589.441 .0353046
590.222 .0351974
591.003 .0351018
591.783 .0350141
592.563 .0349343
593.342 .0348594
594.121 .0347869
594.899 .0347161
595.678 .0346467
596.455 .0345800
597.233 .0345143
598.009 .0344491
598.786 .0343852
599.562 .0343221
600.338 .0342592
601.113 .0341974
601.888 .0341369
602.663 .0340782
603.437 .0340222
604.211 .0339683
604.984 .0339173
605.757 .0338685
606.530 .0338211
607.302 .0337750
608.074 .0337287
608.845 .0336826
609.616 .0336362
610.387 .0335913
611.158 .0335483
611.928 .0335084
612.697 .0334717
613.467 .0334380
614.236 .0334064
615.004 .0333767
615.773 .0333476
616.541 .0333189
617.308 .0332899
618.076 .0332606
618.843 .0332323
619.609 .0332053
620.375 .0331806
621.141 .0331592
621.907 .0331406
622.672 .0331237
623.437 .0331063
624.202 .0330871
624.966 .0330657
625.730 .0330412
626.493 .0330134
627.257 .0329831
628.020 .0329519
628.782 .0329200
629.545 .0328878
630.307 .0328563
631.068 .0328251
631.830 .0327930
632.591 .0327598
633.352 .0327244
634.112 .0326875
634.872 .0326491
635.632 .0326109
636.392 .0325734
637.151 .0325382
637.910 .0325046
638.668 .0324733
639.427 .0324442
640.185 .0324164
640.943 .0323883
641.700 .0323602
642.457 .0323324
643.214 .0323045
643.971 .0322763
644.727 .0322493
645.483 .0322238
646.239 .0321997
646.994 .0321762
647.750 .0321533
648.505 .0321303
649.259 .0321077
650.014 .0320842
650.768 .0320603
651.521 .0320368
652.275 .0320140
653.028 .0319920
653.781 .0319709
654.534 .0319508
655.286 .0319304
656.039 .0319096
656.791 .0318884
657.542 .0318655
658.294 .0318412
659.045 .0318161
659.796 .0317903
660.546 .0317647
661.297 .0317384
662.047 .0317124
662.796 .0316875
663.546 .0316633
664.295 .0316390
665.044 .0316147
665.793 .0315903
666.542 .0315658
667.290 .0315397
668.038 .0315123
668.786 .0314841
669.533 .0314558
670.281 .0314271
671.028 .0313984
671.774 .0313707
672.521 .0313443
673.267 .0313193
674.013 .0312962
674.759 .0312742
675.505 .0312528
676.250 .0312316
676.995 .0312109
677.740 .0311904
678.484 .0311699
679.229 .0311498
679.973 .0311311
680.717 .0311139
681.460 .0310978
682.204 .0310828
682.947 .0310692
683.690 .0310567
684.433 .0310438
685.175 .0310299
685.917 .0310146
686.659 .0309979
687.401 .0309797
688.142 .0309601
688.884 .0309405
689.625 .0309199
690.365 .0308992
691.106 .0308784
691.846 .0308578
692.586 .0308369
693.326 .0308154
694.066 .0307938
694.805 .0307716
695.545 .0307485
696.284 .0307246
697.022 .0307000
697.761 .0306755
698.499 .0306502
699.237 .0306248
699.975 .0305994
700.713 .0305747
701.450 .0305504
702.187 .0305266
702.924 .0305032
703.661 .0304807
704.397 .0304583
705.133 .0304359
705.869 .0304135
706.605 .0303906
707.341 .0303672
708.076 .0303439
708.811 .0303206
709.546 .0302978
710.281 .0302758
711.015 .0302553
711.749 .0302355
712.483 .0302170
713.217 .0301986
713.950 .0301802
714.684 .0301619
715.417 .0301434
716.150 .0301240
716.882 .0301043
717.615 .0300847
718.347 .0300654
719.079 .0300464
719.811 .0300284
720.542 .0300108
721.273 .0299937
722.005 .0299764
722.735 .0299587
723.466 .0299404
724.196 .0299218
724.927 .0299024
725.656 .0298825
726.386 .0298624
727.116 .0298425
727.845 .0298227
728.574 .0298036
729.303 .0297853
730.031 .0297674
730.760 .0297500
731.488 .0297328
732.216 .0297158
732.944 .0296994
733.671 .0296839
734.398 .0296693
735.125 .0296563
735.852 .0296445
736.579 .0296340
737.305 .0296249
738.031 .0296175
738.757 .0296108
739.483 .0296048
740.208 .0295996
740.933 .0295948
741.658 .0295901
742.383 .0295858
743.108 .0295814
743.832 .0295777
744.556 .0295738
745.280 .0295698
746.004 .0295653
746.727 .0295606
747.450 .0295554
748.173 .0295494
748.896 .0295429
749.618 .0295357
750.340 .0295271
751.062 .0295176
751.784 .0295072
752.506 .0294955
753.227 .0294826
753.948 .0294689
754.669 .0294539
755.389 .0294387
756.110 .0294230
756.830 .0294067
757.550 .0293902
758.269 .0293738
758.989 .0293562
759.708 .0293371
760.427 .0293170
761.146 .0292960
761.864 .0292742
762.582 .0292529
763.300 .0292315
764.018 .0292107
764.736 .0291908
765.453 .0291715
766.170 .0291526
766.887 .0291343
767.603 .0291159
768.320 .0290971
769.036 .0290785
769.751 .0290600
770.467 .0290415
771.182 .0290241
771.897 .0290075
772.612 .0289914
773.327 .0289754
774.041 .0289597
774.755 .0289436
775.469 .0289274
776.183 .0289113
776.896 .0288947
777.609 .0288784
778.322 .0288624
779.035 .0288464
779.747 .0288311
780.459 .0288165
781.171 .0288021
781.882 .0287875
782.594 .0287730
783.305 .0287585
784.016 .0287446
784.726 .0287317
785.436 .0287199
786.147 .0287087
786.856 .0286983
787.566 .0286884
788.275 .0286782
788.984 .0286681
789.693 .0286571
790.401 .0286456
791.110 .0286335
791.818 .0286206
792.525 .0286076
793.233 .0285948
793.940 .0285826
794.647 .0285707
795.353 .0285588
796.060 .0285470
796.766 .0285345
797.472 .0285212
798.177 .0285065
798.883 .0284905
799.588 .0284732
800.292 .0284550
800.997 .0284362
801.701 .0284174
802.405 .0283993
803.109 .0283818
803.812 .0283651
804.515 .0283489
805.218 .0283329
805.921 .0283165
806.623 .0282995
807.325 .0282822
808.027 .0282646
808.728 .0282469
809.429 .0282291
810.130 .0282121
810.831 .0281960
811.531 .0281806
812.231 .0281659
812.931 .0281516
813.630 .0281371
814.330 .0281220
815.029 .0281061
815.727 .0280896
816.426 .0280725
817.124 .0280555
817.821 .0280387
818.519 .0280227
819.216 .0280076
819.913 .0279939
820.609 .0279815
821.306 .0279709
822.002 .0279619
822.697 .0279545
823.393 .0279486
824.088 .0279445
824.783 .0279416
825.477 .0279401
826.171 .0279401
826.865 .0279417
827.559 .0279450
828.252 .0279498
828.945 .0279553
829.638 .0279621
830.330 .0279693
831.023 .0279765
831.714 .0279829
832.406 .0279882
833.097 .0279919
833.788 .0279941
834.479 .0279951
835.169 .0279951
835.859 .0279950
836.548 .0279954
837.238 .0279961
837.927 .0279971
838.615 .0279984
839.304 .0279993
839.992 .0279997
840.680 .0279993
841.367 .0279974
842.054 .0279946
842.741 .0279916
843.428 .0279888
844.114 .0279869
844.800 .0279863
845.485 .0279867
846.170 .0279874
846.855 .0279883
847.540 .0279881
848.224 .0279861
848.908 .0279825
849.592 .0279770
850.275 .0279694
850.958 .0279600
851.641 .0279492
852.323 .0279375
853.005 .0279253
853.687 .0279124
854.368 .0278987
855.049 .0278844
855.730 .0278690
856.410 .0278519
857.090 .0278333
857.769 .0278130
858.449 .0277914
859.128 .0277685
859.806 .0277449
860.485 .0277215
861.163 .0276984
861.840 .0276763
862.518 .0276554
863.195 .0276359
863.871 .0276172
864.548 .0275989
865.224 .0275810
865.899 .0275629
866.574 .0275446
867.249 .0275264
867.924 .0275087
868.598 .0274921
869.272 .0274773
869.946 .0274641
870.619 .0274526
871.292 .0274427
871.964 .0274335
872.636 .0274243
873.308 .0274141
873.979 .0274035
874.651 .0273913
875.321 .0273780
875.992 .0273637
876.662 .0273490
877.331 .0273339
878.001 .0273186
878.670 .0273031
879.338 .0272873
880.007 .0272711
880.675 .0272545
881.342 .0272373
882.009 .0272200
882.676 .0272024
883.343 .0271849
884.009 .0271676
884.675 .0271510
885.340 .0271346
886.005 .0271187
886.670 .0271037
887.334 .0270894
887.998 .0270758
888.662 .0270627
889.325 .0270504
889.988 .0270390
890.650 .0270285
891.312 .0270182
891.974 .0270084
892.636 .0269989
893.297 .0269897
893.957 .0269800
894.618 .0269700
895.278 .0269598
895.937 .0269492
896.596 .0269381
897.255 .0269269
897.914 .0269156
898.572 .0269044
899.230 .0268930
899.887 .0268817
900.544 .0268696
901.201 .0268568
901.857 .0268428
902.513 .0268275
903.168 .0268108
903.823 .0267928
904.478 .0267733
905.132 .0267530
905.786 .0267324
906.440 .0267113
907.093 .0266898
907.746 .0266684
908.399 .0266470
909.051 .0266253
909.703 .0266034
910.354 .0265815
911.005 .0265596
911.656 .0265376
912.306 .0265150
912.956 .0264924
913.605 .0264696
914.254 .0264471
914.903 .0264250
915.551 .0264038
916.199 .0263843
916.847 .0263662
917.494 .0263492
918.141 .0263335
918.788 .0263187
919.434 .0263045
920.079 .0262898
920.725 .0262751
921.370 .0262600
922.014 .0262446
922.658 .0262291
923.302 .0262140
923.946 .0261995
924.589 .0261856
925.231 .0261716
925.873 .0261579
926.515 .0261440
927.157 .0261294
927.798 .0261140
928.439 .0260977
929.079 .0260805
929.719 .0260626
930.359 .0260437
930.998 .0260247
931.637 .0260060
932.275 .0259881
932.913 .0259709
933.551 .0259554
934.188 .0259418
934.825 .0259300
935.462 .0259198
936.098 .0259116
936.733 .0259046
937.369 .0258987
938.004 .0258938
938.638 .0258899
939.273 .0258868
939.907 .0258848
940.540 .0258839
941.173 .0258847
941.806 .0258874
942.438 .0258918
943.070 .0258973
943.702 .0259036
944.333 .0259104
944.964 .0259166
945.594 .0259218
946.224 .0259264
946.854 .0259301
947.483 .0259334
948.112 .0259365
948.741 .0259396
949.369 .0259431
949.996 .0259475
950.624 .0259532
951.251 .0259595
951.878 .0259666
952.504 .0259736
953.130 .0259805
953.755 .0259866
954.380 .0259920
955.005 .0259964
955.629 .0260000
956.253 .0260033
956.877 .0260065
957.500 .0260101
958.123 .0260148
958.746 .0260203
959.368 .0260263
959.990 .0260322
960.611 .0260374
961.232 .0260415
961.853 .0260444
962.473 .0260462
963.093 .0260475
963.712 .0260482
964.331 .0260491
964.950 .0260499
965.569 .0260515
966.187 .0260540
966.804 .0260569
967.422 .0260602
968.039 .0260632
968.655 .0260654
969.272 .0260662
969.887 .0260655
970.503 .0260632
971.118 .0260595
971.733 .0260548
972.347 .0260490
972.961 .0260429
973.575 .0260360
974.188 .0260290
974.801 .0260214
975.414 .0260135
976.026 .0260048
976.638 .0259951
977.250 .0259847
977.861 .0259735
978.472 .0259623
979.083 .0259510
979.693 .0259393
980.303 .0259277
980.912 .0259163
981.521 .0259051
982.130 .0258941
982.738 .0258838
983.346 .0258739
983.954 .0258643
984.562 .0258546
985.169 .0258446
985.775 .0258338
986.382 .0258217
986.988 .0258089
987.594 .0257942
988.199 .0257784
988.804 .0257614
989.409 .0257441
990.013 .0257269
990.617 .0257103
991.221 .0256941
991.824 .0256793
992.427 .0256658
993.030 .0256532
993.632 .0256412
994.234 .0256303
994.836 .0256199
995.438 .0256100
996.039 .0256001
996.640 .0255909
997.240 .0255820
997.840 .0255740
998.440 .0255664
999.040 .0255593
999.639 .0255523
1000.238 .0255452
1000.836 .0255369
1001.435 .0255278
1002.033 .0255166
1002.630 .0255043
1003.228 .0254906
1003.825 .0254764
1004.422 .0254619
1005.018 .0254479
1005.614 .0254351
1006.210 .0254242
1006.806 .0254143
1007.401 .0254056
1007.996 .0253978
1008.591 .0253912
1009.186 .0253850
1009.780 .0253789
1010.374 .0253731
1010.967 .0253676
1011.561 .0253624
1012.154 .0253575
1012.746 .0253522
1013.339 .0253471
1013.931 .0253421
1014.523 .0253366
1015.115 .0253302
1015.706 .0253236
1016.298 .0253158
1016.888 .0253068
1017.479 .0252974
1018.069 .0252874
1018.660 .0252767
1019.250 .0252659
1019.839 .0252554
1020.429 .0252450
1021.018 .0252357
1021.607 .0252271
1022.195 .0252187
1022.784 .0252114
1023.372 .0252044
1023.960 .0251973
1024.547 .0251909
1025.135 .0251857
1025.722 .0251812
1026.309 .0251780
1026.896 .0251769
1027.483 .0251765
1028.069 .0251770
1028.655 .0251777
1029.241 .0251782
1029.827 .0251777
1030.412 .0251760
1030.997 .0251729
1031.582 .0251692
1032.167 .0251656
1032.752 .0251611
1033.336 .0251573
1033.921 .0251539
1034.505 .0251505
1035.089 .0251467
1035.672 .0251417
1036.256 .0251356
1036.839 .0251288
1037.422 .0251212
1038.005 .0251130
1038.588 .0251044
1039.171 .0250964
1039.753 .0250887
1040.335 .0250815
1040.918 .0250753
1041.500 .0250687
1042.081 .0250623
1042.663 .0250559
1043.244 .0250485
1043.826 .0250409
1044.407 .0250326
1044.988 .0250246
1045.569 .0250164
1046.150 .0250079
1046.730 .0249996
1047.311 .0249916
1047.891 .0249846
1048.471 .0249787
1049.052 .0249732
1049.632 .0249692
1050.211 .0249667
1050.791 .0249656
1051.371 .0249658
1051.950 .0249670
1052.530 .0249694
1053.109 .0249729
1053.688 .0249756
1054.268 .0249785
1054.847 .0249811
1055.426 .0249845
1056.005 .0249887
1056.583 .0249925
1057.162 .0249962
1057.741 .0249994
1058.319 .0250018
1058.898 .0250035
1059.476 .0250027
1060.055 .0249998
1060.633 .0249946
1061.211 .0249881
1061.790 .0249809
1062.368 .0249735
1062.946 .0249673
1063.524 .0249620
1064.102 .0249582
1064.680 .0249556
1065.258 .0249510
1065.836 .0249461
1066.414 .0249401
1066.992 .0249321
1067.570 .0249237
1068.148 .0249159
1068.726 .0249089
1069.304 .0249063
1069.882 .0249078
1070.460 .0249120
1071.038 .0249194
1071.616 .0249295
1072.194 .0249401
1072.772 .0249503
1073.350 .0249609
1073.928 .0249715
1074.506 .0249827
1075.084 .0249973
1075.662 .0250130
1076.240 .0250321
1076.819 .0250544
1077.397 .0250783
1077.976 .0251034
1078.554 .0251293
1079.133 .0251543
1079.711 .0251781
1080.290 .0252020
1080.869 .0252245
1081.448 .0252446
1082.027 .0252627
1082.606 .0252781
1083.185 .0252915
1083.764 .0253016
1084.343 .0253089
1084.923 .0253131
1085.502 .0253168
1086.082 .0253192
1086.662 .0253220
1087.242 .0253256
1087.822 .0253296
1088.402 .0253349
1088.983 .0253400
1089.563 .0253458
1090.144 .0253524
1090.725 .0253592
1091.306 .0253663
1091.887 .0253757
1092.469 .0253889
1093.050 .0254045
1093.632 .0254249
1094.214 .0254501
1094.796 .0254795
1095.379 .0255132
1095.961 .0255485
1096.544 .0255846
1097.127 .0256206
1097.710 .0256549
1098.294 .0256856
1098.877 .0257164
1099.461 .0257464
1100.046 .0257761
1100.630 .0258065
1101.215 .0258394
1101.800 .0258718
1102.385 .0259029
1102.970 .0259325
1103.556 .0259583
1104.142 .0259799
1104.728 .0259972
1105.315 .0260102
1105.902 .0260232
1106.489 .0260380
1107.077 .0260566
1107.664 .0260802
1108.253 .0261099
1108.841 .0261438
1109.430 .0261821
1110.019 .0262217
1110.609 .0262609
1111.198 .0263007
1111.789 .0263429
1112.379 .0263879
1112.970 .0264347
1113.561 .0264873
1114.153 .0265454
1114.745 .0266118
1115.338 .0266863
1115.931 .0267662
1116.524 .0268520
1117.117 .0269419
1117.712 .0270345
1118.306 .0271310
1118.901 .0272285
1119.496 .0273235
1120.092 .0274152
1120.689 .0275044
1121.285 .0275848
1121.882 .0276538
1122.480 .0277139
1123.078 .0277700
1123.677 .0278213
1124.276 .0278688
1124.875 .0279109
1125.476 .0279514
1126.076 .0279912
1126.677 .0280245
1127.279 .0280483
1127.881 .0280659
1128.484 .0280736
1129.087 .0280739
1129.691 .0280705
1130.295 .0280734
1130.900 .0280884
1131.505 .0281226
1132.111 .0281799
1132.718 .0282601
1133.325 .0283622
1133.933 .0284801
1134.541 .0286055
1135.150 .0287371
1135.760 .0288688
1136.370 .0289988
1136.981 .0291334
1137.592 .0292744
1138.204 .0294328
1138.817 .0296105
1139.431 .0298042
1140.045 .0300141
1140.660 .0302229
1141.275 .0304530
1141.891 .0306932
1142.508 .0309096
1143.126 .0311276
1143.744 .0309431
1144.363 .0318448
1144.983 .0322572
