Measurement Sequence started on: 15-12-46-377
Integration time: 28
Scans to Average: 2 
>>>>>Begin Spectral Data<<<<<
432.689 .0000100
433.621 .0000100
434.552 .0000100
435.482 .0000100
436.410 .0000100
437.337 .0000100
438.262 .0261910
439.187 .0556474
440.110 .0923064
441.031 .1336564
441.952 .1738655
442.871 .2055558
443.789 .2230023
444.705 .2241925
445.621 .2115148
446.535 .1902166
447.447 .1660494
448.359 .1291111
449.269 .1106466
450.178 .0989963
451.086 .0908279
451.993 .0846122
452.898 .0797461
453.803 .0757674
454.706 .0724670
455.608 .0696234
456.508 .0671401
457.408 .0649440
458.306 .0629796
459.204 .0612068
460.100 .0595982
460.995 .0581818
461.888 .0569203
462.781 .0558013
463.673 .0548033
464.563 .0539090
465.452 .0530818
466.340 .0522905
467.228 .0515434
468.114 .0508412
468.999 .0501811
469.882 .0495573
470.765 .0489733
471.647 .0484399
472.528 .0479491
473.407 .0475105
474.286 .0471135
475.163 .0467722
476.040 .0464718
476.915 .0462097
477.790 .0459703
478.663 .0457588
479.535 .0455659
480.407 .0453987
481.277 .0452601
482.147 .0451599
483.015 .0450945
483.883 .0450712
484.749 .0450888
485.615 .0451418
486.479 .0452227
487.343 .0453276
488.206 .0454387
489.067 .0455546
489.928 .0456598
490.788 .0457643
491.647 .0458620
492.505 .0459630
493.362 .0460656
494.218 .0461707
495.073 .0462819
495.928 .0464032
496.781 .0465186
497.634 .0466412
498.486 .0467795
499.337 .0469298
500.187 .0471035
501.036 .0472996
501.884 .0475290
502.731 .0478001
503.578 .0481138
504.424 .0484647
505.268 .0488358
506.113 .0492529
506.956 .0496998
507.798 .0501860
508.640 .0507326
509.480 .0513353
510.320 .0520207
511.160 .0528097
511.998 .0536866
512.836 .0546578
513.672 .0557468
514.508 .0569438
515.344 .0582476
516.178 .0596805
517.012 .0612372
517.845 .0629830
518.677 .0649845
519.508 .0672819
520.339 .0699060
521.169 .0729804
521.998 .0765101
522.826 .0805144
523.654 .0850236
524.481 .0900164
525.307 .0955050
526.133 .1015129
526.958 .1079131
527.782 .1146690
528.605 .1216899
529.428 .1288544
530.250 .1356632
531.072 .1419468
531.892 .1472876
532.712 .1513938
533.532 .1540249
534.350 .1549473
535.168 .1540563
535.986 .1515106
536.802 .1474545
537.618 .1421585
538.434 .1359307
539.249 .1292151
540.063 .1221878
540.876 .1152107
541.689 .1084301
542.501 .1020076
543.313 .0960904
544.124 .0907127
544.934 .0858410
545.744 .0814466
546.553 .0774983
547.361 .0739747
548.169 .0708928
548.976 .0681459
549.783 .0656854
550.589 .0634966
551.395 .0615276
552.200 .0597344
553.004 .0581183
553.808 .0566420
554.611 .0553122
555.414 .0541235
556.216 .0530422
557.018 .0520453
557.819 .0511522
558.619 .0503212
559.419 .0495425
560.218 .0488090
561.017 .0481115
561.815 .0474210
562.613 .0467440
563.410 .0460755
564.207 .0454143
565.003 .0447694
565.799 .0441328
566.594 .0434906
567.388 .0428621
568.182 .0422394
568.976 .0416200
569.769 .0410195
570.562 .0404495
571.354 .0399079
572.145 .0394007
572.936 .0389254
573.727 .0384763
574.517 .0380513
575.307 .0376493
576.096 .0372603
576.885 .0368851
577.673 .0365256
578.461 .0361775
579.248 .0358466
580.035 .0355364
580.821 .0352477
581.607 .0349816
582.392 .0347354
583.177 .0345091
583.962 .0343034
584.746 .0341168
585.529 .0339488
586.313 .0337990
587.095 .0336673
587.878 .0335529
588.660 .0334522
589.441 .0333628
590.222 .0332828
591.003 .0332112
591.783 .0331448
592.563 .0330817
593.342 .0330236
594.121 .0329668
594.899 .0329118
595.678 .0328585
596.455 .0328063
597.233 .0327564
598.009 .0327071
598.786 .0326592
599.562 .0326111
600.338 .0325620
601.113 .0325119
601.888 .0324613
602.663 .0324111
603.437 .0323615
604.211 .0323129
604.984 .0322672
605.757 .0322250
606.530 .0321855
607.302 .0321491
608.074 .0321161
608.845 .0320864
609.616 .0320581
610.387 .0320298
611.158 .0320021
611.928 .0319729
612.697 .0319427
613.467 .0319129
614.236 .0318829
615.004 .0318534
615.773 .0318250
616.541 .0317978
617.308 .0317720
618.076 .0317478
618.843 .0317240
619.609 .0317005
620.375 .0316772
621.141 .0316523
621.907 .0316257
622.672 .0315989
623.437 .0315716
624.202 .0315439
624.966 .0315165
625.730 .0314899
626.493 .0314628
627.257 .0314365
628.020 .0314102
628.782 .0313833
629.545 .0313559
630.307 .0313266
631.068 .0312958
631.830 .0312637
632.591 .0312299
633.352 .0311947
634.112 .0311588
634.872 .0311227
635.632 .0310856
636.392 .0310485
637.151 .0310118
637.910 .0309757
638.668 .0309407
639.427 .0309070
640.185 .0308744
640.943 .0308433
641.700 .0308133
642.457 .0307840
643.214 .0307555
643.971 .0307263
644.727 .0306975
645.483 .0306696
646.239 .0306423
646.994 .0306159
647.750 .0305903
648.505 .0305662
649.259 .0305434
650.014 .0305211
650.768 .0304990
651.521 .0304768
652.275 .0304549
653.028 .0304323
653.781 .0304091
654.534 .0303863
655.286 .0303632
656.039 .0303403
656.791 .0303183
657.542 .0302957
658.294 .0302741
659.045 .0302530
659.796 .0302322
660.546 .0302122
661.297 .0301924
662.047 .0301730
662.796 .0301539
663.546 .0301357
664.295 .0301174
665.044 .0300992
665.793 .0300817
666.542 .0300645
667.290 .0300478
668.038 .0300318
668.786 .0300163
669.533 .0300017
670.281 .0299885
671.028 .0299757
671.774 .0299636
672.521 .0299528
673.267 .0299422
674.013 .0299323
674.759 .0299222
675.505 .0299125
676.250 .0299029
676.995 .0298937
677.740 .0298851
678.484 .0298761
679.229 .0298676
679.973 .0298587
680.717 .0298491
681.460 .0298393
682.204 .0298283
682.947 .0298162
683.690 .0298026
684.433 .0297876
685.175 .0297714
685.917 .0297547
686.659 .0297376
687.401 .0297202
688.142 .0297029
688.884 .0296856
689.625 .0296676
690.365 .0296488
691.106 .0296294
691.846 .0296090
692.586 .0295877
693.326 .0295661
694.066 .0295438
694.805 .0295223
695.545 .0295012
696.284 .0294804
697.022 .0294599
697.761 .0294399
698.499 .0294198
699.237 .0293997
699.975 .0293796
700.713 .0293598
701.450 .0293404
702.187 .0293219
702.924 .0293039
703.661 .0292869
704.397 .0292708
705.133 .0292550
705.869 .0292394
706.605 .0292240
707.341 .0292078
708.076 .0291913
708.811 .0291745
709.546 .0291576
710.281 .0291398
711.015 .0291215
711.749 .0291023
712.483 .0290824
713.217 .0290611
713.950 .0290381
714.684 .0290137
715.417 .0289883
716.150 .0289620
716.882 .0289350
717.615 .0289084
718.347 .0288827
719.079 .0288577
719.811 .0288335
720.542 .0288103
721.273 .0287877
722.005 .0287658
722.735 .0287445
723.466 .0287237
724.196 .0287035
724.927 .0286839
725.656 .0286646
726.386 .0286461
727.116 .0286279
727.845 .0286099
728.574 .0285917
729.303 .0285733
730.031 .0285547
730.760 .0285354
731.488 .0285159
732.216 .0284963
732.944 .0284771
733.671 .0284586
734.398 .0284408
735.125 .0284238
735.852 .0284076
736.579 .0283920
737.305 .0283767
738.031 .0283618
738.757 .0283471
739.483 .0283325
740.208 .0283181
740.933 .0283046
741.658 .0282917
742.383 .0282795
743.108 .0282684
743.832 .0282580
744.556 .0282480
745.280 .0282373
746.004 .0282259
746.727 .0282134
747.450 .0282000
748.173 .0281853
748.896 .0281698
749.618 .0281541
750.340 .0281386
751.062 .0281234
751.784 .0281088
752.506 .0280948
753.227 .0280810
753.948 .0280673
754.669 .0280534
755.389 .0280389
756.110 .0280242
756.830 .0280088
757.550 .0279937
758.269 .0279787
758.989 .0279640
759.708 .0279496
760.427 .0279358
761.146 .0279224
761.864 .0279090
762.582 .0278957
763.300 .0278822
764.018 .0278687
764.736 .0278551
765.453 .0278413
766.170 .0278279
766.887 .0278150
767.603 .0278028
768.320 .0277910
769.036 .0277804
769.751 .0277706
770.467 .0277616
771.182 .0277532
771.897 .0277450
772.612 .0277374
773.327 .0277300
774.041 .0277231
774.755 .0277165
775.469 .0277104
776.183 .0277049
776.896 .0276993
777.609 .0276944
778.322 .0276892
779.035 .0276838
779.747 .0276785
780.459 .0276731
781.171 .0276677
781.882 .0276623
782.594 .0276576
783.305 .0276537
784.016 .0276507
784.726 .0276487
785.436 .0276476
786.147 .0276474
786.856 .0276481
787.566 .0276495
788.275 .0276514
788.984 .0276540
789.693 .0276568
790.401 .0276596
791.110 .0276623
791.818 .0276648
792.525 .0276667
793.233 .0276680
793.940 .0276690
794.647 .0276688
795.353 .0276677
796.060 .0276655
796.766 .0276617
797.472 .0276561
798.177 .0276487
798.883 .0276396
799.588 .0276288
800.292 .0276171
800.997 .0276049
801.701 .0275925
802.405 .0275808
803.109 .0275694
803.812 .0275584
804.515 .0275482
805.218 .0275383
805.921 .0275285
806.623 .0275191
807.325 .0275101
808.027 .0275014
808.728 .0274930
809.429 .0274849
810.130 .0274766
810.831 .0274679
811.531 .0274585
812.231 .0274477
812.931 .0274355
813.630 .0274220
814.330 .0274070
815.029 .0273913
815.727 .0273752
816.426 .0273590
817.124 .0273429
817.821 .0273271
818.519 .0273116
819.216 .0272965
819.913 .0272820
820.609 .0272683
821.306 .0272556
822.002 .0272445
822.697 .0272352
823.393 .0272281
824.088 .0272231
824.783 .0272200
825.477 .0272180
826.171 .0272170
826.865 .0272162
827.559 .0272152
828.252 .0272136
828.945 .0272113
829.638 .0272084
830.330 .0272044
831.023 .0272000
831.714 .0271947
832.406 .0271887
833.097 .0271817
833.788 .0271736
834.479 .0271640
835.169 .0271532
835.859 .0271418
836.548 .0271295
837.238 .0271169
837.927 .0271039
838.615 .0270905
839.304 .0270771
839.992 .0270634
840.680 .0270496
841.367 .0270350
842.054 .0270202
842.741 .0270051
843.428 .0269900
844.114 .0269756
844.800 .0269615
845.485 .0269480
846.170 .0269353
846.855 .0269228
847.540 .0269097
848.224 .0268962
848.908 .0268822
849.592 .0268672
850.275 .0268514
850.958 .0268346
851.641 .0268170
852.323 .0267991
853.005 .0267811
853.687 .0267625
854.368 .0267437
855.049 .0267245
855.730 .0267040
856.410 .0266828
857.090 .0266606
857.769 .0266372
858.449 .0266130
859.128 .0265887
859.806 .0265640
860.485 .0265395
861.163 .0265159
861.840 .0264931
862.518 .0264714
863.195 .0264504
863.871 .0264298
864.548 .0264094
865.224 .0263894
865.899 .0263690
866.574 .0263487
867.249 .0263292
867.924 .0263102
868.598 .0262923
869.272 .0262754
869.946 .0262602
870.619 .0262462
871.292 .0262333
871.964 .0262214
872.636 .0262097
873.308 .0261986
873.979 .0261873
874.651 .0261768
875.321 .0261667
875.992 .0261571
876.662 .0261482
877.331 .0261399
878.001 .0261316
878.670 .0261228
879.338 .0261133
880.007 .0261032
880.675 .0260928
881.342 .0260819
882.009 .0260703
882.676 .0260592
883.343 .0260485
884.009 .0260387
884.675 .0260292
885.340 .0260204
886.005 .0260118
886.670 .0260033
887.334 .0259950
887.998 .0259866
888.662 .0259790
889.325 .0259724
889.988 .0259672
890.650 .0259635
891.312 .0259608
891.974 .0259593
892.636 .0259588
893.297 .0259591
893.957 .0259597
894.618 .0259603
895.278 .0259606
895.937 .0259611
896.596 .0259616
897.255 .0259615
897.914 .0259614
898.572 .0259611
899.230 .0259606
899.887 .0259595
900.544 .0259575
901.201 .0259547
901.857 .0259510
902.513 .0259467
903.168 .0259408
903.823 .0259335
904.478 .0259249
905.132 .0259148
905.786 .0259032
906.440 .0258905
907.093 .0258765
907.746 .0258618
908.399 .0258464
909.051 .0258305
909.703 .0258137
910.354 .0257962
911.005 .0257785
911.656 .0257605
912.306 .0257420
912.956 .0257233
913.605 .0257046
914.254 .0256867
914.903 .0256693
915.551 .0256528
916.199 .0256373
916.847 .0256234
917.494 .0256110
918.141 .0255997
918.788 .0255893
919.434 .0255800
920.079 .0255712
920.725 .0255629
921.370 .0255549
922.014 .0255468
922.658 .0255390
923.302 .0255318
923.946 .0255246
924.589 .0255174
925.231 .0255101
925.873 .0255029
926.515 .0254951
927.157 .0254872
927.798 .0254785
928.439 .0254687
929.079 .0254583
929.719 .0254468
930.359 .0254344
930.998 .0254216
931.637 .0254088
932.275 .0253962
932.913 .0253839
933.551 .0253723
934.188 .0253610
934.825 .0253508
935.462 .0253418
936.098 .0253333
936.733 .0253254
937.369 .0253182
938.004 .0253114
938.638 .0253049
939.273 .0252989
939.907 .0252934
940.540 .0252888
941.173 .0252853
941.806 .0252830
942.438 .0252821
943.070 .0252827
943.702 .0252844
944.333 .0252868
944.964 .0252897
945.594 .0252926
946.224 .0252952
946.854 .0252978
947.483 .0253006
948.112 .0253035
948.741 .0253066
949.369 .0253103
949.996 .0253146
950.624 .0253193
951.251 .0253240
951.878 .0253280
952.504 .0253313
953.130 .0253332
953.755 .0253338
954.380 .0253331
955.005 .0253313
955.629 .0253285
956.253 .0253251
956.877 .0253217
957.500 .0253188
958.123 .0253165
958.746 .0253147
959.368 .0253134
959.990 .0253121
960.611 .0253104
961.232 .0253087
961.853 .0253067
962.473 .0253049
963.093 .0253032
963.712 .0253021
964.331 .0253017
964.950 .0253023
965.569 .0253044
966.187 .0253074
966.804 .0253117
967.422 .0253166
968.039 .0253212
968.655 .0253251
969.272 .0253284
969.887 .0253301
970.503 .0253304
971.118 .0253293
971.733 .0253270
972.347 .0253241
972.961 .0253206
973.575 .0253167
974.188 .0253118
974.801 .0253064
975.414 .0252996
976.026 .0252905
976.638 .0252800
977.250 .0252681
977.861 .0252556
978.472 .0252430
979.083 .0252309
979.693 .0252197
980.303 .0252095
980.912 .0252004
981.521 .0251916
982.130 .0251829
982.738 .0251743
983.346 .0251654
983.954 .0251568
984.562 .0251490
985.169 .0251416
985.775 .0251351
986.382 .0251297
986.988 .0251248
987.594 .0251193
988.199 .0251130
988.804 .0251059
989.409 .0250975
990.013 .0250882
990.617 .0250786
991.221 .0250686
991.824 .0250598
992.427 .0250522
993.030 .0250457
993.632 .0250406
994.234 .0250368
994.836 .0250334
995.438 .0250298
996.039 .0250260
996.640 .0250216
997.240 .0250168
997.840 .0250122
998.440 .0250080
999.040 .0250034
999.639 .0249993
1000.238 .0249948
1000.836 .0249898
1001.435 .0249840
1002.033 .0249771
1002.630 .0249691
1003.228 .0249608
1003.825 .0249528
1004.422 .0249457
1005.018 .0249403
1005.614 .0249373
1006.210 .0249363
1006.806 .0249375
1007.401 .0249403
1007.996 .0249440
1008.591 .0249475
1009.186 .0249510
1009.780 .0249536
1010.374 .0249551
1010.967 .0249556
1011.561 .0249550
1012.154 .0249531
1012.746 .0249500
1013.339 .0249455
1013.931 .0249396
1014.523 .0249325
1015.115 .0249250
1015.706 .0249167
1016.298 .0249078
1016.888 .0248988
1017.479 .0248896
1018.069 .0248805
1018.660 .0248720
1019.250 .0248644
1019.839 .0248577
1020.429 .0248523
1021.018 .0248488
1021.607 .0248467
1022.195 .0248466
1022.784 .0248483
1023.372 .0248511
1023.960 .0248543
1024.547 .0248576
1025.135 .0248601
1025.722 .0248622
1026.309 .0248645
1026.896 .0248666
1027.483 .0248688
1028.069 .0248708
1028.655 .0248730
1029.241 .0248743
1029.827 .0248752
1030.412 .0248755
1030.997 .0248754
1031.582 .0248753
1032.167 .0248749
1032.752 .0248756
1033.336 .0248774
1033.921 .0248806
1034.505 .0248849
1035.089 .0248891
1035.672 .0248933
1036.256 .0248964
1036.839 .0248985
1037.422 .0248992
1038.005 .0248995
1038.588 .0248997
1039.171 .0248999
1039.753 .0249010
1040.335 .0249029
1040.918 .0249049
1041.500 .0249066
1042.081 .0249074
1042.663 .0249057
1043.244 .0249015
1043.826 .0248954
1044.407 .0248862
1044.988 .0248751
1045.569 .0248626
1046.150 .0248486
1046.730 .0248337
1047.311 .0248187
1047.891 .0248036
1048.471 .0247887
1049.052 .0247748
1049.632 .0247610
1050.211 .0247475
1050.791 .0247349
1051.371 .0247227
1051.950 .0247118
1052.530 .0247027
1053.109 .0246948
1053.688 .0246871
1054.268 .0246798
1054.847 .0246735
1055.426 .0246670
1056.005 .0246609
1056.583 .0246548
1057.162 .0246481
1057.741 .0246406
1058.319 .0246324
1058.898 .0246238
1059.476 .0246156
1060.055 .0246081
1060.633 .0246007
1061.211 .0245939
1061.790 .0245882
1062.368 .0245834
1062.946 .0245807
1063.524 .0245801
1064.102 .0245821
1064.680 .0245847
1065.258 .0245869
1065.836 .0245880
1066.414 .0245871
1066.992 .0245845
1067.570 .0245809
1068.148 .0245758
1068.726 .0245702
1069.304 .0245634
1069.882 .0245563
1070.460 .0245488
1071.038 .0245413
1071.616 .0245328
1072.194 .0245241
1072.772 .0245150
1073.350 .0245051
1073.928 .0244946
1074.506 .0244863
1075.084 .0244792
1075.662 .0244743
1076.240 .0244715
1076.819 .0244689
1077.397 .0244670
1077.976 .0244661
1078.554 .0244649
1079.133 .0244654
1079.711 .0244675
1080.290 .0244713
1080.869 .0244759
1081.448 .0244818
1082.027 .0244869
1082.606 .0244914
1083.185 .0244964
1083.764 .0245008
1084.343 .0245035
1084.923 .0245059
1085.502 .0245078
1086.082 .0245108
1086.662 .0245153
1087.242 .0245193
1087.822 .0245234
1088.402 .0245273
1088.983 .0245302
1089.563 .0245309
1090.144 .0245301
1090.725 .0245294
1091.306 .0245278
1091.887 .0245255
1092.469 .0245206
1093.050 .0245141
1093.632 .0245061
1094.214 .0244967
1094.796 .0244889
1095.379 .0244832
1095.961 .0244808
1096.544 .0244830
1097.127 .0244900
1097.710 .0244995
1098.294 .0245118
1098.877 .0245247
1099.461 .0245382
1100.046 .0245521
1100.630 .0245650
1101.215 .0245787
1101.800 .0245947
1102.385 .0246136
1102.970 .0246334
1103.556 .0246546
1104.142 .0246765
1104.728 .0246967
1105.315 .0247158
1105.902 .0247323
1106.489 .0247459
1107.077 .0247591
1107.664 .0247736
1108.253 .0247906
1108.841 .0248121
1109.430 .0248361
1110.019 .0248618
1110.609 .0248913
1111.198 .0249210
1111.789 .0249522
1112.379 .0249864
1112.970 .0250255
1113.561 .0250672
1114.153 .0251131
1114.745 .0251634
1115.338 .0252173
1115.931 .0252744
1116.524 .0253330
1117.117 .0253919
1117.712 .0254510
1118.306 .0255074
1118.901 .0255611
1119.496 .0256135
1120.092 .0256653
1120.689 .0257147
1121.285 .0257648
1121.882 .0258130
1122.480 .0258607
1123.078 .0259067
1123.677 .0259543
1124.276 .0260058
1124.875 .0260619
1125.476 .0261185
1126.076 .0261798
1126.677 .0262474
1127.279 .0263190
1127.881 .0263931
1128.484 .0264694
1129.087 .0265472
1129.691 .0266274
1130.295 .0267108
1130.900 .0267958
1131.505 .0268869
1132.111 .0269869
1132.718 .0270910
1133.325 .0271965
1133.933 .0273003
1134.541 .0273966
1135.150 .0274826
1135.760 .0275646
1136.370 .0276385
1136.981 .0277096
1137.592 .0277839
1138.204 .0278664
1138.817 .0279546
1139.431 .0280487
1140.045 .0281451
1140.660 .0282467
1141.275 .0283695
1141.891 .0285000
1142.508 .0285475
1143.126 .0285559
1143.744 .0287521
1144.363 .0294228
1144.983 .0294005
