Measurement Sequence started on: 15-12-46-377
Integration time: 28
Scans to Average: 2 
>>>>>Begin Spectral Data<<<<<
432.689 .0000100
433.621 .0000100
434.552 .0000100
435.482 .0000100
436.410 .0000100
437.337 .0000100
438.262 .0280723
439.187 .0594907
440.110 .0985166
441.031 .1424533
441.952 .1850517
442.871 .2184756
443.789 .2366026
444.705 .2373892
445.621 .2234427
446.535 .2004224
447.447 .1744534
448.359 .1349214
449.269 .1153277
450.178 .1029818
451.086 .0943126
451.993 .0876714
452.898 .0824035
453.803 .0781007
454.706 .0745172
455.608 .0714790
456.508 .0688703
457.408 .0666329
458.306 .0646614
459.204 .0629119
460.100 .0613265
460.995 .0598742
461.888 .0585259
462.781 .0572725
463.673 .0560967
464.563 .0550077
465.452 .0539931
466.340 .0530547
467.228 .0522081
468.114 .0514386
468.999 .0507493
469.882 .0501303
470.765 .0495657
471.647 .0490596
472.528 .0485953
473.407 .0481736
474.286 .0477975
475.163 .0474733
476.040 .0471973
476.915 .0469701
477.790 .0467894
478.663 .0466457
479.535 .0465329
480.407 .0464441
481.277 .0463753
482.147 .0463238
483.015 .0462848
483.883 .0462551
484.749 .0462381
485.615 .0462365
486.479 .0462466
487.343 .0462772
488.206 .0463304
489.067 .0463976
489.928 .0464764
490.788 .0465725
491.647 .0466766
492.505 .0467912
493.362 .0469103
494.218 .0470310
495.073 .0471635
495.928 .0473059
496.781 .0474532
497.634 .0476245
498.486 .0478255
499.337 .0480569
500.187 .0483169
501.036 .0486202
501.884 .0489578
502.731 .0493278
503.578 .0497350
504.424 .0501760
505.268 .0506419
506.113 .0511524
506.956 .0516994
507.798 .0523020
508.640 .0529619
509.480 .0536909
510.320 .0544947
511.160 .0553899
511.998 .0563772
512.836 .0574581
513.672 .0586534
514.508 .0599779
515.344 .0614128
516.178 .0630018
517.012 .0647477
517.845 .0666911
518.677 .0688648
519.508 .0712983
520.339 .0740569
521.169 .0772040
521.998 .0807987
522.826 .0848993
523.654 .0895028
524.481 .0946387
525.307 .1003133
526.133 .1064724
526.958 .1130965
527.782 .1200342
528.605 .1271657
529.428 .1343451
530.250 .1410893
531.072 .1471889
531.892 .1523127
532.712 .1562255
533.532 .1586910
534.350 .1594943
535.168 .1585647
535.986 .1558794
536.802 .1516882
537.618 .1461870
538.434 .1396257
539.249 .1324870
540.063 .1250351
540.876 .1175969
541.689 .1104445
542.501 .1037701
543.313 .0976986
544.124 .0922601
544.934 .0874052
545.744 .0829981
546.553 .0790217
547.361 .0754803
548.169 .0723562
548.976 .0695501
549.783 .0670712
550.589 .0648497
551.395 .0628424
552.200 .0610287
553.004 .0593917
553.808 .0578841
554.611 .0565217
555.414 .0552841
556.216 .0541404
557.018 .0531111
557.819 .0521786
558.619 .0513165
559.419 .0505304
560.218 .0497913
561.017 .0490789
561.815 .0483742
562.613 .0476854
563.410 .0469912
564.207 .0462953
565.003 .0456051
565.799 .0449136
566.594 .0442350
567.388 .0435829
568.182 .0429577
568.976 .0423585
569.769 .0417834
570.562 .0412273
571.354 .0406873
572.145 .0401677
572.936 .0396606
573.727 .0391697
574.517 .0386959
575.307 .0382438
576.096 .0378180
576.885 .0374181
577.673 .0370494
578.461 .0367123
579.248 .0364031
580.035 .0361172
580.821 .0358512
581.607 .0356004
582.392 .0353631
583.177 .0351410
583.962 .0349332
584.746 .0347408
585.529 .0345665
586.313 .0344131
587.095 .0342766
587.878 .0341564
588.660 .0340498
589.441 .0339520
590.222 .0338627
591.003 .0337807
591.783 .0337029
592.563 .0336296
593.342 .0335612
594.121 .0334943
594.899 .0334309
595.678 .0333703
596.455 .0333121
597.233 .0332546
598.009 .0331985
598.786 .0331423
599.562 .0330850
600.338 .0330279
601.113 .0329694
601.888 .0329099
602.663 .0328510
603.437 .0327918
604.211 .0327322
604.984 .0326732
605.757 .0326165
606.530 .0325605
607.302 .0325072
608.074 .0324558
608.845 .0324078
609.616 .0323629
610.387 .0323217
611.158 .0322841
611.928 .0322507
612.697 .0322214
613.467 .0321947
614.236 .0321707
615.004 .0321487
615.773 .0321267
616.541 .0321051
617.308 .0320832
618.076 .0320614
618.843 .0320384
619.609 .0320162
620.375 .0319941
621.141 .0319730
621.907 .0319518
622.672 .0319302
623.437 .0319077
624.202 .0318841
624.966 .0318579
625.730 .0318301
626.493 .0318009
627.257 .0317712
628.020 .0317415
628.782 .0317124
629.545 .0316838
630.307 .0316566
631.068 .0316303
631.830 .0316042
632.591 .0315771
633.352 .0315494
634.112 .0315200
634.872 .0314894
635.632 .0314581
636.392 .0314263
637.151 .0313943
637.910 .0313630
638.668 .0313315
639.427 .0313005
640.185 .0312702
640.943 .0312401
641.700 .0312106
642.457 .0311822
643.214 .0311552
643.971 .0311291
644.727 .0311053
645.483 .0310846
646.239 .0310661
646.994 .0310492
647.750 .0310336
648.505 .0310186
649.259 .0310039
650.014 .0309880
650.768 .0309711
651.521 .0309529
652.275 .0309337
653.028 .0309127
653.781 .0308911
654.534 .0308689
655.286 .0308463
656.039 .0308233
656.791 .0308003
657.542 .0307761
658.294 .0307509
659.045 .0307248
659.796 .0306975
660.546 .0306692
661.297 .0306398
662.047 .0306102
662.796 .0305818
663.546 .0305545
664.295 .0305291
665.044 .0305049
665.793 .0304829
666.542 .0304612
667.290 .0304394
668.038 .0304175
668.786 .0303941
669.533 .0303699
670.281 .0303451
671.028 .0303200
671.774 .0302958
672.521 .0302727
673.267 .0302514
674.013 .0302318
674.759 .0302134
675.505 .0301958
676.250 .0301783
676.995 .0301607
677.740 .0301421
678.484 .0301228
679.229 .0301035
679.973 .0300846
680.717 .0300667
681.460 .0300507
682.204 .0300363
682.947 .0300242
683.690 .0300134
684.433 .0300028
685.175 .0299919
685.917 .0299799
686.659 .0299664
687.401 .0299513
688.142 .0299344
688.884 .0299165
689.625 .0298975
690.365 .0298785
691.106 .0298590
691.846 .0298396
692.586 .0298205
693.326 .0298011
694.066 .0297813
694.805 .0297608
695.545 .0297395
696.284 .0297173
697.022 .0296941
697.761 .0296706
698.499 .0296463
699.237 .0296221
699.975 .0295981
700.713 .0295747
701.450 .0295522
702.187 .0295302
702.924 .0295092
703.661 .0294889
704.397 .0294690
705.133 .0294493
705.869 .0294298
706.605 .0294107
707.341 .0293917
708.076 .0293726
708.811 .0293530
709.546 .0293335
710.281 .0293138
711.015 .0292939
711.749 .0292740
712.483 .0292542
713.217 .0292347
713.950 .0292153
714.684 .0291962
715.417 .0291770
716.150 .0291578
716.882 .0291386
717.615 .0291185
718.347 .0290979
719.079 .0290762
719.811 .0290538
720.542 .0290313
721.273 .0290090
722.005 .0289871
722.735 .0289662
723.466 .0289469
724.196 .0289284
724.927 .0289102
725.656 .0288926
726.386 .0288747
727.116 .0288570
727.845 .0288388
728.574 .0288204
729.303 .0288018
730.031 .0287845
730.760 .0287679
731.488 .0287522
732.216 .0287377
732.944 .0287242
733.671 .0287112
734.398 .0286987
735.125 .0286860
735.852 .0286733
736.579 .0286609
737.305 .0286486
738.031 .0286367
738.757 .0286254
739.483 .0286144
740.208 .0286043
740.933 .0285948
741.658 .0285858
742.383 .0285769
743.108 .0285679
743.832 .0285588
744.556 .0285491
745.280 .0285388
746.004 .0285274
746.727 .0285153
747.450 .0285026
748.173 .0284888
748.896 .0284746
749.618 .0284602
750.340 .0284458
751.062 .0284319
751.784 .0284193
752.506 .0284079
753.227 .0283978
753.948 .0283889
754.669 .0283806
755.389 .0283723
756.110 .0283640
756.830 .0283556
757.550 .0283469
758.269 .0283385
758.989 .0283301
759.708 .0283219
760.427 .0283142
761.146 .0283061
761.864 .0282973
762.582 .0282873
763.300 .0282756
764.018 .0282615
764.736 .0282452
765.453 .0282278
766.170 .0282096
766.887 .0281912
767.603 .0281741
768.320 .0281576
769.036 .0281426
769.751 .0281286
770.467 .0281158
771.182 .0281039
771.897 .0280930
772.612 .0280827
773.327 .0280736
774.041 .0280653
774.755 .0280578
775.469 .0280507
776.183 .0280447
776.896 .0280386
777.609 .0280318
778.322 .0280242
779.035 .0280158
779.747 .0280064
780.459 .0279968
781.171 .0279865
781.882 .0279764
782.594 .0279662
783.305 .0279560
784.016 .0279458
784.726 .0279354
785.436 .0279245
786.147 .0279136
786.856 .0279029
787.566 .0278926
788.275 .0278823
788.984 .0278728
789.693 .0278639
790.401 .0278553
791.110 .0278466
791.818 .0278375
792.525 .0278278
793.233 .0278177
793.940 .0278067
794.647 .0277950
795.353 .0277830
796.060 .0277704
796.766 .0277576
797.472 .0277442
798.177 .0277302
798.883 .0277154
799.588 .0277000
800.292 .0276847
800.997 .0276693
801.701 .0276540
802.405 .0276394
803.109 .0276253
803.812 .0276118
804.515 .0275985
805.218 .0275851
805.921 .0275711
806.623 .0275571
807.325 .0275426
808.027 .0275282
808.728 .0275139
809.429 .0275005
810.130 .0274874
810.831 .0274749
811.531 .0274620
812.231 .0274478
812.931 .0274330
813.630 .0274168
814.330 .0273990
815.029 .0273805
815.727 .0273615
816.426 .0273426
817.124 .0273241
817.821 .0273063
818.519 .0272889
819.216 .0272723
819.913 .0272563
820.609 .0272401
821.306 .0272242
822.002 .0272086
822.697 .0271935
823.393 .0271796
824.088 .0271672
824.783 .0271559
825.477 .0271463
826.171 .0271378
826.865 .0271301
827.559 .0271230
828.252 .0271164
828.945 .0271097
829.638 .0271029
830.330 .0270958
831.023 .0270884
831.714 .0270807
832.406 .0270732
833.097 .0270649
833.788 .0270564
834.479 .0270472
835.169 .0270370
835.859 .0270262
836.548 .0270147
837.238 .0270026
837.927 .0269904
838.615 .0269779
839.304 .0269654
839.992 .0269526
840.680 .0269401
841.367 .0269276
842.054 .0269156
842.741 .0269037
843.428 .0268924
844.114 .0268816
844.800 .0268715
845.485 .0268617
846.170 .0268525
846.855 .0268433
847.540 .0268342
848.224 .0268252
848.908 .0268157
849.592 .0268062
850.275 .0267967
850.958 .0267874
851.641 .0267784
852.323 .0267695
853.005 .0267607
853.687 .0267517
854.368 .0267421
855.049 .0267314
855.730 .0267195
856.410 .0267064
857.090 .0266922
857.769 .0266776
858.449 .0266627
859.128 .0266481
859.806 .0266338
860.485 .0266204
861.163 .0266079
861.840 .0265959
862.518 .0265843
863.195 .0265726
863.871 .0265607
864.548 .0265487
865.224 .0265366
865.899 .0265250
866.574 .0265142
867.249 .0265049
867.924 .0264972
868.598 .0264911
869.272 .0264867
869.946 .0264837
870.619 .0264812
871.292 .0264790
871.964 .0264761
872.636 .0264721
873.308 .0264670
873.979 .0264611
874.651 .0264547
875.321 .0264487
875.992 .0264433
876.662 .0264390
877.331 .0264356
878.001 .0264335
878.670 .0264317
879.338 .0264299
880.007 .0264282
880.675 .0264259
881.342 .0264231
882.009 .0264199
882.676 .0264164
883.343 .0264134
884.009 .0264110
884.675 .0264093
885.340 .0264082
886.005 .0264078
886.670 .0264078
887.334 .0264081
887.998 .0264084
888.662 .0264087
889.325 .0264087
889.988 .0264086
890.650 .0264085
891.312 .0264083
891.974 .0264086
892.636 .0264098
893.297 .0264121
893.957 .0264156
894.618 .0264195
895.278 .0264241
895.937 .0264289
896.596 .0264335
897.255 .0264373
897.914 .0264400
898.572 .0264413
899.230 .0264415
899.887 .0264402
900.544 .0264378
901.201 .0264343
901.857 .0264303
902.513 .0264254
903.168 .0264195
903.823 .0264122
904.478 .0264034
905.132 .0263932
905.786 .0263822
906.440 .0263695
907.093 .0263559
907.746 .0263418
908.399 .0263273
909.051 .0263128
909.703 .0262983
910.354 .0262838
911.005 .0262694
911.656 .0262548
912.306 .0262398
912.956 .0262242
913.605 .0262086
914.254 .0261930
914.903 .0261778
915.551 .0261634
916.199 .0261499
916.847 .0261375
917.494 .0261266
918.141 .0261166
918.788 .0261073
919.434 .0260984
920.079 .0260894
920.725 .0260800
921.370 .0260704
922.014 .0260608
922.658 .0260510
923.302 .0260416
923.946 .0260322
924.589 .0260226
925.231 .0260121
925.873 .0260007
926.515 .0259872
927.157 .0259720
927.798 .0259545
928.439 .0259348
929.079 .0259135
929.719 .0258912
930.359 .0258678
930.998 .0258442
931.637 .0258206
932.275 .0257966
932.913 .0257722
933.551 .0257477
934.188 .0257230
934.825 .0256987
935.462 .0256749
936.098 .0256520
936.733 .0256308
937.369 .0256117
938.004 .0255942
938.638 .0255785
939.273 .0255642
939.907 .0255510
940.540 .0255389
941.173 .0255277
941.806 .0255171
942.438 .0255067
943.070 .0254966
943.702 .0254863
944.333 .0254754
944.964 .0254636
945.594 .0254508
946.224 .0254375
946.854 .0254241
947.483 .0254104
948.112 .0253972
948.741 .0253847
949.369 .0253725
949.996 .0253607
950.624 .0253484
951.251 .0253352
951.878 .0253216
952.504 .0253071
953.130 .0252916
953.755 .0252758
954.380 .0252607
955.005 .0252460
955.629 .0252322
956.253 .0252192
956.877 .0252063
957.500 .0251930
958.123 .0251793
958.746 .0251643
959.368 .0251483
959.990 .0251315
960.611 .0251140
961.232 .0250964
961.853 .0250797
962.473 .0250637
963.093 .0250485
963.712 .0250346
964.331 .0250215
964.950 .0250082
965.569 .0249955
966.187 .0249829
966.804 .0249709
967.422 .0249593
968.039 .0249481
968.655 .0249368
969.272 .0249257
969.887 .0249145
970.503 .0249027
971.118 .0248908
971.733 .0248786
972.347 .0248660
972.961 .0248528
973.575 .0248393
974.188 .0248254
974.801 .0248108
975.414 .0247958
976.026 .0247795
976.638 .0247623
977.250 .0247439
977.861 .0247249
978.472 .0247053
979.083 .0246854
979.693 .0246654
980.303 .0246453
980.912 .0246250
981.521 .0246045
982.130 .0245839
982.738 .0245636
983.346 .0245434
983.954 .0245236
984.562 .0245044
985.169 .0244861
985.775 .0244688
986.382 .0244531
986.988 .0244388
987.594 .0244256
988.199 .0244135
988.804 .0244024
989.409 .0243921
990.013 .0243827
990.617 .0243739
991.221 .0243660
991.824 .0243594
992.427 .0243534
993.030 .0243483
993.632 .0243444
994.234 .0243418
994.836 .0243401
995.438 .0243394
996.039 .0243391
996.640 .0243390
997.240 .0243389
997.840 .0243384
998.440 .0243372
999.040 .0243353
999.639 .0243320
1000.238 .0243277
1000.836 .0243223
1001.435 .0243158
1002.033 .0243081
1002.630 .0243006
1003.228 .0242929
1003.825 .0242855
1004.422 .0242788
1005.018 .0242733
1005.614 .0242691
1006.210 .0242661
1006.806 .0242642
1007.401 .0242632
1007.996 .0242631
1008.591 .0242638
1009.186 .0242652
1009.780 .0242681
1010.374 .0242717
1010.967 .0242766
1011.561 .0242824
1012.154 .0242889
1012.746 .0242954
1013.339 .0243016
1013.931 .0243073
1014.523 .0243123
1015.115 .0243163
1015.706 .0243195
1016.298 .0243217
1016.888 .0243237
1017.479 .0243247
1018.069 .0243251
1018.660 .0243251
1019.250 .0243247
1019.839 .0243240
1020.429 .0243233
1021.018 .0243227
1021.607 .0243225
1022.195 .0243229
1022.784 .0243237
1023.372 .0243249
1023.960 .0243267
1024.547 .0243290
1025.135 .0243317
1025.722 .0243353
1026.309 .0243404
1026.896 .0243469
1027.483 .0243553
1028.069 .0243665
1028.655 .0243798
1029.241 .0243957
1029.827 .0244134
1030.412 .0244327
1030.997 .0244533
1031.582 .0244744
1032.167 .0244953
1032.752 .0245161
1033.336 .0245366
1033.921 .0245561
1034.505 .0245743
1035.089 .0245918
1035.672 .0246077
1036.256 .0246218
1036.839 .0246338
1037.422 .0246439
1038.005 .0246519
1038.588 .0246583
1039.171 .0246628
1039.753 .0246669
1040.335 .0246705
1040.918 .0246736
1041.500 .0246771
1042.081 .0246815
1042.663 .0246863
1043.244 .0246921
1043.826 .0246987
1044.407 .0247068
1044.988 .0247156
1045.569 .0247249
1046.150 .0247343
1046.730 .0247438
1047.311 .0247531
1047.891 .0247616
1048.471 .0247698
1049.052 .0247786
1049.632 .0247865
1050.211 .0247955
1050.791 .0248050
1051.371 .0248153
1051.950 .0248263
1052.530 .0248371
1053.109 .0248472
1053.688 .0248554
1054.268 .0248622
1054.847 .0248670
1055.426 .0248718
1056.005 .0248771
1056.583 .0248836
1057.162 .0248925
1057.741 .0249043
1058.319 .0249180
1058.898 .0249333
1059.476 .0249492
1060.055 .0249632
1060.633 .0249757
1061.211 .0249859
1061.790 .0249934
1062.368 .0250007
1062.946 .0250085
1063.524 .0250187
1064.102 .0250309
1064.680 .0250457
1065.258 .0250609
1065.836 .0250755
1066.414 .0250884
1066.992 .0250974
1067.570 .0251035
1068.148 .0251070
1068.726 .0251082
1069.304 .0251093
1069.882 .0251123
1070.460 .0251174
1071.038 .0251248
1071.616 .0251349
1072.194 .0251452
1072.772 .0251552
1073.350 .0251636
1073.928 .0251694
1074.506 .0251729
1075.084 .0251762
1075.662 .0251796
1076.240 .0251847
1076.819 .0251925
1077.397 .0252029
1077.976 .0252153
1078.554 .0252317
1079.133 .0252494
1079.711 .0252680
1080.290 .0252882
1080.869 .0253086
1081.448 .0253285
1082.027 .0253491
1082.606 .0253696
1083.185 .0253923
1083.764 .0254158
1084.343 .0254404
1084.923 .0254633
1085.502 .0254854
1086.082 .0255055
1086.662 .0255231
1087.242 .0255378
1087.822 .0255490
1088.402 .0255557
1088.983 .0255595
1089.563 .0255599
1090.144 .0255591
1090.725 .0255579
1091.306 .0255578
1091.887 .0255571
1092.469 .0255577
1093.050 .0255580
1093.632 .0255612
1094.214 .0255661
1094.796 .0255741
1095.379 .0255846
1095.961 .0255978
1096.544 .0256142
1097.127 .0256329
1097.710 .0256543
1098.294 .0256777
1098.877 .0257017
1099.461 .0257265
1100.046 .0257488
1100.630 .0257707
1101.215 .0257921
1101.800 .0258155
1102.385 .0258388
1102.970 .0258629
1103.556 .0258866
1104.142 .0259110
1104.728 .0259358
1105.315 .0259611
1105.902 .0259865
1106.489 .0260134
1107.077 .0260412
1107.664 .0260694
1108.253 .0260973
1108.841 .0261262
1109.430 .0261520
1110.019 .0261758
1110.609 .0261952
1111.198 .0262108
1111.789 .0262227
1112.379 .0262344
1112.970 .0262454
1113.561 .0262611
1114.153 .0262791
1114.745 .0263016
1115.338 .0263270
1115.931 .0263553
1116.524 .0263827
1117.117 .0264079
1117.712 .0264327
1118.306 .0264562
1118.901 .0264784
1119.496 .0265044
1120.092 .0265319
1120.689 .0265643
1121.285 .0265980
1121.882 .0266342
1122.480 .0266705
1123.078 .0267075
1123.677 .0267403
1124.276 .0267716
1124.875 .0268042
1125.476 .0268389
1126.076 .0268761
1126.677 .0269169
1127.279 .0269661
1127.881 .0270211
1128.484 .0270821
1129.087 .0271497
1129.691 .0272236
1130.295 .0273095
1130.900 .0274039
1131.505 .0275086
1132.111 .0276216
1132.718 .0277401
1133.325 .0278591
1133.933 .0279696
1134.541 .0280702
1135.150 .0281563
1135.760 .0282320
1136.370 .0282992
1136.981 .0283661
1137.592 .0284314
1138.204 .0285020
1138.817 .0285793
1139.431 .0286556
1140.045 .0287301
1140.660 .0288065
1141.275 .0289092
1141.891 .0290138
1142.508 .0289159
1143.126 .0289648
1143.744 .0292381
1144.363 .0301276
1144.983 .0297664
