Measurement Sequence started on: 15-12-46-377
Integration time: 28
Scans to Average: 2 
>>>>>Begin Spectral Data<<<<<
432.689 .0000100
433.621 .0000100
434.552 .0000100
435.482 .0000100
436.410 .0000100
437.337 .0000100
438.262 .0262848
439.187 .0556124
440.110 .0919969
441.031 .1330054
441.952 .1727746
442.871 .2040100
443.789 .2210449
444.705 .2219800
445.621 .2092535
446.535 .1881253
447.447 .1642745
448.359 .1276942
449.269 .1097720
450.178 .0985445
451.086 .0905971
451.993 .0845105
452.898 .0796968
453.803 .0757891
454.706 .0725971
455.608 .0699522
456.508 .0677419
457.408 .0658951
458.306 .0642964
459.204 .0628816
460.100 .0615942
460.995 .0604189
461.888 .0593034
462.781 .0582550
463.673 .0572490
464.563 .0562934
465.452 .0553764
466.340 .0544899
467.228 .0536437
468.114 .0528256
468.999 .0520424
469.882 .0512923
470.765 .0505807
471.647 .0499216
472.528 .0493109
473.407 .0487677
474.286 .0482822
475.163 .0478570
476.040 .0474892
476.915 .0471697
477.790 .0468959
478.663 .0466584
479.535 .0464539
480.407 .0462843
481.277 .0461457
482.147 .0460360
483.015 .0459652
483.883 .0459313
484.749 .0459340
485.615 .0459685
486.479 .0460312
487.343 .0461157
488.206 .0462084
489.067 .0463073
489.928 .0464006
490.788 .0464931
491.647 .0465917
492.505 .0466945
493.362 .0468174
494.218 .0469647
495.073 .0471359
495.928 .0473420
496.781 .0475790
497.634 .0478478
498.486 .0481339
499.337 .0484374
500.187 .0487572
501.036 .0490864
501.884 .0494304
502.731 .0497945
503.578 .0501839
504.424 .0506064
505.268 .0510418
506.113 .0515076
506.956 .0520103
507.798 .0525640
508.640 .0531809
509.480 .0538686
510.320 .0546355
511.160 .0554948
511.998 .0564318
512.836 .0574586
513.672 .0585719
514.508 .0597677
515.344 .0610501
516.178 .0624415
517.012 .0639841
517.845 .0657066
518.677 .0676771
519.508 .0699537
520.339 .0725719
521.169 .0756011
521.998 .0790612
522.826 .0829953
523.654 .0874797
524.481 .0925242
525.307 .0981636
526.133 .1043585
526.958 .1111119
527.782 .1183481
528.605 .1259319
529.428 .1336865
530.250 .1410734
531.072 .1478527
531.892 .1535901
532.712 .1579519
533.532 .1607249
534.350 .1616762
535.168 .1607454
535.986 .1580139
536.802 .1536406
537.618 .1479021
538.434 .1411243
539.249 .1338086
540.063 .1261504
540.876 .1185356
541.689 .1111718
542.501 .1042659
543.313 .0979731
544.124 .0923372
544.934 .0872538
545.744 .0826936
546.553 .0786061
547.361 .0749558
548.169 .0717249
548.976 .0688531
549.783 .0662974
550.589 .0640214
551.395 .0619519
552.200 .0600614
553.004 .0583057
553.808 .0566949
554.611 .0552238
555.414 .0539010
556.216 .0527228
557.018 .0516985
557.819 .0508140
558.619 .0500486
559.419 .0493852
560.218 .0487894
561.017 .0482325
561.815 .0476855
562.613 .0471275
563.410 .0465490
564.207 .0459530
565.003 .0453494
565.799 .0447396
566.594 .0441337
567.388 .0435468
568.182 .0429705
568.976 .0424068
569.769 .0418550
570.562 .0413128
571.354 .0407771
572.145 .0402524
572.936 .0397359
573.727 .0392403
574.517 .0387706
575.307 .0383314
576.096 .0379158
576.885 .0375318
577.673 .0371770
578.461 .0368416
579.248 .0365258
580.035 .0362274
580.821 .0359387
581.607 .0356645
582.392 .0354033
583.177 .0351585
583.962 .0349331
584.746 .0347304
585.529 .0345475
586.313 .0343860
587.095 .0342435
587.878 .0341147
588.660 .0339983
589.441 .0338932
590.222 .0337925
591.003 .0336968
591.783 .0336071
592.563 .0335207
593.342 .0334382
594.121 .0333609
594.899 .0332882
595.678 .0332208
596.455 .0331574
597.233 .0330964
598.009 .0330383
598.786 .0329818
599.562 .0329256
600.338 .0328691
601.113 .0328137
601.888 .0327582
602.663 .0327039
603.437 .0326519
604.211 .0326024
604.984 .0325553
605.757 .0325120
606.530 .0324708
607.302 .0324320
608.074 .0323949
608.845 .0323587
609.616 .0323225
610.387 .0322870
611.158 .0322516
611.928 .0322167
612.697 .0321823
613.467 .0321488
614.236 .0321157
615.004 .0320847
615.773 .0320551
616.541 .0320269
617.308 .0320008
618.076 .0319768
618.843 .0319543
619.609 .0319343
620.375 .0319158
621.141 .0318988
621.907 .0318827
622.672 .0318676
623.437 .0318525
624.202 .0318372
624.966 .0318221
625.730 .0318063
626.493 .0317899
627.257 .0317722
628.020 .0317526
628.782 .0317310
629.545 .0317071
630.307 .0316800
631.068 .0316503
631.830 .0316183
632.591 .0315837
633.352 .0315483
634.112 .0315122
634.872 .0314761
635.632 .0314405
636.392 .0314054
637.151 .0313711
637.910 .0313362
638.668 .0313019
639.427 .0312677
640.185 .0312342
640.943 .0312014
641.700 .0311698
642.457 .0311405
643.214 .0311138
643.971 .0310895
644.727 .0310673
645.483 .0310466
646.239 .0310268
646.994 .0310065
647.750 .0309858
648.505 .0309649
649.259 .0309441
650.014 .0309229
650.768 .0309026
651.521 .0308829
652.275 .0308635
653.028 .0308449
653.781 .0308262
654.534 .0308066
655.286 .0307854
656.039 .0307620
656.791 .0307371
657.542 .0307102
658.294 .0306827
659.045 .0306546
659.796 .0306271
660.546 .0306006
661.297 .0305738
662.047 .0305479
662.796 .0305221
663.546 .0304961
664.295 .0304693
665.044 .0304420
665.793 .0304143
666.542 .0303859
667.290 .0303584
668.038 .0303318
668.786 .0303065
669.533 .0302821
670.281 .0302586
671.028 .0302353
671.774 .0302124
672.521 .0301896
673.267 .0301661
674.013 .0301430
674.759 .0301196
675.505 .0300959
676.250 .0300723
676.995 .0300492
677.740 .0300274
678.484 .0300061
679.229 .0299863
679.973 .0299672
680.717 .0299492
681.460 .0299326
682.204 .0299171
682.947 .0299028
683.690 .0298897
684.433 .0298774
685.175 .0298656
685.917 .0298543
686.659 .0298438
687.401 .0298337
688.142 .0298240
688.884 .0298145
689.625 .0298051
690.365 .0297951
691.106 .0297845
691.846 .0297733
692.586 .0297616
693.326 .0297489
694.066 .0297354
694.805 .0297211
695.545 .0297056
696.284 .0296892
697.022 .0296716
697.761 .0296530
698.499 .0296336
699.237 .0296136
699.975 .0295929
700.713 .0295727
701.450 .0295534
702.187 .0295346
702.924 .0295166
703.661 .0294997
704.397 .0294832
705.133 .0294672
705.869 .0294515
706.605 .0294360
707.341 .0294210
708.076 .0294068
708.811 .0293928
709.546 .0293792
710.281 .0293662
711.015 .0293533
711.749 .0293399
712.483 .0293259
713.217 .0293108
713.950 .0292941
714.684 .0292768
715.417 .0292582
716.150 .0292388
716.882 .0292192
717.615 .0291992
718.347 .0291792
719.079 .0291592
719.811 .0291386
720.542 .0291176
721.273 .0290966
722.005 .0290757
722.735 .0290540
723.466 .0290326
724.196 .0290114
724.927 .0289903
725.656 .0289692
726.386 .0289482
727.116 .0289271
727.845 .0289060
728.574 .0288845
729.303 .0288628
730.031 .0288410
730.760 .0288194
731.488 .0287978
732.216 .0287768
732.944 .0287571
733.671 .0287383
734.398 .0287204
735.125 .0287039
735.852 .0286884
736.579 .0286736
737.305 .0286596
738.031 .0286464
738.757 .0286338
739.483 .0286215
740.208 .0286095
740.933 .0285983
741.658 .0285872
742.383 .0285764
743.108 .0285655
743.832 .0285543
744.556 .0285427
745.280 .0285304
746.004 .0285171
746.727 .0285030
747.450 .0284880
748.173 .0284717
748.896 .0284543
749.618 .0284359
750.340 .0284163
751.062 .0283964
751.784 .0283764
752.506 .0283562
753.227 .0283356
753.948 .0283153
754.669 .0282951
755.389 .0282749
756.110 .0282549
756.830 .0282352
757.550 .0282158
758.269 .0281969
758.989 .0281778
759.708 .0281590
760.427 .0281406
761.146 .0281225
761.864 .0281046
762.582 .0280869
763.300 .0280697
764.018 .0280531
764.736 .0280373
765.453 .0280225
766.170 .0280081
766.887 .0279944
767.603 .0279813
768.320 .0279683
769.036 .0279553
769.751 .0279423
770.467 .0279292
771.182 .0279162
771.897 .0279036
772.612 .0278913
773.327 .0278799
774.041 .0278695
774.755 .0278600
775.469 .0278512
776.183 .0278433
776.896 .0278358
777.609 .0278289
778.322 .0278227
779.035 .0278171
779.747 .0278126
780.459 .0278092
781.171 .0278069
781.882 .0278058
782.594 .0278056
783.305 .0278064
784.016 .0278074
784.726 .0278087
785.436 .0278097
786.147 .0278103
786.856 .0278112
787.566 .0278118
788.275 .0278123
788.984 .0278132
789.693 .0278139
790.401 .0278145
791.110 .0278145
791.818 .0278139
792.525 .0278122
793.233 .0278097
793.940 .0278059
794.647 .0278011
795.353 .0277961
796.060 .0277914
796.766 .0277869
797.472 .0277834
798.177 .0277808
798.883 .0277784
799.588 .0277763
800.292 .0277739
800.997 .0277709
801.701 .0277673
802.405 .0277628
803.109 .0277573
803.812 .0277511
804.515 .0277441
805.218 .0277360
805.921 .0277273
806.623 .0277180
807.325 .0277081
808.027 .0276980
808.728 .0276876
809.429 .0276770
810.130 .0276661
810.831 .0276553
811.531 .0276442
812.231 .0276326
812.931 .0276203
813.630 .0276076
814.330 .0275946
815.029 .0275817
815.727 .0275691
816.426 .0275574
817.124 .0275465
817.821 .0275362
818.519 .0275264
819.216 .0275165
819.913 .0275068
820.609 .0274973
821.306 .0274874
822.002 .0274779
822.697 .0274686
823.393 .0274604
824.088 .0274534
824.783 .0274478
825.477 .0274430
826.171 .0274389
826.865 .0274354
827.559 .0274319
828.252 .0274282
828.945 .0274244
829.638 .0274203
830.330 .0274163
831.023 .0274123
831.714 .0274080
832.406 .0274034
833.097 .0273984
833.788 .0273927
834.479 .0273856
835.169 .0273773
835.859 .0273681
836.548 .0273581
837.238 .0273477
837.927 .0273370
838.615 .0273264
839.304 .0273161
839.992 .0273058
840.680 .0272956
841.367 .0272850
842.054 .0272743
842.741 .0272630
843.428 .0272513
844.114 .0272390
844.800 .0272267
845.485 .0272137
846.170 .0272004
846.855 .0271867
847.540 .0271725
848.224 .0271575
848.908 .0271419
849.592 .0271255
850.275 .0271081
850.958 .0270895
851.641 .0270701
852.323 .0270497
853.005 .0270288
853.687 .0270072
854.368 .0269853
855.049 .0269628
855.730 .0269403
856.410 .0269173
857.090 .0268945
857.769 .0268716
858.449 .0268486
859.128 .0268253
859.806 .0268017
860.485 .0267779
861.163 .0267539
861.840 .0267299
862.518 .0267062
863.195 .0266827
863.871 .0266596
864.548 .0266370
865.224 .0266152
865.899 .0265940
866.574 .0265734
867.249 .0265531
867.924 .0265334
868.598 .0265138
869.272 .0264948
869.946 .0264764
870.619 .0264588
871.292 .0264423
871.964 .0264267
872.636 .0264121
873.308 .0263986
873.979 .0263858
874.651 .0263739
875.321 .0263625
875.992 .0263513
876.662 .0263398
877.331 .0263282
878.001 .0263168
878.670 .0263051
879.338 .0262932
880.007 .0262819
880.675 .0262707
881.342 .0262598
882.009 .0262492
882.676 .0262388
883.343 .0262288
884.009 .0262191
884.675 .0262090
885.340 .0261989
886.005 .0261885
886.670 .0261786
887.334 .0261690
887.998 .0261603
888.662 .0261528
889.325 .0261467
889.988 .0261424
890.650 .0261400
891.312 .0261387
891.974 .0261387
892.636 .0261391
893.297 .0261397
893.957 .0261396
894.618 .0261390
895.278 .0261380
895.937 .0261371
896.596 .0261368
897.255 .0261371
897.914 .0261380
898.572 .0261396
899.230 .0261413
899.887 .0261426
900.544 .0261426
901.201 .0261410
901.857 .0261375
902.513 .0261324
903.168 .0261259
903.823 .0261182
904.478 .0261102
905.132 .0261024
905.786 .0260942
906.440 .0260857
907.093 .0260765
907.746 .0260661
908.399 .0260547
909.051 .0260422
909.703 .0260286
910.354 .0260148
911.005 .0260014
911.656 .0259886
912.306 .0259771
912.956 .0259666
913.605 .0259569
914.254 .0259480
914.903 .0259402
915.551 .0259328
916.199 .0259258
916.847 .0259199
917.494 .0259146
918.141 .0259104
918.788 .0259073
919.434 .0259049
920.079 .0259031
920.725 .0259017
921.370 .0259001
922.014 .0258979
922.658 .0258953
923.302 .0258919
923.946 .0258876
924.589 .0258822
925.231 .0258759
925.873 .0258686
926.515 .0258604
927.157 .0258516
927.798 .0258419
928.439 .0258320
929.079 .0258212
929.719 .0258098
930.359 .0257974
930.998 .0257841
931.637 .0257702
932.275 .0257558
932.913 .0257415
933.551 .0257277
934.188 .0257148
934.825 .0257038
935.462 .0256944
936.098 .0256871
936.733 .0256815
937.369 .0256775
938.004 .0256746
938.638 .0256726
939.273 .0256710
939.907 .0256706
940.540 .0256716
941.173 .0256741
941.806 .0256784
942.438 .0256844
943.070 .0256919
943.702 .0256999
944.333 .0257077
944.964 .0257146
945.594 .0257200
946.224 .0257239
946.854 .0257262
947.483 .0257271
948.112 .0257275
948.741 .0257273
949.369 .0257272
949.996 .0257271
950.624 .0257270
951.251 .0257266
951.878 .0257258
952.504 .0257246
953.130 .0257227
953.755 .0257197
954.380 .0257159
955.005 .0257105
955.629 .0257043
956.253 .0256970
956.877 .0256893
957.500 .0256816
958.123 .0256743
958.746 .0256669
959.368 .0256600
959.990 .0256530
960.611 .0256458
961.232 .0256380
961.853 .0256298
962.473 .0256207
963.093 .0256112
963.712 .0256014
964.331 .0255918
964.950 .0255829
965.569 .0255760
966.187 .0255704
966.804 .0255664
967.422 .0255637
968.039 .0255617
968.655 .0255597
969.272 .0255571
969.887 .0255538
970.503 .0255493
971.118 .0255438
971.733 .0255374
972.347 .0255301
972.961 .0255230
973.575 .0255160
974.188 .0255094
974.801 .0255027
975.414 .0254958
976.026 .0254875
976.638 .0254775
977.250 .0254660
977.861 .0254527
978.472 .0254377
979.083 .0254215
979.693 .0254047
980.303 .0253869
980.912 .0253689
981.521 .0253507
982.130 .0253325
982.738 .0253139
983.346 .0252945
983.954 .0252740
984.562 .0252523
985.169 .0252294
985.775 .0252054
986.382 .0251808
986.988 .0251564
987.594 .0251317
988.199 .0251074
988.804 .0250838
989.409 .0250619
990.013 .0250417
990.617 .0250235
991.221 .0250071
991.824 .0249923
992.427 .0249788
993.030 .0249661
993.632 .0249545
994.234 .0249438
994.836 .0249341
995.438 .0249255
996.039 .0249179
996.640 .0249115
997.240 .0249058
997.840 .0249007
998.440 .0248957
999.040 .0248902
999.639 .0248832
1000.238 .0248744
1000.836 .0248639
1001.435 .0248517
1002.033 .0248383
1002.630 .0248245
1003.228 .0248109
1003.825 .0247982
1004.422 .0247862
1005.018 .0247747
1005.614 .0247644
1006.210 .0247547
1006.806 .0247457
1007.401 .0247369
1007.996 .0247280
1008.591 .0247194
1009.186 .0247112
1009.780 .0247034
1010.374 .0246953
1010.967 .0246870
1011.561 .0246789
1012.154 .0246703
1012.746 .0246607
1013.339 .0246501
1013.931 .0246384
1014.523 .0246257
1015.115 .0246123
1015.706 .0245976
1016.298 .0245828
1016.888 .0245686
1017.479 .0245554
1018.069 .0245440
1018.660 .0245344
1019.250 .0245272
1019.839 .0245215
1020.429 .0245181
1021.018 .0245164
1021.607 .0245156
1022.195 .0245159
1022.784 .0245170
1023.372 .0245189
1023.960 .0245213
1024.547 .0245244
1025.135 .0245282
1025.722 .0245323
1026.309 .0245366
1026.896 .0245401
1027.483 .0245432
1028.069 .0245451
1028.655 .0245462
1029.241 .0245457
1029.827 .0245444
1030.412 .0245420
1030.997 .0245390
1031.582 .0245361
1032.167 .0245334
1032.752 .0245310
1033.336 .0245291
1033.921 .0245276
1034.505 .0245265
1035.089 .0245256
1035.672 .0245251
1036.256 .0245245
1036.839 .0245229
1037.422 .0245211
1038.005 .0245198
1038.588 .0245187
1039.171 .0245181
1039.753 .0245186
1040.335 .0245193
1040.918 .0245207
1041.500 .0245211
1042.081 .0245214
1042.663 .0245210
1043.244 .0245202
1043.826 .0245188
1044.407 .0245162
1044.988 .0245137
1045.569 .0245107
1046.150 .0245068
1046.730 .0245031
1047.311 .0244984
1047.891 .0244931
1048.471 .0244868
1049.052 .0244817
1049.632 .0244768
1050.211 .0244739
1050.791 .0244731
1051.371 .0244736
1051.950 .0244751
1052.530 .0244782
1053.109 .0244818
1053.688 .0244850
1054.268 .0244882
1054.847 .0244903
1055.426 .0244926
1056.005 .0244956
1056.583 .0244984
1057.162 .0245018
1057.741 .0245054
1058.319 .0245089
1058.898 .0245101
1059.476 .0245094
1060.055 .0245073
1060.633 .0245038
1061.211 .0245014
1061.790 .0244994
1062.368 .0244998
1062.946 .0245018
1063.524 .0245069
1064.102 .0245146
1064.680 .0245235
1065.258 .0245329
1065.836 .0245427
1066.414 .0245530
1066.992 .0245636
1067.570 .0245746
1068.148 .0245866
1068.726 .0245993
1069.304 .0246149
1069.882 .0246308
1070.460 .0246467
1071.038 .0246617
1071.616 .0246759
1072.194 .0246878
1072.772 .0246977
1073.350 .0247054
1073.928 .0247112
1074.506 .0247164
1075.084 .0247221
1075.662 .0247274
1076.240 .0247346
1076.819 .0247439
1077.397 .0247561
1077.976 .0247701
1078.554 .0247867
1079.133 .0248040
1079.711 .0248225
1080.290 .0248409
1080.869 .0248599
1081.448 .0248775
1082.027 .0248932
1082.606 .0249077
1083.185 .0249202
1083.764 .0249316
1084.343 .0249425
1084.923 .0249518
1085.502 .0249609
1086.082 .0249692
1086.662 .0249782
1087.242 .0249855
1087.822 .0249921
1088.402 .0249979
1088.983 .0250023
1089.563 .0250061
1090.144 .0250090
1090.725 .0250106
1091.306 .0250130
1091.887 .0250174
1092.469 .0250240
1093.050 .0250331
1093.632 .0250459
1094.214 .0250626
1094.796 .0250812
1095.379 .0251024
1095.961 .0251252
1096.544 .0251488
1097.127 .0251743
1097.710 .0252005
1098.294 .0252269
1098.877 .0252543
1099.461 .0252824
1100.046 .0253112
1100.630 .0253424
1101.215 .0253765
1101.800 .0254109
1102.385 .0254474
1102.970 .0254865
1103.556 .0255271
1104.142 .0255689
1104.728 .0256133
1105.315 .0256579
1105.902 .0257012
1106.489 .0257423
1107.077 .0257804
1107.664 .0258164
1108.253 .0258524
1108.841 .0258863
1109.430 .0259187
1110.019 .0259508
1110.609 .0259821
1111.198 .0260117
1111.789 .0260414
1112.379 .0260691
1112.970 .0260934
1113.561 .0261161
1114.153 .0261373
1114.745 .0261578
1115.338 .0261804
1115.931 .0262069
1116.524 .0262350
1117.117 .0262667
1117.712 .0263033
1118.306 .0263435
1118.901 .0263900
1119.496 .0264409
1120.092 .0264960
1120.689 .0265543
1121.285 .0266156
1121.882 .0266781
1122.480 .0267425
1123.078 .0268131
1123.677 .0268863
1124.276 .0269618
1124.875 .0270426
1125.476 .0271265
1126.076 .0272124
1126.677 .0273021
1127.279 .0273906
1127.881 .0274765
1128.484 .0275579
1129.087 .0276318
1129.691 .0277030
1130.295 .0277723
1130.900 .0278426
1131.505 .0279128
1132.111 .0279906
1132.718 .0280753
1133.325 .0281637
1133.933 .0282567
1134.541 .0283511
1135.150 .0284439
1135.760 .0285344
1136.370 .0286202
1136.981 .0287069
1137.592 .0287978
1138.204 .0288969
1138.817 .0290023
1139.431 .0291209
1140.045 .0292463
1140.660 .0293754
1141.275 .0295188
1141.891 .0296831
1142.508 .0298713
1143.126 .0298972
1143.744 .0298993
1144.363 .0304653
1144.983 .0309951
