Measurement Sequence started on: 15-12-46-377
Integration time: 28
Scans to Average: 2 
>>>>>Begin Spectral Data<<<<<
432.689 .0000100
433.621 .0000100
434.552 .0000100
435.482 .0000100
436.410 .0000100
437.337 .0000100
438.262 .0284627
439.187 .0603172
440.110 .0998734
441.031 .1445317
441.952 .1879149
442.871 .2220826
443.789 .2408452
444.705 .2420844
445.621 .2284049
446.535 .2054412
447.447 .1793864
448.359 .1394315
449.269 .1195613
450.178 .1069549
451.086 .0979409
451.993 .0910030
452.898 .0855125
453.803 .0810348
454.706 .0773387
455.608 .0742155
456.508 .0715546
457.408 .0692525
458.306 .0672071
459.204 .0653665
460.100 .0636831
460.995 .0621470
461.888 .0607447
462.781 .0594571
463.673 .0582857
464.563 .0572235
465.452 .0562506
466.340 .0553587
467.228 .0545377
468.114 .0537833
468.999 .0530896
469.882 .0524466
470.765 .0518530
471.647 .0513058
472.528 .0508084
473.407 .0503629
474.286 .0499653
475.163 .0496129
476.040 .0492990
476.915 .0490186
477.790 .0487778
478.663 .0485705
479.535 .0484018
480.407 .0482658
481.277 .0481636
482.147 .0480854
483.015 .0480255
483.883 .0479811
484.749 .0479540
485.615 .0479401
486.479 .0479444
487.343 .0479665
488.206 .0480133
489.067 .0480808
489.928 .0481717
490.788 .0482780
491.647 .0483994
492.505 .0485217
493.362 .0486474
494.218 .0487698
495.073 .0489013
495.928 .0490472
496.781 .0492208
497.634 .0494311
498.486 .0496813
499.337 .0499696
500.187 .0502978
501.036 .0506527
501.884 .0510301
502.731 .0514199
503.578 .0518259
504.424 .0522507
505.268 .0527024
506.113 .0531913
506.956 .0537335
507.798 .0543383
508.640 .0550104
509.480 .0557462
510.320 .0565568
511.160 .0574356
511.998 .0583817
512.836 .0594119
513.672 .0605200
514.508 .0617309
515.344 .0630556
516.178 .0645213
517.012 .0661544
517.845 .0679928
518.677 .0700674
519.508 .0724002
520.339 .0750382
521.169 .0780299
521.998 .0814039
522.826 .0852064
523.654 .0894949
524.481 .0942619
525.307 .0995825
526.133 .1053769
526.958 .1116043
527.782 .1183004
528.605 .1252445
529.428 .1323643
530.250 .1392055
531.072 .1455972
531.892 .1511609
532.712 .1555710
533.532 .1586105
534.350 .1600071
535.168 .1596696
535.986 .1575654
536.802 .1537462
537.618 .1485452
538.434 .1421653
539.249 .1350813
540.063 .1275436
540.876 .1199635
541.689 .1125704
542.501 .1056376
543.313 .0992804
544.124 .0935856
544.934 .0884984
545.744 .0839577
546.553 .0798982
547.361 .0762771
548.169 .0730743
548.976 .0702070
549.783 .0676695
550.589 .0654518
551.395 .0634539
552.200 .0616831
553.004 .0601146
553.808 .0587172
554.611 .0574513
555.414 .0563081
556.216 .0552490
557.018 .0542791
557.819 .0533709
558.619 .0524985
559.419 .0516654
560.218 .0508791
561.017 .0501359
561.815 .0494128
562.613 .0487158
563.410 .0480381
564.207 .0473670
565.003 .0467159
565.799 .0460707
566.594 .0454322
567.388 .0448127
568.182 .0442082
568.976 .0436201
569.769 .0430480
570.562 .0424889
571.354 .0419400
572.145 .0414078
572.936 .0408881
573.727 .0403740
574.517 .0398744
575.307 .0394016
576.096 .0389556
576.885 .0385386
577.673 .0381533
578.461 .0377982
579.248 .0374703
580.035 .0371679
580.821 .0368853
581.607 .0366218
582.392 .0363742
583.177 .0361442
583.962 .0359308
584.746 .0357390
585.529 .0355657
586.313 .0354125
587.095 .0352783
587.878 .0351590
588.660 .0350485
589.441 .0349438
590.222 .0348439
591.003 .0347493
591.783 .0346594
592.563 .0345753
593.342 .0344970
594.121 .0344257
594.899 .0343604
595.678 .0342996
596.455 .0342410
597.233 .0341852
598.009 .0341294
598.786 .0340732
599.562 .0340159
600.338 .0339580
601.113 .0339001
601.888 .0338434
602.663 .0337889
603.437 .0337359
604.211 .0336838
604.984 .0336326
605.757 .0335826
606.530 .0335323
607.302 .0334809
608.074 .0334286
608.845 .0333759
609.616 .0333227
610.387 .0332694
611.158 .0332170
611.928 .0331662
612.697 .0331173
613.467 .0330704
614.236 .0330247
615.004 .0329811
615.773 .0329390
616.541 .0328988
617.308 .0328602
618.076 .0328239
618.843 .0327888
619.609 .0327562
620.375 .0327258
621.141 .0326968
621.907 .0326684
622.672 .0326413
623.437 .0326143
624.202 .0325871
624.966 .0325592
625.730 .0325305
626.493 .0325010
627.257 .0324714
628.020 .0324408
628.782 .0324092
629.545 .0323767
630.307 .0323441
631.068 .0323102
631.830 .0322758
632.591 .0322403
633.352 .0322050
634.112 .0321700
634.872 .0321356
635.632 .0321017
636.392 .0320685
637.151 .0320362
637.910 .0320047
638.668 .0319743
639.427 .0319453
640.185 .0319180
640.943 .0318929
641.700 .0318695
642.457 .0318487
643.214 .0318290
643.971 .0318102
644.727 .0317924
645.483 .0317751
646.239 .0317578
646.994 .0317404
647.750 .0317238
648.505 .0317081
649.259 .0316937
650.014 .0316805
650.768 .0316683
651.521 .0316571
652.275 .0316453
653.028 .0316325
653.781 .0316180
654.534 .0316020
655.286 .0315841
656.039 .0315646
656.791 .0315444
657.542 .0315229
658.294 .0315011
659.045 .0314795
659.796 .0314587
660.546 .0314386
661.297 .0314188
662.047 .0313987
662.796 .0313779
663.546 .0313562
664.295 .0313335
665.044 .0313104
665.793 .0312870
666.542 .0312632
667.290 .0312393
668.038 .0312152
668.786 .0311914
669.533 .0311678
670.281 .0311446
671.028 .0311209
671.774 .0310961
672.521 .0310701
673.267 .0310426
674.013 .0310144
674.759 .0309856
675.505 .0309565
676.250 .0309277
676.995 .0308990
677.740 .0308705
678.484 .0308427
679.229 .0308156
679.973 .0307894
680.717 .0307641
681.460 .0307392
682.204 .0307145
682.947 .0306904
683.690 .0306666
684.433 .0306427
685.175 .0306191
685.917 .0305952
686.659 .0305708
687.401 .0305461
688.142 .0305208
688.884 .0304953
689.625 .0304696
690.365 .0304439
691.106 .0304173
691.846 .0303912
692.586 .0303644
693.326 .0303363
694.066 .0303076
694.805 .0302783
695.545 .0302476
696.284 .0302163
697.022 .0301843
697.761 .0301522
698.499 .0301201
699.237 .0300885
699.975 .0300573
700.713 .0300276
701.450 .0299987
702.187 .0299710
702.924 .0299438
703.661 .0299181
704.397 .0298927
705.133 .0298688
705.869 .0298460
706.605 .0298241
707.341 .0298033
708.076 .0297839
708.811 .0297649
709.546 .0297468
710.281 .0297285
711.015 .0297104
711.749 .0296918
712.483 .0296733
713.217 .0296539
713.950 .0296346
714.684 .0296151
715.417 .0295958
716.150 .0295764
716.882 .0295575
717.615 .0295383
718.347 .0295193
719.079 .0294999
719.811 .0294802
720.542 .0294603
721.273 .0294410
722.005 .0294222
722.735 .0294045
723.466 .0293882
724.196 .0293732
724.927 .0293593
725.656 .0293462
726.386 .0293333
727.116 .0293206
727.845 .0293081
728.574 .0292955
729.303 .0292833
730.031 .0292723
730.760 .0292631
731.488 .0292559
732.216 .0292508
732.944 .0292476
733.671 .0292459
734.398 .0292457
735.125 .0292457
735.852 .0292460
736.579 .0292464
737.305 .0292466
738.031 .0292470
738.757 .0292476
739.483 .0292482
740.208 .0292488
740.933 .0292499
741.658 .0292504
742.383 .0292504
743.108 .0292501
743.832 .0292488
744.556 .0292462
745.280 .0292424
746.004 .0292372
746.727 .0292308
747.450 .0292243
748.173 .0292173
748.896 .0292099
749.618 .0292029
750.340 .0291961
751.062 .0291896
751.784 .0291834
752.506 .0291770
753.227 .0291695
753.948 .0291608
754.669 .0291503
755.389 .0291376
756.110 .0291235
756.830 .0291082
757.550 .0290918
758.269 .0290752
758.989 .0290579
759.708 .0290398
760.427 .0290213
761.146 .0290024
761.864 .0289828
762.582 .0289624
763.300 .0289415
764.018 .0289205
764.736 .0288991
765.453 .0288784
766.170 .0288580
766.887 .0288380
767.603 .0288181
768.320 .0287982
769.036 .0287782
769.751 .0287580
770.467 .0287375
771.182 .0287170
771.897 .0286963
772.612 .0286757
773.327 .0286553
774.041 .0286352
774.755 .0286158
775.469 .0285970
776.183 .0285784
776.896 .0285601
777.609 .0285421
778.322 .0285241
779.035 .0285061
779.747 .0284884
780.459 .0284711
781.171 .0284541
781.882 .0284378
782.594 .0284225
783.305 .0284081
784.016 .0283947
784.726 .0283822
785.436 .0283703
786.147 .0283585
786.856 .0283468
787.566 .0283346
788.275 .0283217
788.984 .0283080
789.693 .0282930
790.401 .0282770
791.110 .0282605
791.818 .0282434
792.525 .0282258
793.233 .0282081
793.940 .0281905
794.647 .0281722
795.353 .0281539
796.060 .0281353
796.766 .0281160
797.472 .0280955
798.177 .0280740
798.883 .0280511
799.588 .0280273
800.292 .0280033
800.997 .0279795
801.701 .0279563
802.405 .0279342
803.109 .0279128
803.812 .0278923
804.515 .0278723
805.218 .0278524
805.921 .0278315
806.623 .0278098
807.325 .0277870
808.027 .0277635
808.728 .0277398
809.429 .0277166
810.130 .0276940
810.831 .0276729
811.531 .0276531
812.231 .0276347
812.931 .0276176
813.630 .0276021
814.330 .0275875
815.029 .0275742
815.727 .0275616
816.426 .0275499
817.124 .0275392
817.821 .0275301
818.519 .0275221
819.216 .0275156
819.913 .0275105
820.609 .0275067
821.306 .0275038
822.002 .0275018
822.697 .0275005
823.393 .0274998
824.088 .0274996
824.783 .0274996
825.477 .0274998
826.171 .0275003
826.865 .0275012
827.559 .0275029
828.252 .0275051
828.945 .0275077
829.638 .0275108
830.330 .0275146
831.023 .0275189
831.714 .0275237
832.406 .0275289
833.097 .0275345
833.788 .0275402
834.479 .0275458
835.169 .0275511
835.859 .0275565
836.548 .0275618
837.238 .0275668
837.927 .0275715
838.615 .0275758
839.304 .0275799
839.992 .0275840
840.680 .0275883
841.367 .0275928
842.054 .0275974
842.741 .0276021
843.428 .0276070
844.114 .0276121
844.800 .0276171
845.485 .0276218
846.170 .0276263
846.855 .0276308
847.540 .0276351
848.224 .0276394
848.908 .0276442
849.592 .0276496
850.275 .0276549
850.958 .0276600
851.641 .0276645
852.323 .0276682
853.005 .0276705
853.687 .0276712
854.368 .0276703
855.049 .0276675
855.730 .0276629
856.410 .0276567
857.090 .0276493
857.769 .0276406
858.449 .0276308
859.128 .0276195
859.806 .0276072
860.485 .0275938
861.163 .0275798
861.840 .0275653
862.518 .0275508
863.195 .0275364
863.871 .0275223
864.548 .0275085
865.224 .0274954
865.899 .0274822
866.574 .0274692
867.249 .0274564
867.924 .0274435
868.598 .0274303
869.272 .0274171
869.946 .0274044
870.619 .0273917
871.292 .0273795
871.964 .0273674
872.636 .0273547
873.308 .0273421
873.979 .0273292
874.651 .0273155
875.321 .0273017
875.992 .0272881
876.662 .0272746
877.331 .0272614
878.001 .0272488
878.670 .0272366
879.338 .0272251
880.007 .0272146
880.675 .0272045
881.342 .0271944
882.009 .0271851
882.676 .0271757
883.343 .0271662
884.009 .0271570
884.675 .0271472
885.340 .0271372
886.005 .0271273
886.670 .0271173
887.334 .0271078
887.998 .0270990
888.662 .0270913
889.325 .0270845
889.988 .0270787
890.650 .0270733
891.312 .0270675
891.974 .0270618
892.636 .0270554
893.297 .0270477
893.957 .0270392
894.618 .0270296
895.278 .0270190
895.937 .0270077
896.596 .0269959
897.255 .0269836
897.914 .0269704
898.572 .0269559
899.230 .0269402
899.887 .0269233
900.544 .0269047
901.201 .0268845
901.857 .0268631
902.513 .0268406
903.168 .0268166
903.823 .0267911
904.478 .0267644
905.132 .0267362
905.786 .0267064
906.440 .0266750
907.093 .0266420
907.746 .0266081
908.399 .0265732
909.051 .0265377
909.703 .0265020
910.354 .0264660
911.005 .0264297
911.656 .0263933
912.306 .0263568
912.956 .0263203
913.605 .0262838
914.254 .0262480
914.903 .0262130
915.551 .0261793
916.199 .0261473
916.847 .0261167
917.494 .0260882
918.141 .0260610
918.788 .0260347
919.434 .0260092
920.079 .0259835
920.725 .0259574
921.370 .0259307
922.014 .0259037
922.658 .0258762
923.302 .0258484
923.946 .0258210
924.589 .0257933
925.231 .0257653
925.873 .0257373
926.515 .0257090
927.157 .0256805
927.798 .0256518
928.439 .0256226
929.079 .0255930
929.719 .0255632
930.359 .0255329
930.998 .0255025
931.637 .0254722
932.275 .0254424
932.913 .0254129
933.551 .0253843
934.188 .0253569
934.825 .0253307
935.462 .0253062
936.098 .0252832
936.733 .0252620
937.369 .0252422
938.004 .0252238
938.638 .0252070
939.273 .0251919
939.907 .0251783
940.540 .0251668
941.173 .0251575
941.806 .0251506
942.438 .0251459
943.070 .0251431
943.702 .0251417
944.333 .0251416
944.964 .0251419
945.594 .0251422
946.224 .0251425
946.854 .0251428
947.483 .0251434
948.112 .0251444
948.741 .0251459
949.369 .0251474
949.996 .0251493
950.624 .0251513
951.251 .0251527
951.878 .0251535
952.504 .0251537
953.130 .0251529
953.755 .0251518
954.380 .0251503
955.005 .0251487
955.629 .0251474
956.253 .0251469
956.877 .0251469
957.500 .0251480
958.123 .0251498
958.746 .0251524
959.368 .0251550
959.990 .0251585
960.611 .0251616
961.232 .0251645
961.853 .0251676
962.473 .0251711
963.093 .0251746
963.712 .0251785
964.331 .0251823
964.950 .0251866
965.569 .0251912
966.187 .0251967
966.804 .0252021
967.422 .0252085
968.039 .0252151
968.655 .0252218
969.272 .0252284
969.887 .0252352
970.503 .0252416
971.118 .0252486
971.733 .0252563
972.347 .0252644
972.961 .0252731
973.575 .0252828
974.188 .0252926
974.801 .0253022
975.414 .0253111
976.026 .0253187
976.638 .0253244
977.250 .0253292
977.861 .0253332
978.472 .0253366
979.083 .0253404
979.693 .0253439
980.303 .0253473
980.912 .0253505
981.521 .0253529
982.130 .0253546
982.738 .0253561
983.346 .0253578
983.954 .0253592
984.562 .0253617
985.169 .0253657
985.775 .0253708
986.382 .0253769
986.988 .0253838
987.594 .0253905
988.199 .0253964
988.804 .0254015
989.409 .0254052
990.013 .0254088
990.617 .0254124
991.221 .0254160
991.824 .0254205
992.427 .0254262
993.030 .0254327
993.632 .0254391
994.234 .0254458
994.836 .0254519
995.438 .0254569
996.039 .0254617
996.640 .0254660
997.240 .0254704
997.840 .0254757
998.440 .0254820
999.040 .0254898
999.639 .0254992
1000.238 .0255095
1000.836 .0255206
1001.435 .0255324
1002.033 .0255446
1002.630 .0255559
1003.228 .0255664
1003.825 .0255766
1004.422 .0255860
1005.018 .0255955
1005.614 .0256054
1006.210 .0256156
1006.806 .0256266
1007.401 .0256387
1007.996 .0256510
1008.591 .0256635
1009.186 .0256758
1009.780 .0256867
1010.374 .0256956
1010.967 .0257028
1011.561 .0257077
1012.154 .0257102
1012.746 .0257118
1013.339 .0257128
1013.931 .0257133
1014.523 .0257152
1015.115 .0257180
1015.706 .0257221
1016.298 .0257275
1016.888 .0257341
1017.479 .0257406
1018.069 .0257472
1018.660 .0257537
1019.250 .0257596
1019.839 .0257653
1020.429 .0257719
1021.018 .0257785
1021.607 .0257864
1022.195 .0257956
1022.784 .0258053
1023.372 .0258151
1023.960 .0258253
1024.547 .0258346
1025.135 .0258429
1025.722 .0258499
1026.309 .0258553
1026.896 .0258590
1027.483 .0258611
1028.069 .0258621
1028.655 .0258617
1029.241 .0258605
1029.827 .0258592
1030.412 .0258576
1030.997 .0258565
1031.582 .0258552
1032.167 .0258540
1032.752 .0258531
1033.336 .0258522
1033.921 .0258517
1034.505 .0258509
1035.089 .0258495
1035.672 .0258478
1036.256 .0258457
1036.839 .0258427
1037.422 .0258396
1038.005 .0258365
1038.588 .0258332
1039.171 .0258300
1039.753 .0258265
1040.335 .0258226
1040.918 .0258188
1041.500 .0258153
1042.081 .0258116
1042.663 .0258079
1043.244 .0258047
1043.826 .0258010
1044.407 .0257969
1044.988 .0257924
1045.569 .0257863
1046.150 .0257794
1046.730 .0257713
1047.311 .0257618
1047.891 .0257514
1048.471 .0257407
1049.052 .0257295
1049.632 .0257187
1050.211 .0257079
1050.791 .0256967
1051.371 .0256854
1051.950 .0256736
1052.530 .0256604
1053.109 .0256457
1053.688 .0256294
1054.268 .0256116
1054.847 .0255919
1055.426 .0255721
1056.005 .0255520
1056.583 .0255331
1057.162 .0255157
1057.741 .0254991
1058.319 .0254845
1058.898 .0254711
1059.476 .0254569
1060.055 .0254412
1060.633 .0254237
1061.211 .0254033
1061.790 .0253806
1062.368 .0253569
1062.946 .0253321
1063.524 .0253073
1064.102 .0252852
1064.680 .0252650
1065.258 .0252468
1065.836 .0252304
1066.414 .0252145
1066.992 .0251986
1067.570 .0251825
1068.148 .0251639
1068.726 .0251438
1069.304 .0251247
1069.882 .0251071
1070.460 .0250900
1071.038 .0250751
1071.616 .0250621
1072.194 .0250506
1072.772 .0250392
1073.350 .0250265
1073.928 .0250110
1074.506 .0249945
1075.084 .0249757
1075.662 .0249552
1076.240 .0249343
1076.819 .0249129
1077.397 .0248910
1077.976 .0248695
1078.554 .0248486
1079.133 .0248281
1079.711 .0248081
1080.290 .0247912
1080.869 .0247743
1081.448 .0247602
1082.027 .0247471
1082.606 .0247357
1083.185 .0247277
1083.764 .0247221
1084.343 .0247173
1084.923 .0247140
1085.502 .0247120
1086.082 .0247116
1086.662 .0247111
1087.242 .0247128
1087.822 .0247148
1088.402 .0247165
1088.983 .0247188
1089.563 .0247189
1090.144 .0247163
1090.725 .0247141
1091.306 .0247087
1091.887 .0247035
1092.469 .0247002
1093.050 .0246986
1093.632 .0247004
1094.214 .0247061
1094.796 .0247162
1095.379 .0247280
1095.961 .0247414
1096.544 .0247561
1097.127 .0247691
1097.710 .0247846
1098.294 .0248004
1098.877 .0248165
1099.461 .0248366
1100.046 .0248565
1100.630 .0248762
1101.215 .0248961
1101.800 .0249129
1102.385 .0249247
1102.970 .0249319
1103.556 .0249341
1104.142 .0249309
1104.728 .0249248
1105.315 .0249187
1105.902 .0249123
1106.489 .0249097
1107.077 .0249116
1107.664 .0249168
1108.253 .0249299
1108.841 .0249489
1109.430 .0249716
1110.019 .0249996
1110.609 .0250299
1111.198 .0250620
1111.789 .0250945
1112.379 .0251292
1112.970 .0251642
1113.561 .0251985
1114.153 .0252333
1114.745 .0252658
1115.338 .0252960
1115.931 .0253232
1116.524 .0253475
1117.117 .0253729
1117.712 .0253952
1118.306 .0254156
1118.901 .0254342
1119.496 .0254542
1120.092 .0254752
1120.689 .0255007
1121.285 .0255290
1121.882 .0255618
1122.480 .0255998
1123.078 .0256421
1123.677 .0256914
1124.276 .0257484
1124.875 .0258129
1125.476 .0258847
1126.076 .0259629
1126.677 .0260477
1127.279 .0261293
1127.881 .0262159
1128.484 .0263033
1129.087 .0263874
1129.691 .0264676
1130.295 .0265422
1130.900 .0266136
1131.505 .0266810
1132.111 .0267480
1132.718 .0268146
1133.325 .0268878
1133.933 .0269671
1134.541 .0270531
1135.150 .0271491
1135.760 .0272576
1136.370 .0273802
1136.981 .0275101
1137.592 .0276478
1138.204 .0277859
1138.817 .0279260
1139.431 .0280750
1140.045 .0282388
1140.660 .0284162
1141.275 .0286152
1141.891 .0288327
1142.508 .0290161
1143.126 .0294994
1143.744 .0295169
1144.363 .0299547
1144.983 .0300793
