Measurement Sequence started on: 15-12-46-377
Integration time: 28
Scans to Average: 2 
>>>>>Begin Spectral Data<<<<<
432.689 .0000100
433.621 .0000100
434.552 .0000100
435.482 .0000100
436.410 .0000100
437.337 .0000100
438.262 .0265307
439.187 .0562587
440.110 .0931209
441.031 .1346792
441.952 .1749364
442.871 .2065238
443.789 .2236536
444.705 .2243732
445.621 .2111742
446.535 .1893784
447.447 .1648316
448.359 .1274890
449.269 .1090103
450.178 .0974837
451.086 .0893922
451.993 .0832599
452.898 .0784095
453.803 .0744472
454.706 .0711425
455.608 .0683033
456.508 .0658473
457.408 .0637040
458.306 .0618127
459.204 .0601305
460.100 .0586284
460.995 .0572797
461.888 .0560592
462.781 .0549322
463.673 .0538892
464.563 .0529250
465.452 .0520146
466.340 .0511537
467.228 .0503409
468.114 .0495688
468.999 .0488480
469.882 .0481696
470.765 .0475572
471.647 .0470125
472.528 .0465260
473.407 .0461047
474.286 .0457490
475.163 .0454462
476.040 .0451914
476.915 .0449667
477.790 .0447717
478.663 .0445907
479.535 .0444245
480.407 .0442699
481.277 .0441290
482.147 .0440050
483.015 .0439040
483.883 .0438285
484.749 .0437810
485.615 .0437543
486.479 .0437463
487.343 .0437635
488.206 .0437926
489.067 .0438245
489.928 .0438586
490.788 .0438950
491.647 .0439403
492.505 .0439891
493.362 .0440534
494.218 .0441411
495.073 .0442548
495.928 .0444029
496.781 .0445793
497.634 .0447936
498.486 .0450355
499.337 .0453032
500.187 .0455855
501.036 .0458834
501.884 .0461908
502.731 .0465105
503.578 .0468489
504.424 .0472140
505.268 .0476043
506.113 .0480279
506.956 .0484968
507.798 .0490222
508.640 .0496019
509.480 .0502525
510.320 .0509746
511.160 .0517823
511.998 .0526570
512.836 .0536168
513.672 .0546756
514.508 .0558503
515.344 .0571534
516.178 .0586084
517.012 .0602348
517.845 .0620752
518.677 .0641729
519.508 .0665584
520.339 .0692716
521.169 .0723568
521.998 .0757984
522.826 .0796366
523.654 .0838876
524.481 .0885250
525.307 .0936238
526.133 .0991878
526.958 .1051761
527.782 .1115154
528.605 .1181043
529.428 .1247949
530.250 .1311428
531.072 .1369566
531.892 .1418448
532.712 .1455361
533.532 .1478573
534.350 .1486240
535.168 .1478142
535.986 .1454972
536.802 .1418231
537.618 .1369991
538.434 .1312640
539.249 .1250071
540.063 .1183870
540.876 .1117391
541.689 .1052533
542.501 .0990974
543.313 .0933720
544.124 .0881497
544.934 .0834125
545.744 .0791191
546.553 .0752279
547.361 .0717287
548.169 .0686173
548.976 .0658344
549.783 .0633459
550.589 .0611190
551.395 .0590973
552.200 .0572657
553.004 .0555908
553.808 .0540716
554.611 .0526988
555.414 .0514786
556.216 .0503907
557.018 .0494405
557.819 .0486070
558.619 .0478557
559.419 .0471813
560.218 .0465562
561.017 .0459569
561.815 .0453810
562.613 .0448186
563.410 .0442654
564.207 .0437215
565.003 .0431914
565.799 .0426658
566.594 .0421441
567.388 .0416403
568.182 .0411374
568.976 .0406362
569.769 .0401413
570.562 .0396506
571.354 .0391687
572.145 .0387018
572.936 .0382415
573.727 .0377906
574.517 .0373529
575.307 .0369292
576.096 .0365128
576.885 .0361090
577.673 .0357201
578.461 .0353457
579.248 .0349959
580.035 .0346693
580.821 .0343661
581.607 .0340931
582.392 .0338452
583.177 .0336224
583.962 .0334215
584.746 .0332405
585.529 .0330751
586.313 .0329253
587.095 .0327907
587.878 .0326682
588.660 .0325601
589.441 .0324682
590.222 .0323888
591.003 .0323202
591.783 .0322592
592.563 .0322015
593.342 .0321457
594.121 .0320896
594.899 .0320316
595.678 .0319724
596.455 .0319139
597.233 .0318568
598.009 .0318018
598.786 .0317505
599.562 .0317032
600.338 .0316573
601.113 .0316134
601.888 .0315704
602.663 .0315270
603.437 .0314837
604.211 .0314405
604.984 .0313979
605.757 .0313565
606.530 .0313168
607.302 .0312794
608.074 .0312441
608.845 .0312118
609.616 .0311802
610.387 .0311499
611.158 .0311205
611.928 .0310926
612.697 .0310652
613.467 .0310391
614.236 .0310152
615.004 .0309922
615.773 .0309702
616.541 .0309504
617.308 .0309320
618.076 .0309149
618.843 .0308982
619.609 .0308823
620.375 .0308654
621.141 .0308480
621.907 .0308290
622.672 .0308092
623.437 .0307887
624.202 .0307675
624.966 .0307452
625.730 .0307230
626.493 .0307012
627.257 .0306786
628.020 .0306559
628.782 .0306330
629.545 .0306081
630.307 .0305816
631.068 .0305536
631.830 .0305249
632.591 .0304956
633.352 .0304667
634.112 .0304390
634.872 .0304123
635.632 .0303873
636.392 .0303627
637.151 .0303395
637.910 .0303170
638.668 .0302937
639.427 .0302697
640.185 .0302450
640.943 .0302197
641.700 .0301943
642.457 .0301694
643.214 .0301458
643.971 .0301233
644.727 .0301020
645.483 .0300816
646.239 .0300624
646.994 .0300431
647.750 .0300242
648.505 .0300048
649.259 .0299859
650.014 .0299665
650.768 .0299472
651.521 .0299289
652.275 .0299112
653.028 .0298949
653.781 .0298792
654.534 .0298647
655.286 .0298515
656.039 .0298388
656.791 .0298269
657.542 .0298143
658.294 .0298015
659.045 .0297879
659.796 .0297733
660.546 .0297584
661.297 .0297425
662.047 .0297261
662.796 .0297094
663.546 .0296926
664.295 .0296757
665.044 .0296589
665.793 .0296420
666.542 .0296250
667.290 .0296074
668.038 .0295888
668.786 .0295700
669.533 .0295507
670.281 .0295320
671.028 .0295133
671.774 .0294952
672.521 .0294784
673.267 .0294626
674.013 .0294480
674.759 .0294339
675.505 .0294200
676.250 .0294060
676.995 .0293911
677.740 .0293763
678.484 .0293607
679.229 .0293454
679.973 .0293296
680.717 .0293143
681.460 .0292987
682.204 .0292832
682.947 .0292678
683.690 .0292527
684.433 .0292378
685.175 .0292233
685.917 .0292088
686.659 .0291947
687.401 .0291809
688.142 .0291676
688.884 .0291539
689.625 .0291404
690.365 .0291265
691.106 .0291120
691.846 .0290970
692.586 .0290816
693.326 .0290652
694.066 .0290484
694.805 .0290310
695.545 .0290124
696.284 .0289930
697.022 .0289729
697.761 .0289519
698.499 .0289303
699.237 .0289085
699.975 .0288869
700.713 .0288653
701.450 .0288446
702.187 .0288243
702.924 .0288044
703.661 .0287860
704.397 .0287682
705.133 .0287516
705.869 .0287358
706.605 .0287212
707.341 .0287076
708.076 .0286953
708.811 .0286840
709.546 .0286731
710.281 .0286624
711.015 .0286513
711.749 .0286388
712.483 .0286256
713.217 .0286110
713.950 .0285957
714.684 .0285798
715.417 .0285633
716.150 .0285463
716.882 .0285297
717.615 .0285132
718.347 .0284970
719.079 .0284810
719.811 .0284652
720.542 .0284492
721.273 .0284330
722.005 .0284161
722.735 .0283987
723.466 .0283809
724.196 .0283630
724.927 .0283445
725.656 .0283259
726.386 .0283070
727.116 .0282881
727.845 .0282693
728.574 .0282499
729.303 .0282306
730.031 .0282110
730.760 .0281916
731.488 .0281727
732.216 .0281543
732.944 .0281374
733.671 .0281219
734.398 .0281086
735.125 .0280972
735.852 .0280878
736.579 .0280803
737.305 .0280751
738.031 .0280720
738.757 .0280702
739.483 .0280699
740.208 .0280704
740.933 .0280715
741.658 .0280721
742.383 .0280719
743.108 .0280706
743.832 .0280677
744.556 .0280632
745.280 .0280569
746.004 .0280492
746.727 .0280403
747.450 .0280310
748.173 .0280209
748.896 .0280101
749.618 .0279985
750.340 .0279861
751.062 .0279728
751.784 .0279588
752.506 .0279444
753.227 .0279296
753.948 .0279157
754.669 .0279025
755.389 .0278900
756.110 .0278785
756.830 .0278674
757.550 .0278564
758.269 .0278447
758.989 .0278322
759.708 .0278185
760.427 .0278040
761.146 .0277891
761.864 .0277736
762.582 .0277581
763.300 .0277430
764.018 .0277286
764.736 .0277147
765.453 .0277016
766.170 .0276885
766.887 .0276758
767.603 .0276634
768.320 .0276510
769.036 .0276389
769.751 .0276272
770.467 .0276159
771.182 .0276046
771.897 .0275932
772.612 .0275817
773.327 .0275700
774.041 .0275581
774.755 .0275462
775.469 .0275343
776.183 .0275227
776.896 .0275112
777.609 .0275000
778.322 .0274893
779.035 .0274787
779.747 .0274688
780.459 .0274596
781.171 .0274510
781.882 .0274432
782.594 .0274363
783.305 .0274309
784.016 .0274269
784.726 .0274242
785.436 .0274222
786.147 .0274205
786.856 .0274186
787.566 .0274157
788.275 .0274112
788.984 .0274057
789.693 .0273987
790.401 .0273900
791.110 .0273800
791.818 .0273691
792.525 .0273574
793.233 .0273454
793.940 .0273328
794.647 .0273199
795.353 .0273058
796.060 .0272914
796.766 .0272761
797.472 .0272603
798.177 .0272446
798.883 .0272289
799.588 .0272135
800.292 .0271990
800.997 .0271843
801.701 .0271699
802.405 .0271553
803.109 .0271410
803.812 .0271261
804.515 .0271109
805.218 .0270950
805.921 .0270786
806.623 .0270617
807.325 .0270449
808.027 .0270278
808.728 .0270111
809.429 .0269945
810.130 .0269780
810.831 .0269615
811.531 .0269450
812.231 .0269284
812.931 .0269119
813.630 .0268953
814.330 .0268790
815.029 .0268625
815.727 .0268465
816.426 .0268306
817.124 .0268156
817.821 .0268011
818.519 .0267876
819.216 .0267749
819.913 .0267629
820.609 .0267511
821.306 .0267396
822.002 .0267283
822.697 .0267175
823.393 .0267075
824.088 .0266986
824.783 .0266906
825.477 .0266841
826.171 .0266790
826.865 .0266753
827.559 .0266725
828.252 .0266702
828.945 .0266679
829.638 .0266656
830.330 .0266632
831.023 .0266606
831.714 .0266584
832.406 .0266566
833.097 .0266553
833.788 .0266543
834.479 .0266530
835.169 .0266512
835.859 .0266486
836.548 .0266454
837.238 .0266413
837.927 .0266368
838.615 .0266323
839.304 .0266280
839.992 .0266243
840.680 .0266210
841.367 .0266179
842.054 .0266148
842.741 .0266114
843.428 .0266076
844.114 .0266029
844.800 .0265978
845.485 .0265920
846.170 .0265861
846.855 .0265800
847.540 .0265737
848.224 .0265672
848.908 .0265603
849.592 .0265525
850.275 .0265436
850.958 .0265333
851.641 .0265219
852.323 .0265093
853.005 .0264964
853.687 .0264825
854.368 .0264689
855.049 .0264550
855.730 .0264415
856.410 .0264282
857.090 .0264150
857.769 .0264017
858.449 .0263882
859.128 .0263743
859.806 .0263600
860.485 .0263458
861.163 .0263319
861.840 .0263177
862.518 .0263041
863.195 .0262905
863.871 .0262773
864.548 .0262641
865.224 .0262509
865.899 .0262380
866.574 .0262251
867.249 .0262128
867.924 .0262002
868.598 .0261886
869.272 .0261778
869.946 .0261676
870.619 .0261584
871.292 .0261502
871.964 .0261421
872.636 .0261349
873.308 .0261283
873.979 .0261224
874.651 .0261172
875.321 .0261129
875.992 .0261091
876.662 .0261063
877.331 .0261034
878.001 .0261005
878.670 .0260972
879.338 .0260941
880.007 .0260904
880.675 .0260864
881.342 .0260826
882.009 .0260784
882.676 .0260744
883.343 .0260707
884.009 .0260664
884.675 .0260621
885.340 .0260574
886.005 .0260522
886.670 .0260469
887.334 .0260421
887.998 .0260378
888.662 .0260342
889.325 .0260314
889.988 .0260292
890.650 .0260270
891.312 .0260248
891.974 .0260223
892.636 .0260192
893.297 .0260158
893.957 .0260116
894.618 .0260069
895.278 .0260028
895.937 .0259990
896.596 .0259956
897.255 .0259926
897.914 .0259896
898.572 .0259858
899.230 .0259811
899.887 .0259754
900.544 .0259688
901.201 .0259615
901.857 .0259533
902.513 .0259445
903.168 .0259349
903.823 .0259247
904.478 .0259134
905.132 .0259013
905.786 .0258882
906.440 .0258730
907.093 .0258561
907.746 .0258373
908.399 .0258170
909.051 .0257954
909.703 .0257730
910.354 .0257500
911.005 .0257270
911.656 .0257041
912.306 .0256814
912.956 .0256592
913.605 .0256377
914.254 .0256164
914.903 .0255956
915.551 .0255750
916.199 .0255551
916.847 .0255356
917.494 .0255173
918.141 .0254999
918.788 .0254834
919.434 .0254673
920.079 .0254514
920.725 .0254357
921.370 .0254198
922.014 .0254032
922.658 .0253859
923.302 .0253676
923.946 .0253484
924.589 .0253283
925.231 .0253077
925.873 .0252866
926.515 .0252655
927.157 .0252445
927.798 .0252236
928.439 .0252028
929.079 .0251823
929.719 .0251620
930.359 .0251415
930.998 .0251204
931.637 .0250988
932.275 .0250769
932.913 .0250549
933.551 .0250329
934.188 .0250112
934.825 .0249904
935.462 .0249709
936.098 .0249528
936.733 .0249367
937.369 .0249225
938.004 .0249100
938.638 .0248988
939.273 .0248884
939.907 .0248787
940.540 .0248695
941.173 .0248614
941.806 .0248548
942.438 .0248497
943.070 .0248461
943.702 .0248438
944.333 .0248425
944.964 .0248417
945.594 .0248406
946.224 .0248388
946.854 .0248360
947.483 .0248321
948.112 .0248269
948.741 .0248208
949.369 .0248143
949.996 .0248081
950.624 .0248020
951.251 .0247963
951.878 .0247903
952.504 .0247839
953.130 .0247769
953.755 .0247690
954.380 .0247605
955.005 .0247513
955.629 .0247416
956.253 .0247322
956.877 .0247231
957.500 .0247145
958.123 .0247064
958.746 .0246990
959.368 .0246918
959.990 .0246844
960.611 .0246766
961.232 .0246681
961.853 .0246598
962.473 .0246517
963.093 .0246437
963.712 .0246359
964.331 .0246283
964.950 .0246207
965.569 .0246133
966.187 .0246063
966.804 .0245996
967.422 .0245936
968.039 .0245890
968.655 .0245853
969.272 .0245824
969.887 .0245806
970.503 .0245799
971.118 .0245800
971.733 .0245809
972.347 .0245825
972.961 .0245852
973.575 .0245891
974.188 .0245940
974.801 .0245995
975.414 .0246053
976.026 .0246111
976.638 .0246162
977.250 .0246200
977.861 .0246229
978.472 .0246245
979.083 .0246252
979.693 .0246249
980.303 .0246242
980.912 .0246222
981.521 .0246191
982.130 .0246146
982.738 .0246081
983.346 .0245996
983.954 .0245889
984.562 .0245766
985.169 .0245633
985.775 .0245492
986.382 .0245354
986.988 .0245219
987.594 .0245091
988.199 .0244964
988.804 .0244838
989.409 .0244713
990.013 .0244591
990.617 .0244472
991.221 .0244363
991.824 .0244267
992.427 .0244195
993.030 .0244144
993.632 .0244118
994.234 .0244119
994.836 .0244141
995.438 .0244178
996.039 .0244232
996.640 .0244289
997.240 .0244358
997.840 .0244441
998.440 .0244533
999.040 .0244627
999.639 .0244727
1000.238 .0244826
1000.836 .0244921
1001.435 .0245005
1002.033 .0245080
1002.630 .0245136
1003.228 .0245184
1003.825 .0245221
1004.422 .0245246
1005.018 .0245269
1005.614 .0245293
1006.210 .0245312
1006.806 .0245333
1007.401 .0245350
1007.996 .0245359
1008.591 .0245360
1009.186 .0245362
1009.780 .0245357
1010.374 .0245348
1010.967 .0245337
1011.561 .0245329
1012.154 .0245326
1012.746 .0245334
1013.339 .0245346
1013.931 .0245366
1014.523 .0245398
1015.115 .0245434
1015.706 .0245472
1016.298 .0245513
1016.888 .0245560
1017.479 .0245614
1018.069 .0245676
1018.660 .0245752
1019.250 .0245850
1019.839 .0245969
1020.429 .0246107
1021.018 .0246253
1021.607 .0246403
1022.195 .0246538
1022.784 .0246655
1023.372 .0246752
1023.960 .0246830
1024.547 .0246893
1025.135 .0246955
1025.722 .0247017
1026.309 .0247098
1026.896 .0247198
1027.483 .0247313
1028.069 .0247438
1028.655 .0247562
1029.241 .0247668
1029.827 .0247754
1030.412 .0247820
1030.997 .0247871
1031.582 .0247903
1032.167 .0247936
1032.752 .0247967
1033.336 .0247998
1033.921 .0248033
1034.505 .0248059
1035.089 .0248078
1035.672 .0248091
1036.256 .0248091
1036.839 .0248076
1037.422 .0248052
1038.005 .0248028
1038.588 .0248007
1039.171 .0247996
1039.753 .0247997
1040.335 .0248004
1040.918 .0248020
1041.500 .0248050
1042.081 .0248085
1042.663 .0248127
1043.244 .0248181
1043.826 .0248242
1044.407 .0248308
1044.988 .0248370
1045.569 .0248419
1046.150 .0248449
1046.730 .0248461
1047.311 .0248452
1047.891 .0248420
1048.471 .0248368
1049.052 .0248303
1049.632 .0248233
1050.211 .0248171
1050.791 .0248114
1051.371 .0248069
1051.950 .0248039
1052.530 .0248021
1053.109 .0248009
1053.688 .0248002
1054.268 .0248004
1054.847 .0248024
1055.426 .0248050
1056.005 .0248086
1056.583 .0248118
1057.162 .0248153
1057.741 .0248185
1058.319 .0248203
1058.898 .0248207
1059.476 .0248193
1060.055 .0248157
1060.633 .0248097
1061.211 .0248012
1061.790 .0247924
1062.368 .0247831
1062.946 .0247742
1063.524 .0247650
1064.102 .0247558
1064.680 .0247473
1065.258 .0247378
1065.836 .0247280
1066.414 .0247178
1066.992 .0247067
1067.570 .0246953
1068.148 .0246845
1068.726 .0246749
1069.304 .0246676
1069.882 .0246637
1070.460 .0246617
1071.038 .0246612
1071.616 .0246614
1072.194 .0246617
1072.772 .0246603
1073.350 .0246582
1073.928 .0246543
1074.506 .0246475
1075.084 .0246418
1075.662 .0246357
1076.240 .0246312
1076.819 .0246296
1077.397 .0246312
1077.976 .0246348
1078.554 .0246399
1079.133 .0246458
1079.711 .0246494
1080.290 .0246512
1080.869 .0246512
1081.448 .0246483
1082.027 .0246448
1082.606 .0246405
1083.185 .0246384
1083.764 .0246383
1084.343 .0246406
1084.923 .0246442
1085.502 .0246488
1086.082 .0246525
1086.662 .0246540
1087.242 .0246522
1087.822 .0246506
1088.402 .0246499
1088.983 .0246508
1089.563 .0246547
1090.144 .0246642
1090.725 .0246794
1091.306 .0246963
1091.887 .0247132
1092.469 .0247305
1093.050 .0247447
1093.632 .0247565
1094.214 .0247656
1094.796 .0247725
1095.379 .0247793
1095.961 .0247875
1096.544 .0247951
1097.127 .0248036
1097.710 .0248117
1098.294 .0248184
1098.877 .0248226
1099.461 .0248258
1100.046 .0248284
1100.630 .0248304
1101.215 .0248357
1101.800 .0248441
1102.385 .0248534
1102.970 .0248660
1103.556 .0248794
1104.142 .0248940
1104.728 .0249093
1105.315 .0249249
1105.902 .0249408
1106.489 .0249589
1107.077 .0249798
1107.664 .0250023
1108.253 .0250245
1108.841 .0250469
1109.430 .0250668
1110.019 .0250826
1110.609 .0250951
1111.198 .0251039
1111.789 .0251128
1112.379 .0251237
1112.970 .0251361
1113.561 .0251547
1114.153 .0251787
1114.745 .0252073
1115.338 .0252384
1115.931 .0252705
1116.524 .0253059
1117.117 .0253402
1117.712 .0253763
1118.306 .0254148
1118.901 .0254585
1119.496 .0255080
1120.092 .0255613
1120.689 .0256189
1121.285 .0256805
1121.882 .0257418
1122.480 .0258035
1123.078 .0258636
1123.677 .0259205
1124.276 .0259753
1124.875 .0260280
1125.476 .0260785
1126.076 .0261290
1126.677 .0261756
1127.279 .0262222
1127.881 .0262667
1128.484 .0263141
1129.087 .0263622
1129.691 .0264180
1130.295 .0264860
1130.900 .0265648
1131.505 .0266543
1132.111 .0267561
1132.718 .0268667
1133.325 .0269836
1133.933 .0271006
1134.541 .0272170
1135.150 .0273313
1135.760 .0274451
1136.370 .0275539
1136.981 .0276644
1137.592 .0277739
1138.204 .0278833
1138.817 .0279804
1139.431 .0280654
1140.045 .0281338
1140.660 .0281790
1141.275 .0282025
1141.891 .0282120
1142.508 .0282101
1143.126 .0281575
1143.744 .0280743
1144.363 .0280938
1144.983 .0282875
