Measurement Sequence started on: 15-12-46-377
Integration time: 28
Scans to Average: 2 
>>>>>Begin Spectral Data<<<<<
432.689 .0000100
433.621 .0000100
434.552 .0000100
435.482 .0000100
436.410 .0000100
437.337 .0000100
438.262 .0274789
439.187 .0583888
440.110 .0968443
441.031 .1402298
441.952 .1823568
442.871 .2155539
443.789 .2338332
444.705 .2350661
445.621 .2217614
446.535 .1994100
447.447 .1740707
448.359 .1353788
449.269 .1160872
450.178 .1039621
451.086 .0955008
451.993 .0891356
452.898 .0841503
453.803 .0800793
454.706 .0767212
455.608 .0738372
456.508 .0713078
457.408 .0690286
458.306 .0669356
459.204 .0650137
460.100 .0632487
460.995 .0616380
461.888 .0601844
462.781 .0588611
463.673 .0576483
464.563 .0565257
465.452 .0554683
466.340 .0544563
467.228 .0535001
468.114 .0525977
468.999 .0517597
469.882 .0509848
470.765 .0502897
471.647 .0496698
472.528 .0491327
473.407 .0486771
474.286 .0482972
475.163 .0479739
476.040 .0477005
476.915 .0474633
477.790 .0472564
478.663 .0470745
479.535 .0469158
480.407 .0467815
481.277 .0466684
482.147 .0465796
483.015 .0465105
483.883 .0464630
484.749 .0464368
485.615 .0464248
486.479 .0464186
487.343 .0464288
488.206 .0464449
489.067 .0464635
489.928 .0464837
490.788 .0465160
491.647 .0465551
492.505 .0466091
493.362 .0466741
494.218 .0467556
495.073 .0468529
495.928 .0469707
496.781 .0470917
497.634 .0472354
498.486 .0473957
499.337 .0475770
500.187 .0477747
501.036 .0480039
501.884 .0482548
502.731 .0485377
503.578 .0488453
504.424 .0491896
505.268 .0495571
506.113 .0499638
506.956 .0504026
507.798 .0508956
508.640 .0514442
509.480 .0520617
510.320 .0527526
511.160 .0535387
511.998 .0543970
512.836 .0553439
513.672 .0563711
514.508 .0575051
515.344 .0587499
516.178 .0601481
517.012 .0617190
517.845 .0635277
518.677 .0656100
519.508 .0680166
520.339 .0707792
521.169 .0739513
521.998 .0775179
522.826 .0815286
523.654 .0859950
524.481 .0909535
525.307 .0964358
526.133 .1024659
526.958 .1089960
527.782 .1159879
528.605 .1232418
529.428 .1306568
530.250 .1376655
531.072 .1440606
531.892 .1493838
532.712 .1533764
533.532 .1558261
534.350 .1565144
535.168 .1554356
535.986 .1527359
536.802 .1485843
537.618 .1432779
538.434 .1370114
539.249 .1302919
540.063 .1232600
540.876 .1162370
541.689 .1093774
542.501 .1028714
543.313 .0968674
544.124 .0913925
544.934 .0863950
545.744 .0818576
546.553 .0777643
547.361 .0741111
548.169 .0708658
548.976 .0679578
549.783 .0653797
550.589 .0631064
551.395 .0610728
552.200 .0592638
553.004 .0576398
553.808 .0561795
554.611 .0548768
555.414 .0537175
556.216 .0526808
557.018 .0517701
557.819 .0509727
558.619 .0502595
559.419 .0496131
560.218 .0490198
561.017 .0484479
561.815 .0478692
562.613 .0472938
563.410 .0467065
564.207 .0461081
565.003 .0455169
565.799 .0449362
566.594 .0443600
567.388 .0438047
568.182 .0432534
568.976 .0427079
569.769 .0421714
570.562 .0416413
571.354 .0411134
572.145 .0406040
572.936 .0401135
573.727 .0396354
574.517 .0391849
575.307 .0387639
576.096 .0383598
576.885 .0379757
577.673 .0376074
578.461 .0372544
579.248 .0369108
580.035 .0365859
580.821 .0362720
581.607 .0359760
582.392 .0356991
583.177 .0354402
583.962 .0352008
584.746 .0349832
585.529 .0347802
586.313 .0345932
587.095 .0344222
587.878 .0342653
588.660 .0341196
589.441 .0339872
590.222 .0338667
591.003 .0337582
591.783 .0336574
592.563 .0335660
593.342 .0334826
594.121 .0334048
594.899 .0333320
595.678 .0332638
596.455 .0331979
597.233 .0331348
598.009 .0330717
598.786 .0330101
599.562 .0329491
600.338 .0328895
601.113 .0328312
601.888 .0327761
602.663 .0327260
603.437 .0326805
604.211 .0326389
604.984 .0326023
605.757 .0325694
606.530 .0325377
607.302 .0325077
608.074 .0324787
608.845 .0324508
609.616 .0324249
610.387 .0324008
611.158 .0323795
611.928 .0323608
612.697 .0323446
613.467 .0323300
614.236 .0323160
615.004 .0323015
615.773 .0322847
616.541 .0322659
617.308 .0322459
618.076 .0322250
618.843 .0322035
619.609 .0321831
620.375 .0321643
621.141 .0321471
621.907 .0321308
622.672 .0321158
623.437 .0321012
624.202 .0320859
624.966 .0320703
625.730 .0320534
626.493 .0320355
627.257 .0320172
628.020 .0319988
628.782 .0319804
629.545 .0319615
630.307 .0319420
631.068 .0319213
631.830 .0318996
632.591 .0318765
633.352 .0318516
634.112 .0318249
634.872 .0317968
635.632 .0317676
636.392 .0317374
637.151 .0317077
637.910 .0316781
638.668 .0316500
639.427 .0316231
640.185 .0315970
640.943 .0315713
641.700 .0315456
642.457 .0315202
643.214 .0314939
643.971 .0314660
644.727 .0314368
645.483 .0314069
646.239 .0313768
646.994 .0313468
647.750 .0313174
648.505 .0312892
649.259 .0312625
650.014 .0312363
650.768 .0312096
651.521 .0311817
652.275 .0311527
653.028 .0311230
653.781 .0310922
654.534 .0310617
655.286 .0310314
656.039 .0310023
656.791 .0309745
657.542 .0309474
658.294 .0309210
659.045 .0308945
659.796 .0308676
660.546 .0308404
661.297 .0308120
662.047 .0307840
662.796 .0307566
663.546 .0307311
664.295 .0307076
665.044 .0306861
665.793 .0306660
666.542 .0306471
667.290 .0306295
668.038 .0306125
668.786 .0305954
669.533 .0305789
670.281 .0305626
671.028 .0305463
671.774 .0305301
672.521 .0305149
673.267 .0304999
674.013 .0304855
674.759 .0304709
675.505 .0304561
676.250 .0304411
676.995 .0304257
677.740 .0304105
678.484 .0303952
679.229 .0303807
679.973 .0303664
680.717 .0303530
681.460 .0303409
682.204 .0303297
682.947 .0303190
683.690 .0303091
684.433 .0302996
685.175 .0302901
685.917 .0302810
686.659 .0302722
687.401 .0302637
688.142 .0302560
688.884 .0302484
689.625 .0302409
690.365 .0302332
691.106 .0302251
691.846 .0302157
692.586 .0302052
693.326 .0301934
694.066 .0301801
694.805 .0301663
695.545 .0301525
696.284 .0301378
697.022 .0301229
697.761 .0301077
698.499 .0300917
699.237 .0300752
699.975 .0300581
700.713 .0300406
701.450 .0300231
702.187 .0300057
702.924 .0299884
703.661 .0299713
704.397 .0299547
705.133 .0299380
705.869 .0299209
706.605 .0299035
707.341 .0298854
708.076 .0298669
708.811 .0298483
709.546 .0298298
710.281 .0298113
711.015 .0297927
711.749 .0297736
712.483 .0297536
713.217 .0297318
713.950 .0297083
714.684 .0296832
715.417 .0296564
716.150 .0296286
716.882 .0296006
717.615 .0295724
718.347 .0295449
719.079 .0295179
719.811 .0294912
720.542 .0294648
721.273 .0294384
722.005 .0294118
722.735 .0293848
723.466 .0293581
724.196 .0293313
724.927 .0293042
725.656 .0292779
726.386 .0292511
727.116 .0292244
727.845 .0291977
728.574 .0291710
729.303 .0291443
730.031 .0291180
730.760 .0290924
731.488 .0290670
732.216 .0290424
732.944 .0290188
733.671 .0289959
734.398 .0289740
735.125 .0289527
735.852 .0289323
736.579 .0289126
737.305 .0288944
738.031 .0288769
738.757 .0288610
739.483 .0288465
740.208 .0288329
740.933 .0288198
741.658 .0288076
742.383 .0287957
743.108 .0287841
743.832 .0287727
744.556 .0287617
745.280 .0287510
746.004 .0287410
746.727 .0287313
747.450 .0287227
748.173 .0287147
748.896 .0287076
749.618 .0287007
750.340 .0286949
751.062 .0286900
751.784 .0286864
752.506 .0286839
753.227 .0286829
753.948 .0286830
754.669 .0286844
755.389 .0286862
756.110 .0286890
756.830 .0286921
757.550 .0286954
758.269 .0286984
758.989 .0287013
759.708 .0287039
760.427 .0287057
761.146 .0287069
761.864 .0287073
762.582 .0287067
763.300 .0287049
764.018 .0287018
764.736 .0286980
765.453 .0286937
766.170 .0286888
766.887 .0286833
767.603 .0286780
768.320 .0286730
769.036 .0286680
769.751 .0286634
770.467 .0286594
771.182 .0286558
771.897 .0286525
772.612 .0286494
773.327 .0286466
774.041 .0286440
774.755 .0286416
775.469 .0286390
776.183 .0286365
776.896 .0286336
777.609 .0286303
778.322 .0286265
779.035 .0286221
779.747 .0286164
780.459 .0286097
781.171 .0286017
781.882 .0285923
782.594 .0285817
783.305 .0285701
784.016 .0285578
784.726 .0285451
785.436 .0285321
786.147 .0285187
786.856 .0285052
787.566 .0284916
788.275 .0284777
788.984 .0284630
789.693 .0284477
790.401 .0284310
791.110 .0284129
791.818 .0283935
792.525 .0283727
793.233 .0283507
793.940 .0283276
794.647 .0283039
795.353 .0282793
796.060 .0282541
796.766 .0282284
797.472 .0282020
798.177 .0281750
798.883 .0281472
799.588 .0281191
800.292 .0280908
800.997 .0280626
801.701 .0280348
802.405 .0280078
803.109 .0279817
803.812 .0279565
804.515 .0279322
805.218 .0279085
805.921 .0278851
806.623 .0278616
807.325 .0278380
808.027 .0278140
808.728 .0277894
809.429 .0277645
810.130 .0277389
810.831 .0277132
811.531 .0276871
812.231 .0276608
812.931 .0276344
813.630 .0276084
814.330 .0275824
815.029 .0275568
815.727 .0275317
816.426 .0275068
817.124 .0274822
817.821 .0274581
818.519 .0274343
819.216 .0274109
819.913 .0273880
820.609 .0273657
821.306 .0273442
822.002 .0273241
822.697 .0273052
823.393 .0272875
824.088 .0272713
824.783 .0272557
825.477 .0272402
826.171 .0272251
826.865 .0272100
827.559 .0271950
828.252 .0271806
828.945 .0271668
829.638 .0271536
830.330 .0271415
831.023 .0271306
831.714 .0271210
832.406 .0271126
833.097 .0271050
833.788 .0270976
834.479 .0270905
835.169 .0270832
835.859 .0270758
836.548 .0270686
837.238 .0270620
837.927 .0270559
838.615 .0270506
839.304 .0270464
839.992 .0270435
840.680 .0270419
841.367 .0270414
842.054 .0270422
842.741 .0270440
843.428 .0270466
844.114 .0270500
844.800 .0270544
845.485 .0270599
846.170 .0270659
846.855 .0270726
847.540 .0270799
848.224 .0270877
848.908 .0270964
849.592 .0271054
850.275 .0271152
850.958 .0271256
851.641 .0271363
852.323 .0271470
853.005 .0271577
853.687 .0271680
854.368 .0271775
855.049 .0271866
855.730 .0271952
856.410 .0272034
857.090 .0272117
857.769 .0272203
858.449 .0272290
859.128 .0272378
859.806 .0272466
860.485 .0272552
861.163 .0272638
861.840 .0272720
862.518 .0272796
863.195 .0272872
863.871 .0272949
864.548 .0273025
865.224 .0273104
865.899 .0273188
866.574 .0273274
867.249 .0273360
867.924 .0273443
868.598 .0273519
869.272 .0273590
869.946 .0273659
870.619 .0273722
871.292 .0273779
871.964 .0273830
872.636 .0273872
873.308 .0273903
873.979 .0273923
874.651 .0273926
875.321 .0273908
875.992 .0273872
876.662 .0273813
877.331 .0273736
878.001 .0273648
878.670 .0273552
879.338 .0273449
880.007 .0273343
880.675 .0273233
881.342 .0273115
882.009 .0272996
882.676 .0272873
883.343 .0272740
884.009 .0272602
884.675 .0272458
885.340 .0272309
886.005 .0272159
886.670 .0272012
887.334 .0271865
887.998 .0271717
888.662 .0271569
889.325 .0271412
889.988 .0271244
890.650 .0271069
891.312 .0270879
891.974 .0270677
892.636 .0270469
893.297 .0270251
893.957 .0270030
894.618 .0269808
895.278 .0269586
895.937 .0269364
896.596 .0269141
897.255 .0268914
897.914 .0268678
898.572 .0268441
899.230 .0268197
899.887 .0267947
900.544 .0267696
901.201 .0267438
901.857 .0267176
902.513 .0266909
903.168 .0266638
903.823 .0266357
904.478 .0266064
905.132 .0265757
905.786 .0265435
906.440 .0265097
907.093 .0264746
907.746 .0264385
908.399 .0264018
909.051 .0263647
909.703 .0263274
910.354 .0262902
911.005 .0262538
911.656 .0262173
912.306 .0261815
912.956 .0261459
913.605 .0261109
914.254 .0260764
914.903 .0260422
915.551 .0260092
916.199 .0259773
916.847 .0259466
917.494 .0259165
918.141 .0258873
918.788 .0258589
919.434 .0258309
920.079 .0258033
920.725 .0257758
921.370 .0257484
922.014 .0257210
922.658 .0256938
923.302 .0256669
923.946 .0256402
924.589 .0256137
925.231 .0255868
925.873 .0255596
926.515 .0255320
927.157 .0255033
927.798 .0254741
928.439 .0254449
929.079 .0254157
929.719 .0253863
930.359 .0253574
930.998 .0253291
931.637 .0253017
932.275 .0252756
932.913 .0252496
933.551 .0252244
934.188 .0251996
934.825 .0251753
935.462 .0251510
936.098 .0251277
936.733 .0251056
937.369 .0250844
938.004 .0250650
938.638 .0250468
939.273 .0250301
939.907 .0250150
940.540 .0250011
941.173 .0249884
941.806 .0249768
942.438 .0249664
943.070 .0249566
943.702 .0249481
944.333 .0249403
944.964 .0249328
945.594 .0249257
946.224 .0249188
946.854 .0249120
947.483 .0249054
948.112 .0248994
948.741 .0248934
949.369 .0248880
949.996 .0248829
950.624 .0248778
951.251 .0248732
951.878 .0248688
952.504 .0248644
953.130 .0248603
953.755 .0248570
954.380 .0248545
955.005 .0248530
955.629 .0248527
956.253 .0248537
956.877 .0248561
957.500 .0248600
958.123 .0248650
958.746 .0248710
959.368 .0248786
959.990 .0248871
960.611 .0248965
961.232 .0249076
961.853 .0249198
962.473 .0249326
963.093 .0249462
963.712 .0249600
964.331 .0249736
964.950 .0249869
965.569 .0250004
966.187 .0250144
966.804 .0250294
967.422 .0250461
968.039 .0250641
968.655 .0250839
969.272 .0251051
969.887 .0251266
970.503 .0251480
971.118 .0251692
971.733 .0251895
972.347 .0252094
972.961 .0252295
973.575 .0252498
974.188 .0252704
974.801 .0252909
975.414 .0253112
976.026 .0253301
976.638 .0253474
977.250 .0253627
977.861 .0253762
978.472 .0253884
979.083 .0253993
979.693 .0254094
980.303 .0254191
980.912 .0254289
981.521 .0254390
982.130 .0254486
982.738 .0254579
983.346 .0254668
983.954 .0254751
984.562 .0254828
985.169 .0254903
985.775 .0254978
986.382 .0255059
986.988 .0255148
987.594 .0255241
988.199 .0255341
988.804 .0255447
989.409 .0255557
990.013 .0255671
990.617 .0255794
991.221 .0255916
991.824 .0256041
992.427 .0256170
993.030 .0256301
993.632 .0256434
994.234 .0256573
994.836 .0256712
995.438 .0256855
996.039 .0257001
996.640 .0257141
997.240 .0257278
997.840 .0257414
998.440 .0257539
999.040 .0257651
999.639 .0257751
1000.238 .0257838
1000.836 .0257908
1001.435 .0257969
1002.033 .0258020
1002.630 .0258061
1003.228 .0258092
1003.825 .0258105
1004.422 .0258098
1005.018 .0258077
1005.614 .0258037
1006.210 .0257983
1006.806 .0257929
1007.401 .0257878
1007.996 .0257828
1008.591 .0257786
1009.186 .0257747
1009.780 .0257712
1010.374 .0257673
1010.967 .0257629
1011.561 .0257575
1012.154 .0257507
1012.746 .0257430
1013.339 .0257341
1013.931 .0257248
1014.523 .0257154
1015.115 .0257055
1015.706 .0256952
1016.298 .0256842
1016.888 .0256724
1017.479 .0256595
1018.069 .0256458
1018.660 .0256319
1019.250 .0256180
1019.839 .0256043
1020.429 .0255906
1021.018 .0255771
1021.607 .0255635
1022.195 .0255505
1022.784 .0255368
1023.372 .0255236
1023.960 .0255108
1024.547 .0254992
1025.135 .0254889
1025.722 .0254797
1026.309 .0254721
1026.896 .0254655
1027.483 .0254588
1028.069 .0254513
1028.655 .0254420
1029.241 .0254309
1029.827 .0254176
1030.412 .0254034
1030.997 .0253885
1031.582 .0253733
1032.167 .0253589
1032.752 .0253458
1033.336 .0253329
1033.921 .0253218
1034.505 .0253106
1035.089 .0252985
1035.672 .0252857
1036.256 .0252709
1036.839 .0252539
1037.422 .0252354
1038.005 .0252173
1038.588 .0251998
1039.171 .0251841
1039.753 .0251713
1040.335 .0251588
1040.918 .0251481
1041.500 .0251372
1042.081 .0251234
1042.663 .0251066
1043.244 .0250869
1043.826 .0250632
1044.407 .0250369
1044.988 .0250105
1045.569 .0249836
1046.150 .0249579
1046.730 .0249339
1047.311 .0249096
1047.891 .0248852
1048.471 .0248599
1049.052 .0248321
1049.632 .0248021
1050.211 .0247727
1050.791 .0247423
1051.371 .0247134
1051.950 .0246888
1052.530 .0246681
1053.109 .0246509
1053.688 .0246364
1054.268 .0246225
1054.847 .0246083
1055.426 .0245943
1056.005 .0245779
1056.583 .0245604
1057.162 .0245444
1057.741 .0245282
1058.319 .0245131
1058.898 .0244989
1059.476 .0244849
1060.055 .0244703
1060.633 .0244546
1061.211 .0244372
1061.790 .0244174
1062.368 .0243984
1062.946 .0243799
1063.524 .0243639
1064.102 .0243517
1064.680 .0243422
1065.258 .0243347
1065.836 .0243310
1066.414 .0243283
1066.992 .0243260
1067.570 .0243245
1068.148 .0243220
1068.726 .0243195
1069.304 .0243171
1069.882 .0243137
1070.460 .0243111
1071.038 .0243088
1071.616 .0243063
1072.194 .0243018
1072.772 .0242977
1073.350 .0242925
1073.928 .0242852
1074.506 .0242770
1075.084 .0242669
1075.662 .0242545
1076.240 .0242421
1076.819 .0242294
1077.397 .0242173
1077.976 .0242078
1078.554 .0242024
1079.133 .0242005
1079.711 .0242036
1080.290 .0242104
1080.869 .0242193
1081.448 .0242287
1082.027 .0242378
1082.606 .0242440
1083.185 .0242468
1083.764 .0242497
1084.343 .0242520
1084.923 .0242536
1085.502 .0242577
1086.082 .0242641
1086.662 .0242723
1087.242 .0242817
1087.822 .0242902
1088.402 .0242965
1088.983 .0242999
1089.563 .0243000
1090.144 .0242959
1090.725 .0242908
1091.306 .0242858
1091.887 .0242806
1092.469 .0242770
1093.050 .0242774
1093.632 .0242793
1094.214 .0242832
1094.796 .0242907
1095.379 .0243005
1095.961 .0243109
1096.544 .0243230
1097.127 .0243370
1097.710 .0243553
1098.294 .0243780
1098.877 .0244040
1099.461 .0244348
1100.046 .0244711
1100.630 .0245109
1101.215 .0245531
1101.800 .0245996
1102.385 .0246473
1102.970 .0246946
1103.556 .0247415
1104.142 .0247896
1104.728 .0248367
1105.315 .0248840
1105.902 .0249296
1106.489 .0249735
1107.077 .0250152
1107.664 .0250523
1108.253 .0250847
1108.841 .0251165
1109.430 .0251450
1110.019 .0251709
1110.609 .0251942
1111.198 .0252194
1111.789 .0252455
1112.379 .0252770
1112.970 .0253121
1113.561 .0253536
1114.153 .0253990
1114.745 .0254496
1115.338 .0255009
1115.931 .0255563
1116.524 .0256119
1117.117 .0256685
1117.712 .0257252
1118.306 .0257812
1118.901 .0258349
1119.496 .0258898
1120.092 .0259427
1120.689 .0259966
1121.285 .0260437
1121.882 .0260852
1122.480 .0261196
1123.078 .0261514
1123.677 .0261795
1124.276 .0262073
1124.875 .0262409
1125.476 .0262846
1126.076 .0263360
1126.677 .0263995
1127.279 .0264685
1127.881 .0265471
1128.484 .0266284
1129.087 .0267072
1129.691 .0267857
1130.295 .0268639
1130.900 .0269429
1131.505 .0270277
1132.111 .0271208
1132.718 .0272233
1133.325 .0273332
1133.933 .0274508
1134.541 .0275714
1135.150 .0276912
1135.760 .0278083
1136.370 .0279205
1136.981 .0280313
1137.592 .0281424
1138.204 .0282512
1138.817 .0283636
1139.431 .0284907
1140.045 .0286266
1140.660 .0287721
1141.275 .0289178
1141.891 .0290896
1142.508 .0293487
1143.126 .0294755
1143.744 .0295782
1144.363 .0295248
1144.983 .0303147
