Measurement Sequence started on: 15-12-46-377
Integration time: 28
Scans to Average: 2 
>>>>>Begin Spectral Data<<<<<
432.689 .0000100
433.621 .0000100
434.552 .0000100
435.482 .0000100
436.410 .0000100
437.337 .0000100
438.262 .0278276
439.187 .0589805
440.110 .0977146
441.031 .1415057
441.952 .1841188
442.871 .2178278
443.789 .2365543
444.705 .2382393
445.621 .2253631
446.535 .2034321
447.447 .1784645
448.359 .1398403
449.269 .1207744
450.178 .1087178
451.086 .1000707
451.993 .0933649
452.898 .0879624
453.803 .0834908
454.706 .0797185
455.608 .0764878
456.508 .0736939
457.408 .0712629
458.306 .0691270
459.204 .0672187
460.100 .0654803
460.995 .0639070
461.888 .0624636
462.781 .0611154
463.673 .0598567
464.563 .0586908
465.452 .0576162
466.340 .0566295
467.228 .0557448
468.114 .0549549
468.999 .0542495
469.882 .0536150
470.765 .0530454
471.647 .0525180
472.528 .0520350
473.407 .0515819
474.286 .0511602
475.163 .0507677
476.040 .0504133
476.915 .0500935
477.790 .0498174
478.663 .0495799
479.535 .0493801
480.407 .0492123
481.277 .0490671
482.147 .0489383
483.015 .0488226
483.883 .0487269
484.749 .0486556
485.615 .0485970
486.479 .0485649
487.343 .0485591
488.206 .0485790
489.067 .0486184
489.928 .0486728
490.788 .0487423
491.647 .0488208
492.505 .0489124
493.362 .0490171
494.218 .0491397
495.073 .0492835
495.928 .0494564
496.781 .0496488
497.634 .0498729
498.486 .0501168
499.337 .0503744
500.187 .0506574
501.036 .0509539
501.884 .0512650
502.731 .0515923
503.578 .0519417
504.424 .0523280
505.268 .0527391
506.113 .0531943
506.956 .0536904
507.798 .0542429
508.640 .0548520
509.480 .0555156
510.320 .0562580
511.160 .0570907
511.998 .0580156
512.836 .0590496
513.672 .0602190
514.508 .0615266
515.344 .0629725
516.178 .0646026
517.012 .0664408
517.845 .0685171
518.677 .0708579
519.508 .0734811
520.339 .0764203
521.169 .0797205
521.998 .0833826
522.826 .0874260
523.654 .0919158
524.481 .0968368
525.307 .1021793
526.133 .1079416
526.958 .1141162
527.782 .1206196
528.605 .1273494
529.428 .1342686
530.250 .1408355
531.072 .1468638
531.892 .1519867
532.712 .1559243
533.532 .1584755
534.350 .1594030
535.168 .1586224
535.986 .1562018
536.802 .1522999
537.618 .1471297
538.434 .1409070
539.249 .1341830
540.063 .1271183
540.876 .1200164
541.689 .1131063
542.501 .1065726
543.313 .1005897
544.124 .0951855
544.934 .0902867
545.744 .0858544
546.553 .0818363
547.361 .0782009
548.169 .0749356
548.976 .0719898
549.783 .0693630
550.589 .0670206
551.395 .0649286
552.200 .0630498
553.004 .0613569
553.808 .0598227
554.611 .0584369
555.414 .0571847
556.216 .0560416
557.018 .0550066
557.819 .0540580
558.619 .0531787
559.419 .0523556
560.218 .0515896
561.017 .0508659
561.815 .0501791
562.613 .0495243
563.410 .0488836
564.207 .0482594
565.003 .0476539
565.799 .0470565
566.594 .0464650
567.388 .0458814
568.182 .0452983
568.976 .0447124
569.769 .0441228
570.562 .0435292
571.354 .0429380
572.145 .0423538
572.936 .0417763
573.727 .0412112
574.517 .0406729
575.307 .0401654
576.096 .0396885
576.885 .0392479
577.673 .0388430
578.461 .0384695
579.248 .0381240
580.035 .0378024
580.821 .0374992
581.607 .0372128
582.392 .0369419
583.177 .0366877
583.962 .0364522
584.746 .0362358
585.529 .0360377
586.313 .0358600
587.095 .0357018
587.878 .0355594
588.660 .0354302
589.441 .0353141
590.222 .0352074
591.003 .0351115
591.783 .0350250
592.563 .0349463
593.342 .0348762
594.121 .0348124
594.899 .0347533
595.678 .0346976
596.455 .0346442
597.233 .0345927
598.009 .0345426
598.786 .0344947
599.562 .0344474
600.338 .0344004
601.113 .0343549
601.888 .0343111
602.663 .0342676
603.437 .0342243
604.211 .0341793
604.984 .0341339
605.757 .0340880
606.530 .0340410
607.302 .0339941
608.074 .0339483
608.845 .0339042
609.616 .0338618
610.387 .0338213
611.158 .0337823
611.928 .0337446
612.697 .0337085
613.467 .0336731
614.236 .0336383
615.004 .0336035
615.773 .0335696
616.541 .0335368
617.308 .0335053
618.076 .0334748
618.843 .0334449
619.609 .0334159
620.375 .0333869
621.141 .0333576
621.907 .0333274
622.672 .0332966
623.437 .0332652
624.202 .0332330
624.966 .0332000
625.730 .0331664
626.493 .0331326
627.257 .0330984
628.020 .0330641
628.782 .0330301
629.545 .0329968
630.307 .0329642
631.068 .0329322
631.830 .0329011
632.591 .0328702
633.352 .0328390
634.112 .0328071
634.872 .0327738
635.632 .0327402
636.392 .0327059
637.151 .0326715
637.910 .0326373
638.668 .0326042
639.427 .0325721
640.185 .0325402
640.943 .0325083
641.700 .0324752
642.457 .0324406
643.214 .0324050
643.971 .0323679
644.727 .0323307
645.483 .0322950
646.239 .0322616
646.994 .0322313
647.750 .0322043
648.505 .0321801
649.259 .0321584
650.014 .0321387
650.768 .0321205
651.521 .0321032
652.275 .0320866
653.028 .0320715
653.781 .0320575
654.534 .0320451
655.286 .0320336
656.039 .0320224
656.791 .0320113
657.542 .0319989
658.294 .0319849
659.045 .0319694
659.796 .0319525
660.546 .0319342
661.297 .0319150
662.047 .0318946
662.796 .0318731
663.546 .0318503
664.295 .0318260
665.044 .0318006
665.793 .0317737
666.542 .0317458
667.290 .0317175
668.038 .0316893
668.786 .0316614
669.533 .0316338
670.281 .0316069
671.028 .0315800
671.774 .0315532
672.521 .0315267
673.267 .0315000
674.013 .0314740
674.759 .0314490
675.505 .0314249
676.250 .0314026
676.995 .0313816
677.740 .0313613
678.484 .0313414
679.229 .0313216
679.973 .0313009
680.717 .0312789
681.460 .0312558
682.204 .0312318
682.947 .0312074
683.690 .0311829
684.433 .0311585
685.175 .0311340
685.917 .0311097
686.659 .0310844
687.401 .0310582
688.142 .0310314
688.884 .0310035
689.625 .0309747
690.365 .0309453
691.106 .0309159
691.846 .0308862
692.586 .0308569
693.326 .0308278
694.066 .0307984
694.805 .0307690
695.545 .0307392
696.284 .0307087
697.022 .0306776
697.761 .0306464
698.499 .0306150
699.237 .0305841
699.975 .0305539
700.713 .0305242
701.450 .0304954
702.187 .0304678
702.924 .0304415
703.661 .0304158
704.397 .0303918
705.133 .0303691
705.869 .0303477
706.605 .0303279
707.341 .0303094
708.076 .0302922
708.811 .0302761
709.546 .0302605
710.281 .0302450
711.015 .0302296
711.749 .0302142
712.483 .0301988
713.217 .0301833
713.950 .0301677
714.684 .0301520
715.417 .0301360
716.150 .0301200
716.882 .0301038
717.615 .0300878
718.347 .0300722
719.079 .0300573
719.811 .0300435
720.542 .0300309
721.273 .0300193
722.005 .0300092
722.735 .0300002
723.466 .0299921
724.196 .0299844
724.927 .0299766
725.656 .0299686
726.386 .0299597
727.116 .0299502
727.845 .0299404
728.574 .0299300
729.303 .0299199
730.031 .0299097
730.760 .0298999
731.488 .0298902
732.216 .0298810
732.944 .0298723
733.671 .0298640
734.398 .0298560
735.125 .0298485
735.852 .0298415
736.579 .0298349
737.305 .0298289
738.031 .0298234
738.757 .0298181
739.483 .0298129
740.208 .0298075
740.933 .0298022
741.658 .0297965
742.383 .0297906
743.108 .0297837
743.832 .0297760
744.556 .0297673
745.280 .0297567
746.004 .0297441
746.727 .0297301
747.450 .0297144
748.173 .0296969
748.896 .0296785
749.618 .0296596
750.340 .0296403
751.062 .0296214
751.784 .0296032
752.506 .0295848
753.227 .0295669
753.948 .0295487
754.669 .0295294
755.389 .0295092
756.110 .0294882
756.830 .0294661
757.550 .0294436
758.269 .0294213
758.989 .0293989
759.708 .0293770
760.427 .0293557
761.146 .0293343
761.864 .0293130
762.582 .0292916
763.300 .0292696
764.018 .0292467
764.736 .0292238
765.453 .0292001
766.170 .0291762
766.887 .0291527
767.603 .0291299
768.320 .0291080
769.036 .0290871
769.751 .0290671
770.467 .0290479
771.182 .0290293
771.897 .0290107
772.612 .0289914
773.327 .0289720
774.041 .0289521
774.755 .0289320
775.469 .0289122
776.183 .0288933
776.896 .0288751
777.609 .0288576
778.322 .0288405
779.035 .0288234
779.747 .0288060
780.459 .0287880
781.171 .0287695
781.882 .0287504
782.594 .0287314
783.305 .0287127
784.016 .0286949
784.726 .0286788
785.436 .0286641
786.147 .0286506
786.856 .0286383
787.566 .0286272
788.275 .0286167
788.984 .0286069
789.693 .0285976
790.401 .0285884
791.110 .0285794
791.818 .0285705
792.525 .0285611
793.233 .0285516
793.940 .0285422
794.647 .0285322
795.353 .0285220
796.060 .0285122
796.766 .0285022
797.472 .0284924
798.177 .0284834
798.883 .0284747
799.588 .0284655
800.292 .0284567
800.997 .0284475
801.701 .0284380
802.405 .0284294
803.109 .0284214
803.812 .0284142
804.515 .0284088
805.218 .0284045
805.921 .0284012
806.623 .0283988
807.325 .0283970
808.027 .0283948
808.728 .0283925
809.429 .0283895
810.130 .0283858
810.831 .0283818
811.531 .0283779
812.231 .0283739
812.931 .0283702
813.630 .0283671
814.330 .0283640
815.029 .0283616
815.727 .0283598
816.426 .0283582
817.124 .0283567
817.821 .0283550
818.519 .0283532
819.216 .0283515
819.913 .0283502
820.609 .0283496
821.306 .0283501
822.002 .0283517
822.697 .0283542
823.393 .0283575
824.088 .0283612
824.783 .0283650
825.477 .0283684
826.171 .0283707
826.865 .0283721
827.559 .0283732
828.252 .0283745
828.945 .0283763
829.638 .0283793
830.330 .0283834
831.023 .0283883
831.714 .0283939
832.406 .0283993
833.097 .0284037
833.788 .0284069
834.479 .0284086
835.169 .0284085
835.859 .0284073
836.548 .0284053
837.238 .0284032
837.927 .0284012
838.615 .0283992
839.304 .0283970
839.992 .0283942
840.680 .0283906
841.367 .0283860
842.054 .0283799
842.741 .0283724
843.428 .0283638
844.114 .0283543
844.800 .0283445
845.485 .0283341
846.170 .0283233
846.855 .0283121
847.540 .0283005
848.224 .0282881
848.908 .0282745
849.592 .0282603
850.275 .0282454
850.958 .0282294
851.641 .0282125
852.323 .0281949
853.005 .0281765
853.687 .0281571
854.368 .0281370
855.049 .0281158
855.730 .0280936
856.410 .0280701
857.090 .0280452
857.769 .0280194
858.449 .0279934
859.128 .0279670
859.806 .0279406
860.485 .0279148
861.163 .0278894
861.840 .0278643
862.518 .0278394
863.195 .0278144
863.871 .0277891
864.548 .0277631
865.224 .0277368
865.899 .0277101
866.574 .0276835
867.249 .0276573
867.924 .0276320
868.598 .0276075
869.272 .0275835
869.946 .0275597
870.619 .0275358
871.292 .0275116
871.964 .0274864
872.636 .0274601
873.308 .0274331
873.979 .0274058
874.651 .0273782
875.321 .0273506
875.992 .0273234
876.662 .0272969
877.331 .0272709
878.001 .0272453
878.670 .0272199
879.338 .0271945
880.007 .0271695
880.675 .0271447
881.342 .0271205
882.009 .0270972
882.676 .0270747
883.343 .0270535
884.009 .0270330
884.675 .0270134
885.340 .0269941
886.005 .0269751
886.670 .0269567
887.334 .0269390
887.998 .0269218
888.662 .0269057
889.325 .0268908
889.988 .0268776
890.650 .0268660
891.312 .0268558
891.974 .0268469
892.636 .0268391
893.297 .0268321
893.957 .0268259
894.618 .0268204
895.278 .0268161
895.937 .0268125
896.596 .0268096
897.255 .0268070
897.914 .0268040
898.572 .0268001
899.230 .0267953
899.887 .0267893
900.544 .0267824
901.201 .0267742
901.857 .0267658
902.513 .0267569
903.168 .0267477
903.823 .0267380
904.478 .0267273
905.132 .0267154
905.786 .0267022
906.440 .0266874
907.093 .0266718
907.746 .0266561
908.399 .0266408
909.051 .0266267
909.703 .0266140
910.354 .0266027
911.005 .0265926
911.656 .0265832
912.306 .0265743
912.956 .0265654
913.605 .0265564
914.254 .0265476
914.903 .0265395
915.551 .0265328
916.199 .0265280
916.847 .0265253
917.494 .0265243
918.141 .0265251
918.788 .0265273
919.434 .0265303
920.079 .0265339
920.725 .0265378
921.370 .0265424
922.014 .0265475
922.658 .0265530
923.302 .0265588
923.946 .0265647
924.589 .0265703
925.231 .0265746
925.873 .0265776
926.515 .0265790
927.157 .0265787
927.798 .0265770
928.439 .0265738
929.079 .0265693
929.719 .0265637
930.359 .0265573
930.998 .0265504
931.637 .0265432
932.275 .0265359
932.913 .0265286
933.551 .0265215
934.188 .0265149
934.825 .0265093
935.462 .0265045
936.098 .0265011
936.733 .0264994
937.369 .0264992
938.004 .0265007
938.638 .0265036
939.273 .0265083
939.907 .0265142
940.540 .0265216
941.173 .0265297
941.806 .0265387
942.438 .0265482
943.070 .0265582
943.702 .0265679
944.333 .0265774
944.964 .0265862
945.594 .0265947
946.224 .0266026
946.854 .0266102
947.483 .0266178
948.112 .0266251
948.741 .0266315
949.369 .0266375
949.996 .0266424
950.624 .0266466
951.251 .0266496
951.878 .0266518
952.504 .0266530
953.130 .0266530
953.755 .0266517
954.380 .0266493
955.005 .0266461
955.629 .0266422
956.253 .0266369
956.877 .0266312
957.500 .0266251
958.123 .0266185
958.746 .0266112
959.368 .0266034
959.990 .0265951
960.611 .0265858
961.232 .0265756
961.853 .0265647
962.473 .0265537
963.093 .0265427
963.712 .0265320
964.331 .0265217
964.950 .0265122
965.569 .0265030
966.187 .0264937
966.804 .0264847
967.422 .0264758
968.039 .0264667
968.655 .0264574
969.272 .0264482
969.887 .0264396
970.503 .0264313
971.118 .0264235
971.733 .0264159
972.347 .0264083
972.961 .0264002
973.575 .0263911
974.188 .0263810
974.801 .0263696
975.414 .0263566
976.026 .0263422
976.638 .0263267
977.250 .0263099
977.861 .0262920
978.472 .0262733
979.083 .0262540
979.693 .0262335
980.303 .0262116
980.912 .0261882
981.521 .0261634
982.130 .0261371
982.738 .0261095
983.346 .0260812
983.954 .0260532
984.562 .0260257
985.169 .0259985
985.775 .0259725
986.382 .0259471
986.988 .0259225
987.594 .0258976
988.199 .0258725
988.804 .0258467
989.409 .0258204
990.013 .0257940
990.617 .0257677
991.221 .0257420
991.824 .0257174
992.427 .0256940
993.030 .0256720
993.632 .0256513
994.234 .0256319
994.836 .0256131
995.438 .0255953
996.039 .0255774
996.640 .0255598
997.240 .0255423
997.840 .0255255
998.440 .0255093
999.040 .0254939
999.639 .0254792
1000.238 .0254648
1000.836 .0254508
1001.435 .0254370
1002.033 .0254223
1002.630 .0254074
1003.228 .0253921
1003.825 .0253760
1004.422 .0253586
1005.018 .0253407
1005.614 .0253218
1006.210 .0253027
1006.806 .0252830
1007.401 .0252629
1007.996 .0252425
1008.591 .0252224
1009.186 .0252022
1009.780 .0251822
1010.374 .0251632
1010.967 .0251452
1011.561 .0251271
1012.154 .0251099
1012.746 .0250925
1013.339 .0250752
1013.931 .0250571
1014.523 .0250386
1015.115 .0250196
1015.706 .0250009
1016.298 .0249831
1016.888 .0249669
1017.479 .0249528
1018.069 .0249405
1018.660 .0249292
1019.250 .0249191
1019.839 .0249086
1020.429 .0248977
1021.018 .0248860
1021.607 .0248743
1022.195 .0248625
1022.784 .0248516
1023.372 .0248419
1023.960 .0248353
1024.547 .0248309
1025.135 .0248288
1025.722 .0248282
1026.309 .0248286
1026.896 .0248293
1027.483 .0248296
1028.069 .0248294
1028.655 .0248291
1029.241 .0248285
1029.827 .0248289
1030.412 .0248293
1030.997 .0248311
1031.582 .0248334
1032.167 .0248361
1032.752 .0248394
1033.336 .0248419
1033.921 .0248437
1034.505 .0248447
1035.089 .0248453
1035.672 .0248458
1036.256 .0248460
1036.839 .0248468
1037.422 .0248481
1038.005 .0248513
1038.588 .0248550
1039.171 .0248596
1039.753 .0248649
1040.335 .0248709
1040.918 .0248765
1041.500 .0248816
1042.081 .0248870
1042.663 .0248917
1043.244 .0248968
1043.826 .0249014
1044.407 .0249058
1044.988 .0249107
1045.569 .0249143
1046.150 .0249175
1046.730 .0249193
1047.311 .0249206
1047.891 .0249210
1048.471 .0249213
1049.052 .0249218
1049.632 .0249225
1050.211 .0249248
1050.791 .0249279
1051.371 .0249334
1051.950 .0249417
1052.530 .0249522
1053.109 .0249657
1053.688 .0249826
1054.268 .0250015
1054.847 .0250215
1055.426 .0250436
1056.005 .0250657
1056.583 .0250879
1057.162 .0251097
1057.741 .0251312
1058.319 .0251530
1058.898 .0251757
1059.476 .0251991
1060.055 .0252215
1060.633 .0252450
1061.211 .0252672
1061.790 .0252869
1062.368 .0253052
1062.946 .0253205
1063.524 .0253323
1064.102 .0253419
1064.680 .0253489
1065.258 .0253532
1065.836 .0253567
1066.414 .0253604
1066.992 .0253643
1067.570 .0253696
1068.148 .0253759
1068.726 .0253834
1069.304 .0253927
1069.882 .0254043
1070.460 .0254157
1071.038 .0254280
1071.616 .0254399
1072.194 .0254507
1072.772 .0254598
1073.350 .0254681
1073.928 .0254755
1074.506 .0254830
1075.084 .0254910
1075.662 .0254998
1076.240 .0255094
1076.819 .0255206
1077.397 .0255326
1077.976 .0255470
1078.554 .0255619
1079.133 .0255780
1079.711 .0255940
1080.290 .0256104
1080.869 .0256274
1081.448 .0256454
1082.027 .0256645
1082.606 .0256859
1083.185 .0257084
1083.764 .0257336
1084.343 .0257608
1084.923 .0257913
1085.502 .0258238
1086.082 .0258588
1086.662 .0258948
1087.242 .0259299
1087.822 .0259630
1088.402 .0259944
1088.983 .0260228
1089.563 .0260502
1090.144 .0260751
1090.725 .0260995
1091.306 .0261234
1091.887 .0261476
1092.469 .0261729
1093.050 .0262002
1093.632 .0262284
1094.214 .0262569
1094.796 .0262845
1095.379 .0263118
1095.961 .0263376
1096.544 .0263645
1097.127 .0263922
1097.710 .0264216
1098.294 .0264538
1098.877 .0264870
1099.461 .0265208
1100.046 .0265564
1100.630 .0265913
1101.215 .0266259
1101.800 .0266597
1102.385 .0266923
1102.970 .0267258
1103.556 .0267605
1104.142 .0267970
1104.728 .0268359
1105.315 .0268741
1105.902 .0269115
1106.489 .0269443
1107.077 .0269723
1107.664 .0269973
1108.253 .0270187
1108.841 .0270419
1109.430 .0270682
1110.019 .0271008
1110.609 .0271405
1111.198 .0271855
1111.789 .0272375
1112.379 .0272922
1112.970 .0273449
1113.561 .0273959
1114.153 .0274439
1114.745 .0274916
1115.338 .0275419
1115.931 .0275938
1116.524 .0276488
1117.117 .0277099
1117.712 .0277738
1118.306 .0278392
1118.901 .0279042
1119.496 .0279679
1120.092 .0280275
1120.689 .0280827
1121.285 .0281338
1121.882 .0281787
1122.480 .0282246
1123.078 .0282738
1123.677 .0283228
1124.276 .0283756
1124.875 .0284312
1125.476 .0284888
1126.076 .0285503
1126.677 .0286138
1127.279 .0286755
1127.881 .0287368
1128.484 .0287966
1129.087 .0288549
1129.691 .0289135
1130.295 .0289760
1130.900 .0290427
1131.505 .0291148
1132.111 .0291951
1132.718 .0292775
1133.325 .0293657
1133.933 .0294597
1134.541 .0295585
1135.150 .0296587
1135.760 .0297614
1136.370 .0298637
1136.981 .0299696
1137.592 .0300774
1138.204 .0301882
1138.817 .0302952
1139.431 .0304086
1140.045 .0305240
1140.660 .0306360
1141.275 .0307472
1141.891 .0308603
1142.508 .0310229
1143.126 .0312087
1143.744 .0311244
1144.363 .0312683
1144.983 .0314065
