Measurement Sequence started on: 15-12-46-377
Integration time: 28
Scans to Average: 2 
>>>>>Begin Spectral Data<<<<<
432.689 .0000100
433.621 .0000100
434.552 .0000100
435.482 .0000100
436.410 .0000100
437.337 .0000100
438.262 .0265021
439.187 .0561719
440.110 .0930518
441.031 .1346850
441.952 .1751062
442.871 .2069172
443.789 .2243860
444.705 .2255092
445.621 .2127500
446.535 .1914040
447.447 .1672563
448.359 .1302653
449.269 .1120475
450.178 .1006145
451.086 .0925600
451.993 .0864016
452.898 .0815088
453.803 .0774490
454.706 .0740650
455.608 .0711738
456.508 .0687132
457.408 .0666210
458.306 .0648295
459.204 .0632744
460.100 .0618944
460.995 .0606278
461.888 .0594576
462.781 .0583364
463.673 .0572574
464.563 .0562270
465.452 .0552380
466.340 .0542905
467.228 .0534154
468.114 .0525867
468.999 .0518250
469.882 .0511154
470.765 .0504550
471.647 .0498301
472.528 .0492454
473.407 .0486916
474.286 .0481768
475.163 .0477055
476.040 .0472830
476.915 .0469027
477.790 .0465805
478.663 .0463082
479.535 .0460795
480.407 .0458944
481.277 .0457476
482.147 .0456265
483.015 .0455379
483.883 .0454669
484.749 .0454171
485.615 .0453806
486.479 .0453563
487.343 .0453395
488.206 .0453377
489.067 .0453445
489.928 .0453596
490.788 .0453890
491.647 .0454265
492.505 .0454808
493.362 .0455514
494.218 .0456352
495.073 .0457384
495.928 .0458671
496.781 .0460083
497.634 .0461606
498.486 .0463376
499.337 .0465340
500.187 .0467592
501.036 .0470277
501.884 .0473377
502.731 .0476889
503.578 .0480900
504.424 .0485232
505.268 .0489848
506.113 .0494888
506.956 .0500089
507.798 .0505596
508.640 .0511559
509.480 .0517992
510.320 .0525014
511.160 .0532922
511.998 .0541848
512.836 .0551601
513.672 .0562307
514.508 .0573883
515.344 .0586213
516.178 .0599667
517.012 .0614565
517.845 .0631095
518.677 .0650349
519.508 .0672353
520.339 .0697744
521.169 .0727053
521.998 .0760426
522.826 .0798310
523.654 .0841142
524.481 .0888502
525.307 .0941097
526.133 .0998737
526.958 .1061643
527.782 .1129097
528.605 .1200471
529.428 .1273984
530.250 .1345154
531.072 .1410890
531.892 .1467984
532.712 .1512328
533.532 .1542234
534.350 .1554497
535.168 .1549160
535.986 .1526584
536.802 .1488027
537.618 .1436158
538.434 .1374205
539.249 .1306285
540.063 .1234770
540.876 .1162396
541.689 .1092200
542.501 .1025849
543.313 .0965009
544.124 .0909595
544.934 .0859897
545.744 .0815326
546.553 .0775550
547.361 .0739868
548.169 .0708610
548.976 .0681042
549.783 .0656568
550.589 .0635122
551.395 .0615876
552.200 .0598483
553.004 .0582724
553.808 .0568229
554.611 .0555102
555.414 .0543024
556.216 .0532036
557.018 .0522097
557.819 .0513310
558.619 .0505271
559.419 .0497947
560.218 .0491142
561.017 .0484705
561.815 .0478345
562.613 .0472023
563.410 .0465647
564.207 .0459231
565.003 .0452919
565.799 .0446642
566.594 .0440439
567.388 .0434553
568.182 .0428821
568.976 .0423317
569.769 .0417922
570.562 .0412611
571.354 .0407325
572.145 .0402155
572.936 .0397038
573.727 .0391973
574.517 .0387048
575.307 .0382281
576.096 .0377703
576.885 .0373393
577.673 .0369346
578.461 .0365556
579.248 .0362046
580.035 .0358786
580.821 .0355743
581.607 .0352898
582.392 .0350261
583.177 .0347799
583.962 .0345522
584.746 .0343412
585.529 .0341454
586.313 .0339642
587.095 .0337984
587.878 .0336473
588.660 .0335112
589.441 .0333886
590.222 .0332794
591.003 .0331832
591.783 .0330997
592.563 .0330248
593.342 .0329589
594.121 .0328984
594.899 .0328433
595.678 .0327910
596.455 .0327408
597.233 .0326919
598.009 .0326435
598.786 .0325962
599.562 .0325510
600.338 .0325080
601.113 .0324674
601.888 .0324295
602.663 .0323925
603.437 .0323557
604.211 .0323187
604.984 .0322798
605.757 .0322403
606.530 .0322006
607.302 .0321610
608.074 .0321232
608.845 .0320879
609.616 .0320561
610.387 .0320274
611.158 .0320025
611.928 .0319788
612.697 .0319551
613.467 .0319320
614.236 .0319084
615.004 .0318840
615.773 .0318596
616.541 .0318358
617.308 .0318135
618.076 .0317934
618.843 .0317751
619.609 .0317581
620.375 .0317420
621.141 .0317254
621.907 .0317069
622.672 .0316860
623.437 .0316625
624.202 .0316370
624.966 .0316107
625.730 .0315847
626.493 .0315587
627.257 .0315342
628.020 .0315109
628.782 .0314880
629.545 .0314646
630.307 .0314388
631.068 .0314112
631.830 .0313813
632.591 .0313480
633.352 .0313119
634.112 .0312739
634.872 .0312349
635.632 .0311955
636.392 .0311561
637.151 .0311169
637.910 .0310782
638.668 .0310407
639.427 .0310032
640.185 .0309652
640.943 .0309281
641.700 .0308917
642.457 .0308558
643.214 .0308213
643.971 .0307873
644.727 .0307548
645.483 .0307247
646.239 .0306970
646.994 .0306709
647.750 .0306476
648.505 .0306266
649.259 .0306077
650.014 .0305906
650.768 .0305749
651.521 .0305589
652.275 .0305426
653.028 .0305255
653.781 .0305063
654.534 .0304850
655.286 .0304623
656.039 .0304377
656.791 .0304123
657.542 .0303858
658.294 .0303589
659.045 .0303326
659.796 .0303073
660.546 .0302823
661.297 .0302574
662.047 .0302324
662.796 .0302073
663.546 .0301815
664.295 .0301552
665.044 .0301283
665.793 .0301019
666.542 .0300764
667.290 .0300528
668.038 .0300314
668.786 .0300120
669.533 .0299941
670.281 .0299776
671.028 .0299617
671.774 .0299455
672.521 .0299289
673.267 .0299120
674.013 .0298952
674.759 .0298786
675.505 .0298617
676.250 .0298448
676.995 .0298285
677.740 .0298129
678.484 .0297972
679.229 .0297817
679.973 .0297670
680.717 .0297525
681.460 .0297390
682.204 .0297259
682.947 .0297137
683.690 .0297025
684.433 .0296919
685.175 .0296813
685.917 .0296705
686.659 .0296593
687.401 .0296480
688.142 .0296370
688.884 .0296265
689.625 .0296158
690.365 .0296052
691.106 .0295944
691.846 .0295830
692.586 .0295702
693.326 .0295562
694.066 .0295410
694.805 .0295246
695.545 .0295061
696.284 .0294861
697.022 .0294649
697.761 .0294431
698.499 .0294205
699.237 .0293981
699.975 .0293756
700.713 .0293539
701.450 .0293336
702.187 .0293152
702.924 .0292989
703.661 .0292845
704.397 .0292717
705.133 .0292597
705.869 .0292479
706.605 .0292358
707.341 .0292231
708.076 .0292104
708.811 .0291973
709.546 .0291840
710.281 .0291708
711.015 .0291577
711.749 .0291445
712.483 .0291309
713.217 .0291166
713.950 .0291007
714.684 .0290832
715.417 .0290637
716.150 .0290430
716.882 .0290213
717.615 .0289988
718.347 .0289768
719.079 .0289548
719.811 .0289335
720.542 .0289130
721.273 .0288930
722.005 .0288739
722.735 .0288552
723.466 .0288372
724.196 .0288190
724.927 .0288006
725.656 .0287817
726.386 .0287618
727.116 .0287412
727.845 .0287197
728.574 .0286969
729.303 .0286738
730.031 .0286507
730.760 .0286277
731.488 .0286048
732.216 .0285830
732.944 .0285619
733.671 .0285418
734.398 .0285224
735.125 .0285038
735.852 .0284855
736.579 .0284680
737.305 .0284512
738.031 .0284346
738.757 .0284190
739.483 .0284036
740.208 .0283888
740.933 .0283749
741.658 .0283615
742.383 .0283483
743.108 .0283356
743.832 .0283236
744.556 .0283113
745.280 .0282986
746.004 .0282851
746.727 .0282709
747.450 .0282561
748.173 .0282405
748.896 .0282247
749.618 .0282089
750.340 .0281931
751.062 .0281770
751.784 .0281608
752.506 .0281439
753.227 .0281259
753.948 .0281072
754.669 .0280875
755.389 .0280673
756.110 .0280474
756.830 .0280280
757.550 .0280098
758.269 .0279930
758.989 .0279769
759.708 .0279609
760.427 .0279448
761.146 .0279281
761.864 .0279104
762.582 .0278925
763.300 .0278752
764.018 .0278584
764.736 .0278429
765.453 .0278287
766.170 .0278154
766.887 .0278033
767.603 .0277914
768.320 .0277790
769.036 .0277659
769.751 .0277523
770.467 .0277380
771.182 .0277236
771.897 .0277098
772.612 .0276970
773.327 .0276857
774.041 .0276758
774.755 .0276666
775.469 .0276581
776.183 .0276505
776.896 .0276430
777.609 .0276359
778.322 .0276288
779.035 .0276219
779.747 .0276158
780.459 .0276103
781.171 .0276054
781.882 .0276012
782.594 .0275980
783.305 .0275951
784.016 .0275924
784.726 .0275895
785.436 .0275862
786.147 .0275822
786.856 .0275780
787.566 .0275736
788.275 .0275692
788.984 .0275654
789.693 .0275624
790.401 .0275604
791.110 .0275594
791.818 .0275584
792.525 .0275577
793.233 .0275567
793.940 .0275560
794.647 .0275547
795.353 .0275535
796.060 .0275527
796.766 .0275524
797.472 .0275522
798.177 .0275523
798.883 .0275523
799.588 .0275518
800.292 .0275507
800.997 .0275489
801.701 .0275458
802.405 .0275423
803.109 .0275381
803.812 .0275332
804.515 .0275276
805.218 .0275215
805.921 .0275139
806.623 .0275055
807.325 .0274962
808.027 .0274861
808.728 .0274755
809.429 .0274649
810.130 .0274539
810.831 .0274434
811.531 .0274330
812.231 .0274222
812.931 .0274108
813.630 .0273993
814.330 .0273873
815.029 .0273752
815.727 .0273634
816.426 .0273525
817.124 .0273426
817.821 .0273341
818.519 .0273266
819.216 .0273202
819.913 .0273147
820.609 .0273097
821.306 .0273048
822.002 .0273004
822.697 .0272963
823.393 .0272929
824.088 .0272905
824.783 .0272890
825.477 .0272879
826.171 .0272870
826.865 .0272865
827.559 .0272862
828.252 .0272856
828.945 .0272843
829.638 .0272824
830.330 .0272803
831.023 .0272774
831.714 .0272743
832.406 .0272713
833.097 .0272684
833.788 .0272658
834.479 .0272631
835.169 .0272600
835.859 .0272570
836.548 .0272539
837.238 .0272504
837.927 .0272462
838.615 .0272414
839.304 .0272359
839.992 .0272301
840.680 .0272240
841.367 .0272175
842.054 .0272104
842.741 .0272034
843.428 .0271963
844.114 .0271889
844.800 .0271811
845.485 .0271729
846.170 .0271638
846.855 .0271537
847.540 .0271420
848.224 .0271289
848.908 .0271151
849.592 .0271003
850.275 .0270842
850.958 .0270671
851.641 .0270492
852.323 .0270307
853.005 .0270112
853.687 .0269905
854.368 .0269686
855.049 .0269453
855.730 .0269204
856.410 .0268938
857.090 .0268661
857.769 .0268377
858.449 .0268088
859.128 .0267802
859.806 .0267518
860.485 .0267247
861.163 .0266990
861.840 .0266749
862.518 .0266519
863.195 .0266299
863.871 .0266079
864.548 .0265859
865.224 .0265640
865.899 .0265415
866.574 .0265189
867.249 .0264968
867.924 .0264758
868.598 .0264558
869.272 .0264377
869.946 .0264219
870.619 .0264073
871.292 .0263940
871.964 .0263805
872.636 .0263665
873.308 .0263514
873.979 .0263351
874.651 .0263178
875.321 .0263000
875.992 .0262833
876.662 .0262676
877.331 .0262538
878.001 .0262420
878.670 .0262315
879.338 .0262214
880.007 .0262112
880.675 .0262002
881.342 .0261878
882.009 .0261744
882.676 .0261602
883.343 .0261455
884.009 .0261312
884.675 .0261172
885.340 .0261037
886.005 .0260906
886.670 .0260777
887.334 .0260642
887.998 .0260502
888.662 .0260359
889.325 .0260211
889.988 .0260068
890.650 .0259936
891.312 .0259818
891.974 .0259714
892.636 .0259629
893.297 .0259557
893.957 .0259499
894.618 .0259448
895.278 .0259401
895.937 .0259354
896.596 .0259317
897.255 .0259282
897.914 .0259251
898.572 .0259224
899.230 .0259201
899.887 .0259172
900.544 .0259136
901.201 .0259086
901.857 .0259022
902.513 .0258941
903.168 .0258841
903.823 .0258716
904.478 .0258575
905.132 .0258413
905.786 .0258239
906.440 .0258053
907.093 .0257858
907.746 .0257651
908.399 .0257440
909.051 .0257227
909.703 .0257015
910.354 .0256804
911.005 .0256599
911.656 .0256394
912.306 .0256196
912.956 .0255997
913.605 .0255800
914.254 .0255609
914.903 .0255427
915.551 .0255250
916.199 .0255083
916.847 .0254930
917.494 .0254789
918.141 .0254663
918.788 .0254549
919.434 .0254443
920.079 .0254345
920.725 .0254250
921.370 .0254160
922.014 .0254075
922.658 .0253998
923.302 .0253925
923.946 .0253856
924.589 .0253790
925.231 .0253718
925.873 .0253638
926.515 .0253543
927.157 .0253435
927.798 .0253306
928.439 .0253159
929.079 .0252994
929.719 .0252818
930.359 .0252635
930.998 .0252445
931.637 .0252252
932.275 .0252055
932.913 .0251857
933.551 .0251655
934.188 .0251451
934.825 .0251253
935.462 .0251065
936.098 .0250895
936.733 .0250750
937.369 .0250637
938.004 .0250558
938.638 .0250509
939.273 .0250490
939.907 .0250500
940.540 .0250533
941.173 .0250587
941.806 .0250659
942.438 .0250744
943.070 .0250840
943.702 .0250942
944.333 .0251047
944.964 .0251148
945.594 .0251244
946.224 .0251330
946.854 .0251408
947.483 .0251482
948.112 .0251554
948.741 .0251623
949.369 .0251687
949.996 .0251747
950.624 .0251802
951.251 .0251840
951.878 .0251863
952.504 .0251869
953.130 .0251861
953.755 .0251837
954.380 .0251804
955.005 .0251767
955.629 .0251733
956.253 .0251700
956.877 .0251669
957.500 .0251635
958.123 .0251598
958.746 .0251551
959.368 .0251495
959.990 .0251436
960.611 .0251380
961.232 .0251330
961.853 .0251298
962.473 .0251288
963.093 .0251304
963.712 .0251340
964.331 .0251395
964.950 .0251461
965.569 .0251530
966.187 .0251598
966.804 .0251663
967.422 .0251730
968.039 .0251799
968.655 .0251874
969.272 .0251952
969.887 .0252039
970.503 .0252131
971.118 .0252222
971.733 .0252310
972.347 .0252395
972.961 .0252470
973.575 .0252532
974.188 .0252584
974.801 .0252628
975.414 .0252663
976.026 .0252692
976.638 .0252708
977.250 .0252718
977.861 .0252720
978.472 .0252717
979.083 .0252705
979.693 .0252694
980.303 .0252677
980.912 .0252655
981.521 .0252622
982.130 .0252579
982.738 .0252526
983.346 .0252462
983.954 .0252390
984.562 .0252318
985.169 .0252248
985.775 .0252188
986.382 .0252139
986.988 .0252108
987.594 .0252087
988.199 .0252076
988.804 .0252068
989.409 .0252058
990.013 .0252049
990.617 .0252036
991.221 .0252017
991.824 .0251999
992.427 .0251986
993.030 .0251978
993.632 .0251972
994.234 .0251971
994.836 .0251973
995.438 .0251977
996.039 .0251982
996.640 .0251984
997.240 .0251985
997.840 .0251988
998.440 .0251989
999.040 .0251988
999.639 .0251982
1000.238 .0251973
1000.836 .0251961
1001.435 .0251946
1002.033 .0251935
1002.630 .0251928
1003.228 .0251928
1003.825 .0251943
1004.422 .0251970
1005.018 .0252004
1005.614 .0252045
1006.210 .0252086
1006.806 .0252124
1007.401 .0252153
1007.996 .0252177
1008.591 .0252194
1009.186 .0252216
1009.780 .0252243
1010.374 .0252279
1010.967 .0252322
1011.561 .0252369
1012.154 .0252412
1012.746 .0252445
1013.339 .0252462
1013.931 .0252458
1014.523 .0252429
1015.115 .0252384
1015.706 .0252328
1016.298 .0252272
1016.888 .0252222
1017.479 .0252191
1018.069 .0252177
1018.660 .0252168
1019.250 .0252163
1019.839 .0252155
1020.429 .0252140
1021.018 .0252122
1021.607 .0252101
1022.195 .0252080
1022.784 .0252066
1023.372 .0252059
1023.960 .0252064
1024.547 .0252085
1025.135 .0252121
1025.722 .0252161
1026.309 .0252202
1026.896 .0252246
1027.483 .0252292
1028.069 .0252338
1028.655 .0252394
1029.241 .0252449
1029.827 .0252510
1030.412 .0252568
1030.997 .0252618
1031.582 .0252660
1032.167 .0252693
1032.752 .0252715
1033.336 .0252726
1033.921 .0252732
1034.505 .0252736
1035.089 .0252731
1035.672 .0252726
1036.256 .0252716
1036.839 .0252691
1037.422 .0252652
1038.005 .0252596
1038.588 .0252533
1039.171 .0252467
1039.753 .0252398
1040.335 .0252332
1040.918 .0252273
1041.500 .0252215
1042.081 .0252147
1042.663 .0252070
1043.244 .0251985
1043.826 .0251883
1044.407 .0251766
1044.988 .0251633
1045.569 .0251495
1046.150 .0251354
1046.730 .0251210
1047.311 .0251063
1047.891 .0250920
1048.471 .0250775
1049.052 .0250636
1049.632 .0250495
1050.211 .0250360
1050.791 .0250227
1051.371 .0250100
1051.950 .0249980
1052.530 .0249863
1053.109 .0249753
1053.688 .0249644
1054.268 .0249540
1054.847 .0249445
1055.426 .0249344
1056.005 .0249246
1056.583 .0249155
1057.162 .0249063
1057.741 .0248970
1058.319 .0248875
1058.898 .0248772
1059.476 .0248665
1060.055 .0248550
1060.633 .0248431
1061.211 .0248306
1061.790 .0248194
1062.368 .0248102
1062.946 .0248018
1063.524 .0247959
1064.102 .0247909
1064.680 .0247866
1065.258 .0247830
1065.836 .0247786
1066.414 .0247729
1066.992 .0247670
1067.570 .0247611
1068.148 .0247548
1068.726 .0247493
1069.304 .0247445
1069.882 .0247403
1070.460 .0247366
1071.038 .0247327
1071.616 .0247278
1072.194 .0247220
1072.772 .0247164
1073.350 .0247093
1073.928 .0247026
1074.506 .0246955
1075.084 .0246877
1075.662 .0246809
1076.240 .0246741
1076.819 .0246666
1077.397 .0246589
1077.976 .0246507
1078.554 .0246411
1079.133 .0246307
1079.711 .0246190
1080.290 .0246066
1080.869 .0245949
1081.448 .0245831
1082.027 .0245703
1082.606 .0245571
1083.185 .0245449
1083.764 .0245318
1084.343 .0245181
1084.923 .0245048
1085.502 .0244906
1086.082 .0244774
1086.662 .0244656
1087.242 .0244556
1087.822 .0244482
1088.402 .0244455
1088.983 .0244461
1089.563 .0244495
1090.144 .0244552
1090.725 .0244617
1091.306 .0244684
1091.887 .0244762
1092.469 .0244840
1093.050 .0244916
1093.632 .0245005
1094.214 .0245111
1094.796 .0245226
1095.379 .0245358
1095.961 .0245489
1096.544 .0245627
1097.127 .0245748
1097.710 .0245857
1098.294 .0245940
1098.877 .0246025
1099.461 .0246113
1100.046 .0246233
1100.630 .0246390
1101.215 .0246594
1101.800 .0246844
1102.385 .0247140
1102.970 .0247460
1103.556 .0247789
1104.142 .0248112
1104.728 .0248415
1105.315 .0248684
1105.902 .0248921
1106.489 .0249118
1107.077 .0249299
1107.664 .0249476
1108.253 .0249653
1108.841 .0249823
1109.430 .0250015
1110.019 .0250196
1110.609 .0250369
1111.198 .0250532
1111.789 .0250670
1112.379 .0250789
1112.970 .0250895
1113.561 .0251004
1114.153 .0251139
1114.745 .0251318
1115.338 .0251554
1115.931 .0251860
1116.524 .0252238
1117.117 .0252675
1117.712 .0253164
1118.306 .0253709
1118.901 .0254309
1119.496 .0254903
1120.092 .0255523
1120.689 .0256141
1121.285 .0256742
1121.882 .0257305
1122.480 .0257825
1123.078 .0258323
1123.677 .0258782
1124.276 .0259229
1124.875 .0259679
1125.476 .0260119
1126.076 .0260608
1126.677 .0261106
1127.279 .0261582
1127.881 .0262049
1128.484 .0262485
1129.087 .0262867
1129.691 .0263276
1130.295 .0263707
1130.900 .0264215
1131.505 .0264829
1132.111 .0265633
1132.718 .0266575
1133.325 .0267649
1133.933 .0268882
1134.541 .0270141
1135.150 .0271446
1135.760 .0272758
1136.370 .0273995
1136.981 .0275172
1137.592 .0276306
1138.204 .0277427
1138.817 .0278485
1139.431 .0279488
1140.045 .0280450
1140.660 .0281361
1141.275 .0282300
1141.891 .0282943
1142.508 .0283130
1143.126 .0284333
1143.744 .0285519
1144.363 .0287555
1144.983 .0281237
