Measurement Sequence started on: 15-12-46-377
Integration time: 28
Scans to Average: 2 
>>>>>Begin Spectral Data<<<<<
432.689 .0000100
433.621 .0000100
434.552 .0000100
435.482 .0000100
436.410 .0000100
437.337 .0000100
438.262 .0252095
439.187 .0536213
440.110 .0890244
441.031 .1290636
441.952 .1680557
442.871 .1989460
443.789 .2161359
444.705 .2176630
445.621 .2057770
446.535 .1854739
447.447 .1622899
448.359 .1267176
449.269 .1088284
450.178 .0974518
451.086 .0893915
451.993 .0832590
452.898 .0784190
453.803 .0744812
454.706 .0712123
455.608 .0684157
456.508 .0660002
457.408 .0638851
458.306 .0620119
459.204 .0603322
460.100 .0588315
460.995 .0574870
461.888 .0562765
462.781 .0551736
463.673 .0541717
464.563 .0532478
465.452 .0523815
466.340 .0515664
467.228 .0508069
468.114 .0501021
468.999 .0494659
469.882 .0488901
470.765 .0483823
471.647 .0479221
472.528 .0475053
473.407 .0471231
474.286 .0467731
475.163 .0464531
476.040 .0461631
476.915 .0459037
477.790 .0456871
478.663 .0455048
479.535 .0453588
480.407 .0452491
481.277 .0451630
482.147 .0450869
483.015 .0450138
483.883 .0449389
484.749 .0448579
485.615 .0447767
486.479 .0447047
487.343 .0446483
488.206 .0446131
489.067 .0446005
489.928 .0446122
490.788 .0446521
491.647 .0447153
492.505 .0447889
493.362 .0448762
494.218 .0449760
495.073 .0450817
495.928 .0452110
496.781 .0453522
497.634 .0455253
498.486 .0457246
499.337 .0459490
500.187 .0461982
501.036 .0464688
501.884 .0467594
502.731 .0470673
503.578 .0473886
504.424 .0477237
505.268 .0480596
506.113 .0484180
506.956 .0488021
507.798 .0492280
508.640 .0497082
509.480 .0502544
510.320 .0508733
511.160 .0515892
511.998 .0523853
512.836 .0532855
513.672 .0542994
514.508 .0554244
515.344 .0566743
516.178 .0580664
517.012 .0596340
517.845 .0614148
518.677 .0634096
519.508 .0656536
520.339 .0681937
521.169 .0710535
521.998 .0742378
522.826 .0777940
523.654 .0817975
524.481 .0862237
525.307 .0911441
526.133 .0965211
526.958 .1023490
527.782 .1085448
528.605 .1149444
529.428 .1214412
530.250 .1276005
531.072 .1331307
531.892 .1377528
532.712 .1412133
533.532 .1434400
534.350 .1441822
535.168 .1434390
535.986 .1412528
536.802 .1377468
537.618 .1331059
538.434 .1275039
539.249 .1213503
540.063 .1148856
540.876 .1083131
541.689 .1018838
542.501 .0957918
543.313 .0902176
544.124 .0851627
544.934 .0805849
545.744 .0764339
546.553 .0726548
547.361 .0692361
548.169 .0662128
548.976 .0635286
549.783 .0611931
550.589 .0591725
551.395 .0573960
552.200 .0558511
553.004 .0544883
553.808 .0532513
554.611 .0521423
555.414 .0511424
556.216 .0502264
557.018 .0494039
557.819 .0486822
558.619 .0480482
559.419 .0474822
560.218 .0469835
561.017 .0465225
561.815 .0460697
562.613 .0456128
563.410 .0451350
564.207 .0446347
565.003 .0441183
565.799 .0435866
566.594 .0430387
567.388 .0424960
568.182 .0419576
568.976 .0414146
569.769 .0408829
570.562 .0403568
571.354 .0398299
572.145 .0393076
572.936 .0387948
573.727 .0382983
574.517 .0378158
575.307 .0373571
576.096 .0369181
576.885 .0365069
577.673 .0361262
578.461 .0357701
579.248 .0354406
580.035 .0351377
580.821 .0348534
581.607 .0345872
582.392 .0343388
583.177 .0341082
583.962 .0338931
584.746 .0336994
585.529 .0335221
586.313 .0333629
587.095 .0332195
587.878 .0330917
588.660 .0329778
589.441 .0328761
590.222 .0327827
591.003 .0326965
591.783 .0326180
592.563 .0325449
593.342 .0324775
594.121 .0324153
594.899 .0323565
595.678 .0323008
596.455 .0322462
597.233 .0321932
598.009 .0321408
598.786 .0320889
599.562 .0320364
600.338 .0319819
601.113 .0319262
601.888 .0318678
602.663 .0318081
603.437 .0317480
604.211 .0316864
604.984 .0316246
605.757 .0315635
606.530 .0315034
607.302 .0314451
608.074 .0313899
608.845 .0313367
609.616 .0312861
610.387 .0312378
611.158 .0311915
611.928 .0311476
612.697 .0311068
613.467 .0310689
614.236 .0310333
615.004 .0310009
615.773 .0309704
616.541 .0309422
617.308 .0309170
618.076 .0308941
618.843 .0308726
619.609 .0308528
620.375 .0308340
621.141 .0308159
621.907 .0307986
622.672 .0307826
623.437 .0307672
624.202 .0307530
624.966 .0307393
625.730 .0307268
626.493 .0307156
627.257 .0307062
628.020 .0306978
628.782 .0306910
629.545 .0306841
630.307 .0306767
631.068 .0306674
631.830 .0306570
632.591 .0306442
633.352 .0306291
634.112 .0306113
634.872 .0305921
635.632 .0305717
636.392 .0305506
637.151 .0305286
637.910 .0305070
638.668 .0304853
639.427 .0304638
640.185 .0304419
640.943 .0304200
641.700 .0303988
642.457 .0303779
643.214 .0303573
643.971 .0303372
644.727 .0303176
645.483 .0302986
646.239 .0302805
646.994 .0302630
647.750 .0302457
648.505 .0302283
649.259 .0302118
650.014 .0301949
650.768 .0301772
651.521 .0301576
652.275 .0301363
653.028 .0301130
653.781 .0300878
654.534 .0300605
655.286 .0300321
656.039 .0300033
656.791 .0299749
657.542 .0299459
658.294 .0299178
659.045 .0298901
659.796 .0298632
660.546 .0298361
661.297 .0298085
662.047 .0297796
662.796 .0297502
663.546 .0297202
664.295 .0296902
665.044 .0296592
665.793 .0296288
666.542 .0295985
667.290 .0295685
668.038 .0295384
668.786 .0295081
669.533 .0294776
670.281 .0294474
671.028 .0294170
671.774 .0293867
672.521 .0293567
673.267 .0293279
674.013 .0292998
674.759 .0292727
675.505 .0292464
676.250 .0292208
676.995 .0291962
677.740 .0291727
678.484 .0291501
679.229 .0291285
679.973 .0291078
680.717 .0290884
681.460 .0290695
682.204 .0290508
682.947 .0290324
683.690 .0290142
684.433 .0289960
685.175 .0289781
685.917 .0289603
686.659 .0289431
687.401 .0289272
688.142 .0289130
688.884 .0289001
689.625 .0288888
690.365 .0288795
691.106 .0288714
691.846 .0288645
692.586 .0288581
693.326 .0288521
694.066 .0288467
694.805 .0288416
695.545 .0288366
696.284 .0288317
697.022 .0288270
697.761 .0288222
698.499 .0288175
699.237 .0288126
699.975 .0288073
700.713 .0288014
701.450 .0287948
702.187 .0287874
702.924 .0287790
703.661 .0287700
704.397 .0287606
705.133 .0287508
705.869 .0287406
706.605 .0287300
707.341 .0287196
708.076 .0287090
708.811 .0286982
709.546 .0286868
710.281 .0286752
711.015 .0286631
711.749 .0286503
712.483 .0286369
713.217 .0286230
713.950 .0286087
714.684 .0285931
715.417 .0285769
716.150 .0285599
716.882 .0285419
717.615 .0285236
718.347 .0285050
719.079 .0284863
719.811 .0284675
720.542 .0284489
721.273 .0284306
722.005 .0284125
722.735 .0283948
723.466 .0283771
724.196 .0283597
724.927 .0283420
725.656 .0283236
726.386 .0283041
727.116 .0282838
727.845 .0282624
728.574 .0282396
729.303 .0282160
730.031 .0281921
730.760 .0281679
731.488 .0281437
732.216 .0281198
732.944 .0280965
733.671 .0280733
734.398 .0280503
735.125 .0280266
735.852 .0280022
736.579 .0279770
737.305 .0279507
738.031 .0279239
738.757 .0278970
739.483 .0278701
740.208 .0278441
740.933 .0278191
741.658 .0277952
742.383 .0277722
743.108 .0277501
743.832 .0277286
744.556 .0277074
745.280 .0276857
746.004 .0276636
746.727 .0276414
747.450 .0276195
748.173 .0275979
748.896 .0275773
749.618 .0275580
750.340 .0275399
751.062 .0275232
751.784 .0275075
752.506 .0274923
753.227 .0274778
753.948 .0274633
754.669 .0274483
755.389 .0274329
756.110 .0274170
756.830 .0274010
757.550 .0273852
758.269 .0273704
758.989 .0273562
759.708 .0273429
760.427 .0273305
761.146 .0273185
761.864 .0273068
762.582 .0272953
763.300 .0272839
764.018 .0272725
764.736 .0272615
765.453 .0272509
766.170 .0272409
766.887 .0272324
767.603 .0272249
768.320 .0272185
769.036 .0272127
769.751 .0272075
770.467 .0272025
771.182 .0271977
771.897 .0271934
772.612 .0271899
773.327 .0271873
774.041 .0271861
774.755 .0271861
775.469 .0271880
776.183 .0271916
776.896 .0271966
777.609 .0272024
778.322 .0272088
779.035 .0272153
779.747 .0272223
780.459 .0272294
781.171 .0272369
781.882 .0272447
782.594 .0272531
783.305 .0272623
784.016 .0272718
784.726 .0272817
785.436 .0272917
786.147 .0273015
786.856 .0273113
787.566 .0273201
788.275 .0273283
788.984 .0273359
789.693 .0273426
790.401 .0273481
791.110 .0273521
791.818 .0273542
792.525 .0273543
793.233 .0273530
793.940 .0273498
794.647 .0273452
795.353 .0273397
796.060 .0273335
796.766 .0273264
797.472 .0273184
798.177 .0273094
798.883 .0272990
799.588 .0272879
800.292 .0272758
800.997 .0272624
801.701 .0272490
802.405 .0272355
803.109 .0272225
803.812 .0272101
804.515 .0271984
805.218 .0271863
805.921 .0271743
806.623 .0271617
807.325 .0271478
808.027 .0271327
808.728 .0271169
809.429 .0270999
810.130 .0270819
810.831 .0270634
811.531 .0270437
812.231 .0270226
812.931 .0270003
813.630 .0269756
814.330 .0269489
815.029 .0269201
815.727 .0268899
816.426 .0268583
817.124 .0268263
817.821 .0267941
818.519 .0267619
819.216 .0267304
819.913 .0266994
820.609 .0266683
821.306 .0266374
822.002 .0266067
822.697 .0265765
823.393 .0265472
824.088 .0265195
824.783 .0264929
825.477 .0264679
826.171 .0264443
826.865 .0264221
827.559 .0264008
828.252 .0263804
828.945 .0263606
829.638 .0263411
830.330 .0263224
831.023 .0263038
831.714 .0262858
832.406 .0262686
833.097 .0262518
833.788 .0262348
834.479 .0262175
835.169 .0261995
835.859 .0261812
836.548 .0261624
837.238 .0261433
837.927 .0261239
838.615 .0261048
839.304 .0260863
839.992 .0260684
840.680 .0260515
841.367 .0260354
842.054 .0260202
842.741 .0260058
843.428 .0259920
844.114 .0259791
844.800 .0259671
845.485 .0259560
846.170 .0259459
846.855 .0259365
847.540 .0259276
848.224 .0259194
848.908 .0259117
849.592 .0259042
850.275 .0258967
850.958 .0258886
851.641 .0258809
852.323 .0258729
853.005 .0258653
853.687 .0258574
854.368 .0258494
855.049 .0258411
855.730 .0258319
856.410 .0258217
857.090 .0258110
857.769 .0258001
858.449 .0257893
859.128 .0257787
859.806 .0257696
860.485 .0257623
861.163 .0257572
861.840 .0257539
862.518 .0257523
863.195 .0257515
863.871 .0257511
864.548 .0257502
865.224 .0257494
865.899 .0257491
866.574 .0257496
867.249 .0257511
867.924 .0257542
868.598 .0257588
869.272 .0257646
869.946 .0257716
870.619 .0257790
871.292 .0257864
871.964 .0257937
872.636 .0258008
873.308 .0258079
873.979 .0258154
874.651 .0258233
875.321 .0258316
875.992 .0258407
876.662 .0258503
877.331 .0258600
878.001 .0258699
878.670 .0258800
879.338 .0258901
880.007 .0259003
880.675 .0259108
881.342 .0259214
882.009 .0259325
882.676 .0259438
883.343 .0259548
884.009 .0259658
884.675 .0259767
885.340 .0259872
886.005 .0259974
886.670 .0260075
887.334 .0260176
887.998 .0260270
888.662 .0260367
889.325 .0260460
889.988 .0260553
890.650 .0260647
891.312 .0260738
891.974 .0260826
892.636 .0260915
893.297 .0261004
893.957 .0261093
894.618 .0261184
895.278 .0261275
895.937 .0261362
896.596 .0261453
897.255 .0261544
897.914 .0261632
898.572 .0261718
899.230 .0261801
899.887 .0261868
900.544 .0261919
901.201 .0261951
901.857 .0261964
902.513 .0261958
903.168 .0261933
903.823 .0261884
904.478 .0261812
905.132 .0261715
905.786 .0261592
906.440 .0261440
907.093 .0261265
907.746 .0261061
908.399 .0260836
909.051 .0260594
909.703 .0260338
910.354 .0260072
911.005 .0259807
911.656 .0259543
912.306 .0259275
912.956 .0259004
913.605 .0258733
914.254 .0258462
914.903 .0258196
915.551 .0257934
916.199 .0257678
916.847 .0257432
917.494 .0257194
918.141 .0256957
918.788 .0256727
919.434 .0256502
920.079 .0256272
920.725 .0256037
921.370 .0255800
922.014 .0255555
922.658 .0255304
923.302 .0255044
923.946 .0254774
924.589 .0254488
925.231 .0254182
925.873 .0253852
926.515 .0253501
927.157 .0253128
927.798 .0252737
928.439 .0252331
929.079 .0251921
929.719 .0251504
930.359 .0251086
930.998 .0250670
931.637 .0250256
932.275 .0249843
932.913 .0249433
933.551 .0249024
934.188 .0248623
934.825 .0248226
935.462 .0247844
936.098 .0247472
936.733 .0247117
937.369 .0246779
938.004 .0246457
938.638 .0246147
939.273 .0245851
939.907 .0245562
940.540 .0245283
941.173 .0245009
941.806 .0244746
942.438 .0244490
943.070 .0244242
943.702 .0244001
944.333 .0243767
944.964 .0243538
945.594 .0243321
946.224 .0243109
946.854 .0242910
947.483 .0242722
948.112 .0242546
948.741 .0242376
949.369 .0242214
949.996 .0242055
950.624 .0241895
951.251 .0241730
951.878 .0241561
952.504 .0241384
953.130 .0241206
953.755 .0241026
954.380 .0240841
955.005 .0240656
955.629 .0240473
956.253 .0240288
956.877 .0240108
957.500 .0239932
958.123 .0239761
958.746 .0239595
959.368 .0239439
959.990 .0239294
960.611 .0239161
961.232 .0239041
961.853 .0238931
962.473 .0238822
963.093 .0238719
963.712 .0238615
964.331 .0238509
964.950 .0238409
965.569 .0238313
966.187 .0238224
966.804 .0238144
967.422 .0238078
968.039 .0238023
968.655 .0237978
969.272 .0237939
969.887 .0237901
970.503 .0237860
971.118 .0237820
971.733 .0237783
972.347 .0237756
972.961 .0237743
973.575 .0237747
974.188 .0237766
974.801 .0237802
975.414 .0237846
976.026 .0237897
976.638 .0237946
977.250 .0237994
977.861 .0238037
978.472 .0238077
979.083 .0238117
979.693 .0238158
980.303 .0238200
980.912 .0238244
981.521 .0238284
982.130 .0238327
982.738 .0238366
983.346 .0238408
983.954 .0238448
984.562 .0238496
985.169 .0238552
985.775 .0238618
986.382 .0238695
986.988 .0238784
987.594 .0238883
988.199 .0238983
988.804 .0239081
989.409 .0239178
990.013 .0239276
990.617 .0239376
991.221 .0239478
991.824 .0239591
992.427 .0239720
993.030 .0239866
993.632 .0240030
994.234 .0240211
994.836 .0240406
995.438 .0240609
996.039 .0240818
996.640 .0241025
997.240 .0241233
997.840 .0241444
998.440 .0241661
999.040 .0241882
999.639 .0242107
1000.238 .0242331
1000.836 .0242554
1001.435 .0242775
1002.033 .0242986
1002.630 .0243185
1003.228 .0243373
1003.825 .0243554
1004.422 .0243729
1005.018 .0243900
1005.614 .0244074
1006.210 .0244252
1006.806 .0244436
1007.401 .0244623
1007.996 .0244812
1008.591 .0245002
1009.186 .0245195
1009.780 .0245387
1010.374 .0245577
1010.967 .0245760
1011.561 .0245935
1012.154 .0246099
1012.746 .0246258
1013.339 .0246406
1013.931 .0246548
1014.523 .0246686
1015.115 .0246823
1015.706 .0246958
1016.298 .0247092
1016.888 .0247228
1017.479 .0247368
1018.069 .0247506
1018.660 .0247640
1019.250 .0247774
1019.839 .0247920
1020.429 .0248076
1021.018 .0248252
1021.607 .0248446
1022.195 .0248663
1022.784 .0248889
1023.372 .0249123
1023.960 .0249353
1024.547 .0249568
1025.135 .0249770
1025.722 .0249943
1026.309 .0250087
1026.896 .0250204
1027.483 .0250294
1028.069 .0250365
1028.655 .0250419
1029.241 .0250463
1029.827 .0250500
1030.412 .0250542
1030.997 .0250589
1031.582 .0250643
1032.167 .0250704
1032.752 .0250772
1033.336 .0250841
1033.921 .0250910
1034.505 .0250980
1035.089 .0251044
1035.672 .0251112
1036.256 .0251185
1036.839 .0251268
1037.422 .0251362
1038.005 .0251460
1038.588 .0251568
1039.171 .0251673
1039.753 .0251763
1040.335 .0251827
1040.918 .0251861
1041.500 .0251866
1042.081 .0251836
1042.663 .0251781
1043.244 .0251708
1043.826 .0251624
1044.407 .0251536
1044.988 .0251448
1045.569 .0251364
1046.150 .0251279
1046.730 .0251182
1047.311 .0251070
1047.891 .0250941
1048.471 .0250800
1049.052 .0250646
1049.632 .0250483
1050.211 .0250336
1050.791 .0250203
1051.371 .0250090
1051.950 .0250001
1052.530 .0249932
1053.109 .0249873
1053.688 .0249807
1054.268 .0249728
1054.847 .0249621
1055.426 .0249498
1056.005 .0249359
1056.583 .0249204
1057.162 .0249043
1057.741 .0248887
1058.319 .0248730
1058.898 .0248574
1059.476 .0248407
1060.055 .0248220
1060.633 .0248002
1061.211 .0247760
1061.790 .0247489
1062.368 .0247196
1062.946 .0246889
1063.524 .0246602
1064.102 .0246322
1064.680 .0246072
1065.258 .0245845
1065.836 .0245651
1066.414 .0245487
1066.992 .0245356
1067.570 .0245246
1068.148 .0245146
1068.726 .0245060
1069.304 .0244988
1069.882 .0244907
1070.460 .0244836
1071.038 .0244750
1071.616 .0244654
1072.194 .0244546
1072.772 .0244437
1073.350 .0244307
1073.928 .0244182
1074.506 .0244056
1075.084 .0243921
1075.662 .0243771
1076.240 .0243618
1076.819 .0243446
1077.397 .0243268
1077.976 .0243092
1078.554 .0242914
1079.133 .0242746
1079.711 .0242595
1080.290 .0242443
1080.869 .0242301
1081.448 .0242160
1082.027 .0242013
1082.606 .0241845
1083.185 .0241679
1083.764 .0241510
1084.343 .0241344
1084.923 .0241181
1085.502 .0241034
1086.082 .0240899
1086.662 .0240765
1087.242 .0240628
1087.822 .0240472
1088.402 .0240308
1088.983 .0240133
1089.563 .0239943
1090.144 .0239758
1090.725 .0239582
1091.306 .0239427
1091.887 .0239282
1092.469 .0239167
1093.050 .0239074
1093.632 .0238988
1094.214 .0238921
1094.796 .0238864
1095.379 .0238820
1095.961 .0238793
1096.544 .0238790
1097.127 .0238816
1097.710 .0238874
1098.294 .0238957
1098.877 .0239060
1099.461 .0239188
1100.046 .0239344
1100.630 .0239532
1101.215 .0239759
1101.800 .0240023
1102.385 .0240295
1102.970 .0240570
1103.556 .0240844
1104.142 .0241090
1104.728 .0241303
1105.315 .0241463
1105.902 .0241584
1106.489 .0241675
1107.077 .0241754
1107.664 .0241841
1108.253 .0241936
1108.841 .0242045
1109.430 .0242160
1110.019 .0242261
1110.609 .0242359
1111.198 .0242441
1111.789 .0242549
1112.379 .0242709
1112.970 .0242919
1113.561 .0243197
1114.153 .0243554
1114.745 .0244000
1115.338 .0244499
1115.931 .0245015
1116.524 .0245537
1117.117 .0246033
1117.712 .0246517
1118.306 .0246992
1118.901 .0247489
1119.496 .0248019
1120.092 .0248580
1120.689 .0249180
1121.285 .0249786
1121.882 .0250374
1122.480 .0250917
1123.078 .0251414
1123.677 .0251842
1124.276 .0252208
1124.875 .0252501
1125.476 .0252766
1126.076 .0253069
1126.677 .0253436
1127.279 .0253857
1127.881 .0254336
1128.484 .0254868
1129.087 .0255410
1129.691 .0255951
1130.295 .0256515
1130.900 .0257053
1131.505 .0257631
1132.111 .0258246
1132.718 .0258926
1133.325 .0259690
1133.933 .0260596
1134.541 .0261625
1135.150 .0262814
1135.760 .0264144
1136.370 .0265569
1136.981 .0267081
1137.592 .0268650
1138.204 .0270319
1138.817 .0272090
1139.431 .0273950
1140.045 .0275925
1140.660 .0278040
1141.275 .0280373
1141.891 .0282738
1142.508 .0285124
1143.126 .0287868
1143.744 .0290870
1144.363 .0294670
1144.983 .0293993
