Measurement Sequence started on: 15-12-46-377
Integration time: 28
Scans to Average: 2 
>>>>>Begin Spectral Data<<<<<
432.689 .0000100
433.621 .0000100
434.552 .0000100
435.482 .0000100
436.410 .0000100
437.337 .0000100
438.262 .0274630
439.187 .0580839
440.110 .0960583
441.031 .1387778
441.952 .1800817
442.871 .2123532
443.789 .2296331
444.705 .2299779
445.621 .2159651
446.535 .1931493
447.447 .1675604
448.359 .1287940
449.269 .1096651
450.178 .0976792
451.086 .0892940
451.993 .0829398
452.898 .0779566
453.803 .0739293
454.706 .0706028
455.608 .0678113
456.508 .0654324
457.408 .0634016
458.306 .0616317
459.204 .0600963
460.100 .0587290
460.995 .0575216
461.888 .0564411
462.781 .0554498
463.673 .0545436
464.563 .0537184
465.452 .0529408
466.340 .0522121
467.228 .0515241
468.114 .0508774
468.999 .0502689
469.882 .0496953
470.765 .0491450
471.647 .0486312
472.528 .0481405
473.407 .0476856
474.286 .0472622
475.163 .0468836
476.040 .0465475
476.915 .0462649
477.790 .0460324
478.663 .0458432
479.535 .0456848
480.407 .0455641
481.277 .0454629
482.147 .0453863
483.015 .0453259
483.883 .0452801
484.749 .0452505
485.615 .0452399
486.479 .0452412
487.343 .0452636
488.206 .0453000
489.067 .0453523
489.928 .0454098
490.788 .0454777
491.647 .0455467
492.505 .0456235
493.362 .0457097
494.218 .0458143
495.073 .0459335
495.928 .0460798
496.781 .0462487
497.634 .0464518
498.486 .0466933
499.337 .0469660
500.187 .0472715
501.036 .0476147
501.884 .0479883
502.731 .0483947
503.578 .0488220
504.424 .0492746
505.268 .0497408
506.113 .0502367
506.956 .0507491
507.798 .0512935
508.640 .0518762
509.480 .0525024
510.320 .0531834
511.160 .0539320
511.998 .0547447
512.836 .0556504
513.672 .0566669
514.508 .0578074
515.344 .0590642
516.178 .0604886
517.012 .0620899
517.845 .0639139
518.677 .0659837
519.508 .0683170
520.339 .0709590
521.169 .0739953
521.998 .0774057
522.826 .0812737
523.654 .0856297
524.481 .0905003
525.307 .0958995
526.133 .1018176
526.958 .1081446
527.782 .1148478
528.605 .1217510
529.428 .1287741
530.250 .1353804
531.072 .1413970
531.892 .1464875
532.712 .1504048
533.532 .1529980
534.350 .1540084
535.168 .1533291
535.986 .1510973
536.802 .1473469
537.618 .1423324
538.434 .1362448
539.249 .1295859
540.063 .1225470
540.876 .1154398
541.689 .1085052
542.501 .1019346
543.313 .0958938
544.124 .0904443
544.934 .0854815
545.744 .0809932
546.553 .0769351
547.361 .0733046
548.169 .0701019
548.976 .0672699
549.783 .0647564
550.589 .0625496
551.395 .0605684
552.200 .0588039
553.004 .0571979
553.808 .0557215
554.611 .0543816
555.414 .0531744
556.216 .0520722
557.018 .0510938
557.819 .0502147
558.619 .0494289
559.419 .0486995
560.218 .0480177
561.017 .0473527
561.815 .0466842
562.613 .0460160
563.410 .0453390
564.207 .0446491
565.003 .0439699
565.799 .0433017
566.594 .0426511
567.388 .0420299
568.182 .0414385
568.976 .0408662
569.769 .0403250
570.562 .0398013
571.354 .0392961
572.145 .0388066
572.936 .0383400
573.727 .0378898
574.517 .0374596
575.307 .0370623
576.096 .0366867
576.885 .0363385
577.673 .0360208
578.461 .0357243
579.248 .0354426
580.035 .0351736
580.821 .0349135
581.607 .0346590
582.392 .0344116
583.177 .0341741
583.962 .0339474
584.746 .0337413
585.529 .0335559
586.313 .0333897
587.095 .0332462
587.878 .0331257
588.660 .0330215
589.441 .0329337
590.222 .0328565
591.003 .0327882
591.783 .0327260
592.563 .0326693
593.342 .0326169
594.121 .0325685
594.899 .0325250
595.678 .0324869
596.455 .0324527
597.233 .0324235
598.009 .0323949
598.786 .0323663
599.562 .0323372
600.338 .0323049
601.113 .0322697
601.888 .0322314
602.663 .0321902
603.437 .0321477
604.211 .0321042
604.984 .0320614
605.757 .0320197
606.530 .0319790
607.302 .0319394
608.074 .0319008
608.845 .0318637
609.616 .0318273
610.387 .0317915
611.158 .0317579
611.928 .0317263
612.697 .0316955
613.467 .0316663
614.236 .0316382
615.004 .0316111
615.773 .0315853
616.541 .0315606
617.308 .0315375
618.076 .0315166
618.843 .0314977
619.609 .0314808
620.375 .0314656
621.141 .0314518
621.907 .0314380
622.672 .0314235
623.437 .0314086
624.202 .0313920
624.966 .0313740
625.730 .0313546
626.493 .0313339
627.257 .0313119
628.020 .0312890
628.782 .0312651
629.545 .0312394
630.307 .0312120
631.068 .0311825
631.830 .0311503
632.591 .0311151
633.352 .0310776
634.112 .0310375
634.872 .0309951
635.632 .0309522
636.392 .0309086
637.151 .0308659
637.910 .0308247
638.668 .0307861
639.427 .0307500
640.185 .0307160
640.943 .0306845
641.700 .0306543
642.457 .0306267
643.214 .0306007
643.971 .0305759
644.727 .0305530
645.483 .0305324
646.239 .0305133
646.994 .0304949
647.750 .0304775
648.505 .0304603
649.259 .0304422
650.014 .0304237
650.768 .0304038
651.521 .0303829
652.275 .0303614
653.028 .0303399
653.781 .0303179
654.534 .0302962
655.286 .0302734
656.039 .0302498
656.791 .0302248
657.542 .0301986
658.294 .0301706
659.045 .0301418
659.796 .0301127
660.546 .0300831
661.297 .0300533
662.047 .0300242
662.796 .0299946
663.546 .0299663
664.295 .0299387
665.044 .0299124
665.793 .0298878
666.542 .0298654
667.290 .0298455
668.038 .0298286
668.786 .0298136
669.533 .0298002
670.281 .0297877
671.028 .0297764
671.774 .0297651
672.521 .0297543
673.267 .0297446
674.013 .0297356
674.759 .0297275
675.505 .0297203
676.250 .0297126
676.995 .0297047
677.740 .0296960
678.484 .0296855
679.229 .0296729
679.973 .0296587
680.717 .0296429
681.460 .0296267
682.204 .0296107
682.947 .0295953
683.690 .0295808
684.433 .0295678
685.175 .0295557
685.917 .0295442
686.659 .0295338
687.401 .0295239
688.142 .0295145
688.884 .0295058
689.625 .0294973
690.365 .0294891
691.106 .0294811
691.846 .0294731
692.586 .0294646
693.326 .0294551
694.066 .0294444
694.805 .0294320
695.545 .0294183
696.284 .0294026
697.022 .0293855
697.761 .0293677
698.499 .0293491
699.237 .0293304
699.975 .0293120
700.713 .0292940
701.450 .0292760
702.187 .0292584
702.924 .0292410
703.661 .0292232
704.397 .0292052
705.133 .0291870
705.869 .0291691
706.605 .0291514
707.341 .0291341
708.076 .0291177
708.811 .0291021
709.546 .0290869
710.281 .0290712
711.015 .0290549
711.749 .0290378
712.483 .0290197
713.217 .0290002
713.950 .0289794
714.684 .0289576
715.417 .0289345
716.150 .0289112
716.882 .0288878
717.615 .0288640
718.347 .0288404
719.079 .0288169
719.811 .0287939
720.542 .0287712
721.273 .0287492
722.005 .0287281
722.735 .0287077
723.466 .0286882
724.196 .0286683
724.927 .0286481
725.656 .0286280
726.386 .0286075
727.116 .0285863
727.845 .0285647
728.574 .0285430
729.303 .0285213
730.031 .0285006
730.760 .0284807
731.488 .0284613
732.216 .0284427
732.944 .0284243
733.671 .0284058
734.398 .0283870
735.125 .0283685
735.852 .0283498
736.579 .0283315
737.305 .0283138
738.031 .0282967
738.757 .0282808
739.483 .0282658
740.208 .0282514
740.933 .0282375
741.658 .0282237
742.383 .0282096
743.108 .0281949
743.832 .0281804
744.556 .0281663
745.280 .0281519
746.004 .0281376
746.727 .0281231
747.450 .0281086
748.173 .0280935
748.896 .0280780
749.618 .0280622
750.340 .0280461
751.062 .0280302
751.784 .0280147
752.506 .0280001
753.227 .0279865
753.948 .0279734
754.669 .0279608
755.389 .0279480
756.110 .0279347
756.830 .0279200
757.550 .0279043
758.269 .0278879
758.989 .0278704
759.708 .0278519
760.427 .0278333
761.146 .0278147
761.864 .0277960
762.582 .0277772
763.300 .0277580
764.018 .0277389
764.736 .0277197
765.453 .0277002
766.170 .0276813
766.887 .0276630
767.603 .0276459
768.320 .0276296
769.036 .0276147
769.751 .0276015
770.467 .0275892
771.182 .0275782
771.897 .0275679
772.612 .0275577
773.327 .0275477
774.041 .0275376
774.755 .0275277
775.469 .0275180
776.183 .0275092
776.896 .0275010
777.609 .0274939
778.322 .0274879
779.035 .0274826
779.747 .0274779
780.459 .0274736
781.171 .0274689
781.882 .0274638
782.594 .0274585
783.305 .0274530
784.016 .0274476
784.726 .0274432
785.436 .0274394
786.147 .0274366
786.856 .0274347
787.566 .0274336
788.275 .0274333
788.984 .0274333
789.693 .0274329
790.401 .0274317
791.110 .0274294
791.818 .0274261
792.525 .0274219
793.233 .0274169
793.940 .0274117
794.647 .0274066
795.353 .0274018
796.060 .0273975
796.766 .0273938
797.472 .0273906
798.177 .0273875
798.883 .0273843
799.588 .0273804
800.292 .0273756
800.997 .0273704
801.701 .0273646
802.405 .0273589
803.109 .0273535
803.812 .0273488
804.515 .0273448
805.218 .0273413
805.921 .0273379
806.623 .0273347
807.325 .0273310
808.027 .0273266
808.728 .0273209
809.429 .0273145
810.130 .0273068
810.831 .0272988
811.531 .0272903
812.231 .0272814
812.931 .0272724
813.630 .0272631
814.330 .0272531
815.029 .0272426
815.727 .0272313
816.426 .0272192
817.124 .0272068
817.821 .0271942
818.519 .0271813
819.216 .0271688
819.913 .0271572
820.609 .0271465
821.306 .0271365
822.002 .0271276
822.697 .0271194
823.393 .0271120
824.088 .0271053
824.783 .0270986
825.477 .0270926
826.171 .0270872
826.865 .0270820
827.559 .0270776
828.252 .0270739
828.945 .0270711
829.638 .0270687
830.330 .0270666
831.023 .0270646
831.714 .0270624
832.406 .0270601
833.097 .0270572
833.788 .0270538
834.479 .0270500
835.169 .0270458
835.859 .0270416
836.548 .0270373
837.238 .0270332
837.927 .0270290
838.615 .0270249
839.304 .0270206
839.992 .0270163
840.680 .0270117
841.367 .0270071
842.054 .0270020
842.741 .0269966
843.428 .0269909
844.114 .0269847
844.800 .0269782
845.485 .0269709
846.170 .0269628
846.855 .0269537
847.540 .0269433
848.224 .0269318
848.908 .0269189
849.592 .0269048
850.275 .0268892
850.958 .0268724
851.641 .0268550
852.323 .0268367
853.005 .0268179
853.687 .0267984
854.368 .0267784
855.049 .0267576
855.730 .0267361
856.410 .0267137
857.090 .0266908
857.769 .0266675
858.449 .0266437
859.128 .0266199
859.806 .0265964
860.485 .0265735
861.163 .0265513
861.840 .0265297
862.518 .0265086
863.195 .0264871
863.871 .0264651
864.548 .0264424
865.224 .0264193
865.899 .0263954
866.574 .0263712
867.249 .0263474
867.924 .0263240
868.598 .0263017
869.272 .0262804
869.946 .0262605
870.619 .0262416
871.292 .0262233
871.964 .0262053
872.636 .0261871
873.308 .0261694
873.979 .0261519
874.651 .0261348
875.321 .0261185
875.992 .0261031
876.662 .0260891
877.331 .0260766
878.001 .0260656
878.670 .0260556
879.338 .0260462
880.007 .0260373
880.675 .0260285
881.342 .0260190
882.009 .0260088
882.676 .0259977
883.343 .0259857
884.009 .0259733
884.675 .0259602
885.340 .0259470
886.005 .0259341
886.670 .0259218
887.334 .0259099
887.998 .0258981
888.662 .0258869
889.325 .0258760
889.988 .0258654
890.650 .0258552
891.312 .0258450
891.974 .0258354
892.636 .0258265
893.297 .0258185
893.957 .0258111
894.618 .0258045
895.278 .0257984
895.937 .0257928
896.596 .0257877
897.255 .0257823
897.914 .0257765
898.572 .0257705
899.230 .0257642
899.887 .0257570
900.544 .0257490
901.201 .0257408
901.857 .0257321
902.513 .0257225
903.168 .0257112
903.823 .0256985
904.478 .0256843
905.132 .0256686
905.786 .0256513
906.440 .0256324
907.093 .0256125
907.746 .0255919
908.399 .0255706
909.051 .0255493
909.703 .0255280
910.354 .0255069
911.005 .0254861
911.656 .0254655
912.306 .0254455
912.956 .0254262
913.605 .0254082
914.254 .0253919
914.903 .0253773
915.551 .0253648
916.199 .0253547
916.847 .0253465
917.494 .0253396
918.141 .0253332
918.788 .0253269
919.434 .0253207
920.079 .0253137
920.725 .0253067
921.370 .0252994
922.014 .0252921
922.658 .0252846
923.302 .0252766
923.946 .0252679
924.589 .0252579
925.231 .0252461
925.873 .0252326
926.515 .0252168
927.157 .0251995
927.798 .0251806
928.439 .0251616
929.079 .0251430
929.719 .0251248
930.359 .0251071
930.998 .0250902
931.637 .0250735
932.275 .0250575
932.913 .0250415
933.551 .0250257
934.188 .0250104
934.825 .0249957
935.462 .0249821
936.098 .0249702
936.733 .0249602
937.369 .0249521
938.004 .0249458
938.638 .0249410
939.273 .0249366
939.907 .0249328
940.540 .0249298
941.173 .0249276
941.806 .0249265
942.438 .0249266
943.070 .0249281
943.702 .0249312
944.333 .0249357
944.964 .0249405
945.594 .0249456
946.224 .0249506
946.854 .0249551
947.483 .0249588
948.112 .0249618
948.741 .0249645
949.369 .0249677
949.996 .0249718
950.624 .0249765
951.251 .0249815
951.878 .0249868
952.504 .0249913
953.130 .0249949
953.755 .0249971
954.380 .0249981
955.005 .0249981
955.629 .0249974
956.253 .0249960
956.877 .0249948
957.500 .0249940
958.123 .0249936
958.746 .0249936
959.368 .0249941
959.990 .0249948
960.611 .0249956
961.232 .0249966
961.853 .0249977
962.473 .0249991
963.093 .0250008
963.712 .0250023
964.331 .0250037
964.950 .0250049
965.569 .0250060
966.187 .0250072
966.804 .0250092
967.422 .0250126
968.039 .0250172
968.655 .0250232
969.272 .0250297
969.887 .0250365
970.503 .0250425
971.118 .0250476
971.733 .0250512
972.347 .0250533
972.961 .0250543
973.575 .0250548
974.188 .0250551
974.801 .0250556
975.414 .0250561
976.026 .0250567
976.638 .0250566
977.250 .0250557
977.861 .0250526
978.472 .0250477
979.083 .0250413
979.693 .0250335
980.303 .0250243
980.912 .0250147
981.521 .0250048
982.130 .0249952
982.738 .0249860
983.346 .0249774
983.954 .0249690
984.562 .0249612
985.169 .0249531
985.775 .0249452
986.382 .0249373
986.988 .0249303
987.594 .0249235
988.199 .0249179
988.804 .0249131
989.409 .0249090
990.013 .0249059
990.617 .0249039
991.221 .0249022
991.824 .0249012
992.427 .0249007
993.030 .0249011
993.632 .0249024
994.234 .0249046
994.836 .0249074
995.438 .0249108
996.039 .0249145
996.640 .0249184
997.240 .0249215
997.840 .0249249
998.440 .0249284
999.040 .0249318
999.639 .0249355
1000.238 .0249391
1000.836 .0249427
1001.435 .0249462
1002.033 .0249485
1002.630 .0249500
1003.228 .0249501
1003.825 .0249495
1004.422 .0249479
1005.018 .0249458
1005.614 .0249442
1006.210 .0249422
1006.806 .0249400
1007.401 .0249383
1007.996 .0249360
1008.591 .0249333
1009.186 .0249304
1009.780 .0249277
1010.374 .0249254
1010.967 .0249232
1011.561 .0249214
1012.154 .0249203
1012.746 .0249194
1013.339 .0249188
1013.931 .0249177
1014.523 .0249169
1015.115 .0249162
1015.706 .0249152
1016.298 .0249143
1016.888 .0249144
1017.479 .0249143
1018.069 .0249147
1018.660 .0249150
1019.250 .0249158
1019.839 .0249159
1020.429 .0249160
1021.018 .0249162
1021.607 .0249161
1022.195 .0249161
1022.784 .0249164
1023.372 .0249165
1023.960 .0249175
1024.547 .0249187
1025.135 .0249201
1025.722 .0249224
1026.309 .0249252
1026.896 .0249278
1027.483 .0249311
1028.069 .0249342
1028.655 .0249374
1029.241 .0249396
1029.827 .0249409
1030.412 .0249409
1030.997 .0249404
1031.582 .0249395
1032.167 .0249384
1032.752 .0249371
1033.336 .0249367
1033.921 .0249359
1034.505 .0249357
1035.089 .0249351
1035.672 .0249335
1036.256 .0249315
1036.839 .0249289
1037.422 .0249248
1038.005 .0249207
1038.588 .0249156
1039.171 .0249107
1039.753 .0249058
1040.335 .0249018
1040.918 .0248977
1041.500 .0248943
1042.081 .0248922
1042.663 .0248903
1043.244 .0248887
1043.826 .0248870
1044.407 .0248845
1044.988 .0248821
1045.569 .0248790
1046.150 .0248753
1046.730 .0248707
1047.311 .0248669
1047.891 .0248631
1048.471 .0248600
1049.052 .0248568
1049.632 .0248529
1050.211 .0248482
1050.791 .0248423
1051.371 .0248347
1051.950 .0248260
1052.530 .0248159
1053.109 .0248048
1053.688 .0247928
1054.268 .0247797
1054.847 .0247659
1055.426 .0247515
1056.005 .0247361
1056.583 .0247209
1057.162 .0247053
1057.741 .0246902
1058.319 .0246765
1058.898 .0246660
1059.476 .0246583
1060.055 .0246537
1060.633 .0246515
1061.211 .0246514
1061.790 .0246520
1062.368 .0246531
1062.946 .0246538
1063.524 .0246554
1064.102 .0246572
1064.680 .0246589
1065.258 .0246601
1065.836 .0246616
1066.414 .0246622
1066.992 .0246617
1067.570 .0246591
1068.148 .0246556
1068.726 .0246510
1069.304 .0246459
1069.882 .0246409
1070.460 .0246364
1071.038 .0246318
1071.616 .0246274
1072.194 .0246228
1072.772 .0246169
1073.350 .0246100
1073.928 .0246037
1074.506 .0245975
1075.084 .0245941
1075.662 .0245940
1076.240 .0245967
1076.819 .0246021
1077.397 .0246076
1077.976 .0246101
1078.554 .0246085
1079.133 .0246027
1079.711 .0245917
1080.290 .0245775
1080.869 .0245625
1081.448 .0245482
1082.027 .0245367
1082.606 .0245303
1083.185 .0245283
1083.764 .0245292
1084.343 .0245312
1084.923 .0245326
1085.502 .0245320
1086.082 .0245314
1086.662 .0245304
1087.242 .0245312
1087.822 .0245356
1088.402 .0245425
1088.983 .0245508
1089.563 .0245602
1090.144 .0245686
1090.725 .0245755
1091.306 .0245774
1091.887 .0245769
1092.469 .0245730
1093.050 .0245683
1093.632 .0245642
1094.214 .0245612
1094.796 .0245609
1095.379 .0245631
1095.961 .0245650
1096.544 .0245673
1097.127 .0245697
1097.710 .0245731
1098.294 .0245771
1098.877 .0245848
1099.461 .0245965
1100.046 .0246139
1100.630 .0246347
1101.215 .0246612
1101.800 .0246892
1102.385 .0247197
1102.970 .0247486
1103.556 .0247745
1104.142 .0247979
1104.728 .0248185
1105.315 .0248334
1105.902 .0248439
1106.489 .0248506
1107.077 .0248544
1107.664 .0248521
1108.253 .0248500
1108.841 .0248469
1109.430 .0248449
1110.019 .0248442
1110.609 .0248478
1111.198 .0248539
1111.789 .0248655
1112.379 .0248813
1112.970 .0249001
1113.561 .0249242
1114.153 .0249533
1114.745 .0249837
1115.338 .0250177
1115.931 .0250551
1116.524 .0250938
1117.117 .0251329
1117.712 .0251763
1118.306 .0252205
1118.901 .0252665
1119.496 .0253139
1120.092 .0253615
1120.689 .0254066
1121.285 .0254491
1121.882 .0254873
1122.480 .0255186
1123.078 .0255450
1123.677 .0255641
1124.276 .0255786
1124.875 .0255941
1125.476 .0256125
1126.076 .0256376
1126.677 .0256734
1127.279 .0257211
1127.881 .0257826
1128.484 .0258566
1129.087 .0259439
1129.691 .0260416
1130.295 .0261467
1130.900 .0262563
1131.505 .0263676
1132.111 .0264783
1132.718 .0265892
1133.325 .0266995
1133.933 .0268130
1134.541 .0269247
1135.150 .0270371
1135.760 .0271494
1136.370 .0272650
1136.981 .0273786
1137.592 .0274900
1138.204 .0275947
1138.817 .0276912
1139.431 .0277780
1140.045 .0278621
1140.660 .0279385
1141.275 .0280188
1141.891 .0281162
1142.508 .0280907
1143.126 .0283581
1143.744 .0283268
1144.363 .0285296
1144.983 .0290129
