Measurement Sequence started on: 15-12-46-377
Integration time: 28
Scans to Average: 2 
>>>>>Begin Spectral Data<<<<<
432.689 .0000100
433.621 .0000100
434.552 .0000100
435.482 .0000100
436.410 .0000100
437.337 .0000100
438.262 .0263701
439.187 .0559620
440.110 .0927472
441.031 .1342291
441.952 .1745234
442.871 .2062719
443.789 .2236977
444.705 .2248580
445.621 .2121442
446.535 .1908269
447.447 .1666668
448.359 .1296605
449.269 .1112349
450.178 .0995900
451.086 .0913270
451.993 .0849655
452.898 .0798991
453.803 .0757649
454.706 .0723182
455.608 .0694186
456.508 .0669628
457.408 .0648514
458.306 .0630041
459.204 .0613797
460.100 .0598972
460.995 .0585700
461.888 .0573627
462.781 .0562581
463.673 .0552426
464.563 .0543186
465.452 .0534530
466.340 .0526297
467.228 .0518663
468.114 .0511468
468.999 .0504713
469.882 .0498470
470.765 .0492658
471.647 .0487172
472.528 .0482124
473.407 .0477483
474.286 .0473191
475.163 .0469202
476.040 .0465519
476.915 .0462082
477.790 .0458901
478.663 .0455955
479.535 .0453288
480.407 .0450935
481.277 .0448970
482.147 .0447343
483.015 .0446066
483.883 .0445112
484.749 .0444451
485.615 .0444031
486.479 .0443848
487.343 .0443897
488.206 .0444125
489.067 .0444486
489.928 .0445005
490.788 .0445646
491.647 .0446450
492.505 .0447414
493.362 .0448588
494.218 .0449924
495.073 .0451403
495.928 .0453024
496.781 .0454657
497.634 .0456412
498.486 .0458304
499.337 .0460355
500.187 .0462623
501.036 .0465189
501.884 .0468087
502.731 .0471327
503.578 .0474942
504.424 .0478953
505.268 .0483247
506.113 .0487840
506.956 .0492699
507.798 .0497848
508.640 .0503396
509.480 .0509464
510.320 .0516092
511.160 .0523559
511.998 .0531896
512.836 .0541136
513.672 .0551301
514.508 .0562572
515.344 .0574895
516.178 .0588480
517.012 .0603723
517.845 .0621167
518.677 .0641097
519.508 .0663878
520.339 .0689848
521.169 .0719325
521.998 .0752656
522.826 .0789971
523.654 .0831801
524.481 .0878304
525.307 .0929808
526.133 .0986027
526.958 .1046655
527.782 .1111804
528.605 .1179792
529.428 .1249673
530.250 .1316799
531.072 .1378744
531.892 .1431379
532.712 .1472216
533.532 .1499602
534.350 .1511399
535.168 .1507403
535.986 .1487698
536.802 .1453684
537.618 .1408061
538.434 .1352406
539.249 .1291380
540.063 .1226244
540.876 .1160421
541.689 .1095219
542.501 .1032662
543.313 .0974728
544.124 .0921946
544.934 .0874312
545.744 .0830987
546.553 .0791472
547.361 .0755725
548.169 .0723286
548.976 .0693959
549.783 .0667540
550.589 .0643860
551.395 .0622380
552.200 .0602945
553.004 .0585169
553.808 .0568992
554.611 .0554128
555.414 .0540502
556.216 .0527877
557.018 .0516243
557.819 .0505639
558.619 .0495805
559.419 .0486891
560.218 .0478991
561.017 .0471705
561.815 .0465016
562.613 .0458775
563.410 .0452782
564.207 .0446956
565.003 .0441237
565.799 .0435634
566.594 .0430095
567.388 .0424704
568.182 .0419412
568.976 .0414212
569.769 .0409174
570.562 .0404229
571.354 .0399309
572.145 .0394568
572.936 .0389900
573.727 .0385282
574.517 .0380790
575.307 .0376445
576.096 .0372216
576.885 .0368172
577.673 .0364355
578.461 .0360794
579.248 .0357484
580.035 .0354412
580.821 .0351574
581.607 .0348993
582.392 .0346611
583.177 .0344398
583.962 .0342349
584.746 .0340470
585.529 .0338681
586.313 .0337035
587.095 .0335526
587.878 .0334132
588.660 .0332876
589.441 .0331743
590.222 .0330697
591.003 .0329757
591.783 .0328892
592.563 .0328077
593.342 .0327331
594.121 .0326630
594.899 .0325952
595.678 .0325314
596.455 .0324722
597.233 .0324152
598.009 .0323607
598.786 .0323092
599.562 .0322586
600.338 .0322093
601.113 .0321616
601.888 .0321138
602.663 .0320665
603.437 .0320194
604.211 .0319706
604.984 .0319200
605.757 .0318676
606.530 .0318123
607.302 .0317553
608.074 .0316984
608.845 .0316429
609.616 .0315893
610.387 .0315401
611.158 .0314948
611.928 .0314539
612.697 .0314178
613.467 .0313850
614.236 .0313545
615.004 .0313260
615.773 .0312997
616.541 .0312753
617.308 .0312533
618.076 .0312350
618.843 .0312202
619.609 .0312096
620.375 .0312026
621.141 .0311983
621.907 .0311957
622.672 .0311941
623.437 .0311913
624.202 .0311870
624.966 .0311807
625.730 .0311721
626.493 .0311613
627.257 .0311493
628.020 .0311359
628.782 .0311210
629.545 .0311053
630.307 .0310896
631.068 .0310732
631.830 .0310571
632.591 .0310408
633.352 .0310244
634.112 .0310069
634.872 .0309882
635.632 .0309683
636.392 .0309477
637.151 .0309270
637.910 .0309059
638.668 .0308852
639.427 .0308663
640.185 .0308487
640.943 .0308330
641.700 .0308185
642.457 .0308047
643.214 .0307902
643.971 .0307737
644.727 .0307553
645.483 .0307349
646.239 .0307127
646.994 .0306892
647.750 .0306650
648.505 .0306404
649.259 .0306160
650.014 .0305911
650.768 .0305661
651.521 .0305398
652.275 .0305122
653.028 .0304830
653.781 .0304523
654.534 .0304209
655.286 .0303888
656.039 .0303562
656.791 .0303247
657.542 .0302930
658.294 .0302615
659.045 .0302301
659.796 .0301991
660.546 .0301671
661.297 .0301344
662.047 .0301005
662.796 .0300656
663.546 .0300303
664.295 .0299950
665.044 .0299592
665.793 .0299243
666.542 .0298904
667.290 .0298575
668.038 .0298260
668.786 .0297962
669.533 .0297675
670.281 .0297400
671.028 .0297134
671.774 .0296868
672.521 .0296610
673.267 .0296371
674.013 .0296145
674.759 .0295932
675.505 .0295739
676.250 .0295562
676.995 .0295402
677.740 .0295257
678.484 .0295120
679.229 .0294989
679.973 .0294864
680.717 .0294741
681.460 .0294619
682.204 .0294505
682.947 .0294400
683.690 .0294303
684.433 .0294217
685.175 .0294132
685.917 .0294043
686.659 .0293952
687.401 .0293858
688.142 .0293761
688.884 .0293661
689.625 .0293558
690.365 .0293456
691.106 .0293353
691.846 .0293251
692.586 .0293143
693.326 .0293032
694.066 .0292920
694.805 .0292799
695.545 .0292671
696.284 .0292540
697.022 .0292408
697.761 .0292280
698.499 .0292154
699.237 .0292028
699.975 .0291902
700.713 .0291779
701.450 .0291653
702.187 .0291527
702.924 .0291401
703.661 .0291274
704.397 .0291144
705.133 .0291020
705.869 .0290896
706.605 .0290768
707.341 .0290639
708.076 .0290508
708.811 .0290370
709.546 .0290226
710.281 .0290069
711.015 .0289906
711.749 .0289734
712.483 .0289560
713.217 .0289376
713.950 .0289192
714.684 .0289004
715.417 .0288807
716.150 .0288605
716.882 .0288397
717.615 .0288181
718.347 .0287959
719.079 .0287735
719.811 .0287511
720.542 .0287288
721.273 .0287067
722.005 .0286845
722.735 .0286627
723.466 .0286404
724.196 .0286169
724.927 .0285923
725.656 .0285663
726.386 .0285389
727.116 .0285102
727.845 .0284811
728.574 .0284512
729.303 .0284214
730.031 .0283920
730.760 .0283631
731.488 .0283346
732.216 .0283068
732.944 .0282794
733.671 .0282526
734.398 .0282267
735.125 .0282013
735.852 .0281770
736.579 .0281553
737.305 .0281356
738.031 .0281178
738.757 .0281021
739.483 .0280885
740.208 .0280757
740.933 .0280638
741.658 .0280521
742.383 .0280397
743.108 .0280268
743.832 .0280125
744.556 .0279971
745.280 .0279810
746.004 .0279644
746.727 .0279476
747.450 .0279314
748.173 .0279161
748.896 .0279012
749.618 .0278869
750.340 .0278739
751.062 .0278612
751.784 .0278487
752.506 .0278364
753.227 .0278243
753.948 .0278119
754.669 .0278000
755.389 .0277881
756.110 .0277771
756.830 .0277664
757.550 .0277565
758.269 .0277472
758.989 .0277385
759.708 .0277302
760.427 .0277220
761.146 .0277138
761.864 .0277056
762.582 .0276964
763.300 .0276866
764.018 .0276764
764.736 .0276661
765.453 .0276555
766.170 .0276455
766.887 .0276361
767.603 .0276280
768.320 .0276209
769.036 .0276154
769.751 .0276109
770.467 .0276075
771.182 .0276049
771.897 .0276026
772.612 .0276005
773.327 .0275988
774.041 .0275972
774.755 .0275961
775.469 .0275958
776.183 .0275962
776.896 .0275973
777.609 .0275999
778.322 .0276031
779.035 .0276067
779.747 .0276105
780.459 .0276147
781.171 .0276180
781.882 .0276209
782.594 .0276235
783.305 .0276254
784.016 .0276273
784.726 .0276293
785.436 .0276313
786.147 .0276336
786.856 .0276365
787.566 .0276389
788.275 .0276410
788.984 .0276430
789.693 .0276442
790.401 .0276447
791.110 .0276446
791.818 .0276434
792.525 .0276409
793.233 .0276378
793.940 .0276330
794.647 .0276261
795.353 .0276177
796.060 .0276071
796.766 .0275940
797.472 .0275792
798.177 .0275622
798.883 .0275438
799.588 .0275242
800.292 .0275038
800.997 .0274821
801.701 .0274600
802.405 .0274374
803.109 .0274140
803.812 .0273910
804.515 .0273682
805.218 .0273453
805.921 .0273233
806.623 .0273018
807.325 .0272806
808.027 .0272597
808.728 .0272388
809.429 .0272174
810.130 .0271952
810.831 .0271720
811.531 .0271470
812.231 .0271209
812.931 .0270939
813.630 .0270658
814.330 .0270375
815.029 .0270092
815.727 .0269806
816.426 .0269522
817.124 .0269239
817.821 .0268957
818.519 .0268673
819.216 .0268391
819.913 .0268107
820.609 .0267827
821.306 .0267551
822.002 .0267286
822.697 .0267033
823.393 .0266801
824.088 .0266583
824.783 .0266379
825.477 .0266186
826.171 .0265998
826.865 .0265814
827.559 .0265631
828.252 .0265445
828.945 .0265264
829.638 .0265083
830.330 .0264907
831.023 .0264735
831.714 .0264573
832.406 .0264423
833.097 .0264277
833.788 .0264134
834.479 .0263994
835.169 .0263853
835.859 .0263717
836.548 .0263582
837.238 .0263450
837.927 .0263320
838.615 .0263194
839.304 .0263073
839.992 .0262954
840.680 .0262840
841.367 .0262735
842.054 .0262638
842.741 .0262556
843.428 .0262485
844.114 .0262428
844.800 .0262388
845.485 .0262361
846.170 .0262339
846.855 .0262318
847.540 .0262295
848.224 .0262268
848.908 .0262236
849.592 .0262198
850.275 .0262158
850.958 .0262117
851.641 .0262079
852.323 .0262041
853.005 .0262003
853.687 .0261962
854.368 .0261916
855.049 .0261867
855.730 .0261807
856.410 .0261742
857.090 .0261674
857.769 .0261607
858.449 .0261548
859.128 .0261496
859.806 .0261452
860.485 .0261418
861.163 .0261400
861.840 .0261388
862.518 .0261382
863.195 .0261383
863.871 .0261384
864.548 .0261390
865.224 .0261403
865.899 .0261420
866.574 .0261444
867.249 .0261479
867.924 .0261519
868.598 .0261564
869.272 .0261613
869.946 .0261665
870.619 .0261717
871.292 .0261773
871.964 .0261831
872.636 .0261892
873.308 .0261960
873.979 .0262036
874.651 .0262114
875.321 .0262194
875.992 .0262273
876.662 .0262351
877.331 .0262423
878.001 .0262492
878.670 .0262559
879.338 .0262625
880.007 .0262693
880.675 .0262764
881.342 .0262832
882.009 .0262905
882.676 .0262974
883.343 .0263033
884.009 .0263085
884.675 .0263128
885.340 .0263160
886.005 .0263184
886.670 .0263205
887.334 .0263227
887.998 .0263247
888.662 .0263270
889.325 .0263289
889.988 .0263307
890.650 .0263322
891.312 .0263329
891.974 .0263329
892.636 .0263327
893.297 .0263317
893.957 .0263304
894.618 .0263290
895.278 .0263271
895.937 .0263251
896.596 .0263228
897.255 .0263203
897.914 .0263172
898.572 .0263132
899.230 .0263084
899.887 .0263025
900.544 .0262957
901.201 .0262875
901.857 .0262780
902.513 .0262673
903.168 .0262550
903.823 .0262412
904.478 .0262259
905.132 .0262087
905.786 .0261901
906.440 .0261699
907.093 .0261480
907.746 .0261251
908.399 .0261017
909.051 .0260778
909.703 .0260538
910.354 .0260297
911.005 .0260057
911.656 .0259816
912.306 .0259572
912.956 .0259321
913.605 .0259064
914.254 .0258805
914.903 .0258538
915.551 .0258268
916.199 .0258002
916.847 .0257735
917.494 .0257471
918.141 .0257211
918.788 .0256951
919.434 .0256686
920.079 .0256416
920.725 .0256139
921.370 .0255849
922.014 .0255548
922.658 .0255232
923.302 .0254901
923.946 .0254560
924.589 .0254204
925.231 .0253834
925.873 .0253455
926.515 .0253075
927.157 .0252688
927.798 .0252302
928.439 .0251920
929.079 .0251539
929.719 .0251161
930.359 .0250784
930.998 .0250406
931.637 .0250027
932.275 .0249656
932.913 .0249288
933.551 .0248928
934.188 .0248586
934.825 .0248257
935.462 .0247946
936.098 .0247649
936.733 .0247367
937.369 .0247092
938.004 .0246827
938.638 .0246569
939.273 .0246317
939.907 .0246075
940.540 .0245842
941.173 .0245621
941.806 .0245411
942.438 .0245208
943.070 .0245014
943.702 .0244823
944.333 .0244640
944.964 .0244454
945.594 .0244274
946.224 .0244101
946.854 .0243936
947.483 .0243778
948.112 .0243630
948.741 .0243490
949.369 .0243354
949.996 .0243216
950.624 .0243074
951.251 .0242927
951.878 .0242778
952.504 .0242625
953.130 .0242473
953.755 .0242325
954.380 .0242190
955.005 .0242058
955.629 .0241936
956.253 .0241823
956.877 .0241713
957.500 .0241608
958.123 .0241505
958.746 .0241407
959.368 .0241314
959.990 .0241229
960.611 .0241157
961.232 .0241098
961.853 .0241055
962.473 .0241026
963.093 .0241008
963.712 .0241000
964.331 .0240999
964.950 .0240996
965.569 .0240997
966.187 .0241000
966.804 .0241008
967.422 .0241018
968.039 .0241043
968.655 .0241079
969.272 .0241125
969.887 .0241183
970.503 .0241248
971.118 .0241316
971.733 .0241390
972.347 .0241459
972.961 .0241521
973.575 .0241583
974.188 .0241647
974.801 .0241705
975.414 .0241768
976.026 .0241830
976.638 .0241891
977.250 .0241950
977.861 .0242013
978.472 .0242074
979.083 .0242137
979.693 .0242202
980.303 .0242265
980.912 .0242321
981.521 .0242370
982.130 .0242408
982.738 .0242441
983.346 .0242472
983.954 .0242495
984.562 .0242512
985.169 .0242534
985.775 .0242558
986.382 .0242588
986.988 .0242628
987.594 .0242678
988.199 .0242738
988.804 .0242808
989.409 .0242889
990.013 .0242983
990.617 .0243091
991.221 .0243214
991.824 .0243354
992.427 .0243508
993.030 .0243676
993.632 .0243859
994.234 .0244061
994.836 .0244275
995.438 .0244497
996.039 .0244721
996.640 .0244945
997.240 .0245165
997.840 .0245382
998.440 .0245591
999.040 .0245790
999.639 .0245977
1000.238 .0246148
1000.836 .0246305
1001.435 .0246450
1002.033 .0246580
1002.630 .0246699
1003.228 .0246811
1003.825 .0246924
1004.422 .0247034
1005.018 .0247156
1005.614 .0247289
1006.210 .0247432
1006.806 .0247585
1007.401 .0247740
1007.996 .0247893
1008.591 .0248046
1009.186 .0248197
1009.780 .0248343
1010.374 .0248480
1010.967 .0248614
1011.561 .0248747
1012.154 .0248883
1012.746 .0249022
1013.339 .0249163
1013.931 .0249300
1014.523 .0249434
1015.115 .0249549
1015.706 .0249645
1016.298 .0249724
1016.888 .0249790
1017.479 .0249844
1018.069 .0249893
1018.660 .0249938
1019.250 .0249990
1019.839 .0250047
1020.429 .0250120
1021.018 .0250197
1021.607 .0250276
1022.195 .0250344
1022.784 .0250402
1023.372 .0250449
1023.960 .0250495
1024.547 .0250534
1025.135 .0250583
1025.722 .0250641
1026.309 .0250716
1026.896 .0250800
1027.483 .0250899
1028.069 .0251006
1028.655 .0251121
1029.241 .0251225
1029.827 .0251321
1030.412 .0251396
1030.997 .0251462
1031.582 .0251515
1032.167 .0251562
1032.752 .0251599
1033.336 .0251629
1033.921 .0251641
1034.505 .0251647
1035.089 .0251633
1035.672 .0251606
1036.256 .0251557
1036.839 .0251487
1037.422 .0251397
1038.005 .0251292
1038.588 .0251175
1039.171 .0251065
1039.753 .0250964
1040.335 .0250879
1040.918 .0250803
1041.500 .0250744
1042.081 .0250700
1042.663 .0250666
1043.244 .0250645
1043.826 .0250625
1044.407 .0250604
1044.988 .0250583
1045.569 .0250547
1046.150 .0250496
1046.730 .0250428
1047.311 .0250338
1047.891 .0250223
1048.471 .0250079
1049.052 .0249910
1049.632 .0249721
1050.211 .0249529
1050.791 .0249334
1051.371 .0249138
1051.950 .0248945
1052.530 .0248750
1053.109 .0248546
1053.688 .0248328
1054.268 .0248089
1054.847 .0247838
1055.426 .0247581
1056.005 .0247326
1056.583 .0247086
1057.162 .0246870
1057.741 .0246686
1058.319 .0246533
1058.898 .0246408
1059.476 .0246292
1060.055 .0246177
1060.633 .0246053
1061.211 .0245908
1061.790 .0245750
1062.368 .0245584
1062.946 .0245415
1063.524 .0245263
1064.102 .0245132
1064.680 .0245023
1065.258 .0244922
1065.836 .0244828
1066.414 .0244729
1066.992 .0244614
1067.570 .0244475
1068.148 .0244294
1068.726 .0244077
1069.304 .0243844
1069.882 .0243588
1070.460 .0243332
1071.038 .0243086
1071.616 .0242856
1072.194 .0242660
1072.772 .0242481
1073.350 .0242321
1073.928 .0242178
1074.506 .0242042
1075.084 .0241916
1075.662 .0241785
1076.240 .0241655
1076.819 .0241531
1077.397 .0241423
1077.976 .0241345
1078.554 .0241296
1079.133 .0241278
1079.711 .0241287
1080.290 .0241302
1080.869 .0241320
1081.448 .0241322
1082.027 .0241294
1082.606 .0241247
1083.185 .0241179
1083.764 .0241085
1084.343 .0240981
1084.923 .0240876
1085.502 .0240799
1086.082 .0240744
1086.662 .0240726
1087.242 .0240726
1087.822 .0240746
1088.402 .0240780
1088.983 .0240812
1089.563 .0240841
1090.144 .0240879
1090.725 .0240918
1091.306 .0240950
1091.887 .0240975
1092.469 .0241011
1093.050 .0241038
1093.632 .0241049
1094.214 .0241026
1094.796 .0240976
1095.379 .0240890
1095.961 .0240784
1096.544 .0240653
1097.127 .0240532
1097.710 .0240435
1098.294 .0240354
1098.877 .0240294
1099.461 .0240267
1100.046 .0240269
1100.630 .0240302
1101.215 .0240353
1101.800 .0240435
1102.385 .0240518
1102.970 .0240620
1103.556 .0240747
1104.142 .0240913
1104.728 .0241132
1105.315 .0241398
1105.902 .0241725
1106.489 .0242122
1107.077 .0242562
1107.664 .0243044
1108.253 .0243543
1108.841 .0244061
1109.430 .0244558
1110.019 .0245021
1110.609 .0245431
1111.198 .0245818
1111.789 .0246196
1112.379 .0246593
1112.970 .0247016
1113.561 .0247482
1114.153 .0248001
1114.745 .0248520
1115.338 .0249043
1115.931 .0249528
1116.524 .0249943
1117.117 .0250299
1117.712 .0250570
1118.306 .0250794
1118.901 .0250975
1119.496 .0251180
1120.092 .0251410
1120.689 .0251690
1121.285 .0252029
1121.882 .0252372
1122.480 .0252723
1123.078 .0253081
1123.677 .0253436
1124.276 .0253781
1124.875 .0254150
1125.476 .0254540
1126.076 .0254967
1126.677 .0255465
1127.279 .0256012
1127.881 .0256624
1128.484 .0257299
1129.087 .0258021
1129.691 .0258750
1130.295 .0259487
1130.900 .0260222
1131.505 .0260938
1132.111 .0261701
1132.718 .0262478
1133.325 .0263298
1133.933 .0264198
1134.541 .0265170
1135.150 .0266251
1135.760 .0267438
1136.370 .0268708
1136.981 .0270071
1137.592 .0271461
1138.204 .0272869
1138.817 .0274273
1139.431 .0275760
1140.045 .0277293
1140.660 .0278896
1141.275 .0280679
1141.891 .0282520
1142.508 .0284985
1143.126 .0286521
1143.744 .0288481
1144.363 .0292234
1144.983 .0292204
