Measurement Sequence started on: 15-12-46-377
Integration time: 28
Scans to Average: 2 
>>>>>Begin Spectral Data<<<<<
432.689 .0000100
433.621 .0000100
434.552 .0000100
435.482 .0000100
436.410 .0000100
437.337 .0000100
438.262 .0235234
439.187 .0497751
440.110 .0824353
441.031 .1193081
441.952 .1550964
442.871 .1832316
443.789 .1986092
444.705 .1994993
445.621 .1880298
446.535 .1689194
447.447 .1472767
448.359 .1142060
449.269 .0978520
450.178 .0875189
451.086 .0802128
451.993 .0746743
452.898 .0703216
453.803 .0667590
454.706 .0637461
455.608 .0611481
456.508 .0588513
457.408 .0568382
458.306 .0550426
459.204 .0534433
460.100 .0520135
460.995 .0507823
461.888 .0496980
462.781 .0487376
463.673 .0478666
464.563 .0470882
465.452 .0463540
466.340 .0456581
467.228 .0449979
468.114 .0443760
468.999 .0438044
469.882 .0432918
470.765 .0428300
471.647 .0424336
472.528 .0420970
473.407 .0418185
474.286 .0415893
475.163 .0414033
476.040 .0412455
476.915 .0411097
477.790 .0409884
478.663 .0408746
479.535 .0407590
480.407 .0406487
481.277 .0405412
482.147 .0404398
483.015 .0403462
483.883 .0402628
484.749 .0402010
485.615 .0401515
486.479 .0401120
487.343 .0400824
488.206 .0400659
489.067 .0400576
489.928 .0400531
490.788 .0400534
491.647 .0400623
492.505 .0400873
493.362 .0401276
494.218 .0401802
495.073 .0402498
495.928 .0403380
496.781 .0404390
497.634 .0405587
498.486 .0407009
499.337 .0408637
500.187 .0410502
501.036 .0412588
501.884 .0414800
502.731 .0417037
503.578 .0419296
504.424 .0421632
505.268 .0423927
506.113 .0426261
506.956 .0428755
507.798 .0431628
508.640 .0435122
509.480 .0439256
510.320 .0444187
511.160 .0450051
511.998 .0456769
512.836 .0464299
513.672 .0472485
514.508 .0481623
515.344 .0491731
516.178 .0503091
517.012 .0515951
517.845 .0530804
518.677 .0548168
519.508 .0568366
520.339 .0591870
521.169 .0619020
521.998 .0649785
522.826 .0684718
523.654 .0723760
524.481 .0766856
525.307 .0814194
526.133 .0865960
526.958 .0921723
527.782 .0980924
528.605 .1042362
529.428 .1105032
530.250 .1164136
531.072 .1218222
531.892 .1263410
532.712 .1297271
533.532 .1317896
534.350 .1323830
535.168 .1314192
535.986 .1290442
536.802 .1253606
537.618 .1206476
538.434 .1151357
539.249 .1092896
540.063 .1031940
540.876 .0971829
541.689 .0914418
542.501 .0861193
543.313 .0812698
544.124 .0769754
544.934 .0731239
545.744 .0697048
546.553 .0666214
547.361 .0638593
548.169 .0613949
548.976 .0591820
549.783 .0571904
550.589 .0553947
551.395 .0537608
552.200 .0522868
553.004 .0509331
553.808 .0497047
554.611 .0486002
555.414 .0475962
556.216 .0466702
557.018 .0458174
557.819 .0450232
558.619 .0442636
559.419 .0435409
560.218 .0428677
561.017 .0422262
561.815 .0416185
562.613 .0410520
563.410 .0405044
564.207 .0399750
565.003 .0394609
565.799 .0389555
566.594 .0384480
567.388 .0379461
568.182 .0374380
568.976 .0369274
569.769 .0364294
570.562 .0359509
571.354 .0354864
572.145 .0350527
572.936 .0346424
573.727 .0342513
574.517 .0338844
575.307 .0335376
576.096 .0332032
576.885 .0328912
577.673 .0325993
578.461 .0323237
579.248 .0320624
580.035 .0318188
580.821 .0315900
581.607 .0313761
582.392 .0311783
583.177 .0309907
583.962 .0308149
584.746 .0306552
585.529 .0305081
586.313 .0303746
587.095 .0302572
587.878 .0301538
588.660 .0300662
589.441 .0299917
590.222 .0299280
591.003 .0298750
591.783 .0298311
592.563 .0297930
593.342 .0297592
594.121 .0297269
594.899 .0296960
595.678 .0296647
596.455 .0296330
597.233 .0295996
598.009 .0295641
598.786 .0295263
599.562 .0294864
600.338 .0294455
601.113 .0294031
601.888 .0293590
602.663 .0293151
603.437 .0292712
604.211 .0292267
604.984 .0291820
605.757 .0291377
606.530 .0290934
607.302 .0290498
608.074 .0290068
608.845 .0289649
609.616 .0289252
610.387 .0288892
611.158 .0288566
611.928 .0288272
612.697 .0288019
613.467 .0287795
614.236 .0287602
615.004 .0287431
615.773 .0287275
616.541 .0287128
617.308 .0286994
618.076 .0286867
618.843 .0286743
619.609 .0286634
620.375 .0286541
621.141 .0286462
621.907 .0286401
622.672 .0286354
623.437 .0286323
624.202 .0286299
624.966 .0286287
625.730 .0286272
626.493 .0286254
627.257 .0286229
628.020 .0286190
628.782 .0286144
629.545 .0286088
630.307 .0286024
631.068 .0285965
631.830 .0285913
632.591 .0285867
633.352 .0285820
634.112 .0285772
634.872 .0285719
635.632 .0285651
636.392 .0285561
637.151 .0285460
637.910 .0285349
638.668 .0285236
639.427 .0285124
640.185 .0285016
640.943 .0284914
641.700 .0284816
642.457 .0284722
643.214 .0284617
643.971 .0284495
644.727 .0284364
645.483 .0284216
646.239 .0284065
646.994 .0283912
647.750 .0283765
648.505 .0283634
649.259 .0283522
650.014 .0283419
650.768 .0283318
651.521 .0283222
652.275 .0283119
653.028 .0282998
653.781 .0282859
654.534 .0282704
655.286 .0282539
656.039 .0282368
656.791 .0282197
657.542 .0282021
658.294 .0281843
659.045 .0281659
659.796 .0281464
660.546 .0281248
661.297 .0281010
662.047 .0280752
662.796 .0280472
663.546 .0280183
664.295 .0279894
665.044 .0279605
665.793 .0279336
666.542 .0279089
667.290 .0278858
668.038 .0278637
668.786 .0278429
669.533 .0278229
670.281 .0278031
671.028 .0277844
671.774 .0277669
672.521 .0277516
673.267 .0277396
674.013 .0277306
674.759 .0277237
675.505 .0277189
676.250 .0277151
676.995 .0277107
677.740 .0277049
678.484 .0276977
679.229 .0276888
679.973 .0276793
680.717 .0276700
681.460 .0276614
682.204 .0276538
682.947 .0276486
683.690 .0276449
684.433 .0276423
685.175 .0276405
685.917 .0276385
686.659 .0276360
687.401 .0276330
688.142 .0276291
688.884 .0276241
689.625 .0276183
690.365 .0276122
691.106 .0276054
691.846 .0275985
692.586 .0275915
693.326 .0275841
694.066 .0275768
694.805 .0275693
695.545 .0275608
696.284 .0275513
697.022 .0275408
697.761 .0275291
698.499 .0275164
699.237 .0275032
699.975 .0274897
700.713 .0274772
701.450 .0274659
702.187 .0274564
702.924 .0274490
703.661 .0274429
704.397 .0274377
705.133 .0274326
705.869 .0274273
706.605 .0274210
707.341 .0274134
708.076 .0274051
708.811 .0273962
709.546 .0273868
710.281 .0273772
711.015 .0273670
711.749 .0273567
712.483 .0273454
713.217 .0273328
713.950 .0273181
714.684 .0273012
715.417 .0272821
716.150 .0272609
716.882 .0272376
717.615 .0272129
718.347 .0271869
719.079 .0271598
719.811 .0271317
720.542 .0271032
721.273 .0270743
722.005 .0270450
722.735 .0270156
723.466 .0269868
724.196 .0269580
724.927 .0269295
725.656 .0269015
726.386 .0268738
727.116 .0268466
727.845 .0268199
728.574 .0267934
729.303 .0267677
730.031 .0267430
730.760 .0267188
731.488 .0266954
732.216 .0266732
732.944 .0266511
733.671 .0266289
734.398 .0266066
735.125 .0265837
735.852 .0265602
736.579 .0265366
737.305 .0265134
738.031 .0264916
738.757 .0264718
739.483 .0264540
740.208 .0264384
740.933 .0264257
741.658 .0264149
742.383 .0264062
743.108 .0263989
743.832 .0263929
744.556 .0263875
745.280 .0263826
746.004 .0263780
746.727 .0263740
747.450 .0263704
748.173 .0263668
748.896 .0263627
749.618 .0263578
750.340 .0263513
751.062 .0263436
751.784 .0263345
752.506 .0263242
753.227 .0263127
753.948 .0263006
754.669 .0262884
755.389 .0262770
756.110 .0262663
756.830 .0262569
757.550 .0262486
758.269 .0262414
758.989 .0262346
759.708 .0262283
760.427 .0262222
761.146 .0262166
761.864 .0262112
762.582 .0262060
763.300 .0262004
764.018 .0261948
764.736 .0261889
765.453 .0261825
766.170 .0261750
766.887 .0261665
767.603 .0261566
768.320 .0261456
769.036 .0261333
769.751 .0261203
770.467 .0261073
771.182 .0260951
771.897 .0260832
772.612 .0260721
773.327 .0260618
774.041 .0260525
774.755 .0260437
775.469 .0260355
776.183 .0260274
776.896 .0260194
777.609 .0260108
778.322 .0260020
779.035 .0259924
779.747 .0259820
780.459 .0259705
781.171 .0259580
781.882 .0259446
782.594 .0259300
783.305 .0259144
784.016 .0258981
784.726 .0258811
785.436 .0258636
786.147 .0258451
786.856 .0258264
787.566 .0258075
788.275 .0257889
788.984 .0257709
789.693 .0257536
790.401 .0257375
791.110 .0257225
791.818 .0257082
792.525 .0256948
793.233 .0256814
793.940 .0256676
794.647 .0256528
795.353 .0256364
796.060 .0256179
796.766 .0255970
797.472 .0255736
798.177 .0255477
798.883 .0255194
799.588 .0254889
800.292 .0254564
800.997 .0254223
801.701 .0253870
802.405 .0253507
803.109 .0253135
803.812 .0252759
804.515 .0252381
805.218 .0252006
805.921 .0251634
806.623 .0251271
807.325 .0250920
808.027 .0250590
808.728 .0250286
809.429 .0250007
810.130 .0249758
810.831 .0249536
811.531 .0249332
812.231 .0249140
812.931 .0248949
813.630 .0248756
814.330 .0248554
815.029 .0248343
815.727 .0248119
816.426 .0247888
817.124 .0247656
817.821 .0247423
818.519 .0247192
819.216 .0246964
819.913 .0246738
820.609 .0246513
821.306 .0246287
822.002 .0246062
822.697 .0245847
823.393 .0245645
824.088 .0245464
824.783 .0245308
825.477 .0245179
826.171 .0245080
826.865 .0245010
827.559 .0244972
828.252 .0244955
828.945 .0244962
829.638 .0244988
830.330 .0245030
831.023 .0245090
831.714 .0245163
832.406 .0245247
833.097 .0245340
833.788 .0245430
834.479 .0245516
835.169 .0245591
835.859 .0245657
836.548 .0245709
837.238 .0245753
837.927 .0245788
838.615 .0245814
839.304 .0245833
839.992 .0245846
840.680 .0245849
841.367 .0245846
842.054 .0245833
842.741 .0245809
843.428 .0245779
844.114 .0245745
844.800 .0245710
845.485 .0245679
846.170 .0245647
846.855 .0245621
847.540 .0245595
848.224 .0245571
848.908 .0245543
849.592 .0245513
850.275 .0245483
850.958 .0245454
851.641 .0245428
852.323 .0245405
853.005 .0245390
853.687 .0245384
854.368 .0245377
855.049 .0245369
855.730 .0245357
856.410 .0245336
857.090 .0245305
857.769 .0245265
858.449 .0245214
859.128 .0245156
859.806 .0245089
860.485 .0245017
861.163 .0244940
861.840 .0244857
862.518 .0244769
863.195 .0244671
863.871 .0244566
864.548 .0244449
865.224 .0244319
865.899 .0244179
866.574 .0244030
867.249 .0243872
867.924 .0243706
868.598 .0243534
869.272 .0243362
869.946 .0243196
870.619 .0243038
871.292 .0242892
871.964 .0242757
872.636 .0242629
873.308 .0242507
873.979 .0242380
874.651 .0242250
875.321 .0242111
875.992 .0241969
876.662 .0241824
877.331 .0241684
878.001 .0241552
878.670 .0241430
879.338 .0241321
880.007 .0241226
880.675 .0241135
881.342 .0241040
882.009 .0240934
882.676 .0240813
883.343 .0240673
884.009 .0240516
884.675 .0240342
885.340 .0240160
886.005 .0239968
886.670 .0239771
887.334 .0239567
887.998 .0239356
888.662 .0239141
889.325 .0238918
889.988 .0238689
890.650 .0238459
891.312 .0238228
891.974 .0238002
892.636 .0237784
893.297 .0237578
893.957 .0237386
894.618 .0237203
895.278 .0237028
895.937 .0236858
896.596 .0236691
897.255 .0236528
897.914 .0236366
898.572 .0236211
899.230 .0236064
899.887 .0235923
900.544 .0235785
901.201 .0235647
901.857 .0235508
902.513 .0235360
903.168 .0235199
903.823 .0235019
904.478 .0234820
905.132 .0234600
905.786 .0234369
906.440 .0234123
907.093 .0233866
907.746 .0233605
908.399 .0233338
909.051 .0233066
909.703 .0232784
910.354 .0232494
911.005 .0232200
911.656 .0231901
912.306 .0231600
912.956 .0231291
913.605 .0230982
914.254 .0230676
914.903 .0230377
915.551 .0230083
916.199 .0229802
916.847 .0229531
917.494 .0229276
918.141 .0229039
918.788 .0228818
919.434 .0228618
920.079 .0228440
920.725 .0228283
921.370 .0228140
922.014 .0228010
922.658 .0227890
923.302 .0227775
923.946 .0227670
924.589 .0227565
925.231 .0227462
925.873 .0227361
926.515 .0227264
927.157 .0227172
927.798 .0227086
928.439 .0227005
929.079 .0226927
929.719 .0226850
930.359 .0226772
930.998 .0226688
931.637 .0226599
932.275 .0226508
932.913 .0226417
933.551 .0226329
934.188 .0226250
934.825 .0226179
935.462 .0226126
936.098 .0226090
936.733 .0226068
937.369 .0226056
938.004 .0226056
938.638 .0226059
939.273 .0226065
939.907 .0226076
940.540 .0226097
941.173 .0226128
941.806 .0226177
942.438 .0226243
943.070 .0226326
943.702 .0226420
944.333 .0226520
944.964 .0226615
945.594 .0226707
946.224 .0226792
946.854 .0226869
947.483 .0226945
948.112 .0227027
948.741 .0227117
949.369 .0227219
949.996 .0227331
950.624 .0227454
951.251 .0227577
951.878 .0227697
952.504 .0227805
953.130 .0227899
953.755 .0227980
954.380 .0228049
955.005 .0228106
955.629 .0228158
956.253 .0228201
956.877 .0228237
957.500 .0228264
958.123 .0228287
958.746 .0228304
959.368 .0228316
959.990 .0228329
960.611 .0228344
961.232 .0228365
961.853 .0228400
962.473 .0228445
963.093 .0228500
963.712 .0228560
964.331 .0228618
964.950 .0228674
965.569 .0228729
966.187 .0228783
966.804 .0228838
967.422 .0228897
968.039 .0228964
968.655 .0229034
969.272 .0229103
969.887 .0229167
970.503 .0229220
971.118 .0229259
971.733 .0229275
972.347 .0229268
972.961 .0229241
973.575 .0229195
974.188 .0229132
974.801 .0229055
975.414 .0228966
976.026 .0228872
976.638 .0228770
977.250 .0228666
977.861 .0228559
978.472 .0228453
979.083 .0228344
979.693 .0228230
980.303 .0228113
980.912 .0227996
981.521 .0227873
982.130 .0227751
982.738 .0227632
983.346 .0227517
983.954 .0227403
984.562 .0227291
985.169 .0227179
985.775 .0227058
986.382 .0226927
986.988 .0226786
987.594 .0226632
988.199 .0226471
988.804 .0226303
989.409 .0226135
990.013 .0225972
990.617 .0225815
991.221 .0225659
991.824 .0225504
992.427 .0225354
993.030 .0225199
993.632 .0225041
994.234 .0224881
994.836 .0224723
995.438 .0224565
996.039 .0224411
996.640 .0224261
997.240 .0224121
997.840 .0223994
998.440 .0223877
999.040 .0223767
999.639 .0223662
1000.238 .0223550
1000.836 .0223424
1001.435 .0223281
1002.033 .0223117
1002.630 .0222923
1003.228 .0222711
1003.825 .0222482
1004.422 .0222245
1005.018 .0222017
1005.614 .0221805
1006.210 .0221617
1006.806 .0221455
1007.401 .0221311
1007.996 .0221173
1008.591 .0221040
1009.186 .0220909
1009.780 .0220772
1010.374 .0220632
1010.967 .0220495
1011.561 .0220363
1012.154 .0220245
1012.746 .0220143
1013.339 .0220058
1013.931 .0219987
1014.523 .0219925
1015.115 .0219857
1015.706 .0219783
1016.298 .0219699
1016.888 .0219604
1017.479 .0219501
1018.069 .0219389
1018.660 .0219268
1019.250 .0219142
1019.839 .0219011
1020.429 .0218882
1021.018 .0218754
1021.607 .0218633
1022.195 .0218517
1022.784 .0218414
1023.372 .0218319
1023.960 .0218233
1024.547 .0218156
1025.135 .0218082
1025.722 .0218000
1026.309 .0217916
1026.896 .0217825
1027.483 .0217730
1028.069 .0217637
1028.655 .0217545
1029.241 .0217457
1029.827 .0217383
1030.412 .0217317
1030.997 .0217260
1031.582 .0217207
1032.167 .0217158
1032.752 .0217103
1033.336 .0217044
1033.921 .0216982
1034.505 .0216919
1035.089 .0216858
1035.672 .0216807
1036.256 .0216761
1036.839 .0216719
1037.422 .0216680
1038.005 .0216648
1038.588 .0216621
1039.171 .0216596
1039.753 .0216570
1040.335 .0216546
1040.918 .0216514
1041.500 .0216474
1042.081 .0216423
1042.663 .0216363
1043.244 .0216294
1043.826 .0216221
1044.407 .0216151
1044.988 .0216091
1045.569 .0216045
1046.150 .0216011
1046.730 .0215990
1047.311 .0215979
1047.891 .0215967
1048.471 .0215950
1049.052 .0215936
1049.632 .0215928
1050.211 .0215927
1050.791 .0215949
1051.371 .0216003
1051.950 .0216081
1052.530 .0216179
1053.109 .0216289
1053.688 .0216410
1054.268 .0216526
1054.847 .0216632
1055.426 .0216735
1056.005 .0216836
1056.583 .0216939
1057.162 .0217039
1057.741 .0217147
1058.319 .0217273
1058.898 .0217400
1059.476 .0217516
1060.055 .0217617
1060.633 .0217705
1061.211 .0217765
1061.790 .0217798
1062.368 .0217822
1062.946 .0217837
1063.524 .0217848
1064.102 .0217867
1064.680 .0217896
1065.258 .0217943
1065.836 .0218008
1066.414 .0218091
1066.992 .0218194
1067.570 .0218327
1068.148 .0218469
1068.726 .0218628
1069.304 .0218807
1069.882 .0219017
1070.460 .0219233
1071.038 .0219465
1071.616 .0219711
1072.194 .0219957
1072.772 .0220219
1073.350 .0220471
1073.928 .0220717
1074.506 .0220959
1075.084 .0221178
1075.662 .0221391
1076.240 .0221580
1076.819 .0221752
1077.397 .0221899
1077.976 .0222033
1078.554 .0222156
1079.133 .0222256
1079.711 .0222342
1080.290 .0222419
1080.869 .0222486
1081.448 .0222553
1082.027 .0222620
1082.606 .0222693
1083.185 .0222800
1083.764 .0222927
1084.343 .0223076
1084.923 .0223248
1085.502 .0223433
1086.082 .0223637
1086.662 .0223856
1087.242 .0224080
1087.822 .0224314
1088.402 .0224557
1088.983 .0224821
1089.563 .0225088
1090.144 .0225369
1090.725 .0225666
1091.306 .0225962
1091.887 .0226265
1092.469 .0226560
1093.050 .0226848
1093.632 .0227149
1094.214 .0227430
1094.796 .0227711
1095.379 .0228001
1095.961 .0228287
1096.544 .0228583
1097.127 .0228870
1097.710 .0229155
1098.294 .0229436
1098.877 .0229710
1099.461 .0229961
1100.046 .0230197
1100.630 .0230437
1101.215 .0230693
1101.800 .0230956
1102.385 .0231252
1102.970 .0231558
1103.556 .0231852
1104.142 .0232163
1104.728 .0232445
1105.315 .0232691
1105.902 .0232932
1106.489 .0233157
1107.077 .0233389
1107.664 .0233642
1108.253 .0233938
1108.841 .0234269
1109.430 .0234648
1110.019 .0235055
1110.609 .0235443
1111.198 .0235829
1111.789 .0236222
1112.379 .0236594
1112.970 .0236965
1113.561 .0237356
1114.153 .0237755
1114.745 .0238170
1115.338 .0238598
1115.931 .0239012
1116.524 .0239402
1117.117 .0239776
1117.712 .0240108
1118.306 .0240392
1118.901 .0240659
1119.496 .0240916
1120.092 .0241174
1120.689 .0241444
1121.285 .0241696
1121.882 .0241916
1122.480 .0242106
1123.078 .0242299
1123.677 .0242468
1124.276 .0242675
1124.875 .0242952
1125.476 .0243295
1126.076 .0243721
1126.677 .0244216
1127.279 .0244741
1127.881 .0245263
1128.484 .0245732
1129.087 .0246123
1129.691 .0246437
1130.295 .0246715
1130.900 .0247005
1131.505 .0247354
1132.111 .0247787
1132.718 .0248330
1133.325 .0248926
1133.933 .0249592
1134.541 .0250259
1135.150 .0250891
1135.760 .0251460
1136.370 .0251958
1136.981 .0252444
1137.592 .0252935
1138.204 .0253508
1138.817 .0254168
1139.431 .0254923
1140.045 .0255798
1140.660 .0256680
1141.275 .0257544
1141.891 .0258684
1142.508 .0259709
1143.126 .0260686
1143.744 .0259972
1144.363 .0260086
1144.983 .0270320
