Measurement Sequence started on: 15-12-46-377
Integration time: 28
Scans to Average: 2 
>>>>>Begin Spectral Data<<<<<
432.689 .0000100
433.621 .0000100
434.552 .0000100
435.482 .0000100
436.410 .0000100
437.337 .0000100
438.262 .0283302
439.187 .0601450
440.110 .0996508
441.031 .1442705
441.952 .1876217
442.871 .2217687
443.789 .2405222
444.705 .2417057
445.621 .2279236
446.535 .2048247
447.447 .1785992
448.359 .1385416
449.269 .1184733
450.178 .1057685
451.086 .0967305
451.993 .0898364
452.898 .0844302
453.803 .0800477
454.706 .0764692
455.608 .0734520
456.508 .0708809
457.408 .0686794
458.306 .0667586
459.204 .0650597
460.100 .0635518
460.995 .0622125
461.888 .0610169
462.781 .0599292
463.673 .0589425
464.563 .0580474
465.452 .0572103
466.340 .0564208
467.228 .0556770
468.114 .0549652
468.999 .0542908
469.882 .0536489
470.765 .0530548
471.647 .0525078
472.528 .0520068
473.407 .0515544
474.286 .0511444
475.163 .0507786
476.040 .0504544
476.915 .0501557
477.790 .0498809
478.663 .0496250
479.535 .0493832
480.407 .0491618
481.277 .0489632
482.147 .0487925
483.015 .0486446
483.883 .0485255
484.749 .0484325
485.615 .0483557
486.479 .0482942
487.343 .0482514
488.206 .0482218
489.067 .0482013
489.928 .0481863
490.788 .0481781
491.647 .0481871
492.505 .0482154
493.362 .0482637
494.218 .0483262
495.073 .0484147
495.928 .0485268
496.781 .0486542
497.634 .0488138
498.486 .0490101
499.337 .0492372
500.187 .0495031
501.036 .0498087
501.884 .0501494
502.731 .0505260
503.578 .0509440
504.424 .0513922
505.268 .0518758
506.113 .0523891
506.956 .0529442
507.798 .0535505
508.640 .0542315
509.480 .0549747
510.320 .0557944
511.160 .0567104
511.998 .0577153
512.836 .0588064
513.672 .0600037
514.508 .0613090
515.344 .0627321
516.178 .0642926
517.012 .0660194
517.845 .0679630
518.677 .0701946
519.508 .0727235
520.339 .0756347
521.169 .0789268
521.998 .0826065
522.826 .0866946
523.654 .0912185
524.481 .0961563
525.307 .1015474
526.133 .1073733
526.958 .1135627
527.782 .1200595
528.605 .1267556
529.428 .1334751
530.250 .1397869
531.072 .1454430
531.892 .1500447
532.712 .1533572
533.532 .1552439
534.350 .1554768
535.168 .1540734
535.986 .1511677
536.802 .1468661
537.618 .1414182
538.434 .1350656
539.249 .1282139
540.063 .1210555
540.876 .1139226
541.689 .1069894
542.501 .1004724
543.313 .0945533
544.124 .0892823
544.934 .0846164
545.744 .0805415
546.553 .0769572
547.361 .0738110
548.169 .0710631
548.976 .0686191
549.783 .0664290
550.589 .0644849
551.395 .0627287
552.200 .0611668
553.004 .0597617
553.808 .0585024
554.611 .0573663
555.414 .0563487
556.216 .0554062
557.018 .0545387
557.819 .0537087
558.619 .0529017
559.419 .0521169
560.218 .0513568
561.017 .0506092
561.815 .0498786
562.613 .0491562
563.410 .0484479
564.207 .0477543
565.003 .0470751
565.799 .0463971
566.594 .0457295
567.388 .0450862
568.182 .0444640
568.976 .0438611
569.769 .0432865
570.562 .0427337
571.354 .0422096
572.145 .0417075
572.936 .0412172
573.727 .0407406
574.517 .0402743
575.307 .0398186
576.096 .0393760
576.885 .0389478
577.673 .0385437
578.461 .0381649
579.248 .0378103
580.035 .0374791
580.821 .0371644
581.607 .0368651
582.392 .0365834
583.177 .0363174
583.962 .0360678
584.746 .0358385
585.529 .0356320
586.313 .0354485
587.095 .0352847
587.878 .0351407
588.660 .0350128
589.441 .0348983
590.222 .0347931
591.003 .0346966
591.783 .0346076
592.563 .0345265
593.342 .0344519
594.121 .0343830
594.899 .0343209
595.678 .0342635
596.455 .0342098
597.233 .0341595
598.009 .0341108
598.786 .0340631
599.562 .0340148
600.338 .0339665
601.113 .0339179
601.888 .0338688
602.663 .0338189
603.437 .0337694
604.211 .0337198
604.984 .0336706
605.757 .0336221
606.530 .0335745
607.302 .0335278
608.074 .0334820
608.845 .0334367
609.616 .0333922
610.387 .0333493
611.158 .0333092
611.928 .0332707
612.697 .0332355
613.467 .0332034
614.236 .0331744
615.004 .0331482
615.773 .0331253
616.541 .0331046
617.308 .0330854
618.076 .0330678
618.843 .0330512
619.609 .0330359
620.375 .0330225
621.141 .0330102
621.907 .0329995
622.672 .0329900
623.437 .0329812
624.202 .0329711
624.966 .0329608
625.730 .0329489
626.493 .0329345
627.257 .0329180
628.020 .0328986
628.782 .0328765
629.545 .0328517
630.307 .0328244
631.068 .0327945
631.830 .0327623
632.591 .0327276
633.352 .0326905
634.112 .0326512
634.872 .0326104
635.632 .0325681
636.392 .0325252
637.151 .0324820
637.910 .0324383
638.668 .0323950
639.427 .0323524
640.185 .0323104
640.943 .0322699
641.700 .0322311
642.457 .0321947
643.214 .0321607
643.971 .0321286
644.727 .0320990
645.483 .0320717
646.239 .0320468
646.994 .0320236
647.750 .0320020
648.505 .0319817
649.259 .0319611
650.014 .0319401
650.768 .0319186
651.521 .0318956
652.275 .0318709
653.028 .0318444
653.781 .0318165
654.534 .0317875
655.286 .0317573
656.039 .0317269
656.791 .0316965
657.542 .0316657
658.294 .0316344
659.045 .0316018
659.796 .0315688
660.546 .0315347
661.297 .0314999
662.047 .0314652
662.796 .0314311
663.546 .0313979
664.295 .0313660
665.044 .0313363
665.793 .0313092
666.542 .0312843
667.290 .0312611
668.038 .0312393
668.786 .0312186
669.533 .0311985
670.281 .0311788
671.028 .0311596
671.774 .0311419
672.521 .0311256
673.267 .0311108
674.013 .0310979
674.759 .0310863
675.505 .0310758
676.250 .0310652
676.995 .0310543
677.740 .0310421
678.484 .0310285
679.229 .0310142
679.973 .0309988
680.717 .0309834
681.460 .0309681
682.204 .0309535
682.947 .0309400
683.690 .0309277
684.433 .0309151
685.175 .0309019
685.917 .0308884
686.659 .0308739
687.401 .0308585
688.142 .0308430
688.884 .0308273
689.625 .0308117
690.365 .0307964
691.106 .0307809
691.846 .0307650
692.586 .0307492
693.326 .0307323
694.066 .0307142
694.805 .0306948
695.545 .0306739
696.284 .0306513
697.022 .0306281
697.761 .0306048
698.499 .0305809
699.237 .0305571
699.975 .0305338
700.713 .0305108
701.450 .0304885
702.187 .0304663
702.924 .0304446
703.661 .0304227
704.397 .0303999
705.133 .0303759
705.869 .0303511
706.605 .0303252
707.341 .0302987
708.076 .0302718
708.811 .0302449
709.546 .0302181
710.281 .0301914
711.015 .0301647
711.749 .0301371
712.483 .0301088
713.217 .0300793
713.950 .0300485
714.684 .0300176
715.417 .0299863
716.150 .0299555
716.882 .0299263
717.615 .0298987
718.347 .0298732
719.079 .0298493
719.811 .0298265
720.542 .0298040
721.273 .0297814
722.005 .0297581
722.735 .0297339
723.466 .0297096
724.196 .0296854
724.927 .0296613
725.656 .0296378
726.386 .0296150
727.116 .0295927
727.845 .0295712
728.574 .0295493
729.303 .0295269
730.031 .0295040
730.760 .0294808
731.488 .0294572
732.216 .0294345
732.944 .0294131
733.671 .0293934
734.398 .0293753
735.125 .0293592
735.852 .0293441
736.579 .0293300
737.305 .0293167
738.031 .0293037
738.757 .0292911
739.483 .0292791
740.208 .0292675
740.933 .0292571
741.658 .0292479
742.383 .0292399
743.108 .0292328
743.832 .0292268
744.556 .0292212
745.280 .0292157
746.004 .0292105
746.727 .0292053
747.450 .0292003
748.173 .0291955
748.896 .0291910
749.618 .0291869
750.340 .0291828
751.062 .0291789
751.784 .0291751
752.506 .0291718
753.227 .0291684
753.948 .0291650
754.669 .0291614
755.389 .0291573
756.110 .0291523
756.830 .0291463
757.550 .0291395
758.269 .0291315
758.989 .0291222
759.708 .0291115
760.427 .0291002
761.146 .0290883
761.864 .0290754
762.582 .0290627
763.300 .0290498
764.018 .0290366
764.736 .0290232
765.453 .0290102
766.170 .0289978
766.887 .0289860
767.603 .0289743
768.320 .0289629
769.036 .0289520
769.751 .0289416
770.467 .0289313
771.182 .0289215
771.897 .0289126
772.612 .0289034
773.327 .0288943
774.041 .0288858
774.755 .0288772
775.469 .0288684
776.183 .0288590
776.896 .0288494
777.609 .0288391
778.322 .0288279
779.035 .0288164
779.747 .0288048
780.459 .0287934
781.171 .0287818
781.882 .0287698
782.594 .0287581
783.305 .0287463
784.016 .0287343
784.726 .0287219
785.436 .0287097
786.147 .0286971
786.856 .0286842
787.566 .0286711
788.275 .0286585
788.984 .0286456
789.693 .0286326
790.401 .0286193
791.110 .0286050
791.818 .0285898
792.525 .0285733
793.233 .0285559
793.940 .0285377
794.647 .0285185
795.353 .0284986
796.060 .0284778
796.766 .0284568
797.472 .0284350
798.177 .0284121
798.883 .0283885
799.588 .0283643
800.292 .0283393
800.997 .0283138
801.701 .0282880
802.405 .0282623
803.109 .0282368
803.812 .0282117
804.515 .0281866
805.218 .0281616
805.921 .0281363
806.623 .0281107
807.325 .0280852
808.027 .0280604
808.728 .0280357
809.429 .0280119
810.130 .0279891
810.831 .0279668
811.531 .0279447
812.231 .0279226
812.931 .0278999
813.630 .0278766
814.330 .0278523
815.029 .0278271
815.727 .0278014
816.426 .0277760
817.124 .0277510
817.821 .0277266
818.519 .0277036
819.216 .0276819
819.913 .0276615
820.609 .0276428
821.306 .0276252
822.002 .0276091
822.697 .0275943
823.393 .0275811
824.088 .0275691
824.783 .0275584
825.477 .0275486
826.171 .0275403
826.865 .0275338
827.559 .0275291
828.252 .0275262
828.945 .0275252
829.638 .0275255
830.330 .0275270
831.023 .0275287
831.714 .0275301
832.406 .0275310
833.097 .0275311
833.788 .0275303
834.479 .0275285
835.169 .0275263
835.859 .0275241
836.548 .0275222
837.238 .0275207
837.927 .0275195
838.615 .0275184
839.304 .0275176
839.992 .0275167
840.680 .0275158
841.367 .0275152
842.054 .0275148
842.741 .0275148
843.428 .0275153
844.114 .0275166
844.800 .0275188
845.485 .0275216
846.170 .0275251
846.855 .0275289
847.540 .0275327
848.224 .0275368
848.908 .0275411
849.592 .0275449
850.275 .0275482
850.958 .0275503
851.641 .0275510
852.323 .0275503
853.005 .0275476
853.687 .0275429
854.368 .0275362
855.049 .0275285
855.730 .0275195
856.410 .0275097
857.090 .0275000
857.769 .0274904
858.449 .0274812
859.128 .0274718
859.806 .0274617
860.485 .0274513
861.163 .0274402
861.840 .0274288
862.518 .0274169
863.195 .0274050
863.871 .0273934
864.548 .0273823
865.224 .0273715
865.899 .0273614
866.574 .0273516
867.249 .0273425
867.924 .0273339
868.598 .0273255
869.272 .0273175
869.946 .0273103
870.619 .0273039
871.292 .0272987
871.964 .0272943
872.636 .0272906
873.308 .0272869
873.979 .0272838
874.651 .0272806
875.321 .0272774
875.992 .0272746
876.662 .0272721
877.331 .0272699
878.001 .0272679
878.670 .0272653
879.338 .0272620
880.007 .0272580
880.675 .0272530
881.342 .0272460
882.009 .0272379
882.676 .0272284
883.343 .0272180
884.009 .0272073
884.675 .0271968
885.340 .0271863
886.005 .0271759
886.670 .0271657
887.334 .0271556
887.998 .0271457
888.662 .0271364
889.325 .0271270
889.988 .0271183
890.650 .0271100
891.312 .0271020
891.974 .0270939
892.636 .0270863
893.297 .0270790
893.957 .0270711
894.618 .0270627
895.278 .0270537
895.937 .0270437
896.596 .0270335
897.255 .0270224
897.914 .0270105
898.572 .0269973
899.230 .0269832
899.887 .0269670
900.544 .0269492
901.201 .0269294
901.857 .0269076
902.513 .0268839
903.168 .0268586
903.823 .0268319
904.478 .0268039
905.132 .0267755
905.786 .0267467
906.440 .0267173
907.093 .0266876
907.746 .0266571
908.399 .0266265
909.051 .0265958
909.703 .0265649
910.354 .0265339
911.005 .0265031
911.656 .0264724
912.306 .0264415
912.956 .0264108
913.605 .0263799
914.254 .0263490
914.903 .0263176
915.551 .0262860
916.199 .0262543
916.847 .0262229
917.494 .0261918
918.141 .0261611
918.788 .0261309
919.434 .0261010
920.079 .0260709
920.725 .0260409
921.370 .0260107
922.014 .0259806
922.658 .0259509
923.302 .0259214
923.946 .0258926
924.589 .0258647
925.231 .0258379
925.873 .0258124
926.515 .0257876
927.157 .0257637
927.798 .0257398
928.439 .0257157
929.079 .0256915
929.719 .0256669
930.359 .0256421
930.998 .0256176
931.637 .0255935
932.275 .0255701
932.913 .0255477
933.551 .0255262
934.188 .0255061
934.825 .0254872
935.462 .0254694
936.098 .0254520
936.733 .0254356
937.369 .0254205
938.004 .0254061
938.638 .0253932
939.273 .0253819
939.907 .0253721
940.540 .0253639
941.173 .0253569
941.806 .0253515
942.438 .0253475
943.070 .0253448
943.702 .0253429
944.333 .0253422
944.964 .0253422
945.594 .0253427
946.224 .0253437
946.854 .0253455
947.483 .0253475
948.112 .0253495
948.741 .0253514
949.369 .0253534
949.996 .0253556
950.624 .0253581
951.251 .0253609
951.878 .0253647
952.504 .0253687
953.130 .0253733
953.755 .0253780
954.380 .0253828
955.005 .0253869
955.629 .0253907
956.253 .0253935
956.877 .0253960
957.500 .0253981
958.123 .0254003
958.746 .0254027
959.368 .0254059
959.990 .0254095
960.611 .0254137
961.232 .0254180
961.853 .0254231
962.473 .0254278
963.093 .0254326
963.712 .0254374
964.331 .0254420
964.950 .0254469
965.569 .0254521
966.187 .0254568
966.804 .0254617
967.422 .0254662
968.039 .0254706
968.655 .0254746
969.272 .0254786
969.887 .0254822
970.503 .0254853
971.118 .0254881
971.733 .0254907
972.347 .0254931
972.961 .0254962
973.575 .0254996
974.188 .0255030
974.801 .0255065
975.414 .0255096
976.026 .0255125
976.638 .0255151
977.250 .0255177
977.861 .0255200
978.472 .0255222
979.083 .0255247
979.693 .0255273
980.303 .0255303
980.912 .0255336
981.521 .0255368
982.130 .0255391
982.738 .0255404
983.346 .0255402
983.954 .0255385
984.562 .0255359
985.169 .0255318
985.775 .0255267
986.382 .0255211
986.988 .0255154
987.594 .0255098
988.199 .0255049
988.804 .0255010
989.409 .0254980
990.013 .0254963
990.617 .0254956
991.221 .0254954
991.824 .0254964
992.427 .0254984
993.030 .0255010
993.632 .0255042
994.234 .0255081
994.836 .0255121
995.438 .0255169
996.039 .0255214
996.640 .0255259
997.240 .0255299
997.840 .0255336
998.440 .0255365
999.040 .0255382
999.639 .0255389
1000.238 .0255376
1000.836 .0255348
1001.435 .0255311
1002.033 .0255259
1002.630 .0255213
1003.228 .0255168
1003.825 .0255139
1004.422 .0255127
1005.018 .0255131
1005.614 .0255154
1006.210 .0255192
1006.806 .0255244
1007.401 .0255307
1007.996 .0255372
1008.591 .0255441
1009.186 .0255511
1009.780 .0255583
1010.374 .0255650
1010.967 .0255707
1011.561 .0255755
1012.154 .0255790
1012.746 .0255798
1013.339 .0255786
1013.931 .0255742
1014.523 .0255677
1015.115 .0255589
1015.706 .0255476
1016.298 .0255343
1016.888 .0255190
1017.479 .0255023
1018.069 .0254843
1018.660 .0254652
1019.250 .0254465
1019.839 .0254276
1020.429 .0254101
1021.018 .0253943
1021.607 .0253808
1022.195 .0253694
1022.784 .0253613
1023.372 .0253561
1023.960 .0253537
1024.547 .0253529
1025.135 .0253537
1025.722 .0253553
1026.309 .0253577
1026.896 .0253605
1027.483 .0253635
1028.069 .0253670
1028.655 .0253713
1029.241 .0253757
1029.827 .0253801
1030.412 .0253846
1030.997 .0253888
1031.582 .0253915
1032.167 .0253926
1032.752 .0253910
1033.336 .0253871
1033.921 .0253812
1034.505 .0253734
1035.089 .0253648
1035.672 .0253561
1036.256 .0253480
1036.839 .0253397
1037.422 .0253310
1038.005 .0253224
1038.588 .0253129
1039.171 .0253027
1039.753 .0252919
1040.335 .0252802
1040.918 .0252683
1041.500 .0252563
1042.081 .0252446
1042.663 .0252329
1043.244 .0252207
1043.826 .0252085
1044.407 .0251947
1044.988 .0251803
1045.569 .0251643
1046.150 .0251470
1046.730 .0251296
1047.311 .0251127
1047.891 .0250958
1048.471 .0250794
1049.052 .0250630
1049.632 .0250463
1050.211 .0250295
1050.791 .0250130
1051.371 .0249960
1051.950 .0249795
1052.530 .0249634
1053.109 .0249476
1053.688 .0249311
1054.268 .0249153
1054.847 .0248987
1055.426 .0248829
1056.005 .0248680
1056.583 .0248541
1057.162 .0248410
1057.741 .0248300
1058.319 .0248205
1058.898 .0248122
1059.476 .0248040
1060.055 .0247952
1060.633 .0247838
1061.211 .0247715
1061.790 .0247575
1062.368 .0247429
1062.946 .0247293
1063.524 .0247182
1064.102 .0247093
1064.680 .0247034
1065.258 .0246979
1065.836 .0246933
1066.414 .0246875
1066.992 .0246816
1067.570 .0246739
1068.148 .0246645
1068.726 .0246543
1069.304 .0246446
1069.882 .0246359
1070.460 .0246294
1071.038 .0246239
1071.616 .0246201
1072.194 .0246173
1072.772 .0246148
1073.350 .0246119
1073.928 .0246089
1074.506 .0246066
1075.084 .0246052
1075.662 .0246041
1076.240 .0246054
1076.819 .0246072
1077.397 .0246100
1077.976 .0246142
1078.554 .0246184
1079.133 .0246233
1079.711 .0246275
1080.290 .0246313
1080.869 .0246346
1081.448 .0246366
1082.027 .0246388
1082.606 .0246399
1083.185 .0246424
1083.764 .0246457
1084.343 .0246500
1084.923 .0246568
1085.502 .0246646
1086.082 .0246724
1086.662 .0246806
1087.242 .0246880
1087.822 .0246944
1088.402 .0247003
1088.983 .0247056
1089.563 .0247109
1090.144 .0247166
1090.725 .0247236
1091.306 .0247304
1091.887 .0247373
1092.469 .0247436
1093.050 .0247478
1093.632 .0247512
1094.214 .0247547
1094.796 .0247578
1095.379 .0247638
1095.961 .0247730
1096.544 .0247851
1097.127 .0247993
1097.710 .0248173
1098.294 .0248367
1098.877 .0248585
1099.461 .0248832
1100.046 .0249106
1100.630 .0249397
1101.215 .0249717
1101.800 .0250040
1102.385 .0250382
1102.970 .0250717
1103.556 .0251033
1104.142 .0251297
1104.728 .0251534
1105.315 .0251717
1105.902 .0251852
1106.489 .0251968
1107.077 .0252092
1107.664 .0252212
1108.253 .0252358
1108.841 .0252517
1109.430 .0252725
1110.019 .0252952
1110.609 .0253239
1111.198 .0253567
1111.789 .0253951
1112.379 .0254386
1112.970 .0254882
1113.561 .0255440
1114.153 .0256084
1114.745 .0256785
1115.338 .0257543
1115.931 .0258351
1116.524 .0259201
1117.117 .0260066
1117.712 .0260953
1118.306 .0261839
1118.901 .0262708
1119.496 .0263502
1120.092 .0264241
1120.689 .0264889
1121.285 .0265450
1121.882 .0265923
1122.480 .0266319
1123.078 .0266688
1123.677 .0267053
1124.276 .0267402
1124.875 .0267779
1125.476 .0268193
1126.076 .0268669
1126.677 .0269176
1127.279 .0269692
1127.881 .0270240
1128.484 .0270830
1129.087 .0271461
1129.691 .0272107
1130.295 .0272790
1130.900 .0273534
1131.505 .0274348
1132.111 .0275219
1132.718 .0276181
1133.325 .0277181
1133.933 .0278246
1134.541 .0279366
1135.150 .0280521
1135.760 .0281737
1136.370 .0282995
1136.981 .0284337
1137.592 .0285778
1138.204 .0287272
1138.817 .0288912
1139.431 .0290681
1140.045 .0292665
1140.660 .0294827
1141.275 .0297175
1141.891 .0299741
1142.508 .0301956
1143.126 .0305324
1143.744 .0308152
1144.363 .0311611
1144.983 .0315128
