Measurement Sequence started on: 15-12-46-377
Integration time: 28
Scans to Average: 2 
>>>>>Begin Spectral Data<<<<<
432.689 .0000100
433.621 .0000100
434.552 .0000100
435.482 .0000100
436.410 .0000100
437.337 .0000100
438.262 .0280840
439.187 .0594907
440.110 .0985554
441.031 .1425932
441.952 .1853067
442.871 .2189027
443.789 .2372598
444.705 .2382828
445.621 .2245544
446.535 .2016946
447.447 .1758135
448.359 .1362665
449.269 .1166114
450.178 .1041054
451.086 .0952241
451.993 .0884045
452.898 .0829579
453.803 .0784788
454.706 .0747544
455.608 .0715778
456.508 .0688341
457.408 .0664727
458.306 .0643870
459.204 .0625265
460.100 .0608722
460.995 .0593964
461.888 .0580688
462.781 .0568717
463.673 .0557887
464.563 .0548042
465.452 .0538984
466.340 .0530480
467.228 .0522430
468.114 .0514948
468.999 .0507961
469.882 .0501424
470.765 .0495332
471.647 .0489717
472.528 .0484571
473.407 .0479962
474.286 .0475815
475.163 .0472102
476.040 .0468862
476.915 .0466005
477.790 .0463503
478.663 .0461329
479.535 .0459437
480.407 .0457836
481.277 .0456529
482.147 .0455471
483.015 .0454638
483.883 .0454062
484.749 .0453708
485.615 .0453537
486.479 .0453598
487.343 .0453826
488.206 .0454250
489.067 .0454808
489.928 .0455458
490.788 .0456114
491.647 .0456882
492.505 .0457695
493.362 .0458625
494.218 .0459705
495.073 .0461052
495.928 .0462634
496.781 .0464481
497.634 .0466636
498.486 .0469117
499.337 .0471927
500.187 .0475126
501.036 .0478629
501.884 .0482462
502.731 .0486472
503.578 .0490674
504.424 .0495029
505.268 .0499496
506.113 .0504095
506.956 .0508890
507.798 .0514062
508.640 .0519667
509.480 .0525764
510.320 .0532580
511.160 .0540237
511.998 .0548804
512.836 .0558181
513.672 .0568368
514.508 .0579606
515.344 .0591742
516.178 .0605120
517.012 .0620110
517.845 .0637507
518.677 .0657530
519.508 .0680675
520.339 .0707194
521.169 .0737642
521.998 .0772106
522.826 .0810852
523.654 .0853859
524.481 .0901492
525.307 .0954478
526.133 .1012690
526.958 .1076036
527.782 .1144393
528.605 .1215689
529.428 .1288979
530.250 .1358759
531.072 .1422832
531.892 .1476437
532.712 .1517353
533.532 .1543254
534.350 .1552355
535.168 .1544390
535.986 .1520344
536.802 .1482267
537.618 .1432903
538.434 .1373926
539.249 .1309583
540.063 .1241237
540.876 .1172559
541.689 .1104664
542.501 .1039727
543.313 .0979152
544.124 .0924070
544.934 .0874284
545.744 .0829308
546.553 .0789158
547.361 .0753924
548.169 .0723203
548.976 .0696038
549.783 .0671887
550.589 .0650397
551.395 .0630843
552.200 .0612860
553.004 .0596129
553.808 .0580329
554.611 .0565522
555.414 .0551728
556.216 .0538815
557.018 .0527268
557.819 .0517041
558.619 .0507852
559.419 .0499693
560.218 .0492395
561.017 .0485494
561.815 .0478783
562.613 .0472138
563.410 .0465328
564.207 .0458326
565.003 .0451324
565.799 .0444391
566.594 .0437588
567.388 .0431202
568.182 .0425174
568.976 .0419518
569.769 .0414275
570.562 .0409211
571.354 .0404280
572.145 .0399472
572.936 .0394671
573.727 .0389825
574.517 .0385048
575.307 .0380435
576.096 .0376004
576.885 .0371855
577.673 .0368032
578.461 .0364536
579.248 .0361338
580.035 .0358394
580.821 .0355666
581.607 .0353097
582.392 .0350631
583.177 .0348220
583.962 .0345939
584.746 .0343792
585.529 .0341807
586.313 .0339989
587.095 .0338364
587.878 .0336932
588.660 .0335668
589.441 .0334545
590.222 .0333536
591.003 .0332627
591.783 .0331787
592.563 .0330976
593.342 .0330220
594.121 .0329477
594.899 .0328777
595.678 .0328103
596.455 .0327476
597.233 .0326886
598.009 .0326345
598.786 .0325845
599.562 .0325383
600.338 .0324943
601.113 .0324518
601.888 .0324091
602.663 .0323675
603.437 .0323253
604.211 .0322836
604.984 .0322420
605.757 .0322026
606.530 .0321643
607.302 .0321288
608.074 .0320948
608.845 .0320634
609.616 .0320328
610.387 .0320033
611.158 .0319746
611.928 .0319465
612.697 .0319186
613.467 .0318924
614.236 .0318674
615.004 .0318443
615.773 .0318232
616.541 .0318048
617.308 .0317878
618.076 .0317726
618.843 .0317579
619.609 .0317434
620.375 .0317282
621.141 .0317126
621.907 .0316956
622.672 .0316786
623.437 .0316612
624.202 .0316426
624.966 .0316233
625.730 .0316038
626.493 .0315823
627.257 .0315592
628.020 .0315341
628.782 .0315066
629.545 .0314763
630.307 .0314433
631.068 .0314083
631.830 .0313722
632.591 .0313354
633.352 .0312991
634.112 .0312634
634.872 .0312291
635.632 .0311962
636.392 .0311636
637.151 .0311320
637.910 .0311005
638.668 .0310697
639.427 .0310393
640.185 .0310100
640.943 .0309821
641.700 .0309558
642.457 .0309317
643.214 .0309100
643.971 .0308894
644.727 .0308699
645.483 .0308504
646.239 .0308311
646.994 .0308108
647.750 .0307904
648.505 .0307696
649.259 .0307497
650.014 .0307302
650.768 .0307111
651.521 .0306916
652.275 .0306723
653.028 .0306524
653.781 .0306310
654.534 .0306076
655.286 .0305823
656.039 .0305548
656.791 .0305263
657.542 .0304961
658.294 .0304656
659.045 .0304350
659.796 .0304051
660.546 .0303755
661.297 .0303460
662.047 .0303165
662.796 .0302868
663.546 .0302571
664.295 .0302275
665.044 .0301979
665.793 .0301693
666.542 .0301416
667.290 .0301156
668.038 .0300915
668.786 .0300684
669.533 .0300461
670.281 .0300246
671.028 .0300029
671.774 .0299809
672.521 .0299585
673.267 .0299356
674.013 .0299132
674.759 .0298911
675.505 .0298700
676.250 .0298500
676.995 .0298315
677.740 .0298147
678.484 .0297984
679.229 .0297830
679.973 .0297674
680.717 .0297517
681.460 .0297358
682.204 .0297193
682.947 .0297029
683.690 .0296867
684.433 .0296708
685.175 .0296552
685.917 .0296401
686.659 .0296254
687.401 .0296108
688.142 .0295962
688.884 .0295812
689.625 .0295658
690.365 .0295497
691.106 .0295328
691.846 .0295154
692.586 .0294976
693.326 .0294796
694.066 .0294619
694.805 .0294452
695.545 .0294292
696.284 .0294144
697.022 .0294004
697.761 .0293867
698.499 .0293730
699.237 .0293589
699.975 .0293441
700.713 .0293288
701.450 .0293129
702.187 .0292964
702.924 .0292797
703.661 .0292635
704.397 .0292477
705.133 .0292329
705.869 .0292191
706.605 .0292062
707.341 .0291933
708.076 .0291807
708.811 .0291678
709.546 .0291544
710.281 .0291403
711.015 .0291257
711.749 .0291101
712.483 .0290937
713.217 .0290771
713.950 .0290604
714.684 .0290438
715.417 .0290275
716.150 .0290110
716.882 .0289946
717.615 .0289782
718.347 .0289611
719.079 .0289432
719.811 .0289249
720.542 .0289061
721.273 .0288863
722.005 .0288664
722.735 .0288471
723.466 .0288280
724.196 .0288099
724.927 .0287922
725.656 .0287746
726.386 .0287570
727.116 .0287392
727.845 .0287209
728.574 .0287021
729.303 .0286832
730.031 .0286638
730.760 .0286444
731.488 .0286257
732.216 .0286076
732.944 .0285903
733.671 .0285744
734.398 .0285597
735.125 .0285460
735.852 .0285337
736.579 .0285221
737.305 .0285115
738.031 .0285016
738.757 .0284922
739.483 .0284823
740.208 .0284719
740.933 .0284608
741.658 .0284484
742.383 .0284346
743.108 .0284199
743.832 .0284042
744.556 .0283880
745.280 .0283712
746.004 .0283536
746.727 .0283351
747.450 .0283158
748.173 .0282947
748.896 .0282723
749.618 .0282486
750.340 .0282238
751.062 .0281987
751.784 .0281744
752.506 .0281512
753.227 .0281299
753.948 .0281106
754.669 .0280931
755.389 .0280766
756.110 .0280612
756.830 .0280458
757.550 .0280303
758.269 .0280147
758.989 .0279988
759.708 .0279824
760.427 .0279665
761.146 .0279508
761.864 .0279356
762.582 .0279208
763.300 .0279066
764.018 .0278922
764.736 .0278775
765.453 .0278626
766.170 .0278469
766.887 .0278304
767.603 .0278135
768.320 .0277956
769.036 .0277773
769.751 .0277592
770.467 .0277410
771.182 .0277232
771.897 .0277059
772.612 .0276895
773.327 .0276736
774.041 .0276585
774.755 .0276435
775.469 .0276285
776.183 .0276140
776.896 .0275997
777.609 .0275855
778.322 .0275727
779.035 .0275612
779.747 .0275515
780.459 .0275433
781.171 .0275367
781.882 .0275311
782.594 .0275268
783.305 .0275234
784.016 .0275206
784.726 .0275182
785.436 .0275167
786.147 .0275153
786.856 .0275151
787.566 .0275154
788.275 .0275162
788.984 .0275174
789.693 .0275184
790.401 .0275182
791.110 .0275168
791.818 .0275142
792.525 .0275105
793.233 .0275056
793.940 .0275000
794.647 .0274935
795.353 .0274866
796.060 .0274798
796.766 .0274726
797.472 .0274653
798.177 .0274583
798.883 .0274511
799.588 .0274438
800.292 .0274371
800.997 .0274308
801.701 .0274253
802.405 .0274211
803.109 .0274179
803.812 .0274158
804.515 .0274147
805.218 .0274139
805.921 .0274129
806.623 .0274119
807.325 .0274108
808.027 .0274093
808.728 .0274075
809.429 .0274052
810.130 .0274023
810.831 .0273988
811.531 .0273939
812.231 .0273872
812.931 .0273790
813.630 .0273688
814.330 .0273567
815.029 .0273434
815.727 .0273294
816.426 .0273154
817.124 .0273017
817.821 .0272883
818.519 .0272755
819.216 .0272628
819.913 .0272502
820.609 .0272375
821.306 .0272251
822.002 .0272129
822.697 .0272017
823.393 .0271918
824.088 .0271834
824.783 .0271765
825.477 .0271710
826.171 .0271668
826.865 .0271637
827.559 .0271614
828.252 .0271592
828.945 .0271575
829.638 .0271562
830.330 .0271550
831.023 .0271541
831.714 .0271538
832.406 .0271533
833.097 .0271526
833.788 .0271514
834.479 .0271492
835.169 .0271463
835.859 .0271432
836.548 .0271394
837.238 .0271355
837.927 .0271315
838.615 .0271274
839.304 .0271226
839.992 .0271176
840.680 .0271119
841.367 .0271053
842.054 .0270983
842.741 .0270907
843.428 .0270826
844.114 .0270750
844.800 .0270675
845.485 .0270600
846.170 .0270521
846.855 .0270435
847.540 .0270333
848.224 .0270221
848.908 .0270093
849.592 .0269950
850.275 .0269797
850.958 .0269637
851.641 .0269466
852.323 .0269289
853.005 .0269107
853.687 .0268916
854.368 .0268712
855.049 .0268496
855.730 .0268266
856.410 .0268021
857.090 .0267767
857.769 .0267506
858.449 .0267240
859.128 .0266978
859.806 .0266716
860.485 .0266460
861.163 .0266209
861.840 .0265961
862.518 .0265713
863.195 .0265468
863.871 .0265225
864.548 .0264983
865.224 .0264742
865.899 .0264508
866.574 .0264278
867.249 .0264053
867.924 .0263830
868.598 .0263612
869.272 .0263401
869.946 .0263195
870.619 .0262990
871.292 .0262788
871.964 .0262591
872.636 .0262397
873.308 .0262203
873.979 .0262012
874.651 .0261820
875.321 .0261627
875.992 .0261435
876.662 .0261250
877.331 .0261071
878.001 .0260901
878.670 .0260736
879.338 .0260581
880.007 .0260434
880.675 .0260294
881.342 .0260160
882.009 .0260033
882.676 .0259912
883.343 .0259793
884.009 .0259677
884.675 .0259568
885.340 .0259466
886.005 .0259373
886.670 .0259286
887.334 .0259207
887.998 .0259130
888.662 .0259056
889.325 .0258983
889.988 .0258914
890.650 .0258849
891.312 .0258788
891.974 .0258732
892.636 .0258683
893.297 .0258642
893.957 .0258610
894.618 .0258582
895.278 .0258557
895.937 .0258532
896.596 .0258509
897.255 .0258482
897.914 .0258455
898.572 .0258432
899.230 .0258413
899.887 .0258399
900.544 .0258389
901.201 .0258380
901.857 .0258368
902.513 .0258350
903.168 .0258321
903.823 .0258276
904.478 .0258212
905.132 .0258123
905.786 .0258012
906.440 .0257886
907.093 .0257746
907.746 .0257593
908.399 .0257438
909.051 .0257286
909.703 .0257127
910.354 .0256963
911.005 .0256799
911.656 .0256632
912.306 .0256463
912.956 .0256290
913.605 .0256116
914.254 .0255952
914.903 .0255800
915.551 .0255659
916.199 .0255538
916.847 .0255437
917.494 .0255350
918.141 .0255271
918.788 .0255201
919.434 .0255138
920.079 .0255075
920.725 .0255014
921.370 .0254961
922.014 .0254911
922.658 .0254865
923.302 .0254820
923.946 .0254782
924.589 .0254743
925.231 .0254700
925.873 .0254651
926.515 .0254598
927.157 .0254540
927.798 .0254478
928.439 .0254413
929.079 .0254352
929.719 .0254290
930.359 .0254228
930.998 .0254163
931.637 .0254097
932.275 .0254024
932.913 .0253944
933.551 .0253855
934.188 .0253766
934.825 .0253674
935.462 .0253584
936.098 .0253498
936.733 .0253420
937.369 .0253345
938.004 .0253276
938.638 .0253212
939.273 .0253153
939.907 .0253098
940.540 .0253051
941.173 .0253015
941.806 .0252997
942.438 .0252997
943.070 .0253015
943.702 .0253048
944.333 .0253094
944.964 .0253149
945.594 .0253210
946.224 .0253281
946.854 .0253357
947.483 .0253442
948.112 .0253534
948.741 .0253630
949.369 .0253733
949.996 .0253834
950.624 .0253930
951.251 .0254015
951.878 .0254086
952.504 .0254140
953.130 .0254175
953.755 .0254195
954.380 .0254201
955.005 .0254197
955.629 .0254184
956.253 .0254161
956.877 .0254129
957.500 .0254093
958.123 .0254050
958.746 .0254006
959.368 .0253964
959.990 .0253918
960.611 .0253877
961.232 .0253836
961.853 .0253794
962.473 .0253752
963.093 .0253705
963.712 .0253655
964.331 .0253600
964.950 .0253544
965.569 .0253489
966.187 .0253440
966.804 .0253402
967.422 .0253373
968.039 .0253354
968.655 .0253344
969.272 .0253335
969.887 .0253320
970.503 .0253300
971.118 .0253273
971.733 .0253240
972.347 .0253206
972.961 .0253169
973.575 .0253136
974.188 .0253104
974.801 .0253076
975.414 .0253049
976.026 .0253015
976.638 .0252977
977.250 .0252924
977.861 .0252855
978.472 .0252770
979.083 .0252668
979.693 .0252558
980.303 .0252440
980.912 .0252318
981.521 .0252190
982.130 .0252062
982.738 .0251933
983.346 .0251805
983.954 .0251673
984.562 .0251544
985.169 .0251407
985.775 .0251267
986.382 .0251121
986.988 .0250970
987.594 .0250819
988.199 .0250672
988.804 .0250528
989.409 .0250389
990.013 .0250254
990.617 .0250128
991.221 .0250006
991.824 .0249898
992.427 .0249797
993.030 .0249707
993.632 .0249622
994.234 .0249547
994.836 .0249476
995.438 .0249408
996.039 .0249343
996.640 .0249277
997.240 .0249206
997.840 .0249133
998.440 .0249061
999.040 .0248989
999.639 .0248919
1000.238 .0248853
1000.836 .0248780
1001.435 .0248701
1002.033 .0248615
1002.630 .0248519
1003.228 .0248411
1003.825 .0248300
1004.422 .0248180
1005.018 .0248056
1005.614 .0247934
1006.210 .0247806
1006.806 .0247680
1007.401 .0247553
1007.996 .0247420
1008.591 .0247285
1009.186 .0247151
1009.780 .0247018
1010.374 .0246881
1010.967 .0246751
1011.561 .0246628
1012.154 .0246500
1012.746 .0246374
1013.339 .0246243
1013.931 .0246109
1014.523 .0245976
1015.115 .0245845
1015.706 .0245718
1016.298 .0245606
1016.888 .0245509
1017.479 .0245425
1018.069 .0245350
1018.660 .0245279
1019.250 .0245198
1019.839 .0245109
1020.429 .0245013
1021.018 .0244910
1021.607 .0244803
1022.195 .0244709
1022.784 .0244622
1023.372 .0244555
1023.960 .0244502
1024.547 .0244464
1025.135 .0244436
1025.722 .0244415
1026.309 .0244390
1026.896 .0244367
1027.483 .0244349
1028.069 .0244339
1028.655 .0244335
1029.241 .0244344
1029.827 .0244359
1030.412 .0244377
1030.997 .0244389
1031.582 .0244399
1032.167 .0244400
1032.752 .0244396
1033.336 .0244383
1033.921 .0244370
1034.505 .0244351
1035.089 .0244331
1035.672 .0244308
1036.256 .0244285
1036.839 .0244260
1037.422 .0244229
1038.005 .0244192
1038.588 .0244157
1039.171 .0244122
1039.753 .0244090
1040.335 .0244060
1040.918 .0244040
1041.500 .0244012
1042.081 .0243976
1042.663 .0243933
1043.244 .0243884
1043.826 .0243822
1044.407 .0243758
1044.988 .0243688
1045.569 .0243623
1046.150 .0243563
1046.730 .0243498
1047.311 .0243430
1047.891 .0243364
1048.471 .0243294
1049.052 .0243221
1049.632 .0243150
1050.211 .0243096
1050.791 .0243051
1051.371 .0243022
1051.950 .0243005
1052.530 .0242988
1053.109 .0242970
1053.688 .0242943
1054.268 .0242900
1054.847 .0242847
1055.426 .0242787
1056.005 .0242725
1056.583 .0242664
1057.162 .0242602
1057.741 .0242531
1058.319 .0242445
1058.898 .0242346
1059.476 .0242228
1060.055 .0242089
1060.633 .0241950
1061.211 .0241813
1061.790 .0241698
1062.368 .0241612
1062.946 .0241552
1063.524 .0241527
1064.102 .0241532
1064.680 .0241546
1065.258 .0241565
1065.836 .0241579
1066.414 .0241585
1066.992 .0241578
1067.570 .0241570
1068.148 .0241555
1068.726 .0241531
1069.304 .0241512
1069.882 .0241495
1070.460 .0241471
1071.038 .0241449
1071.616 .0241423
1072.194 .0241398
1072.772 .0241380
1073.350 .0241356
1073.928 .0241330
1074.506 .0241305
1075.084 .0241279
1075.662 .0241252
1076.240 .0241243
1076.819 .0241265
1077.397 .0241327
1077.976 .0241446
1078.554 .0241627
1079.133 .0241850
1079.711 .0242102
1080.290 .0242357
1080.869 .0242594
1081.448 .0242795
1082.027 .0242946
1082.606 .0243044
1083.185 .0243122
1083.764 .0243191
1084.343 .0243263
1084.923 .0243359
1085.502 .0243486
1086.082 .0243641
1086.662 .0243808
1087.242 .0243973
1087.822 .0244118
1088.402 .0244242
1088.983 .0244337
1089.563 .0244398
1090.144 .0244457
1090.725 .0244537
1091.306 .0244641
1091.887 .0244801
1092.469 .0245012
1093.050 .0245276
1093.632 .0245564
1094.214 .0245877
1094.796 .0246180
1095.379 .0246483
1095.961 .0246752
1096.544 .0246994
1097.127 .0247209
1097.710 .0247414
1098.294 .0247608
1098.877 .0247821
1099.461 .0248048
1100.046 .0248307
1100.630 .0248572
1101.215 .0248856
1101.800 .0249130
1102.385 .0249416
1102.970 .0249687
1103.556 .0249962
1104.142 .0250225
1104.728 .0250495
1105.315 .0250751
1105.902 .0251026
1106.489 .0251315
1107.077 .0251624
1107.664 .0251940
1108.253 .0252274
1108.841 .0252619
1109.430 .0253000
1110.019 .0253392
1110.609 .0253807
1111.198 .0254231
1111.789 .0254670
1112.379 .0255089
1112.970 .0255479
1113.561 .0255847
1114.153 .0256212
1114.745 .0256567
1115.338 .0256928
1115.931 .0257300
1116.524 .0257719
1117.117 .0258184
1117.712 .0258702
1118.306 .0259272
1118.901 .0259897
1119.496 .0260554
1120.092 .0261225
1120.689 .0261903
1121.285 .0262564
1121.882 .0263190
1122.480 .0263789
1123.078 .0264344
1123.677 .0264883
1124.276 .0265428
1124.875 .0265993
1125.476 .0266567
1126.076 .0267194
1126.677 .0267824
1127.279 .0268461
1127.881 .0269092
1128.484 .0269696
1129.087 .0270267
1129.691 .0270800
1130.295 .0271302
1130.900 .0271792
1131.505 .0272300
1132.111 .0272869
1132.718 .0273480
1133.325 .0274201
1133.933 .0274998
1134.541 .0275884
1135.150 .0276835
1135.760 .0277845
1136.370 .0278883
1136.981 .0279944
1137.592 .0280963
1138.204 .0281956
1138.817 .0282934
1139.431 .0283905
1140.045 .0284923
1140.660 .0285987
1141.275 .0287018
1141.891 .0288072
1142.508 .0289082
1143.126 .0291725
1143.744 .0292354
1144.363 .0290707
1144.983 .0292507
