Measurement Sequence started on: 15-12-46-377
Integration time: 28
Scans to Average: 2 
>>>>>Begin Spectral Data<<<<<
432.689 .0000100
433.621 .0000100
434.552 .0000100
435.482 .0000100
436.410 .0000100
437.337 .0000100
438.262 .0287489
439.187 .0610556
440.110 .1011476
441.031 .1463850
441.952 .1902998
442.871 .2248457
443.789 .2437548
444.705 .2448565
445.621 .2307734
446.535 .2072982
447.447 .1807321
448.359 .1402250
449.269 .1200428
450.178 .1073925
451.086 .0984669
451.993 .0916813
452.898 .0863154
453.803 .0819111
454.706 .0782331
455.608 .0750898
456.508 .0723421
457.408 .0699394
458.306 .0678030
459.204 .0659139
460.100 .0642186
460.995 .0627139
461.888 .0613382
462.781 .0600824
463.673 .0589057
464.563 .0578219
465.452 .0567906
466.340 .0558087
467.228 .0548796
468.114 .0540019
468.999 .0531795
469.882 .0524107
470.765 .0516962
471.647 .0510469
472.528 .0504574
473.407 .0499328
474.286 .0494582
475.163 .0490471
476.040 .0486930
476.915 .0483903
477.790 .0481335
478.663 .0479138
479.535 .0477256
480.407 .0475694
481.277 .0474313
482.147 .0473095
483.015 .0472020
483.883 .0471126
484.749 .0470350
485.615 .0469706
486.479 .0469186
487.343 .0468805
488.206 .0468577
489.067 .0468506
489.928 .0468532
490.788 .0468737
491.647 .0469155
492.505 .0469855
493.362 .0470894
494.218 .0472282
495.073 .0473946
495.928 .0476010
496.781 .0478354
497.634 .0481034
498.486 .0484031
499.337 .0487395
500.187 .0491087
501.036 .0495114
501.884 .0499426
502.731 .0503986
503.578 .0508755
504.424 .0513715
505.268 .0518726
506.113 .0523899
506.956 .0529190
507.798 .0534789
508.640 .0540797
509.480 .0547442
510.320 .0554813
511.160 .0563027
511.998 .0572032
512.836 .0581725
513.672 .0592122
514.508 .0603371
515.344 .0615492
516.178 .0628916
517.012 .0643878
517.845 .0661045
518.677 .0680846
519.508 .0703700
520.339 .0730000
521.169 .0760083
521.998 .0793904
522.826 .0832091
523.654 .0874387
524.481 .0921196
525.307 .0973034
526.133 .1030245
526.958 .1092800
527.782 .1160326
528.605 .1231311
529.428 .1304049
530.250 .1373756
531.072 .1437484
531.892 .1490676
532.712 .1530635
533.532 .1554806
534.350 .1561446
535.168 .1550192
535.986 .1522241
536.802 .1479520
537.618 .1425405
538.434 .1362521
539.249 .1295034
540.063 .1225272
540.876 .1156011
541.689 .1089245
542.501 .1026751
543.313 .0969479
544.124 .0917651
544.934 .0870981
545.744 .0828987
546.553 .0791058
547.361 .0757178
548.169 .0727270
548.976 .0700544
549.783 .0676902
550.589 .0655696
551.395 .0636279
552.200 .0618359
553.004 .0601938
553.808 .0586490
554.611 .0572195
555.414 .0558960
556.216 .0546761
557.018 .0535638
557.819 .0525602
558.619 .0516389
559.419 .0507998
560.218 .0500290
561.017 .0493169
561.815 .0486356
562.613 .0479880
563.410 .0473522
564.207 .0467329
565.003 .0461326
565.799 .0455399
566.594 .0449435
567.388 .0443595
568.182 .0437859
568.976 .0432169
569.769 .0426578
570.562 .0421151
571.354 .0415885
572.145 .0410877
572.936 .0406002
573.727 .0401239
574.517 .0396613
575.307 .0392149
576.096 .0387771
576.885 .0383542
577.673 .0379514
578.461 .0375675
579.248 .0372061
580.035 .0368690
580.821 .0365539
581.607 .0362608
582.392 .0359895
583.177 .0357382
583.962 .0355037
584.746 .0352924
585.529 .0350972
586.313 .0349202
587.095 .0347604
587.878 .0346127
588.660 .0344755
589.441 .0343482
590.222 .0342308
591.003 .0341240
591.783 .0340278
592.563 .0339417
593.342 .0338636
594.121 .0337926
594.899 .0337270
595.678 .0336646
596.455 .0336052
597.233 .0335478
598.009 .0334892
598.786 .0334316
599.562 .0333741
600.338 .0333173
601.113 .0332626
601.888 .0332092
602.663 .0331578
603.437 .0331076
604.211 .0330586
604.984 .0330106
605.757 .0329627
606.530 .0329160
607.302 .0328692
608.074 .0328241
608.845 .0327811
609.616 .0327399
610.387 .0327024
611.158 .0326683
611.928 .0326372
612.697 .0326082
613.467 .0325800
614.236 .0325518
615.004 .0325220
615.773 .0324912
616.541 .0324597
617.308 .0324279
618.076 .0323965
618.843 .0323663
619.609 .0323378
620.375 .0323116
621.141 .0322863
621.907 .0322616
622.672 .0322373
623.437 .0322118
624.202 .0321852
624.966 .0321580
625.730 .0321309
626.493 .0321049
627.257 .0320804
628.020 .0320588
628.782 .0320385
629.545 .0320197
630.307 .0320007
631.068 .0319815
631.830 .0319624
632.591 .0319419
633.352 .0319204
634.112 .0318986
634.872 .0318765
635.632 .0318543
636.392 .0318318
637.151 .0318094
637.910 .0317864
638.668 .0317629
639.427 .0317384
640.185 .0317138
640.943 .0316894
641.700 .0316661
642.457 .0316439
643.214 .0316236
643.971 .0316045
644.727 .0315863
645.483 .0315692
646.239 .0315523
646.994 .0315344
647.750 .0315154
648.505 .0314949
649.259 .0314738
650.014 .0314523
650.768 .0314304
651.521 .0314084
652.275 .0313865
653.028 .0313646
653.781 .0313412
654.534 .0313166
655.286 .0312902
656.039 .0312614
656.791 .0312303
657.542 .0311968
658.294 .0311615
659.045 .0311257
659.796 .0310901
660.546 .0310551
661.297 .0310210
662.047 .0309881
662.796 .0309551
663.546 .0309226
664.295 .0308907
665.044 .0308592
665.793 .0308278
666.542 .0307983
667.290 .0307704
668.038 .0307447
668.786 .0307217
669.533 .0307005
670.281 .0306809
671.028 .0306625
671.774 .0306442
672.521 .0306257
673.267 .0306073
674.013 .0305889
674.759 .0305702
675.505 .0305515
676.250 .0305328
676.995 .0305130
677.740 .0304928
678.484 .0304710
679.229 .0304477
679.973 .0304227
680.717 .0303963
681.460 .0303687
682.204 .0303408
682.947 .0303127
683.690 .0302850
684.433 .0302574
685.175 .0302307
685.917 .0302042
686.659 .0301781
687.401 .0301517
688.142 .0301260
688.884 .0301001
689.625 .0300745
690.365 .0300490
691.106 .0300239
691.846 .0299994
692.586 .0299753
693.326 .0299518
694.066 .0299287
694.805 .0299070
695.545 .0298863
696.284 .0298666
697.022 .0298484
697.761 .0298312
698.499 .0298153
699.237 .0297999
699.975 .0297853
700.713 .0297711
701.450 .0297577
702.187 .0297450
702.924 .0297332
703.661 .0297226
704.397 .0297125
705.133 .0297030
705.869 .0296937
706.605 .0296842
707.341 .0296742
708.076 .0296636
708.811 .0296520
709.546 .0296394
710.281 .0296259
711.015 .0296116
711.749 .0295976
712.483 .0295839
713.217 .0295704
713.950 .0295572
714.684 .0295446
715.417 .0295320
716.150 .0295195
716.882 .0295072
717.615 .0294949
718.347 .0294819
719.079 .0294686
719.811 .0294547
720.542 .0294409
721.273 .0294273
722.005 .0294136
722.735 .0293998
723.466 .0293860
724.196 .0293711
724.927 .0293548
725.656 .0293371
726.386 .0293186
727.116 .0292987
727.845 .0292787
728.574 .0292586
729.303 .0292391
730.031 .0292205
730.760 .0292033
731.488 .0291870
732.216 .0291715
732.944 .0291563
733.671 .0291412
734.398 .0291262
735.125 .0291120
735.852 .0290986
736.579 .0290869
737.305 .0290772
738.031 .0290696
738.757 .0290634
739.483 .0290584
740.208 .0290535
740.933 .0290484
741.658 .0290425
742.383 .0290354
743.108 .0290272
743.832 .0290185
744.556 .0290094
745.280 .0290002
746.004 .0289911
746.727 .0289819
747.450 .0289724
748.173 .0289618
748.896 .0289499
749.618 .0289363
750.340 .0289212
751.062 .0289050
751.784 .0288879
752.506 .0288707
753.227 .0288528
753.948 .0288348
754.669 .0288167
755.389 .0287979
756.110 .0287781
756.830 .0287572
757.550 .0287349
758.269 .0287116
758.989 .0286872
759.708 .0286618
760.427 .0286361
761.146 .0286107
761.864 .0285854
762.582 .0285601
763.300 .0285348
764.018 .0285095
764.736 .0284839
765.453 .0284580
766.170 .0284317
766.887 .0284051
767.603 .0283790
768.320 .0283529
769.036 .0283274
769.751 .0283027
770.467 .0282791
771.182 .0282567
771.897 .0282351
772.612 .0282143
773.327 .0281942
774.041 .0281746
774.755 .0281561
775.469 .0281385
776.183 .0281221
776.896 .0281067
777.609 .0280930
778.322 .0280808
779.035 .0280701
779.747 .0280606
780.459 .0280524
781.171 .0280451
781.882 .0280381
782.594 .0280314
783.305 .0280247
784.016 .0280180
784.726 .0280114
785.436 .0280043
786.147 .0279971
786.856 .0279896
787.566 .0279819
788.275 .0279735
788.984 .0279650
789.693 .0279557
790.401 .0279454
791.110 .0279347
791.818 .0279235
792.525 .0279120
793.233 .0279005
793.940 .0278895
794.647 .0278786
795.353 .0278681
796.060 .0278579
796.766 .0278478
797.472 .0278380
798.177 .0278284
798.883 .0278187
799.588 .0278090
800.292 .0277997
800.997 .0277908
801.701 .0277823
802.405 .0277747
803.109 .0277674
803.812 .0277605
804.515 .0277538
805.218 .0277469
805.921 .0277393
806.623 .0277312
807.325 .0277223
808.027 .0277130
808.728 .0277035
809.429 .0276943
810.130 .0276855
810.831 .0276774
811.531 .0276699
812.231 .0276628
812.931 .0276555
813.630 .0276479
814.330 .0276400
815.029 .0276316
815.727 .0276231
816.426 .0276147
817.124 .0276066
817.821 .0275997
818.519 .0275943
819.216 .0275904
819.913 .0275879
820.609 .0275869
821.306 .0275864
822.002 .0275867
822.697 .0275874
823.393 .0275886
824.088 .0275899
824.783 .0275918
825.477 .0275942
826.171 .0275970
826.865 .0276009
827.559 .0276056
828.252 .0276114
828.945 .0276178
829.638 .0276238
830.330 .0276294
831.023 .0276345
831.714 .0276391
832.406 .0276425
833.097 .0276448
833.788 .0276461
834.479 .0276465
835.169 .0276463
835.859 .0276459
836.548 .0276455
837.238 .0276451
837.927 .0276444
838.615 .0276429
839.304 .0276410
839.992 .0276385
840.680 .0276355
841.367 .0276325
842.054 .0276289
842.741 .0276255
843.428 .0276224
844.114 .0276200
844.800 .0276183
845.485 .0276168
846.170 .0276151
846.855 .0276125
847.540 .0276089
848.224 .0276040
848.908 .0275976
849.592 .0275903
850.275 .0275817
850.958 .0275719
851.641 .0275609
852.323 .0275486
853.005 .0275351
853.687 .0275199
854.368 .0275025
855.049 .0274828
855.730 .0274610
856.410 .0274372
857.090 .0274121
857.769 .0273859
858.449 .0273594
859.128 .0273329
859.806 .0273069
860.485 .0272814
861.163 .0272565
861.840 .0272321
862.518 .0272078
863.195 .0271838
863.871 .0271599
864.548 .0271363
865.224 .0271137
865.899 .0270918
866.574 .0270705
867.249 .0270498
867.924 .0270297
868.598 .0270099
869.272 .0269903
869.946 .0269706
870.619 .0269503
871.292 .0269298
871.964 .0269091
872.636 .0268881
873.308 .0268671
873.979 .0268460
874.651 .0268248
875.321 .0268035
875.992 .0267824
876.662 .0267613
877.331 .0267406
878.001 .0267204
878.670 .0267004
879.338 .0266807
880.007 .0266610
880.675 .0266412
881.342 .0266218
882.009 .0266024
882.676 .0265831
883.343 .0265639
884.009 .0265452
884.675 .0265273
885.340 .0265105
886.005 .0264946
886.670 .0264801
887.334 .0264668
887.998 .0264549
888.662 .0264439
889.325 .0264342
889.988 .0264257
890.650 .0264182
891.312 .0264117
891.974 .0264055
892.636 .0263997
893.297 .0263945
893.957 .0263893
894.618 .0263842
895.278 .0263785
895.937 .0263725
896.596 .0263660
897.255 .0263591
897.914 .0263513
898.572 .0263425
899.230 .0263327
899.887 .0263216
900.544 .0263091
901.201 .0262955
901.857 .0262810
902.513 .0262658
903.168 .0262499
903.823 .0262329
904.478 .0262149
905.132 .0261958
905.786 .0261755
906.440 .0261541
907.093 .0261314
907.746 .0261075
908.399 .0260824
909.051 .0260565
909.703 .0260302
910.354 .0260038
911.005 .0259776
911.656 .0259517
912.306 .0259263
912.956 .0259014
913.605 .0258771
914.254 .0258540
914.903 .0258319
915.551 .0258113
916.199 .0257924
916.847 .0257752
917.494 .0257599
918.141 .0257463
918.788 .0257342
919.434 .0257238
920.079 .0257142
920.725 .0257054
921.370 .0256969
922.014 .0256888
922.658 .0256807
923.302 .0256723
923.946 .0256635
924.589 .0256538
925.231 .0256432
925.873 .0256317
926.515 .0256189
927.157 .0256052
927.798 .0255905
928.439 .0255753
929.079 .0255596
929.719 .0255438
930.359 .0255277
930.998 .0255119
931.637 .0254964
932.275 .0254814
932.913 .0254666
933.551 .0254528
934.188 .0254400
934.825 .0254283
935.462 .0254180
936.098 .0254094
936.733 .0254029
937.369 .0253985
938.004 .0253964
938.638 .0253959
939.273 .0253968
939.907 .0253994
940.540 .0254033
941.173 .0254082
941.806 .0254143
942.438 .0254214
943.070 .0254294
943.702 .0254382
944.333 .0254474
944.964 .0254569
945.594 .0254668
946.224 .0254771
946.854 .0254874
947.483 .0254980
948.112 .0255091
948.741 .0255199
949.369 .0255310
949.996 .0255422
950.624 .0255528
951.251 .0255630
951.878 .0255724
952.504 .0255805
953.130 .0255877
953.755 .0255936
954.380 .0255983
955.005 .0256020
955.629 .0256052
956.253 .0256075
956.877 .0256096
957.500 .0256117
958.123 .0256139
958.746 .0256158
959.368 .0256175
959.990 .0256186
960.611 .0256193
961.232 .0256193
961.853 .0256189
962.473 .0256183
963.093 .0256180
963.712 .0256178
964.331 .0256180
964.950 .0256185
965.569 .0256200
966.187 .0256221
966.804 .0256252
967.422 .0256290
968.039 .0256338
968.655 .0256390
969.272 .0256443
969.887 .0256499
970.503 .0256557
971.118 .0256616
971.733 .0256674
972.347 .0256732
972.961 .0256790
973.575 .0256848
974.188 .0256903
974.801 .0256950
975.414 .0256993
976.026 .0257021
976.638 .0257031
977.250 .0257024
977.861 .0257006
978.472 .0256973
979.083 .0256928
979.693 .0256872
980.303 .0256804
980.912 .0256726
981.521 .0256635
982.130 .0256532
982.738 .0256421
983.346 .0256304
983.954 .0256183
984.562 .0256058
985.169 .0255936
985.775 .0255817
986.382 .0255705
986.988 .0255599
987.594 .0255494
988.199 .0255384
988.804 .0255266
989.409 .0255144
990.013 .0255018
990.617 .0254892
991.221 .0254769
991.824 .0254657
992.427 .0254562
993.030 .0254478
993.632 .0254412
994.234 .0254365
994.836 .0254340
995.438 .0254325
996.039 .0254317
996.640 .0254311
997.240 .0254308
997.840 .0254315
998.440 .0254325
999.040 .0254341
999.639 .0254361
1000.238 .0254376
1000.836 .0254381
1001.435 .0254375
1002.033 .0254347
1002.630 .0254298
1003.228 .0254237
1003.825 .0254160
1004.422 .0254071
1005.018 .0253979
1005.614 .0253896
1006.210 .0253822
1006.806 .0253750
1007.401 .0253676
1007.996 .0253587
1008.591 .0253493
1009.186 .0253386
1009.780 .0253276
1010.374 .0253171
1010.967 .0253074
1011.561 .0252991
1012.154 .0252920
1012.746 .0252863
1013.339 .0252812
1013.931 .0252756
1014.523 .0252693
1015.115 .0252609
1015.706 .0252501
1016.298 .0252368
1016.888 .0252226
1017.479 .0252082
1018.069 .0251942
1018.660 .0251810
1019.250 .0251692
1019.839 .0251588
1020.429 .0251502
1021.018 .0251433
1021.607 .0251375
1022.195 .0251331
1022.784 .0251294
1023.372 .0251263
1023.960 .0251241
1024.547 .0251232
1025.135 .0251239
1025.722 .0251259
1026.309 .0251287
1026.896 .0251320
1027.483 .0251355
1028.069 .0251382
1028.655 .0251395
1029.241 .0251395
1029.827 .0251374
1030.412 .0251329
1030.997 .0251269
1031.582 .0251198
1032.167 .0251123
1032.752 .0251045
1033.336 .0250971
1033.921 .0250901
1034.505 .0250837
1035.089 .0250769
1035.672 .0250697
1036.256 .0250624
1036.839 .0250543
1037.422 .0250455
1038.005 .0250370
1038.588 .0250295
1039.171 .0250231
1039.753 .0250181
1040.335 .0250148
1040.918 .0250126
1041.500 .0250109
1042.081 .0250092
1042.663 .0250066
1043.244 .0250029
1043.826 .0249968
1044.407 .0249883
1044.988 .0249780
1045.569 .0249665
1046.150 .0249536
1046.730 .0249404
1047.311 .0249267
1047.891 .0249130
1048.471 .0248989
1049.052 .0248843
1049.632 .0248695
1050.211 .0248543
1050.791 .0248381
1051.371 .0248209
1051.950 .0248027
1052.530 .0247847
1053.109 .0247671
1053.688 .0247507
1054.268 .0247349
1054.847 .0247209
1055.426 .0247091
1056.005 .0246986
1056.583 .0246896
1057.162 .0246819
1057.741 .0246756
1058.319 .0246705
1058.898 .0246648
1059.476 .0246579
1060.055 .0246497
1060.633 .0246397
1061.211 .0246276
1061.790 .0246149
1062.368 .0246020
1062.946 .0245899
1063.524 .0245794
1064.102 .0245706
1064.680 .0245619
1065.258 .0245532
1065.836 .0245444
1066.414 .0245333
1066.992 .0245205
1067.570 .0245052
1068.148 .0244882
1068.726 .0244721
1069.304 .0244580
1069.882 .0244458
1070.460 .0244368
1071.038 .0244311
1071.616 .0244254
1072.194 .0244191
1072.772 .0244115
1073.350 .0244009
1073.928 .0243885
1074.506 .0243754
1075.084 .0243618
1075.662 .0243491
1076.240 .0243409
1076.819 .0243362
1077.397 .0243362
1077.976 .0243418
1078.554 .0243494
1079.133 .0243590
1079.711 .0243705
1080.290 .0243825
1080.869 .0243942
1081.448 .0244072
1082.027 .0244201
1082.606 .0244324
1083.185 .0244456
1083.764 .0244590
1084.343 .0244715
1084.923 .0244852
1085.502 .0244987
1086.082 .0245098
1086.662 .0245191
1087.242 .0245255
1087.822 .0245274
1088.402 .0245264
1088.983 .0245221
1089.563 .0245156
1090.144 .0245079
1090.725 .0245012
1091.306 .0244955
1091.887 .0244933
1092.469 .0244960
1093.050 .0245027
1093.632 .0245137
1094.214 .0245287
1094.796 .0245469
1095.379 .0245686
1095.961 .0245931
1096.544 .0246205
1097.127 .0246522
1097.710 .0246862
1098.294 .0247231
1098.877 .0247628
1099.461 .0248054
1100.046 .0248494
1100.630 .0248947
1101.215 .0249401
1101.800 .0249836
1102.385 .0250254
1102.970 .0250648
1103.556 .0251003
1104.142 .0251344
1104.728 .0251636
1105.315 .0251892
1105.902 .0252120
1106.489 .0252353
1107.077 .0252543
1107.664 .0252727
1108.253 .0252921
1108.841 .0253112
1109.430 .0253290
1110.019 .0253465
1110.609 .0253637
1111.198 .0253821
1111.789 .0254024
1112.379 .0254236
1112.970 .0254481
1113.561 .0254788
1114.153 .0255150
1114.745 .0255574
1115.338 .0256055
1115.931 .0256592
1116.524 .0257139
1117.117 .0257718
1117.712 .0258321
1118.306 .0258923
1118.901 .0259573
1119.496 .0260250
1120.092 .0260967
1120.689 .0261714
1121.285 .0262485
1121.882 .0263287
1122.480 .0264091
1123.078 .0264898
1123.677 .0265695
1124.276 .0266491
1124.875 .0267291
1125.476 .0268087
1126.076 .0268921
1126.677 .0269800
1127.279 .0270676
1127.881 .0271541
1128.484 .0272387
1129.087 .0273142
1129.691 .0273825
1130.295 .0274445
1130.900 .0275011
1131.505 .0275554
1132.111 .0276070
1132.718 .0276591
1133.325 .0277136
1133.933 .0277711
1134.541 .0278282
1135.150 .0278898
1135.760 .0279594
1136.370 .0280365
1136.981 .0281215
1137.592 .0282212
1138.204 .0283379
1138.817 .0284766
1139.431 .0286314
1140.045 .0288115
1140.660 .0290202
1141.275 .0292728
1141.891 .0295550
1142.508 .0296277
1143.126 .0300958
1143.744 .0304920
1144.363 .0312410
1144.983 .0314408
