Measurement Sequence started on: 15-12-46-377
Integration time: 28
Scans to Average: 2 
>>>>>Begin Spectral Data<<<<<
432.689 .0000100
433.621 .0000100
434.552 .0000100
435.482 .0000100
436.410 .0000100
437.337 .0000100
438.262 .0257642
439.187 .0544846
440.110 .0901799
441.031 .1304614
441.952 .1695736
442.871 .2003194
443.789 .2171064
444.705 .2180537
445.621 .2055136
446.535 .1845983
447.447 .1609190
448.359 .1246650
449.269 .1066784
450.178 .0952053
451.086 .0869867
451.993 .0806425
452.898 .0756416
453.803 .0715615
454.706 .0681831
455.608 .0653350
456.508 .0629291
457.408 .0608764
458.306 .0591036
459.204 .0575371
460.100 .0561403
460.995 .0548879
461.888 .0537574
462.781 .0527055
463.673 .0517648
464.563 .0509124
465.452 .0501453
466.340 .0494418
467.228 .0488028
468.114 .0482171
468.999 .0476776
469.882 .0471777
470.765 .0467136
471.647 .0462776
472.528 .0458827
473.407 .0455230
474.286 .0452133
475.163 .0449469
476.040 .0447320
476.915 .0445597
477.790 .0444289
478.663 .0443207
479.535 .0442247
480.407 .0441350
481.277 .0440505
482.147 .0439689
483.015 .0438942
483.883 .0438247
484.749 .0437742
485.615 .0437424
486.479 .0437322
487.343 .0437381
488.206 .0437639
489.067 .0437963
489.928 .0438325
490.788 .0438689
491.647 .0439067
492.505 .0439557
493.362 .0440226
494.218 .0441117
495.073 .0442318
495.928 .0443857
496.781 .0445674
497.634 .0447719
498.486 .0450076
499.337 .0452580
500.187 .0455195
501.036 .0457906
501.884 .0460734
502.731 .0463689
503.578 .0466881
504.424 .0470341
505.268 .0474024
506.113 .0477989
506.956 .0482225
507.798 .0486723
508.640 .0491587
509.480 .0496887
510.320 .0502818
511.160 .0509487
511.998 .0516985
512.836 .0525315
513.672 .0534683
514.508 .0545200
515.344 .0556803
516.178 .0569799
517.012 .0584406
517.845 .0600800
518.677 .0619208
519.508 .0640041
520.339 .0663556
521.169 .0690330
521.998 .0720649
522.826 .0754884
523.654 .0793310
524.481 .0836051
525.307 .0883407
526.133 .0934930
526.958 .0990743
527.782 .1049844
528.605 .1110871
529.428 .1173916
530.250 .1233855
531.072 .1289333
531.892 .1337133
532.712 .1375031
533.532 .1401193
534.350 .1413681
535.168 .1410989
535.986 .1393356
536.802 .1362125
537.618 .1318929
538.434 .1265045
539.249 .1205611
540.063 .1141951
540.876 .1077240
541.689 .1013773
542.501 .0953761
543.313 .0898406
544.124 .0848934
544.934 .0804312
545.744 .0763914
546.553 .0727639
547.361 .0695167
548.169 .0666385
548.976 .0640949
549.783 .0618662
550.589 .0599101
551.395 .0581648
552.200 .0566223
553.004 .0552322
553.808 .0539616
554.611 .0528158
555.414 .0517620
556.216 .0507972
557.018 .0499231
557.819 .0491275
558.619 .0484018
559.419 .0477324
560.218 .0470990
561.017 .0464846
561.815 .0458773
562.613 .0452616
563.410 .0446354
564.207 .0440072
565.003 .0433925
565.799 .0427842
566.594 .0421862
567.388 .0416144
568.182 .0410613
568.976 .0405319
569.769 .0400235
570.562 .0395255
571.354 .0390365
572.145 .0385585
572.936 .0380957
573.727 .0376435
574.517 .0372063
575.307 .0367848
576.096 .0363826
576.885 .0359980
577.673 .0356311
578.461 .0352800
579.248 .0349454
580.035 .0346301
580.821 .0343301
581.607 .0340459
582.392 .0337822
583.177 .0335392
583.962 .0333190
584.746 .0331211
585.529 .0329442
586.313 .0327864
587.095 .0326455
587.878 .0325205
588.660 .0324056
589.441 .0323016
590.222 .0322057
591.003 .0321190
591.783 .0320395
592.563 .0319677
593.342 .0319012
594.121 .0318388
594.899 .0317793
595.678 .0317210
596.455 .0316630
597.233 .0316058
598.009 .0315477
598.786 .0314904
599.562 .0314341
600.338 .0313804
601.113 .0313288
601.888 .0312807
602.663 .0312344
603.437 .0311900
604.211 .0311456
604.984 .0311009
605.757 .0310560
606.530 .0310110
607.302 .0309659
608.074 .0309219
608.845 .0308798
609.616 .0308395
610.387 .0308020
611.158 .0307679
611.928 .0307350
612.697 .0307028
613.467 .0306698
614.236 .0306356
615.004 .0305999
615.773 .0305640
616.541 .0305288
617.308 .0304951
618.076 .0304645
618.843 .0304359
619.609 .0304098
620.375 .0303864
621.141 .0303652
621.907 .0303451
622.672 .0303255
623.437 .0303057
624.202 .0302861
624.966 .0302674
625.730 .0302503
626.493 .0302348
627.257 .0302215
628.020 .0302100
628.782 .0301991
629.545 .0301884
630.307 .0301777
631.068 .0301667
631.830 .0301557
632.591 .0301442
633.352 .0301330
634.112 .0301220
634.872 .0301108
635.632 .0301003
636.392 .0300892
637.151 .0300776
637.910 .0300643
638.668 .0300491
639.427 .0300325
640.185 .0300151
640.943 .0299976
641.700 .0299807
642.457 .0299651
643.214 .0299506
643.971 .0299366
644.727 .0299233
645.483 .0299104
646.239 .0298972
646.994 .0298838
647.750 .0298701
648.505 .0298567
649.259 .0298448
650.014 .0298335
650.768 .0298242
651.521 .0298160
652.275 .0298078
653.028 .0297989
653.781 .0297879
654.534 .0297743
655.286 .0297574
656.039 .0297377
656.791 .0297150
657.542 .0296899
658.294 .0296638
659.045 .0296360
659.796 .0296073
660.546 .0295781
661.297 .0295468
662.047 .0295136
662.796 .0294785
663.546 .0294415
664.295 .0294033
665.044 .0293655
665.793 .0293291
666.542 .0292946
667.290 .0292629
668.038 .0292340
668.786 .0292071
669.533 .0291822
670.281 .0291586
671.028 .0291351
671.774 .0291121
672.521 .0290894
673.267 .0290673
674.013 .0290461
674.759 .0290261
675.505 .0290066
676.250 .0289870
676.995 .0289673
677.740 .0289464
678.484 .0289238
679.229 .0289007
679.973 .0288767
680.717 .0288520
681.460 .0288273
682.204 .0288025
682.947 .0287781
683.690 .0287546
684.433 .0287316
685.175 .0287090
685.917 .0286868
686.659 .0286654
687.401 .0286445
688.142 .0286256
688.884 .0286088
689.625 .0285942
690.365 .0285821
691.106 .0285713
691.846 .0285610
692.586 .0285509
693.326 .0285405
694.066 .0285297
694.805 .0285183
695.545 .0285062
696.284 .0284938
697.022 .0284815
697.761 .0284695
698.499 .0284575
699.237 .0284460
699.975 .0284344
700.713 .0284223
701.450 .0284100
702.187 .0283973
702.924 .0283853
703.661 .0283741
704.397 .0283639
705.133 .0283551
705.869 .0283470
706.605 .0283403
707.341 .0283346
708.076 .0283298
708.811 .0283246
709.546 .0283192
710.281 .0283135
711.015 .0283071
711.749 .0283002
712.483 .0282929
713.217 .0282851
713.950 .0282770
714.684 .0282684
715.417 .0282586
716.150 .0282482
716.882 .0282370
717.615 .0282246
718.347 .0282116
719.079 .0281975
719.811 .0281832
720.542 .0281680
721.273 .0281526
722.005 .0281369
722.735 .0281204
723.466 .0281034
724.196 .0280854
724.927 .0280668
725.656 .0280476
726.386 .0280276
727.116 .0280073
727.845 .0279864
728.574 .0279647
729.303 .0279423
730.031 .0279189
730.760 .0278944
731.488 .0278690
732.216 .0278424
732.944 .0278156
733.671 .0277886
734.398 .0277623
735.125 .0277366
735.852 .0277120
736.579 .0276887
737.305 .0276662
738.031 .0276444
738.757 .0276231
739.483 .0276018
740.208 .0275808
740.933 .0275595
741.658 .0275384
742.383 .0275180
743.108 .0274979
743.832 .0274788
744.556 .0274607
745.280 .0274431
746.004 .0274259
746.727 .0274082
747.450 .0273905
748.173 .0273716
748.896 .0273515
749.618 .0273302
750.340 .0273075
751.062 .0272839
751.784 .0272595
752.506 .0272345
753.227 .0272096
753.948 .0271850
754.669 .0271610
755.389 .0271378
756.110 .0271160
756.830 .0270955
757.550 .0270765
758.269 .0270592
758.989 .0270434
759.708 .0270278
760.427 .0270133
761.146 .0269989
761.864 .0269844
762.582 .0269698
763.300 .0269555
764.018 .0269416
764.736 .0269285
765.453 .0269165
766.170 .0269054
766.887 .0268952
767.603 .0268859
768.320 .0268763
769.036 .0268670
769.751 .0268574
770.467 .0268474
771.182 .0268373
771.897 .0268278
772.612 .0268192
773.327 .0268121
774.041 .0268072
774.755 .0268043
775.469 .0268031
776.183 .0268035
776.896 .0268049
777.609 .0268067
778.322 .0268091
779.035 .0268113
779.747 .0268138
780.459 .0268166
781.171 .0268193
781.882 .0268226
782.594 .0268267
783.305 .0268317
784.016 .0268379
784.726 .0268446
785.436 .0268522
786.147 .0268600
786.856 .0268684
787.566 .0268766
788.275 .0268846
788.984 .0268922
789.693 .0268992
790.401 .0269049
791.110 .0269093
791.818 .0269123
792.525 .0269143
793.233 .0269154
793.940 .0269156
794.647 .0269147
795.353 .0269135
796.060 .0269118
796.766 .0269097
797.472 .0269066
798.177 .0269027
798.883 .0268976
799.588 .0268910
800.292 .0268830
800.997 .0268737
801.701 .0268634
802.405 .0268528
803.109 .0268425
803.812 .0268323
804.515 .0268226
805.218 .0268129
805.921 .0268030
806.623 .0267925
807.325 .0267809
808.027 .0267678
808.728 .0267527
809.429 .0267361
810.130 .0267183
810.831 .0266995
811.531 .0266808
812.231 .0266619
812.931 .0266433
813.630 .0266248
814.330 .0266058
815.029 .0265859
815.727 .0265648
816.426 .0265423
817.124 .0265184
817.821 .0264928
818.519 .0264660
819.216 .0264388
819.913 .0264117
820.609 .0263852
821.306 .0263593
822.002 .0263342
822.697 .0263098
823.393 .0262861
824.088 .0262627
824.783 .0262398
825.477 .0262170
826.171 .0261941
826.865 .0261716
827.559 .0261498
828.252 .0261284
828.945 .0261081
829.638 .0260888
830.330 .0260706
831.023 .0260529
831.714 .0260353
832.406 .0260174
833.097 .0259995
833.788 .0259803
834.479 .0259601
835.169 .0259384
835.859 .0259166
836.548 .0258940
837.238 .0258714
837.927 .0258497
838.615 .0258289
839.304 .0258089
839.992 .0257897
840.680 .0257710
841.367 .0257528
842.054 .0257342
842.741 .0257157
843.428 .0256969
844.114 .0256784
844.800 .0256603
845.485 .0256428
846.170 .0256261
846.855 .0256106
847.540 .0255955
848.224 .0255809
848.908 .0255669
849.592 .0255529
850.275 .0255386
850.958 .0255239
851.641 .0255091
852.323 .0254942
853.005 .0254790
853.687 .0254641
854.368 .0254488
855.049 .0254341
855.730 .0254196
856.410 .0254054
857.090 .0253922
857.769 .0253801
858.449 .0253688
859.128 .0253586
859.806 .0253492
860.485 .0253408
861.163 .0253332
861.840 .0253265
862.518 .0253204
863.195 .0253148
863.871 .0253095
864.548 .0253045
865.224 .0252998
865.899 .0252959
866.574 .0252919
867.249 .0252882
867.924 .0252850
868.598 .0252823
869.272 .0252800
869.946 .0252783
870.619 .0252770
871.292 .0252764
871.964 .0252759
872.636 .0252759
873.308 .0252761
873.979 .0252777
874.651 .0252803
875.321 .0252846
875.992 .0252911
876.662 .0252995
877.331 .0253099
878.001 .0253219
878.670 .0253347
879.338 .0253475
880.007 .0253594
880.675 .0253705
881.342 .0253808
882.009 .0253904
882.676 .0253996
883.343 .0254093
884.009 .0254194
884.675 .0254302
885.340 .0254409
886.005 .0254517
886.670 .0254617
887.334 .0254707
887.998 .0254788
888.662 .0254860
889.325 .0254932
889.988 .0255011
890.650 .0255097
891.312 .0255200
891.974 .0255313
892.636 .0255432
893.297 .0255553
893.957 .0255674
894.618 .0255784
895.278 .0255880
895.937 .0255967
896.596 .0256044
897.255 .0256111
897.914 .0256173
898.572 .0256229
899.230 .0256282
899.887 .0256330
900.544 .0256365
901.201 .0256387
901.857 .0256398
902.513 .0256390
903.168 .0256364
903.823 .0256321
904.478 .0256260
905.132 .0256178
905.786 .0256077
906.440 .0255958
907.093 .0255816
907.746 .0255660
908.399 .0255489
909.051 .0255304
909.703 .0255112
910.354 .0254912
911.005 .0254708
911.656 .0254505
912.306 .0254299
912.956 .0254089
913.605 .0253876
914.254 .0253663
914.903 .0253444
915.551 .0253228
916.199 .0253016
916.847 .0252809
917.494 .0252608
918.141 .0252413
918.788 .0252218
919.434 .0252026
920.079 .0251827
920.725 .0251622
921.370 .0251412
922.014 .0251191
922.658 .0250962
923.302 .0250726
923.946 .0250482
924.589 .0250230
925.231 .0249967
925.873 .0249696
926.515 .0249414
927.157 .0249127
927.798 .0248830
928.439 .0248530
929.079 .0248227
929.719 .0247920
930.359 .0247611
930.998 .0247301
931.637 .0246987
932.275 .0246667
932.913 .0246344
933.551 .0246014
934.188 .0245686
934.825 .0245364
935.462 .0245049
936.098 .0244744
936.733 .0244450
937.369 .0244164
938.004 .0243881
938.638 .0243602
939.273 .0243321
939.907 .0243035
940.540 .0242749
941.173 .0242459
941.806 .0242172
942.438 .0241889
943.070 .0241612
943.702 .0241338
944.333 .0241068
944.964 .0240796
945.594 .0240522
946.224 .0240250
946.854 .0239986
947.483 .0239731
948.112 .0239491
948.741 .0239264
949.369 .0239051
949.996 .0238851
950.624 .0238665
951.251 .0238488
951.878 .0238319
952.504 .0238155
953.130 .0238000
953.755 .0237845
954.380 .0237695
955.005 .0237544
955.629 .0237394
956.253 .0237242
956.877 .0237085
957.500 .0236918
958.123 .0236747
958.746 .0236573
959.368 .0236400
959.990 .0236225
960.611 .0236055
961.232 .0235888
961.853 .0235724
962.473 .0235561
963.093 .0235399
963.712 .0235239
964.331 .0235085
964.950 .0234938
965.569 .0234803
966.187 .0234687
966.804 .0234591
967.422 .0234519
968.039 .0234466
968.655 .0234429
969.272 .0234393
969.887 .0234357
970.503 .0234317
971.118 .0234276
971.733 .0234233
972.347 .0234195
972.961 .0234164
973.575 .0234146
974.188 .0234132
974.801 .0234128
975.414 .0234124
976.026 .0234116
976.638 .0234091
977.250 .0234051
977.861 .0233997
978.472 .0233936
979.083 .0233868
979.693 .0233806
980.303 .0233750
980.912 .0233707
981.521 .0233661
982.130 .0233626
982.738 .0233597
983.346 .0233573
983.954 .0233551
984.562 .0233537
985.169 .0233530
985.775 .0233535
986.382 .0233554
986.988 .0233589
987.594 .0233637
988.199 .0233697
988.804 .0233756
989.409 .0233815
990.013 .0233874
990.617 .0233933
991.221 .0233991
991.824 .0234059
992.427 .0234140
993.030 .0234235
993.632 .0234348
994.234 .0234481
994.836 .0234629
995.438 .0234788
996.039 .0234948
996.640 .0235106
997.240 .0235257
997.840 .0235400
998.440 .0235538
999.040 .0235670
999.639 .0235803
1000.238 .0235942
1000.836 .0236086
1001.435 .0236239
1002.033 .0236403
1002.630 .0236569
1003.228 .0236737
1003.825 .0236903
1004.422 .0237060
1005.018 .0237210
1005.614 .0237355
1006.210 .0237494
1006.806 .0237639
1007.401 .0237795
1007.996 .0237968
1008.591 .0238162
1009.186 .0238387
1009.780 .0238629
1010.374 .0238891
1010.967 .0239160
1011.561 .0239425
1012.154 .0239678
1012.746 .0239914
1013.339 .0240122
1013.931 .0240308
1014.523 .0240481
1015.115 .0240642
1015.706 .0240796
1016.298 .0240957
1016.888 .0241117
1017.479 .0241279
1018.069 .0241442
1018.660 .0241594
1019.250 .0241735
1019.839 .0241864
1020.429 .0241974
1021.018 .0242070
1021.607 .0242168
1022.195 .0242264
1022.784 .0242365
1023.372 .0242482
1023.960 .0242616
1024.547 .0242754
1025.135 .0242902
1025.722 .0243048
1026.309 .0243186
1026.896 .0243315
1027.483 .0243429
1028.069 .0243530
1028.655 .0243632
1029.241 .0243737
1029.827 .0243855
1030.412 .0243990
1030.997 .0244148
1031.582 .0244320
1032.167 .0244504
1032.752 .0244688
1033.336 .0244866
1033.921 .0245031
1034.505 .0245178
1035.089 .0245305
1035.672 .0245409
1036.256 .0245496
1036.839 .0245561
1037.422 .0245617
1038.005 .0245663
1038.588 .0245696
1039.171 .0245717
1039.753 .0245733
1040.335 .0245737
1040.918 .0245729
1041.500 .0245712
1042.081 .0245687
1042.663 .0245649
1043.244 .0245602
1043.826 .0245538
1044.407 .0245470
1044.988 .0245398
1045.569 .0245336
1046.150 .0245275
1046.730 .0245233
1047.311 .0245200
1047.891 .0245174
1048.471 .0245147
1049.052 .0245119
1049.632 .0245075
1050.211 .0245017
1050.791 .0244945
1051.371 .0244858
1051.950 .0244758
1052.530 .0244660
1053.109 .0244561
1053.688 .0244473
1054.268 .0244385
1054.847 .0244300
1055.426 .0244202
1056.005 .0244100
1056.583 .0243985
1057.162 .0243862
1057.741 .0243738
1058.319 .0243618
1058.898 .0243502
1059.476 .0243391
1060.055 .0243281
1060.633 .0243169
1061.211 .0243048
1061.790 .0242929
1062.368 .0242811
1062.946 .0242700
1063.524 .0242604
1064.102 .0242537
1064.680 .0242495
1065.258 .0242484
1065.836 .0242486
1066.414 .0242496
1066.992 .0242498
1067.570 .0242484
1068.148 .0242426
1068.726 .0242334
1069.304 .0242211
1069.882 .0242060
1070.460 .0241883
1071.038 .0241695
1071.616 .0241496
1072.194 .0241300
1072.772 .0241111
1073.350 .0240924
1073.928 .0240734
1074.506 .0240555
1075.084 .0240358
1075.662 .0240159
1076.240 .0239951
1076.819 .0239742
1077.397 .0239521
1077.976 .0239325
1078.554 .0239151
1079.133 .0238996
1079.711 .0238886
1080.290 .0238831
1080.869 .0238809
1081.448 .0238825
1082.027 .0238853
1082.606 .0238879
1083.185 .0238882
1083.764 .0238863
1084.343 .0238787
1084.923 .0238684
1085.502 .0238584
1086.082 .0238482
1086.662 .0238389
1087.242 .0238327
1087.822 .0238271
1088.402 .0238222
1088.983 .0238180
1089.563 .0238121
1090.144 .0238022
1090.725 .0237918
1091.306 .0237797
1091.887 .0237659
1092.469 .0237536
1093.050 .0237446
1093.632 .0237389
1094.214 .0237386
1094.796 .0237408
1095.379 .0237435
1095.961 .0237480
1096.544 .0237538
1097.127 .0237578
1097.710 .0237613
1098.294 .0237650
1098.877 .0237692
1099.461 .0237732
1100.046 .0237782
1100.630 .0237828
1101.215 .0237877
1101.800 .0237902
1102.385 .0237886
1102.970 .0237822
1103.556 .0237726
1104.142 .0237603
1104.728 .0237503
1105.315 .0237433
1105.902 .0237414
1106.489 .0237458
1107.077 .0237589
1107.664 .0237806
1108.253 .0238094
1108.841 .0238426
1109.430 .0238788
1110.019 .0239143
1110.609 .0239479
1111.198 .0239766
1111.789 .0240062
1112.379 .0240359
1112.970 .0240676
1113.561 .0241017
1114.153 .0241394
1114.745 .0241800
1115.338 .0242192
1115.931 .0242545
1116.524 .0242853
1117.117 .0243080
1117.712 .0243235
1118.306 .0243333
1118.901 .0243432
1119.496 .0243568
1120.092 .0243801
1120.689 .0244138
1121.285 .0244620
1121.882 .0245216
1122.480 .0245905
1123.078 .0246652
1123.677 .0247448
1124.276 .0248246
1124.875 .0249021
1125.476 .0249792
1126.076 .0250575
1126.677 .0251338
1127.279 .0252140
1127.881 .0252936
1128.484 .0253740
1129.087 .0254485
1129.691 .0255168
1130.295 .0255766
1130.900 .0256283
1131.505 .0256711
1132.111 .0257095
1132.718 .0257415
1133.325 .0257763
1133.933 .0258095
1134.541 .0258467
1135.150 .0258901
1135.760 .0259384
1136.370 .0259926
1136.981 .0260575
1137.592 .0261286
1138.204 .0262101
1138.817 .0262996
1139.431 .0264008
1140.045 .0265054
1140.660 .0266242
1141.275 .0267626
1141.891 .0269535
1142.508 .0270144
1143.126 .0270541
1143.744 .0274014
1144.363 .0278541
1144.983 .0290490
