Measurement Sequence started on: 15-12-46-377
Integration time: 28
Scans to Average: 2 
>>>>>Begin Spectral Data<<<<<
432.689 .0000100
433.621 .0000100
434.552 .0000100
435.482 .0000100
436.410 .0000100
437.337 .0000100
438.262 .0256532
439.187 .0543471
440.110 .0900257
441.031 .1302519
441.952 .1693206
442.871 .2000670
443.789 .2169130
444.705 .2179687
445.621 .2056032
446.535 .1849263
447.447 .1615451
448.359 .1257076
449.269 .1080564
450.178 .0969630
451.086 .0891950
451.993 .0832775
452.898 .0786215
453.803 .0748255
454.706 .0716802
455.608 .0689907
456.508 .0666719
457.408 .0646410
458.306 .0628405
459.204 .0612123
460.100 .0597252
460.995 .0583488
461.888 .0570866
462.781 .0559245
463.673 .0548534
464.563 .0538619
465.452 .0529535
466.340 .0521029
467.228 .0513260
468.114 .0506215
468.999 .0499896
469.882 .0494234
470.765 .0489278
471.647 .0484907
472.528 .0481075
473.407 .0477738
474.286 .0474836
475.163 .0472315
476.040 .0470226
476.915 .0468323
477.790 .0466608
478.663 .0465114
479.535 .0463845
480.407 .0462732
481.277 .0461814
482.147 .0461087
483.015 .0460429
483.883 .0459892
484.749 .0459466
485.615 .0459176
486.479 .0459091
487.343 .0459261
488.206 .0459665
489.067 .0460274
489.928 .0461024
490.788 .0461849
491.647 .0462787
492.505 .0463871
493.362 .0465012
494.218 .0466230
495.073 .0467649
495.928 .0469347
496.781 .0471251
497.634 .0473468
498.486 .0475941
499.337 .0478605
500.187 .0481378
501.036 .0484147
501.884 .0486954
502.731 .0489841
503.578 .0492897
504.424 .0496156
505.268 .0499611
506.113 .0503336
506.956 .0507336
507.798 .0511688
508.640 .0516525
509.480 .0521868
510.320 .0527907
511.160 .0534686
511.998 .0542337
512.836 .0550962
513.672 .0560558
514.508 .0571277
515.344 .0583133
516.178 .0596244
517.012 .0611035
517.845 .0627840
518.677 .0647107
519.508 .0669429
520.339 .0695273
521.169 .0725077
521.998 .0758804
522.826 .0796781
523.654 .0838795
524.481 .0884842
525.307 .0935567
526.133 .0990684
526.958 .1050477
527.782 .1114584
528.605 .1181833
529.428 .1251777
530.250 .1319748
531.072 .1382968
531.892 .1437598
532.712 .1480448
533.532 .1509377
534.350 .1522289
535.168 .1518438
535.986 .1498743
536.802 .1464899
537.618 .1419122
538.434 .1363049
539.249 .1301004
540.063 .1234943
540.876 .1167286
541.689 .1100338
542.501 .1035836
543.313 .0975166
544.124 .0919820
544.934 .0869546
545.744 .0823931
546.553 .0782828
547.361 .0746134
548.169 .0713671
548.976 .0684648
549.783 .0658903
550.589 .0635912
551.395 .0615216
552.200 .0596692
553.004 .0579810
553.808 .0564232
554.611 .0550199
555.414 .0537542
556.216 .0526008
557.018 .0515630
557.819 .0506315
558.619 .0497700
559.419 .0489832
560.218 .0482571
561.017 .0475783
561.815 .0469297
562.613 .0463130
563.410 .0457156
564.207 .0451299
565.003 .0445690
565.799 .0440137
566.594 .0434661
567.388 .0429328
568.182 .0423987
568.976 .0418622
569.769 .0413361
570.562 .0408202
571.354 .0403056
572.145 .0398070
572.936 .0393203
573.727 .0388414
574.517 .0383718
575.307 .0379121
576.096 .0374628
576.885 .0370271
577.673 .0366123
578.461 .0362202
579.248 .0358576
580.035 .0355281
580.821 .0352265
581.607 .0349543
582.392 .0347085
583.177 .0344831
583.962 .0342767
584.746 .0340892
585.529 .0339193
586.313 .0337669
587.095 .0336306
587.878 .0335094
588.660 .0334036
589.441 .0333104
590.222 .0332273
591.003 .0331532
591.783 .0330857
592.563 .0330229
593.342 .0329634
594.121 .0329058
594.899 .0328495
595.678 .0327950
596.455 .0327419
597.233 .0326896
598.009 .0326381
598.786 .0325867
599.562 .0325363
600.338 .0324865
601.113 .0324372
601.888 .0323870
602.663 .0323375
603.437 .0322889
604.211 .0322406
604.984 .0321930
605.757 .0321457
606.530 .0320985
607.302 .0320524
608.074 .0320068
608.845 .0319617
609.616 .0319182
610.387 .0318768
611.158 .0318372
611.928 .0317998
612.697 .0317642
613.467 .0317310
614.236 .0316997
615.004 .0316698
615.773 .0316404
616.541 .0316109
617.308 .0315820
618.076 .0315529
618.843 .0315247
619.609 .0314981
620.375 .0314726
621.141 .0314484
621.907 .0314252
622.672 .0314020
623.437 .0313788
624.202 .0313546
624.966 .0313292
625.730 .0313027
626.493 .0312750
627.257 .0312466
628.020 .0312182
628.782 .0311904
629.545 .0311630
630.307 .0311357
631.068 .0311086
631.830 .0310809
632.591 .0310520
633.352 .0310221
634.112 .0309911
634.872 .0309601
635.632 .0309289
636.392 .0308973
637.151 .0308662
637.910 .0308353
638.668 .0308044
639.427 .0307739
640.185 .0307423
640.943 .0307104
641.700 .0306784
642.457 .0306469
643.214 .0306159
643.971 .0305865
644.727 .0305590
645.483 .0305334
646.239 .0305094
646.994 .0304862
647.750 .0304635
648.505 .0304419
649.259 .0304211
650.014 .0304006
650.768 .0303804
651.521 .0303612
652.275 .0303425
653.028 .0303252
653.781 .0303083
654.534 .0302912
655.286 .0302738
656.039 .0302553
656.791 .0302356
657.542 .0302144
658.294 .0301926
659.045 .0301710
659.796 .0301505
660.546 .0301310
661.297 .0301126
662.047 .0300953
662.796 .0300791
663.546 .0300637
664.295 .0300487
665.044 .0300332
665.793 .0300175
666.542 .0300021
667.290 .0299874
668.038 .0299725
668.786 .0299582
669.533 .0299440
670.281 .0299299
671.028 .0299153
671.774 .0298996
672.521 .0298834
673.267 .0298667
674.013 .0298497
674.759 .0298327
675.505 .0298156
676.250 .0297992
676.995 .0297830
677.740 .0297675
678.484 .0297522
679.229 .0297370
679.973 .0297217
680.717 .0297068
681.460 .0296925
682.204 .0296780
682.947 .0296638
683.690 .0296503
684.433 .0296374
685.175 .0296247
685.917 .0296119
686.659 .0295993
687.401 .0295866
688.142 .0295741
688.884 .0295610
689.625 .0295475
690.365 .0295343
691.106 .0295207
691.846 .0295070
692.586 .0294929
693.326 .0294776
694.066 .0294615
694.805 .0294446
695.545 .0294263
696.284 .0294067
697.022 .0293857
697.761 .0293638
698.499 .0293406
699.237 .0293167
699.975 .0292923
700.713 .0292674
701.450 .0292425
702.187 .0292172
702.924 .0291917
703.661 .0291666
704.397 .0291420
705.133 .0291184
705.869 .0290962
706.605 .0290753
707.341 .0290559
708.076 .0290378
708.811 .0290207
709.546 .0290046
710.281 .0289891
711.015 .0289742
711.749 .0289595
712.483 .0289450
713.217 .0289304
713.950 .0289154
714.684 .0288994
715.417 .0288821
716.150 .0288633
716.882 .0288429
717.615 .0288202
718.347 .0287958
719.079 .0287700
719.811 .0287433
720.542 .0287164
721.273 .0286895
722.005 .0286625
722.735 .0286357
723.466 .0286091
724.196 .0285824
724.927 .0285554
725.656 .0285284
726.386 .0285011
727.116 .0284742
727.845 .0284476
728.574 .0284213
729.303 .0283955
730.031 .0283709
730.760 .0283475
731.488 .0283249
732.216 .0283032
732.944 .0282825
733.671 .0282628
734.398 .0282440
735.125 .0282263
735.852 .0282099
736.579 .0281945
737.305 .0281805
738.031 .0281674
738.757 .0281559
739.483 .0281453
740.208 .0281359
740.933 .0281272
741.658 .0281193
742.383 .0281116
743.108 .0281039
743.832 .0280965
744.556 .0280890
745.280 .0280808
746.004 .0280717
746.727 .0280615
747.450 .0280501
748.173 .0280372
748.896 .0280232
749.618 .0280085
750.340 .0279933
751.062 .0279779
751.784 .0279628
752.506 .0279485
753.227 .0279351
753.948 .0279221
754.669 .0279098
755.389 .0278979
756.110 .0278861
756.830 .0278743
757.550 .0278628
758.269 .0278516
758.989 .0278408
759.708 .0278304
760.427 .0278208
761.146 .0278121
761.864 .0278043
762.582 .0277969
763.300 .0277895
764.018 .0277822
764.736 .0277744
765.453 .0277658
766.170 .0277572
766.887 .0277482
767.603 .0277391
768.320 .0277302
769.036 .0277213
769.751 .0277131
770.467 .0277057
771.182 .0276990
771.897 .0276925
772.612 .0276858
773.327 .0276790
774.041 .0276708
774.755 .0276621
775.469 .0276531
776.183 .0276441
776.896 .0276356
777.609 .0276278
778.322 .0276210
779.035 .0276155
779.747 .0276112
780.459 .0276079
781.171 .0276057
781.882 .0276040
782.594 .0276019
783.305 .0276002
784.016 .0275988
784.726 .0275980
785.436 .0275976
786.147 .0275980
786.856 .0275990
787.566 .0276010
788.275 .0276036
788.984 .0276062
789.693 .0276092
790.401 .0276122
791.110 .0276142
791.818 .0276153
792.525 .0276151
793.233 .0276141
793.940 .0276119
794.647 .0276093
795.353 .0276058
796.060 .0276016
796.766 .0275970
797.472 .0275916
798.177 .0275852
798.883 .0275781
799.588 .0275704
800.292 .0275622
800.997 .0275537
801.701 .0275448
802.405 .0275356
803.109 .0275266
803.812 .0275179
804.515 .0275092
805.218 .0275006
805.921 .0274921
806.623 .0274841
807.325 .0274762
808.027 .0274689
808.728 .0274619
809.429 .0274547
810.130 .0274474
810.831 .0274391
811.531 .0274292
812.231 .0274170
812.931 .0274025
813.630 .0273861
814.330 .0273677
815.029 .0273480
815.727 .0273275
816.426 .0273071
817.124 .0272870
817.821 .0272674
818.519 .0272479
819.216 .0272288
819.913 .0272101
820.609 .0271915
821.306 .0271733
822.002 .0271562
822.697 .0271412
823.393 .0271283
824.088 .0271183
824.783 .0271110
825.477 .0271055
826.171 .0271018
826.865 .0270992
827.559 .0270971
828.252 .0270948
828.945 .0270918
829.638 .0270883
830.330 .0270842
831.023 .0270800
831.714 .0270754
832.406 .0270708
833.097 .0270659
833.788 .0270603
834.479 .0270536
835.169 .0270456
835.859 .0270362
836.548 .0270255
837.238 .0270133
837.927 .0270000
838.615 .0269856
839.304 .0269705
839.992 .0269551
840.680 .0269404
841.367 .0269254
842.054 .0269112
842.741 .0268974
843.428 .0268839
844.114 .0268710
844.800 .0268583
845.485 .0268452
846.170 .0268318
846.855 .0268175
847.540 .0268022
848.224 .0267858
848.908 .0267694
849.592 .0267525
850.275 .0267356
850.958 .0267188
851.641 .0267017
852.323 .0266838
853.005 .0266657
853.687 .0266459
854.368 .0266241
855.049 .0266007
855.730 .0265753
856.410 .0265480
857.090 .0265197
857.769 .0264909
858.449 .0264618
859.128 .0264331
859.806 .0264048
860.485 .0263765
861.163 .0263491
861.840 .0263221
862.518 .0262949
863.195 .0262677
863.871 .0262409
864.548 .0262142
865.224 .0261883
865.899 .0261632
866.574 .0261389
867.249 .0261161
867.924 .0260949
868.598 .0260748
869.272 .0260559
869.946 .0260387
870.619 .0260232
871.292 .0260088
871.964 .0259959
872.636 .0259838
873.308 .0259726
873.979 .0259625
874.651 .0259529
875.321 .0259434
875.992 .0259342
876.662 .0259251
877.331 .0259161
878.001 .0259073
878.670 .0258984
879.338 .0258893
880.007 .0258805
880.675 .0258717
881.342 .0258628
882.009 .0258540
882.676 .0258458
883.343 .0258379
884.009 .0258303
884.675 .0258228
885.340 .0258150
886.005 .0258077
886.670 .0258007
887.334 .0257937
887.998 .0257872
888.662 .0257816
889.325 .0257767
889.988 .0257729
890.650 .0257704
891.312 .0257691
891.974 .0257687
892.636 .0257692
893.297 .0257695
893.957 .0257699
894.618 .0257699
895.278 .0257697
895.937 .0257696
896.596 .0257701
897.255 .0257709
897.914 .0257719
898.572 .0257735
899.230 .0257749
899.887 .0257756
900.544 .0257756
901.201 .0257737
901.857 .0257706
902.513 .0257660
903.168 .0257601
903.823 .0257531
904.478 .0257456
905.132 .0257371
905.786 .0257280
906.440 .0257180
907.093 .0257071
907.746 .0256951
908.399 .0256825
909.051 .0256694
909.703 .0256567
910.354 .0256446
911.005 .0256336
911.656 .0256236
912.306 .0256151
912.956 .0256071
913.605 .0255997
914.254 .0255923
914.903 .0255849
915.551 .0255776
916.199 .0255705
916.847 .0255639
917.494 .0255583
918.141 .0255541
918.788 .0255514
919.434 .0255495
920.079 .0255484
920.725 .0255470
921.370 .0255452
922.014 .0255426
922.658 .0255392
923.302 .0255348
923.946 .0255299
924.589 .0255244
925.231 .0255184
925.873 .0255119
926.515 .0255044
927.157 .0254957
927.798 .0254859
928.439 .0254744
929.079 .0254611
929.719 .0254465
930.359 .0254308
930.998 .0254141
931.637 .0253972
932.275 .0253798
932.913 .0253628
933.551 .0253462
934.188 .0253301
934.825 .0253150
935.462 .0253013
936.098 .0252894
936.733 .0252790
937.369 .0252711
938.004 .0252654
938.638 .0252618
939.273 .0252606
939.907 .0252611
940.540 .0252634
941.173 .0252672
941.806 .0252723
942.438 .0252785
943.070 .0252861
943.702 .0252947
944.333 .0253035
944.964 .0253126
945.594 .0253214
946.224 .0253299
946.854 .0253378
947.483 .0253454
948.112 .0253525
948.741 .0253591
949.369 .0253655
949.996 .0253716
950.624 .0253775
951.251 .0253828
951.878 .0253873
952.504 .0253908
953.130 .0253929
953.755 .0253938
954.380 .0253937
955.005 .0253932
955.629 .0253926
956.253 .0253920
956.877 .0253911
957.500 .0253901
958.123 .0253891
958.746 .0253872
959.368 .0253848
959.990 .0253816
960.611 .0253776
961.232 .0253730
961.853 .0253685
962.473 .0253644
963.093 .0253614
963.712 .0253593
964.331 .0253577
964.950 .0253567
965.569 .0253560
966.187 .0253551
966.804 .0253547
967.422 .0253545
968.039 .0253541
968.655 .0253534
969.272 .0253527
969.887 .0253519
970.503 .0253506
971.118 .0253488
971.733 .0253462
972.347 .0253430
972.961 .0253391
973.575 .0253345
974.188 .0253295
974.801 .0253243
975.414 .0253184
976.026 .0253121
976.638 .0253055
977.250 .0252989
977.861 .0252926
978.472 .0252869
979.083 .0252821
979.693 .0252773
980.303 .0252724
980.912 .0252674
981.521 .0252614
982.130 .0252545
982.738 .0252463
983.346 .0252370
983.954 .0252269
984.562 .0252161
985.169 .0252053
985.775 .0251945
986.382 .0251837
986.988 .0251728
987.594 .0251609
988.199 .0251485
988.804 .0251358
989.409 .0251227
990.013 .0251100
990.617 .0250978
991.221 .0250861
991.824 .0250752
992.427 .0250656
993.030 .0250575
993.632 .0250504
994.234 .0250447
994.836 .0250395
995.438 .0250345
996.039 .0250299
996.640 .0250251
997.240 .0250200
997.840 .0250146
998.440 .0250079
999.040 .0250003
999.639 .0249918
1000.238 .0249828
1000.836 .0249733
1001.435 .0249635
1002.033 .0249537
1002.630 .0249430
1003.228 .0249319
1003.825 .0249204
1004.422 .0249090
1005.018 .0248983
1005.614 .0248881
1006.210 .0248783
1006.806 .0248696
1007.401 .0248616
1007.996 .0248541
1008.591 .0248471
1009.186 .0248409
1009.780 .0248348
1010.374 .0248294
1010.967 .0248242
1011.561 .0248198
1012.154 .0248160
1012.746 .0248130
1013.339 .0248092
1013.931 .0248049
1014.523 .0247988
1015.115 .0247906
1015.706 .0247811
1016.298 .0247709
1016.888 .0247603
1017.479 .0247503
1018.069 .0247410
1018.660 .0247327
1019.250 .0247252
1019.839 .0247187
1020.429 .0247124
1021.018 .0247070
1021.607 .0247025
1022.195 .0246988
1022.784 .0246965
1023.372 .0246962
1023.960 .0246979
1024.547 .0247016
1025.135 .0247070
1025.722 .0247124
1026.309 .0247171
1026.896 .0247209
1027.483 .0247234
1028.069 .0247249
1028.655 .0247256
1029.241 .0247258
1029.827 .0247260
1030.412 .0247264
1030.997 .0247271
1031.582 .0247270
1032.167 .0247265
1032.752 .0247257
1033.336 .0247232
1033.921 .0247189
1034.505 .0247139
1035.089 .0247082
1035.672 .0247028
1036.256 .0246984
1036.839 .0246941
1037.422 .0246903
1038.005 .0246877
1038.588 .0246861
1039.171 .0246841
1039.753 .0246821
1040.335 .0246791
1040.918 .0246739
1041.500 .0246673
1042.081 .0246589
1042.663 .0246485
1043.244 .0246382
1043.826 .0246279
1044.407 .0246175
1044.988 .0246072
1045.569 .0245978
1046.150 .0245877
1046.730 .0245773
1047.311 .0245659
1047.891 .0245532
1048.471 .0245386
1049.052 .0245236
1049.632 .0245073
1050.211 .0244908
1050.791 .0244749
1051.371 .0244599
1051.950 .0244460
1052.530 .0244326
1053.109 .0244195
1053.688 .0244071
1054.268 .0243943
1054.847 .0243813
1055.426 .0243673
1056.005 .0243532
1056.583 .0243391
1057.162 .0243253
1057.741 .0243114
1058.319 .0242986
1058.898 .0242882
1059.476 .0242797
1060.055 .0242734
1060.633 .0242694
1061.211 .0242667
1061.790 .0242649
1062.368 .0242641
1062.946 .0242633
1063.524 .0242618
1064.102 .0242609
1064.680 .0242600
1065.258 .0242593
1065.836 .0242598
1066.414 .0242613
1066.992 .0242642
1067.570 .0242681
1068.148 .0242713
1068.726 .0242724
1069.304 .0242718
1069.882 .0242688
1070.460 .0242630
1071.038 .0242553
1071.616 .0242474
1072.194 .0242392
1072.772 .0242325
1073.350 .0242283
1073.928 .0242256
1074.506 .0242248
1075.084 .0242253
1075.662 .0242247
1076.240 .0242229
1076.819 .0242184
1077.397 .0242113
1077.976 .0242024
1078.554 .0241924
1079.133 .0241821
1079.711 .0241724
1080.290 .0241654
1080.869 .0241609
1081.448 .0241571
1082.027 .0241553
1082.606 .0241543
1083.185 .0241528
1083.764 .0241508
1084.343 .0241469
1084.923 .0241418
1085.502 .0241372
1086.082 .0241342
1086.662 .0241329
1087.242 .0241350
1087.822 .0241414
1088.402 .0241509
1088.983 .0241642
1089.563 .0241806
1090.144 .0241971
1090.725 .0242125
1091.306 .0242262
1091.887 .0242370
1092.469 .0242429
1093.050 .0242462
1093.632 .0242466
1094.214 .0242471
1094.796 .0242484
1095.379 .0242495
1095.961 .0242519
1096.544 .0242573
1097.127 .0242639
1097.710 .0242698
1098.294 .0242757
1098.877 .0242818
1099.461 .0242870
1100.046 .0242926
1100.630 .0242990
1101.215 .0243090
1101.800 .0243224
1102.385 .0243396
1102.970 .0243606
1103.556 .0243857
1104.142 .0244120
1104.728 .0244391
1105.315 .0244673
1105.902 .0244937
1106.489 .0245187
1107.077 .0245419
1107.664 .0245622
1108.253 .0245816
1108.841 .0246007
1109.430 .0246187
1110.019 .0246368
1110.609 .0246566
1111.198 .0246755
1111.789 .0246955
1112.379 .0247202
1112.970 .0247471
1113.561 .0247780
1114.153 .0248150
1114.745 .0248558
1115.338 .0249005
1115.931 .0249476
1116.524 .0249945
1117.117 .0250411
1117.712 .0250904
1118.306 .0251395
1118.901 .0251903
1119.496 .0252463
1120.092 .0253077
1120.689 .0253731
1121.285 .0254425
1121.882 .0255118
1122.480 .0255805
1123.078 .0256466
1123.677 .0257055
1124.276 .0257561
1124.875 .0258046
1125.476 .0258492
1126.076 .0258971
1126.677 .0259503
1127.279 .0260123
1127.881 .0260826
1128.484 .0261573
1129.087 .0262302
1129.691 .0262996
1130.295 .0263650
1130.900 .0264239
1131.505 .0264757
1132.111 .0265302
1132.718 .0265873
1133.325 .0266544
1133.933 .0267384
1134.541 .0268412
1135.150 .0269590
1135.760 .0270908
1136.370 .0272289
1136.981 .0273692
1137.592 .0275059
1138.204 .0276423
1138.817 .0277796
1139.431 .0279224
1140.045 .0280688
1140.660 .0282180
1141.275 .0283596
1141.891 .0285084
1142.508 .0288299
1143.126 .0289089
1143.744 .0289974
1144.363 .0287701
1144.983 .0291575
