Measurement Sequence started on: 15-12-46-377
Integration time: 28
Scans to Average: 2 
>>>>>Begin Spectral Data<<<<<
432.689 .0000100
433.621 .0000100
434.552 .0000100
435.482 .0000100
436.410 .0000100
437.337 .0000100
438.262 .0258788
439.187 .0549053
440.110 .0909789
441.031 .1317267
441.952 .1713651
442.871 .2027305
443.789 .2201471
444.705 .2216710
445.621 .2096254
446.535 .1891470
447.447 .1658303
448.359 .1298013
449.269 .1119207
450.178 .1005804
451.086 .0924446
451.993 .0861264
452.898 .0810281
453.803 .0768286
454.706 .0733275
455.608 .0703522
456.508 .0677816
457.408 .0655467
458.306 .0635866
459.204 .0618400
460.100 .0602699
460.995 .0588658
461.888 .0576032
462.781 .0564680
463.673 .0554494
464.563 .0545314
465.452 .0536902
466.340 .0529128
467.228 .0521959
468.114 .0515270
468.999 .0509002
469.882 .0503106
470.765 .0497615
471.647 .0492524
472.528 .0487866
473.407 .0483644
474.286 .0479895
475.163 .0476601
476.040 .0473727
476.915 .0471151
477.790 .0468845
478.663 .0466756
479.535 .0464865
480.407 .0463238
481.277 .0461850
482.147 .0460729
483.015 .0459917
483.883 .0459362
484.749 .0459029
485.615 .0458871
486.479 .0458861
487.343 .0458896
488.206 .0459008
489.067 .0459117
489.928 .0459210
490.788 .0459356
491.647 .0459608
492.505 .0459960
493.362 .0460443
494.218 .0461100
495.073 .0461899
495.928 .0462924
496.781 .0464146
497.634 .0465550
498.486 .0467221
499.337 .0469133
500.187 .0471227
501.036 .0473526
501.884 .0476120
502.731 .0478943
503.578 .0482047
504.424 .0485450
505.268 .0489120
506.113 .0493189
506.956 .0497748
507.798 .0503075
508.640 .0509142
509.480 .0516130
510.320 .0524068
511.160 .0533019
511.998 .0542975
512.836 .0553910
513.672 .0565808
514.508 .0578802
515.344 .0592925
516.178 .0608451
517.012 .0625403
517.845 .0644379
518.677 .0665674
519.508 .0689671
520.339 .0716867
521.169 .0747807
521.998 .0782344
522.826 .0821857
523.654 .0866440
524.481 .0916032
525.307 .0971069
526.133 .1031581
526.958 .1096793
527.782 .1166122
528.605 .1238043
529.428 .1311151
530.250 .1380680
531.072 .1445115
531.892 .1499382
532.712 .1541539
533.532 .1569473
534.350 .1580497
535.168 .1573380
535.986 .1549217
536.802 .1508434
537.618 .1453687
538.434 .1387730
539.249 .1315498
540.063 .1238989
540.876 .1162670
541.689 .1088819
542.501 .1019789
543.313 .0957139
544.124 .0901207
544.934 .0850947
545.744 .0806350
546.553 .0766200
547.361 .0730083
548.169 .0697918
548.976 .0669330
549.783 .0643839
550.589 .0621133
551.395 .0600784
552.200 .0582634
553.004 .0566411
553.808 .0551780
554.611 .0538607
555.414 .0527039
556.216 .0516831
557.018 .0507770
557.819 .0499751
558.619 .0492556
559.419 .0485956
560.218 .0479810
561.017 .0473892
561.815 .0467981
562.613 .0462066
563.410 .0456082
564.207 .0450007
565.003 .0443952
565.799 .0437977
566.594 .0432125
567.388 .0426581
568.182 .0421264
568.976 .0416125
569.769 .0411149
570.562 .0406392
571.354 .0401687
572.145 .0397087
572.936 .0392568
573.727 .0388117
574.517 .0383871
575.307 .0379788
576.096 .0375910
576.885 .0372245
577.673 .0368793
578.461 .0365513
579.248 .0362372
580.035 .0359363
580.821 .0356450
581.607 .0353658
582.392 .0351021
583.177 .0348511
583.962 .0346170
584.746 .0344035
585.529 .0342075
586.313 .0340312
587.095 .0338731
587.878 .0337280
588.660 .0335992
589.441 .0334815
590.222 .0333733
591.003 .0332740
591.783 .0331838
592.563 .0330991
593.342 .0330200
594.121 .0329445
594.899 .0328708
595.678 .0327974
596.455 .0327249
597.233 .0326535
598.009 .0325847
598.786 .0325209
599.562 .0324605
600.338 .0324039
601.113 .0323521
601.888 .0323024
602.663 .0322548
603.437 .0322090
604.211 .0321641
604.984 .0321193
605.757 .0320751
606.530 .0320305
607.302 .0319869
608.074 .0319453
608.845 .0319056
609.616 .0318686
610.387 .0318351
611.158 .0318045
611.928 .0317753
612.697 .0317477
613.467 .0317210
614.236 .0316947
615.004 .0316689
615.773 .0316436
616.541 .0316191
617.308 .0315965
618.076 .0315763
618.843 .0315592
619.609 .0315459
620.375 .0315356
621.141 .0315273
621.907 .0315199
622.672 .0315117
623.437 .0315013
624.202 .0314881
624.966 .0314723
625.730 .0314540
626.493 .0314337
627.257 .0314114
628.020 .0313880
628.782 .0313637
629.545 .0313388
630.307 .0313133
631.068 .0312866
631.830 .0312589
632.591 .0312291
633.352 .0311983
634.112 .0311664
634.872 .0311344
635.632 .0311029
636.392 .0310719
637.151 .0310418
637.910 .0310126
638.668 .0309838
639.427 .0309558
640.185 .0309276
640.943 .0308996
641.700 .0308710
642.457 .0308418
643.214 .0308116
643.971 .0307804
644.727 .0307487
645.483 .0307174
646.239 .0306855
646.994 .0306547
647.750 .0306249
648.505 .0305977
649.259 .0305727
650.014 .0305500
650.768 .0305296
651.521 .0305106
652.275 .0304922
653.028 .0304737
653.781 .0304536
654.534 .0304326
655.286 .0304100
656.039 .0303869
656.791 .0303636
657.542 .0303400
658.294 .0303169
659.045 .0302947
659.796 .0302728
660.546 .0302503
661.297 .0302258
662.047 .0301997
662.796 .0301714
663.546 .0301411
664.295 .0301098
665.044 .0300781
665.793 .0300479
666.542 .0300196
667.290 .0299938
668.038 .0299711
668.786 .0299509
669.533 .0299328
670.281 .0299159
671.028 .0298995
671.774 .0298835
672.521 .0298677
673.267 .0298530
674.013 .0298397
674.759 .0298280
675.505 .0298180
676.250 .0298095
676.995 .0298021
677.740 .0297953
678.484 .0297877
679.229 .0297793
679.973 .0297694
680.717 .0297580
681.460 .0297453
682.204 .0297317
682.947 .0297179
683.690 .0297041
684.433 .0296905
685.175 .0296769
685.917 .0296628
686.659 .0296481
687.401 .0296323
688.142 .0296152
688.884 .0295969
689.625 .0295778
690.365 .0295580
691.106 .0295386
691.846 .0295200
692.586 .0295024
693.326 .0294856
694.066 .0294688
694.805 .0294517
695.545 .0294332
696.284 .0294128
697.022 .0293902
697.761 .0293658
698.499 .0293406
699.237 .0293149
699.975 .0292896
700.713 .0292656
701.450 .0292434
702.187 .0292226
702.924 .0292034
703.661 .0291849
704.397 .0291670
705.133 .0291493
705.869 .0291321
706.605 .0291154
707.341 .0290999
708.076 .0290860
708.811 .0290733
709.546 .0290613
710.281 .0290498
711.015 .0290382
711.749 .0290265
712.483 .0290144
713.217 .0290014
713.950 .0289876
714.684 .0289732
715.417 .0289578
716.150 .0289418
716.882 .0289249
717.615 .0289066
718.347 .0288863
719.079 .0288639
719.811 .0288393
720.542 .0288133
721.273 .0287868
722.005 .0287600
722.735 .0287335
723.466 .0287077
724.196 .0286824
724.927 .0286571
725.656 .0286318
726.386 .0286059
727.116 .0285791
727.845 .0285515
728.574 .0285232
729.303 .0284949
730.031 .0284680
730.760 .0284434
731.488 .0284214
732.216 .0284021
732.944 .0283851
733.671 .0283699
734.398 .0283562
735.125 .0283432
735.852 .0283302
736.579 .0283169
737.305 .0283035
738.031 .0282902
738.757 .0282769
739.483 .0282644
740.208 .0282529
740.933 .0282429
741.658 .0282338
742.383 .0282249
743.108 .0282157
743.832 .0282065
744.556 .0281964
745.280 .0281852
746.004 .0281728
746.727 .0281597
747.450 .0281459
748.173 .0281320
748.896 .0281183
749.618 .0281046
750.340 .0280919
751.062 .0280797
751.784 .0280682
752.506 .0280570
753.227 .0280458
753.948 .0280347
754.669 .0280236
755.389 .0280120
756.110 .0279996
756.830 .0279867
757.550 .0279738
758.269 .0279607
758.989 .0279481
759.708 .0279359
760.427 .0279248
761.146 .0279145
761.864 .0279054
762.582 .0278970
763.300 .0278891
764.018 .0278819
764.736 .0278748
765.453 .0278678
766.170 .0278605
766.887 .0278529
767.603 .0278456
768.320 .0278383
769.036 .0278316
769.751 .0278251
770.467 .0278192
771.182 .0278135
771.897 .0278080
772.612 .0278020
773.327 .0277959
774.041 .0277896
774.755 .0277828
775.469 .0277759
776.183 .0277692
776.896 .0277629
777.609 .0277571
778.322 .0277520
779.035 .0277472
779.747 .0277424
780.459 .0277380
781.171 .0277335
781.882 .0277293
782.594 .0277256
783.305 .0277221
784.016 .0277195
784.726 .0277177
785.436 .0277158
786.147 .0277138
786.856 .0277116
787.566 .0277084
788.275 .0277040
788.984 .0276984
789.693 .0276920
790.401 .0276851
791.110 .0276784
791.818 .0276717
792.525 .0276654
793.233 .0276597
793.940 .0276540
794.647 .0276480
795.353 .0276420
796.060 .0276356
796.766 .0276289
797.472 .0276218
798.177 .0276146
798.883 .0276070
799.588 .0275995
800.292 .0275920
800.997 .0275841
801.701 .0275754
802.405 .0275661
803.109 .0275556
803.812 .0275446
804.515 .0275324
805.218 .0275191
805.921 .0275049
806.623 .0274898
807.325 .0274737
808.027 .0274568
808.728 .0274394
809.429 .0274219
810.130 .0274039
810.831 .0273860
811.531 .0273676
812.231 .0273492
812.931 .0273305
813.630 .0273117
814.330 .0272924
815.029 .0272728
815.727 .0272528
816.426 .0272326
817.124 .0272124
817.821 .0271922
818.519 .0271722
819.216 .0271526
819.913 .0271333
820.609 .0271142
821.306 .0270952
822.002 .0270771
822.697 .0270598
823.393 .0270437
824.088 .0270288
824.783 .0270148
825.477 .0270018
826.171 .0269895
826.865 .0269782
827.559 .0269675
828.252 .0269577
828.945 .0269485
829.638 .0269395
830.330 .0269310
831.023 .0269227
831.714 .0269141
832.406 .0269056
833.097 .0268964
833.788 .0268860
834.479 .0268741
835.169 .0268613
835.859 .0268474
836.548 .0268328
837.238 .0268175
837.927 .0268019
838.615 .0267857
839.304 .0267692
839.992 .0267524
840.680 .0267356
841.367 .0267191
842.054 .0267029
842.741 .0266870
843.428 .0266718
844.114 .0266571
844.800 .0266426
845.485 .0266282
846.170 .0266138
846.855 .0265990
847.540 .0265836
848.224 .0265680
848.908 .0265521
849.592 .0265364
850.275 .0265208
850.958 .0265052
851.641 .0264900
852.323 .0264746
853.005 .0264587
853.687 .0264421
854.368 .0264244
855.049 .0264058
855.730 .0263864
856.410 .0263665
857.090 .0263464
857.769 .0263263
858.449 .0263064
859.128 .0262867
859.806 .0262674
860.485 .0262487
861.163 .0262305
861.840 .0262130
862.518 .0261960
863.195 .0261790
863.871 .0261624
864.548 .0261462
865.224 .0261305
865.899 .0261154
866.574 .0261006
867.249 .0260864
867.924 .0260730
868.598 .0260603
869.272 .0260484
869.946 .0260374
870.619 .0260275
871.292 .0260183
871.964 .0260096
872.636 .0260010
873.308 .0259925
873.979 .0259844
874.651 .0259765
875.321 .0259685
875.992 .0259608
876.662 .0259538
877.331 .0259476
878.001 .0259424
878.670 .0259384
879.338 .0259358
880.007 .0259342
880.675 .0259336
881.342 .0259335
882.009 .0259342
882.676 .0259355
883.343 .0259373
884.009 .0259400
884.675 .0259435
885.340 .0259478
886.005 .0259528
886.670 .0259591
887.334 .0259662
887.998 .0259736
888.662 .0259815
889.325 .0259895
889.988 .0259973
890.650 .0260052
891.312 .0260131
891.974 .0260212
892.636 .0260299
893.297 .0260387
893.957 .0260473
894.618 .0260557
895.278 .0260633
895.937 .0260704
896.596 .0260778
897.255 .0260856
897.914 .0260939
898.572 .0261029
899.230 .0261132
899.887 .0261241
900.544 .0261352
901.201 .0261457
901.857 .0261547
902.513 .0261622
903.168 .0261669
903.823 .0261687
904.478 .0261685
905.132 .0261665
905.786 .0261634
906.440 .0261594
907.093 .0261547
907.746 .0261488
908.399 .0261420
909.051 .0261340
909.703 .0261243
910.354 .0261128
911.005 .0261001
911.656 .0260859
912.306 .0260706
912.956 .0260552
913.605 .0260400
914.254 .0260258
914.903 .0260127
915.551 .0260003
916.199 .0259888
916.847 .0259781
917.494 .0259681
918.141 .0259581
918.788 .0259483
919.434 .0259386
920.079 .0259282
920.725 .0259179
921.370 .0259076
922.014 .0258972
922.658 .0258877
923.302 .0258788
923.946 .0258700
924.589 .0258612
925.231 .0258519
925.873 .0258422
926.515 .0258319
927.157 .0258211
927.798 .0258097
928.439 .0257978
929.079 .0257859
929.719 .0257733
930.359 .0257599
930.998 .0257457
931.637 .0257309
932.275 .0257154
932.913 .0256989
933.551 .0256817
934.188 .0256646
934.825 .0256482
935.462 .0256326
936.098 .0256176
936.733 .0256041
937.369 .0255914
938.004 .0255797
938.638 .0255682
939.273 .0255576
939.907 .0255475
940.540 .0255382
941.173 .0255298
941.806 .0255226
942.438 .0255167
943.070 .0255116
943.702 .0255071
944.333 .0255027
944.964 .0254978
945.594 .0254923
946.224 .0254858
946.854 .0254790
947.483 .0254714
948.112 .0254633
948.741 .0254546
949.369 .0254461
949.996 .0254375
950.624 .0254282
951.251 .0254183
951.878 .0254076
952.504 .0253957
953.130 .0253823
953.755 .0253678
954.380 .0253526
955.005 .0253370
955.629 .0253212
956.253 .0253051
956.877 .0252895
957.500 .0252742
958.123 .0252595
958.746 .0252448
959.368 .0252300
959.990 .0252146
960.611 .0251981
961.232 .0251813
961.853 .0251642
962.473 .0251478
963.093 .0251319
963.712 .0251167
964.331 .0251019
964.950 .0250870
965.569 .0250720
966.187 .0250566
966.804 .0250411
967.422 .0250253
968.039 .0250091
968.655 .0249929
969.272 .0249768
969.887 .0249607
970.503 .0249449
971.118 .0249291
971.733 .0249131
972.347 .0248965
972.961 .0248792
973.575 .0248618
974.188 .0248438
974.801 .0248254
975.414 .0248070
976.026 .0247879
976.638 .0247681
977.250 .0247477
977.861 .0247269
978.472 .0247062
979.083 .0246859
979.693 .0246661
980.303 .0246465
980.912 .0246275
981.521 .0246085
982.130 .0245889
982.738 .0245688
983.346 .0245481
983.954 .0245260
984.562 .0245035
985.169 .0244801
985.775 .0244565
986.382 .0244329
986.988 .0244097
987.594 .0243869
988.199 .0243642
988.804 .0243420
989.409 .0243196
990.013 .0242972
990.617 .0242757
991.221 .0242543
991.824 .0242339
992.427 .0242150
993.030 .0241977
993.632 .0241820
994.234 .0241680
994.836 .0241560
995.438 .0241457
996.039 .0241372
996.640 .0241296
997.240 .0241225
997.840 .0241163
998.440 .0241106
999.040 .0241046
999.639 .0240987
1000.238 .0240922
1000.836 .0240849
1001.435 .0240769
1002.033 .0240679
1002.630 .0240581
1003.228 .0240479
1003.825 .0240374
1004.422 .0240272
1005.018 .0240172
1005.614 .0240081
1006.210 .0239996
1006.806 .0239920
1007.401 .0239849
1007.996 .0239773
1008.591 .0239700
1009.186 .0239625
1009.780 .0239545
1010.374 .0239466
1010.967 .0239387
1011.561 .0239315
1012.154 .0239250
1012.746 .0239191
1013.339 .0239136
1013.931 .0239087
1014.523 .0239043
1015.115 .0238998
1015.706 .0238951
1016.298 .0238907
1016.888 .0238866
1017.479 .0238834
1018.069 .0238817
1018.660 .0238807
1019.250 .0238818
1019.839 .0238849
1020.429 .0238896
1021.018 .0238956
1021.607 .0239029
1022.195 .0239114
1022.784 .0239209
1023.372 .0239315
1023.960 .0239434
1024.547 .0239562
1025.135 .0239707
1025.722 .0239863
1026.309 .0240033
1026.896 .0240214
1027.483 .0240403
1028.069 .0240591
1028.655 .0240779
1029.241 .0240950
1029.827 .0241107
1030.412 .0241243
1030.997 .0241374
1031.582 .0241491
1032.167 .0241599
1032.752 .0241707
1033.336 .0241816
1033.921 .0241920
1034.505 .0242018
1035.089 .0242099
1035.672 .0242172
1036.256 .0242227
1036.839 .0242274
1037.422 .0242309
1038.005 .0242347
1038.588 .0242387
1039.171 .0242440
1039.753 .0242500
1040.335 .0242571
1040.918 .0242636
1041.500 .0242698
1042.081 .0242753
1042.663 .0242790
1043.244 .0242815
1043.826 .0242824
1044.407 .0242824
1044.988 .0242815
1045.569 .0242790
1046.150 .0242763
1046.730 .0242727
1047.311 .0242700
1047.891 .0242674
1048.471 .0242659
1049.052 .0242667
1049.632 .0242700
1050.211 .0242779
1050.791 .0242887
1051.371 .0243034
1051.950 .0243208
1052.530 .0243403
1053.109 .0243605
1053.688 .0243801
1054.268 .0243988
1054.847 .0244160
1055.426 .0244320
1056.005 .0244460
1056.583 .0244585
1057.162 .0244701
1057.741 .0244807
1058.319 .0244905
1058.898 .0244983
1059.476 .0245047
1060.055 .0245089
1060.633 .0245120
1061.211 .0245132
1061.790 .0245138
1062.368 .0245154
1062.946 .0245189
1063.524 .0245264
1064.102 .0245374
1064.680 .0245533
1065.258 .0245730
1065.836 .0245957
1066.414 .0246193
1066.992 .0246415
1067.570 .0246623
1068.148 .0246804
1068.726 .0246957
1069.304 .0247085
1069.882 .0247198
1070.460 .0247310
1071.038 .0247418
1071.616 .0247527
1072.194 .0247621
1072.772 .0247706
1073.350 .0247781
1073.928 .0247838
1074.506 .0247880
1075.084 .0247922
1075.662 .0247972
1076.240 .0248043
1076.819 .0248143
1077.397 .0248273
1077.976 .0248434
1078.554 .0248624
1079.133 .0248827
1079.711 .0249021
1080.290 .0249204
1080.869 .0249373
1081.448 .0249518
1082.027 .0249643
1082.606 .0249751
1083.185 .0249855
1083.764 .0249969
1084.343 .0250102
1084.923 .0250250
1085.502 .0250427
1086.082 .0250629
1086.662 .0250851
1087.242 .0251083
1087.822 .0251319
1088.402 .0251553
1088.983 .0251794
1089.563 .0252026
1090.144 .0252258
1090.725 .0252484
1091.306 .0252718
1091.887 .0252961
1092.469 .0253220
1093.050 .0253495
1093.632 .0253786
1094.214 .0254082
1094.796 .0254385
1095.379 .0254660
1095.961 .0254918
1096.544 .0255138
1097.127 .0255327
1097.710 .0255483
1098.294 .0255607
1098.877 .0255705
1099.461 .0255812
1100.046 .0255950
1100.630 .0256133
1101.215 .0256365
1101.800 .0256651
1102.385 .0256963
1102.970 .0257296
1103.556 .0257607
1104.142 .0257889
1104.728 .0258148
1105.315 .0258386
1105.902 .0258612
1106.489 .0258864
1107.077 .0259162
1107.664 .0259542
1108.253 .0259991
1108.841 .0260524
1109.430 .0261077
1110.019 .0261610
1110.609 .0262104
1111.198 .0262529
1111.789 .0262886
1112.379 .0263190
1112.970 .0263461
1113.561 .0263760
1114.153 .0264106
1114.745 .0264501
1115.338 .0264964
1115.931 .0265488
1116.524 .0266033
1117.117 .0266544
1117.712 .0267000
1118.306 .0267418
1118.901 .0267756
1119.496 .0268059
1120.092 .0268360
1120.689 .0268672
1121.285 .0269025
1121.882 .0269380
1122.480 .0269777
1123.078 .0270209
1123.677 .0270637
1124.276 .0271053
1124.875 .0271477
1125.476 .0271914
1126.076 .0272345
1126.677 .0272795
1127.279 .0273273
1127.881 .0273751
1128.484 .0274248
1129.087 .0274722
1129.691 .0275230
1130.295 .0275767
1130.900 .0276355
1131.505 .0276987
1132.111 .0277749
1132.718 .0278595
1133.325 .0279495
1133.933 .0280445
1134.541 .0281438
1135.150 .0282383
1135.760 .0283279
1136.370 .0284079
1136.981 .0284840
1137.592 .0285573
1138.204 .0286333
1138.817 .0287133
1139.431 .0288058
1140.045 .0289035
1140.660 .0290012
1141.275 .0290964
1141.891 .0291934
1142.508 .0294518
1143.126 .0293900
1143.744 .0292930
1144.363 .0293865
1144.983 .0296895
