Measurement Sequence started on: 15-12-46-377
Integration time: 28
Scans to Average: 2 
>>>>>Begin Spectral Data<<<<<
432.689 .0000100
433.621 .0000100
434.552 .0000100
435.482 .0000100
436.410 .0000100
437.337 .0000100
438.262 .0289994
439.187 .0614259
440.110 .1017425
441.031 .1471756
441.952 .1912173
442.871 .2258362
443.789 .2447130
444.705 .2456699
445.621 .2314072
446.535 .2077046
447.447 .1809114
448.359 .1400479
449.269 .1197595
450.178 .1069301
451.086 .0979095
451.993 .0910457
452.898 .0856045
453.803 .0811767
454.706 .0775162
455.608 .0743859
456.508 .0716821
457.408 .0693255
458.306 .0672392
459.204 .0653934
460.100 .0637533
460.995 .0623051
461.888 .0610414
462.781 .0599132
463.673 .0588817
464.563 .0579525
465.452 .0570780
466.340 .0562549
467.228 .0554695
468.114 .0547228
468.999 .0540174
469.882 .0533533
470.765 .0527323
471.647 .0521652
472.528 .0516553
473.407 .0512031
474.286 .0508007
475.163 .0504437
476.040 .0501198
476.915 .0498157
477.790 .0495255
478.663 .0492488
479.535 .0489802
480.407 .0487361
481.277 .0485077
482.147 .0483120
483.015 .0481531
483.883 .0480301
484.749 .0479428
485.615 .0478860
486.479 .0478515
487.343 .0478326
488.206 .0478126
489.067 .0477824
489.928 .0477511
490.788 .0477206
491.647 .0477047
492.505 .0477142
493.362 .0477533
494.218 .0478352
495.073 .0479555
495.928 .0481168
496.781 .0483036
497.634 .0485182
498.486 .0487572
499.337 .0490095
500.187 .0492863
501.036 .0495870
501.884 .0499214
502.731 .0503052
503.578 .0507308
504.424 .0511938
505.268 .0516870
506.113 .0522040
506.956 .0527373
507.798 .0532960
508.640 .0538633
509.480 .0544596
510.320 .0550964
511.160 .0557953
511.998 .0565671
512.836 .0574282
513.672 .0583885
514.508 .0594631
515.344 .0606727
516.178 .0620414
517.012 .0635981
517.845 .0654271
518.677 .0675393
519.508 .0699708
520.339 .0727698
521.169 .0760119
521.998 .0797130
522.826 .0839539
523.654 .0887673
524.481 .0941958
525.307 .1002916
526.133 .1069863
526.958 .1142229
527.782 .1219090
528.605 .1298326
529.428 .1378106
530.250 .1452918
531.072 .1521125
531.892 .1578424
532.712 .1622250
533.532 .1651343
534.350 .1662924
535.168 .1656241
535.986 .1631708
536.802 .1590793
537.618 .1535600
538.434 .1468434
539.249 .1394191
540.063 .1315203
540.876 .1235848
541.689 .1158892
542.501 .1086234
543.313 .1020206
544.124 .0961368
544.934 .0908551
545.744 .0861033
546.553 .0818565
547.361 .0780663
548.169 .0747189
548.976 .0717337
549.783 .0690994
550.589 .0667769
551.395 .0647203
552.200 .0629086
553.004 .0612764
553.808 .0598060
554.611 .0584684
555.414 .0572558
556.216 .0561614
557.018 .0551825
557.819 .0542935
558.619 .0534750
559.419 .0527075
560.218 .0519682
561.017 .0512392
561.815 .0505059
562.613 .0497652
563.410 .0490247
564.207 .0482888
565.003 .0475668
565.799 .0468617
566.594 .0461852
567.388 .0455344
568.182 .0449121
568.976 .0443088
569.769 .0437185
570.562 .0431379
571.354 .0425677
572.145 .0420091
572.936 .0414581
573.727 .0409173
574.517 .0403915
575.307 .0398876
576.096 .0394078
576.885 .0389535
577.673 .0385266
578.461 .0381292
579.248 .0377563
580.035 .0374081
580.821 .0370834
581.607 .0367759
582.392 .0364851
583.177 .0362112
583.962 .0359535
584.746 .0357134
585.529 .0354898
586.313 .0352874
587.095 .0351041
587.878 .0349372
588.660 .0347849
589.441 .0346449
590.222 .0345143
591.003 .0343935
591.783 .0342804
592.563 .0341752
593.342 .0340779
594.121 .0339868
594.899 .0339028
595.678 .0338257
596.455 .0337548
597.233 .0336884
598.009 .0336259
598.786 .0335669
599.562 .0335088
600.338 .0334530
601.113 .0334001
601.888 .0333505
602.663 .0333054
603.437 .0332638
604.211 .0332242
604.984 .0331866
605.757 .0331512
606.530 .0331164
607.302 .0330823
608.074 .0330491
608.845 .0330166
609.616 .0329849
610.387 .0329549
611.158 .0329266
611.928 .0329006
612.697 .0328772
613.467 .0328561
614.236 .0328364
615.004 .0328177
615.773 .0327998
616.541 .0327828
617.308 .0327674
618.076 .0327535
618.843 .0327413
619.609 .0327317
620.375 .0327248
621.141 .0327197
621.907 .0327154
622.672 .0327121
623.437 .0327086
624.202 .0327036
624.966 .0326966
625.730 .0326877
626.493 .0326757
627.257 .0326610
628.020 .0326432
628.782 .0326222
629.545 .0325983
630.307 .0325707
631.068 .0325400
631.830 .0325060
632.591 .0324684
633.352 .0324277
634.112 .0323839
634.872 .0323387
635.632 .0322918
636.392 .0322434
637.151 .0321949
637.910 .0321469
638.668 .0320996
639.427 .0320534
640.185 .0320086
640.943 .0319655
641.700 .0319237
642.457 .0318834
643.214 .0318443
643.971 .0318053
644.727 .0317676
645.483 .0317304
646.239 .0316936
646.994 .0316575
647.750 .0316222
648.505 .0315878
649.259 .0315550
650.014 .0315238
650.768 .0314931
651.521 .0314627
652.275 .0314326
653.028 .0314016
653.781 .0313703
654.534 .0313386
655.286 .0313066
656.039 .0312750
656.791 .0312444
657.542 .0312137
658.294 .0311833
659.045 .0311536
659.796 .0311237
660.546 .0310927
661.297 .0310607
662.047 .0310268
662.796 .0309912
663.546 .0309553
664.295 .0309192
665.044 .0308837
665.793 .0308495
666.542 .0308167
667.290 .0307855
668.038 .0307558
668.786 .0307270
669.533 .0306992
670.281 .0306727
671.028 .0306472
671.774 .0306223
672.521 .0305995
673.267 .0305797
674.013 .0305632
674.759 .0305499
675.505 .0305393
676.250 .0305304
676.995 .0305223
677.740 .0305141
678.484 .0305055
679.229 .0304965
679.973 .0304868
680.717 .0304770
681.460 .0304675
682.204 .0304585
682.947 .0304503
683.690 .0304435
684.433 .0304374
685.175 .0304311
685.917 .0304240
686.659 .0304155
687.401 .0304057
688.142 .0303951
688.884 .0303837
689.625 .0303725
690.365 .0303614
691.106 .0303507
691.846 .0303402
692.586 .0303305
693.326 .0303207
694.066 .0303106
694.805 .0303000
695.545 .0302882
696.284 .0302748
697.022 .0302606
697.761 .0302455
698.499 .0302299
699.237 .0302144
699.975 .0301994
700.713 .0301851
701.450 .0301721
702.187 .0301599
702.924 .0301483
703.661 .0301376
704.397 .0301268
705.133 .0301154
705.869 .0301039
706.605 .0300923
707.341 .0300803
708.076 .0300685
708.811 .0300566
709.546 .0300439
710.281 .0300308
711.015 .0300167
711.749 .0300011
712.483 .0299840
713.217 .0299652
713.950 .0299445
714.684 .0299232
715.417 .0299011
716.150 .0298787
716.882 .0298566
717.615 .0298347
718.347 .0298124
719.079 .0297903
719.811 .0297679
720.542 .0297451
721.273 .0297222
722.005 .0296988
722.735 .0296745
723.466 .0296501
724.196 .0296248
724.927 .0295987
725.656 .0295720
726.386 .0295444
727.116 .0295150
727.845 .0294850
728.574 .0294540
729.303 .0294222
730.031 .0293904
730.760 .0293586
731.488 .0293265
732.216 .0292950
732.944 .0292638
733.671 .0292331
734.398 .0292039
735.125 .0291763
735.852 .0291503
736.579 .0291260
737.305 .0291036
738.031 .0290826
738.757 .0290625
739.483 .0290431
740.208 .0290233
740.933 .0290039
741.658 .0289843
742.383 .0289643
743.108 .0289448
743.832 .0289256
744.556 .0289070
745.280 .0288890
746.004 .0288712
746.727 .0288537
747.450 .0288360
748.173 .0288180
748.896 .0287998
749.618 .0287813
750.340 .0287629
751.062 .0287448
751.784 .0287273
752.506 .0287104
753.227 .0286934
753.948 .0286767
754.669 .0286602
755.389 .0286432
756.110 .0286260
756.830 .0286082
757.550 .0285898
758.269 .0285714
758.989 .0285523
759.708 .0285334
760.427 .0285142
761.146 .0284952
761.864 .0284759
762.582 .0284561
763.300 .0284368
764.018 .0284175
764.736 .0283988
765.453 .0283808
766.170 .0283631
766.887 .0283459
767.603 .0283296
768.320 .0283139
769.036 .0282991
769.751 .0282851
770.467 .0282722
771.182 .0282608
771.897 .0282507
772.612 .0282423
773.327 .0282360
774.041 .0282312
774.755 .0282284
775.469 .0282263
776.183 .0282255
776.896 .0282256
777.609 .0282270
778.322 .0282288
779.035 .0282314
779.747 .0282352
780.459 .0282395
781.171 .0282444
781.882 .0282501
782.594 .0282562
783.305 .0282626
784.016 .0282696
784.726 .0282768
785.436 .0282840
786.147 .0282917
786.856 .0282992
787.566 .0283066
788.275 .0283131
788.984 .0283186
789.693 .0283226
790.401 .0283255
791.110 .0283275
791.818 .0283282
792.525 .0283287
793.233 .0283291
793.940 .0283290
794.647 .0283286
795.353 .0283277
796.060 .0283263
796.766 .0283239
797.472 .0283206
798.177 .0283168
798.883 .0283129
799.588 .0283093
800.292 .0283065
800.997 .0283050
801.701 .0283042
802.405 .0283038
803.109 .0283033
803.812 .0283024
804.515 .0283004
805.218 .0282969
805.921 .0282918
806.623 .0282856
807.325 .0282786
808.027 .0282707
808.728 .0282624
809.429 .0282540
810.130 .0282445
810.831 .0282337
811.531 .0282213
812.231 .0282069
812.931 .0281902
813.630 .0281717
814.330 .0281523
815.029 .0281322
815.727 .0281123
816.426 .0280930
817.124 .0280747
817.821 .0280577
818.519 .0280416
819.216 .0280261
819.913 .0280110
820.609 .0279963
821.306 .0279812
822.002 .0279662
822.697 .0279518
823.393 .0279383
824.088 .0279259
824.783 .0279147
825.477 .0279048
826.171 .0278954
826.865 .0278867
827.559 .0278784
828.252 .0278698
828.945 .0278609
829.638 .0278516
830.330 .0278417
831.023 .0278310
831.714 .0278200
832.406 .0278084
833.097 .0277962
833.788 .0277838
834.479 .0277707
835.169 .0277569
835.859 .0277432
836.548 .0277292
837.238 .0277149
837.927 .0277006
838.615 .0276860
839.304 .0276708
839.992 .0276552
840.680 .0276393
841.367 .0276226
842.054 .0276054
842.741 .0275880
843.428 .0275701
844.114 .0275518
844.800 .0275332
845.485 .0275138
846.170 .0274940
846.855 .0274737
847.540 .0274529
848.224 .0274317
848.908 .0274106
849.592 .0273897
850.275 .0273686
850.958 .0273473
851.641 .0273258
852.323 .0273036
853.005 .0272805
853.687 .0272565
854.368 .0272314
855.049 .0272057
855.730 .0271794
856.410 .0271526
857.090 .0271255
857.769 .0270979
858.449 .0270700
859.128 .0270411
859.806 .0270115
860.485 .0269817
861.163 .0269514
861.840 .0269215
862.518 .0268922
863.195 .0268635
863.871 .0268355
864.548 .0268083
865.224 .0267816
865.899 .0267553
866.574 .0267294
867.249 .0267040
867.924 .0266788
868.598 .0266543
869.272 .0266305
869.946 .0266077
870.619 .0265860
871.292 .0265650
871.964 .0265442
872.636 .0265240
873.308 .0265038
873.979 .0264840
874.651 .0264646
875.321 .0264459
875.992 .0264282
876.662 .0264119
877.331 .0263970
878.001 .0263837
878.670 .0263718
879.338 .0263618
880.007 .0263529
880.675 .0263452
881.342 .0263389
882.009 .0263334
882.676 .0263290
883.343 .0263251
884.009 .0263218
884.675 .0263189
885.340 .0263163
886.005 .0263141
886.670 .0263127
887.334 .0263122
887.998 .0263127
888.662 .0263136
889.325 .0263153
889.988 .0263175
890.650 .0263198
891.312 .0263219
891.974 .0263245
892.636 .0263272
893.297 .0263308
893.957 .0263351
894.618 .0263406
895.278 .0263473
895.937 .0263554
896.596 .0263644
897.255 .0263739
897.914 .0263834
898.572 .0263925
899.230 .0264006
899.887 .0264081
900.544 .0264141
901.201 .0264191
901.857 .0264234
902.513 .0264270
903.168 .0264295
903.823 .0264307
904.478 .0264302
905.132 .0264282
905.786 .0264244
906.440 .0264186
907.093 .0264106
907.746 .0264010
908.399 .0263900
909.051 .0263776
909.703 .0263644
910.354 .0263507
911.005 .0263371
911.656 .0263242
912.306 .0263118
912.956 .0263003
913.605 .0262900
914.254 .0262810
914.903 .0262734
915.551 .0262670
916.199 .0262620
916.847 .0262585
917.494 .0262564
918.141 .0262556
918.788 .0262560
919.434 .0262575
920.079 .0262597
920.725 .0262626
921.370 .0262660
922.014 .0262695
922.658 .0262723
923.302 .0262748
923.946 .0262760
924.589 .0262757
925.231 .0262732
925.873 .0262689
926.515 .0262629
927.157 .0262559
927.798 .0262476
928.439 .0262386
929.079 .0262295
929.719 .0262203
930.359 .0262104
930.998 .0262004
931.637 .0261903
932.275 .0261800
932.913 .0261701
933.551 .0261613
934.188 .0261536
934.825 .0261477
935.462 .0261437
936.098 .0261418
936.733 .0261417
937.369 .0261435
938.004 .0261461
938.638 .0261491
939.273 .0261528
939.907 .0261563
940.540 .0261597
941.173 .0261636
941.806 .0261681
942.438 .0261730
943.070 .0261785
943.702 .0261839
944.333 .0261890
944.964 .0261937
945.594 .0261974
946.224 .0261998
946.854 .0262012
947.483 .0262020
948.112 .0262023
948.741 .0262021
949.369 .0262023
949.996 .0262020
950.624 .0262018
951.251 .0262015
951.878 .0262009
952.504 .0261996
953.130 .0261977
953.755 .0261950
954.380 .0261917
955.005 .0261875
955.629 .0261826
956.253 .0261771
956.877 .0261718
957.500 .0261662
958.123 .0261606
958.746 .0261548
959.368 .0261489
959.990 .0261427
960.611 .0261357
961.232 .0261280
961.853 .0261193
962.473 .0261100
963.093 .0261002
963.712 .0260894
964.331 .0260781
964.950 .0260662
965.569 .0260542
966.187 .0260419
966.804 .0260298
967.422 .0260182
968.039 .0260069
968.655 .0259959
969.272 .0259845
969.887 .0259726
970.503 .0259601
971.118 .0259469
971.733 .0259330
972.347 .0259187
972.961 .0259047
973.575 .0258911
974.188 .0258784
974.801 .0258664
975.414 .0258548
976.026 .0258425
976.638 .0258290
977.250 .0258137
977.861 .0257957
978.472 .0257754
979.083 .0257534
979.693 .0257298
980.303 .0257054
980.912 .0256806
981.521 .0256556
982.130 .0256307
982.738 .0256058
983.346 .0255802
983.954 .0255533
984.562 .0255251
985.169 .0254950
985.775 .0254631
986.382 .0254304
986.988 .0253976
987.594 .0253652
988.199 .0253341
988.804 .0253050
989.409 .0252770
990.013 .0252510
990.617 .0252264
991.221 .0252021
991.824 .0251782
992.427 .0251543
993.030 .0251304
993.632 .0251070
994.234 .0250850
994.836 .0250642
995.438 .0250452
996.039 .0250280
996.640 .0250119
997.240 .0249967
997.840 .0249822
998.440 .0249675
999.040 .0249523
999.639 .0249367
1000.238 .0249208
1000.836 .0249048
1001.435 .0248897
1002.033 .0248755
1002.630 .0248624
1003.228 .0248505
1003.825 .0248392
1004.422 .0248284
1005.018 .0248177
1005.614 .0248067
1006.210 .0247956
1006.806 .0247843
1007.401 .0247732
1007.996 .0247619
1008.591 .0247509
1009.186 .0247406
1009.780 .0247305
1010.374 .0247202
1010.967 .0247095
1011.561 .0246983
1012.154 .0246863
1012.746 .0246739
1013.339 .0246607
1013.931 .0246476
1014.523 .0246347
1015.115 .0246224
1015.706 .0246102
1016.298 .0245988
1016.888 .0245881
1017.479 .0245781
1018.069 .0245691
1018.660 .0245607
1019.250 .0245526
1019.839 .0245456
1020.429 .0245395
1021.018 .0245341
1021.607 .0245294
1022.195 .0245255
1022.784 .0245217
1023.372 .0245183
1023.960 .0245147
1024.547 .0245108
1025.135 .0245070
1025.722 .0245038
1026.309 .0245004
1026.896 .0244976
1027.483 .0244955
1028.069 .0244937
1028.655 .0244929
1029.241 .0244930
1029.827 .0244930
1030.412 .0244924
1030.997 .0244918
1031.582 .0244907
1032.167 .0244891
1032.752 .0244879
1033.336 .0244868
1033.921 .0244864
1034.505 .0244865
1035.089 .0244868
1035.672 .0244868
1036.256 .0244872
1036.839 .0244873
1037.422 .0244862
1038.005 .0244851
1038.588 .0244837
1039.171 .0244829
1039.753 .0244828
1040.335 .0244843
1040.918 .0244864
1041.500 .0244886
1042.081 .0244909
1042.663 .0244913
1043.244 .0244904
1043.826 .0244878
1044.407 .0244837
1044.988 .0244786
1045.569 .0244734
1046.150 .0244682
1046.730 .0244635
1047.311 .0244600
1047.891 .0244574
1048.471 .0244552
1049.052 .0244524
1049.632 .0244496
1050.211 .0244466
1050.791 .0244439
1051.371 .0244433
1051.950 .0244441
1052.530 .0244477
1053.109 .0244520
1053.688 .0244574
1054.268 .0244631
1054.847 .0244690
1055.426 .0244740
1056.005 .0244781
1056.583 .0244812
1057.162 .0244835
1057.741 .0244840
1058.319 .0244844
1058.898 .0244849
1059.476 .0244850
1060.055 .0244846
1060.633 .0244837
1061.211 .0244817
1061.790 .0244805
1062.368 .0244796
1062.946 .0244804
1063.524 .0244827
1064.102 .0244878
1064.680 .0244938
1065.258 .0245012
1065.836 .0245100
1066.414 .0245187
1066.992 .0245269
1067.570 .0245356
1068.148 .0245440
1068.726 .0245517
1069.304 .0245611
1069.882 .0245719
1070.460 .0245832
1071.038 .0245953
1071.616 .0246068
1072.194 .0246175
1072.772 .0246273
1073.350 .0246366
1073.928 .0246441
1074.506 .0246515
1075.084 .0246604
1075.662 .0246697
1076.240 .0246810
1076.819 .0246940
1077.397 .0247078
1077.976 .0247217
1078.554 .0247367
1079.133 .0247500
1079.711 .0247614
1080.290 .0247727
1080.869 .0247826
1081.448 .0247903
1082.027 .0247980
1082.606 .0248065
1083.185 .0248159
1083.764 .0248272
1084.343 .0248403
1084.923 .0248546
1085.502 .0248714
1086.082 .0248897
1086.662 .0249096
1087.242 .0249315
1087.822 .0249562
1088.402 .0249824
1088.983 .0250107
1089.563 .0250426
1090.144 .0250768
1090.725 .0251133
1091.306 .0251525
1091.887 .0251944
1092.469 .0252377
1093.050 .0252814
1093.632 .0253253
1094.214 .0253685
1094.796 .0254093
1095.379 .0254458
1095.961 .0254785
1096.544 .0255069
1097.127 .0255331
1097.710 .0255555
1098.294 .0255762
1098.877 .0255965
1099.461 .0256171
1100.046 .0256381
1100.630 .0256608
1101.215 .0256859
1101.800 .0257130
1102.385 .0257420
1102.970 .0257741
1103.556 .0258080
1104.142 .0258452
1104.728 .0258848
1105.315 .0259283
1105.902 .0259724
1106.489 .0260209
1107.077 .0260706
1107.664 .0261237
1108.253 .0261777
1108.841 .0262331
1109.430 .0262897
1110.019 .0263450
1110.609 .0263991
1111.198 .0264509
1111.789 .0264983
1112.379 .0265441
1112.970 .0265857
1113.561 .0266252
1114.153 .0266632
1114.745 .0267012
1115.338 .0267381
1115.931 .0267748
1116.524 .0268105
1117.117 .0268465
1117.712 .0268804
1118.306 .0269158
1118.901 .0269518
1119.496 .0269875
1120.092 .0270268
1120.689 .0270680
1121.285 .0271114
1121.882 .0271568
1122.480 .0272045
1123.078 .0272542
1123.677 .0273033
1124.276 .0273557
1124.875 .0274099
1125.476 .0274685
1126.076 .0275351
1126.677 .0276077
1127.279 .0276850
1127.881 .0277678
1128.484 .0278546
1129.087 .0279425
1129.691 .0280337
1130.295 .0281281
1130.900 .0282212
1131.505 .0283174
1132.111 .0284171
1132.718 .0285176
1133.325 .0286240
1133.933 .0287368
1134.541 .0288523
1135.150 .0289695
1135.760 .0290874
1136.370 .0292020
1136.981 .0293155
1137.592 .0294264
1138.204 .0295303
1138.817 .0296282
1139.431 .0297307
1140.045 .0298383
1140.660 .0299449
1141.275 .0300514
1141.891 .0301576
1142.508 .0303633
1143.126 .0306131
1143.744 .0304776
1144.363 .0304373
1144.983 .0305446
