Measurement Sequence started on: 15-12-46-377
Integration time: 28
Scans to Average: 2 
>>>>>Begin Spectral Data<<<<<
432.689 .0000100
433.621 .0000100
434.552 .0000100
435.482 .0000100
436.410 .0000100
437.337 .0000100
438.262 .0292590
439.187 .0618551
440.110 .1023658
441.031 .1479154
441.952 .1920084
442.871 .2265357
443.789 .2451652
444.705 .2458207
445.621 .2312252
446.535 .2072626
447.447 .1803139
448.359 .1392414
449.269 .1190159
450.178 .1062411
451.086 .0972519
451.993 .0903238
452.898 .0847684
453.803 .0801869
454.706 .0763280
455.608 .0730338
456.508 .0701953
457.408 .0677415
458.306 .0655966
459.204 .0637147
460.100 .0620338
460.995 .0605449
461.888 .0592195
462.781 .0580214
463.673 .0569255
464.563 .0559292
465.452 .0550160
466.340 .0541753
467.228 .0534260
468.114 .0527593
468.999 .0521653
469.882 .0516357
470.765 .0511601
471.647 .0507198
472.528 .0503038
473.407 .0499147
474.286 .0495533
475.163 .0492137
476.040 .0489128
476.915 .0486369
477.790 .0483918
478.663 .0481738
479.535 .0479782
480.407 .0477981
481.277 .0476340
482.147 .0474825
483.015 .0473426
483.883 .0472207
484.749 .0471280
485.615 .0470601
486.479 .0470288
487.343 .0470417
488.206 .0470870
489.067 .0471533
489.928 .0472412
490.788 .0473365
491.647 .0474444
492.505 .0475582
493.362 .0476833
494.218 .0478197
495.073 .0479730
495.928 .0481528
496.781 .0483510
497.634 .0485765
498.486 .0488305
499.337 .0491105
500.187 .0494174
501.036 .0497453
501.884 .0500952
502.731 .0504665
503.578 .0508689
504.424 .0513035
505.268 .0517658
506.113 .0522689
506.956 .0528231
507.798 .0534338
508.640 .0541059
509.480 .0548429
510.320 .0556507
511.160 .0565327
511.998 .0574977
512.836 .0585496
513.672 .0596912
514.508 .0609259
515.344 .0622786
516.178 .0637809
517.012 .0654596
517.845 .0673551
518.677 .0695133
519.508 .0719577
520.339 .0747155
521.169 .0778567
521.998 .0813979
522.826 .0854229
523.654 .0899963
524.481 .0950681
525.307 .1007416
526.133 .1069435
526.958 .1136200
527.782 .1206718
528.605 .1279508
529.428 .1353182
530.250 .1422017
531.072 .1483696
531.892 .1534392
532.712 .1571211
533.532 .1592925
534.350 .1597474
535.168 .1584655
535.986 .1555503
536.802 .1511501
537.618 .1455701
538.434 .1390729
539.249 .1321166
540.063 .1248892
540.876 .1176795
541.689 .1107225
542.501 .1041965
543.313 .0982117
544.124 .0928743
544.934 .0881173
545.744 .0838757
546.553 .0800489
547.361 .0766210
548.169 .0735958
548.976 .0708866
549.783 .0684587
550.589 .0662644
551.395 .0642458
552.200 .0624029
553.004 .0607035
553.808 .0591168
554.611 .0576651
555.414 .0563451
556.216 .0551396
557.018 .0540558
557.819 .0530698
558.619 .0521577
559.419 .0513155
560.218 .0505366
561.017 .0497954
561.815 .0490809
562.613 .0483880
563.410 .0477126
564.207 .0470524
565.003 .0464144
565.799 .0457899
566.594 .0451780
567.388 .0445874
568.182 .0440061
568.976 .0434296
569.769 .0428645
570.562 .0423041
571.354 .0417505
572.145 .0412102
572.936 .0406767
573.727 .0401575
574.517 .0396620
575.307 .0391938
576.096 .0387531
576.885 .0383426
577.673 .0379695
578.461 .0376294
579.248 .0373225
580.035 .0370450
580.821 .0367863
581.607 .0365461
582.392 .0363168
583.177 .0360958
583.962 .0358842
584.746 .0356829
585.529 .0354910
586.313 .0353088
587.095 .0351406
587.878 .0349836
588.660 .0348383
589.441 .0347071
590.222 .0345863
591.003 .0344754
591.783 .0343717
592.563 .0342754
593.342 .0341862
594.121 .0341025
594.899 .0340252
595.678 .0339536
596.455 .0338889
597.233 .0338283
598.009 .0337715
598.786 .0337186
599.562 .0336676
600.338 .0336176
601.113 .0335680
601.888 .0335181
602.663 .0334683
603.437 .0334192
604.211 .0333706
604.984 .0333226
605.757 .0332758
606.530 .0332298
607.302 .0331844
608.074 .0331401
608.845 .0330968
609.616 .0330534
610.387 .0330117
611.158 .0329713
611.928 .0329326
612.697 .0328956
613.467 .0328605
614.236 .0328274
615.004 .0327957
615.773 .0327642
616.541 .0327331
617.308 .0327028
618.076 .0326737
618.843 .0326445
619.609 .0326152
620.375 .0325864
621.141 .0325575
621.907 .0325286
622.672 .0324997
623.437 .0324709
624.202 .0324424
624.966 .0324142
625.730 .0323864
626.493 .0323591
627.257 .0323319
628.020 .0323052
628.782 .0322774
629.545 .0322491
630.307 .0322188
631.068 .0321873
631.830 .0321554
632.591 .0321238
633.352 .0320927
634.112 .0320624
634.872 .0320337
635.632 .0320059
636.392 .0319785
637.151 .0319522
637.910 .0319254
638.668 .0318989
639.427 .0318719
640.185 .0318449
640.943 .0318176
641.700 .0317910
642.457 .0317648
643.214 .0317388
643.971 .0317133
644.727 .0316878
645.483 .0316611
646.239 .0316346
646.994 .0316074
647.750 .0315802
648.505 .0315538
649.259 .0315287
650.014 .0315049
650.768 .0314831
651.521 .0314631
652.275 .0314447
653.028 .0314274
653.781 .0314107
654.534 .0313937
655.286 .0313762
656.039 .0313577
656.791 .0313373
657.542 .0313151
658.294 .0312925
659.045 .0312688
659.796 .0312450
660.546 .0312211
661.297 .0311972
662.047 .0311736
662.796 .0311487
663.546 .0311226
664.295 .0310950
665.044 .0310662
665.793 .0310364
666.542 .0310062
667.290 .0309773
668.038 .0309502
668.786 .0309254
669.533 .0309025
670.281 .0308812
671.028 .0308606
671.774 .0308399
672.521 .0308188
673.267 .0307973
674.013 .0307761
674.759 .0307547
675.505 .0307343
676.250 .0307151
676.995 .0306975
677.740 .0306807
678.484 .0306641
679.229 .0306473
679.973 .0306294
680.717 .0306097
681.460 .0305884
682.204 .0305661
682.947 .0305435
683.690 .0305210
684.433 .0304992
685.175 .0304781
685.917 .0304583
686.659 .0304391
687.401 .0304205
688.142 .0304022
688.884 .0303837
689.625 .0303644
690.365 .0303443
691.106 .0303237
691.846 .0303027
692.586 .0302812
693.326 .0302597
694.066 .0302386
694.805 .0302181
695.545 .0301987
696.284 .0301806
697.022 .0301637
697.761 .0301477
698.499 .0301311
699.237 .0301140
699.975 .0300954
700.713 .0300754
701.450 .0300541
702.187 .0300318
702.924 .0300092
703.661 .0299865
704.397 .0299645
705.133 .0299437
705.869 .0299241
706.605 .0299056
707.341 .0298874
708.076 .0298693
708.811 .0298505
709.546 .0298308
710.281 .0298102
711.015 .0297891
711.749 .0297672
712.483 .0297456
713.217 .0297243
713.950 .0297037
714.684 .0296845
715.417 .0296660
716.150 .0296486
716.882 .0296319
717.615 .0296156
718.347 .0295990
719.079 .0295825
719.811 .0295660
720.542 .0295490
721.273 .0295322
722.005 .0295150
722.735 .0294974
723.466 .0294803
724.196 .0294634
724.927 .0294465
725.656 .0294298
726.386 .0294138
727.116 .0293972
727.845 .0293809
728.574 .0293644
729.303 .0293475
730.031 .0293303
730.760 .0293132
731.488 .0292958
732.216 .0292784
732.944 .0292617
733.671 .0292455
734.398 .0292306
735.125 .0292166
735.852 .0292033
736.579 .0291910
737.305 .0291796
738.031 .0291688
738.757 .0291579
739.483 .0291471
740.208 .0291360
740.933 .0291244
741.658 .0291125
742.383 .0290998
743.108 .0290869
743.832 .0290735
744.556 .0290601
745.280 .0290464
746.004 .0290320
746.727 .0290176
747.450 .0290035
748.173 .0289891
748.896 .0289746
749.618 .0289600
750.340 .0289455
751.062 .0289307
751.784 .0289156
752.506 .0289005
753.227 .0288858
753.948 .0288715
754.669 .0288577
755.389 .0288442
756.110 .0288314
756.830 .0288186
757.550 .0288058
758.269 .0287930
758.989 .0287803
759.708 .0287671
760.427 .0287539
761.146 .0287406
761.864 .0287274
762.582 .0287142
763.300 .0287010
764.018 .0286883
764.736 .0286761
765.453 .0286642
766.170 .0286529
766.887 .0286421
767.603 .0286315
768.320 .0286207
769.036 .0286098
769.751 .0285986
770.467 .0285869
771.182 .0285747
771.897 .0285622
772.612 .0285494
773.327 .0285363
774.041 .0285229
774.755 .0285092
775.469 .0284958
776.183 .0284822
776.896 .0284683
777.609 .0284545
778.322 .0284409
779.035 .0284277
779.747 .0284149
780.459 .0284031
781.171 .0283919
781.882 .0283817
782.594 .0283724
783.305 .0283634
784.016 .0283551
784.726 .0283470
785.436 .0283388
786.147 .0283306
786.856 .0283225
787.566 .0283143
788.275 .0283065
788.984 .0282995
789.693 .0282929
790.401 .0282867
791.110 .0282805
791.818 .0282741
792.525 .0282671
793.233 .0282597
793.940 .0282513
794.647 .0282424
795.353 .0282337
796.060 .0282250
796.766 .0282169
797.472 .0282098
798.177 .0282038
798.883 .0281988
799.588 .0281944
800.292 .0281904
800.997 .0281860
801.701 .0281809
802.405 .0281749
803.109 .0281681
803.812 .0281610
804.515 .0281538
805.218 .0281465
805.921 .0281393
806.623 .0281318
807.325 .0281242
808.027 .0281158
808.728 .0281066
809.429 .0280958
810.130 .0280838
810.831 .0280703
811.531 .0280554
812.231 .0280390
812.931 .0280215
813.630 .0280037
814.330 .0279856
815.029 .0279673
815.727 .0279495
816.426 .0279324
817.124 .0279166
817.821 .0279017
818.519 .0278879
819.216 .0278752
819.913 .0278633
820.609 .0278521
821.306 .0278416
822.002 .0278319
822.697 .0278234
823.393 .0278164
824.088 .0278111
824.783 .0278071
825.477 .0278042
826.171 .0278018
826.865 .0278000
827.559 .0277981
828.252 .0277957
828.945 .0277928
829.638 .0277896
830.330 .0277864
831.023 .0277830
831.714 .0277799
832.406 .0277767
833.097 .0277731
833.788 .0277682
834.479 .0277617
835.169 .0277532
835.859 .0277432
836.548 .0277314
837.238 .0277186
837.927 .0277055
838.615 .0276924
839.304 .0276797
839.992 .0276678
840.680 .0276562
841.367 .0276450
842.054 .0276337
842.741 .0276222
843.428 .0276102
844.114 .0275980
844.800 .0275855
845.485 .0275733
846.170 .0275611
846.855 .0275492
847.540 .0275375
848.224 .0275266
848.908 .0275161
849.592 .0275061
850.275 .0274960
850.958 .0274857
851.641 .0274746
852.323 .0274625
853.005 .0274487
853.687 .0274334
854.368 .0274165
855.049 .0273983
855.730 .0273792
856.410 .0273598
857.090 .0273406
857.769 .0273220
858.449 .0273040
859.128 .0272866
859.806 .0272693
860.485 .0272520
861.163 .0272342
861.840 .0272160
862.518 .0271971
863.195 .0271779
863.871 .0271585
864.548 .0271397
865.224 .0271218
865.899 .0271047
866.574 .0270887
867.249 .0270736
867.924 .0270592
868.598 .0270454
869.272 .0270317
869.946 .0270185
870.619 .0270052
871.292 .0269924
871.964 .0269796
872.636 .0269673
873.308 .0269554
873.979 .0269438
874.651 .0269323
875.321 .0269211
875.992 .0269101
876.662 .0268992
877.331 .0268882
878.001 .0268771
878.670 .0268661
879.338 .0268549
880.007 .0268433
880.675 .0268318
881.342 .0268200
882.009 .0268082
882.676 .0267965
883.343 .0267848
884.009 .0267732
884.675 .0267620
885.340 .0267514
886.005 .0267410
886.670 .0267312
887.334 .0267219
887.998 .0267130
888.662 .0267048
889.325 .0266972
889.988 .0266902
890.650 .0266842
891.312 .0266795
891.974 .0266760
892.636 .0266740
893.297 .0266737
893.957 .0266743
894.618 .0266760
895.278 .0266786
895.937 .0266816
896.596 .0266845
897.255 .0266872
897.914 .0266892
898.572 .0266902
899.230 .0266902
899.887 .0266889
900.544 .0266865
901.201 .0266834
901.857 .0266789
902.513 .0266734
903.168 .0266668
903.823 .0266587
904.478 .0266487
905.132 .0266368
905.786 .0266230
906.440 .0266078
907.093 .0265912
907.746 .0265738
908.399 .0265560
909.051 .0265384
909.703 .0265210
910.354 .0265041
911.005 .0264881
911.656 .0264724
912.306 .0264567
912.956 .0264415
913.605 .0264262
914.254 .0264112
914.903 .0263969
915.551 .0263836
916.199 .0263714
916.847 .0263604
917.494 .0263505
918.141 .0263418
918.788 .0263340
919.434 .0263270
920.079 .0263197
920.725 .0263123
921.370 .0263044
922.014 .0262958
922.658 .0262865
923.302 .0262767
923.946 .0262668
924.589 .0262562
925.231 .0262446
925.873 .0262329
926.515 .0262203
927.157 .0262073
927.798 .0261934
928.439 .0261784
929.079 .0261629
929.719 .0261465
930.359 .0261293
930.998 .0261123
931.637 .0260958
932.275 .0260798
932.913 .0260644
933.551 .0260503
934.188 .0260372
934.825 .0260247
935.462 .0260134
936.098 .0260028
936.733 .0259925
937.369 .0259829
938.004 .0259741
938.638 .0259662
939.273 .0259596
939.907 .0259537
940.540 .0259493
941.173 .0259463
941.806 .0259449
942.438 .0259442
943.070 .0259442
943.702 .0259449
944.333 .0259451
944.964 .0259445
945.594 .0259439
946.224 .0259426
946.854 .0259414
947.483 .0259405
948.112 .0259398
948.741 .0259390
949.369 .0259384
949.996 .0259374
950.624 .0259362
951.251 .0259347
951.878 .0259325
952.504 .0259293
953.130 .0259265
953.755 .0259234
954.380 .0259199
955.005 .0259164
955.629 .0259124
956.253 .0259070
956.877 .0259005
957.500 .0258928
958.123 .0258839
958.746 .0258743
959.368 .0258646
959.990 .0258545
960.611 .0258446
961.232 .0258351
961.853 .0258257
962.473 .0258169
963.093 .0258084
963.712 .0257991
964.331 .0257893
964.950 .0257792
965.569 .0257693
966.187 .0257602
966.804 .0257523
967.422 .0257465
968.039 .0257425
968.655 .0257401
969.272 .0257388
969.887 .0257377
970.503 .0257363
971.118 .0257342
971.733 .0257309
972.347 .0257267
972.961 .0257219
973.575 .0257174
974.188 .0257129
974.801 .0257089
975.414 .0257053
976.026 .0257010
976.638 .0256960
977.250 .0256895
977.861 .0256809
978.472 .0256703
979.083 .0256580
979.693 .0256443
980.303 .0256294
980.912 .0256138
981.521 .0255977
982.130 .0255808
982.738 .0255632
983.346 .0255447
983.954 .0255252
984.562 .0255053
985.169 .0254854
985.775 .0254656
986.382 .0254468
986.988 .0254291
987.594 .0254127
988.199 .0253972
988.804 .0253827
989.409 .0253682
990.013 .0253538
990.617 .0253399
991.221 .0253261
991.824 .0253134
992.427 .0253020
993.030 .0252920
993.632 .0252840
994.234 .0252772
994.836 .0252717
995.438 .0252673
996.039 .0252634
996.640 .0252599
997.240 .0252567
997.840 .0252540
998.440 .0252521
999.040 .0252509
999.639 .0252506
1000.238 .0252506
1000.836 .0252503
1001.435 .0252500
1002.033 .0252486
1002.630 .0252459
1003.228 .0252424
1003.825 .0252377
1004.422 .0252320
1005.018 .0252254
1005.614 .0252179
1006.210 .0252098
1006.806 .0252013
1007.401 .0251924
1007.996 .0251827
1008.591 .0251731
1009.186 .0251639
1009.780 .0251547
1010.374 .0251463
1010.967 .0251382
1011.561 .0251298
1012.154 .0251211
1012.746 .0251122
1013.339 .0251025
1013.931 .0250926
1014.523 .0250829
1015.115 .0250733
1015.706 .0250648
1016.298 .0250569
1016.888 .0250496
1017.479 .0250426
1018.069 .0250358
1018.660 .0250281
1019.250 .0250194
1019.839 .0250100
1020.429 .0249999
1021.018 .0249900
1021.607 .0249810
1022.195 .0249732
1022.784 .0249668
1023.372 .0249620
1023.960 .0249581
1024.547 .0249547
1025.135 .0249517
1025.722 .0249481
1026.309 .0249447
1026.896 .0249418
1027.483 .0249396
1028.069 .0249386
1028.655 .0249389
1029.241 .0249414
1029.827 .0249452
1030.412 .0249505
1030.997 .0249572
1031.582 .0249653
1032.167 .0249743
1032.752 .0249838
1033.336 .0249931
1033.921 .0250018
1034.505 .0250100
1035.089 .0250169
1035.672 .0250221
1036.256 .0250259
1036.839 .0250276
1037.422 .0250277
1038.005 .0250270
1038.588 .0250259
1039.171 .0250239
1039.753 .0250220
1040.335 .0250195
1040.918 .0250159
1041.500 .0250116
1042.081 .0250060
1042.663 .0249988
1043.244 .0249911
1043.826 .0249825
1044.407 .0249736
1044.988 .0249655
1045.569 .0249586
1046.150 .0249523
1046.730 .0249476
1047.311 .0249432
1047.891 .0249387
1048.471 .0249331
1049.052 .0249271
1049.632 .0249193
1050.211 .0249117
1050.791 .0249034
1051.371 .0248944
1051.950 .0248868
1052.530 .0248802
1053.109 .0248741
1053.688 .0248696
1054.268 .0248668
1054.847 .0248659
1055.426 .0248667
1056.005 .0248702
1056.583 .0248755
1057.162 .0248831
1057.741 .0248922
1058.319 .0249027
1058.898 .0249132
1059.476 .0249239
1060.055 .0249336
1060.633 .0249428
1061.211 .0249528
1061.790 .0249625
1062.368 .0249732
1062.946 .0249851
1063.524 .0249988
1064.102 .0250129
1064.680 .0250259
1065.258 .0250375
1065.836 .0250458
1066.414 .0250502
1066.992 .0250499
1067.570 .0250452
1068.148 .0250373
1068.726 .0250267
1069.304 .0250159
1069.882 .0250050
1070.460 .0249948
1071.038 .0249851
1071.616 .0249766
1072.194 .0249687
1072.772 .0249613
1073.350 .0249540
1073.928 .0249459
1074.506 .0249374
1075.084 .0249290
1075.662 .0249213
1076.240 .0249153
1076.819 .0249117
1077.397 .0249129
1077.976 .0249183
1078.554 .0249294
1079.133 .0249444
1079.711 .0249630
1080.290 .0249837
1080.869 .0250052
1081.448 .0250244
1082.027 .0250408
1082.606 .0250547
1083.185 .0250663
1083.764 .0250761
1084.343 .0250869
1084.923 .0250989
1085.502 .0251142
1086.082 .0251314
1086.662 .0251513
1087.242 .0251702
1087.822 .0251894
1088.402 .0252052
1088.983 .0252187
1089.563 .0252296
1090.144 .0252390
1090.725 .0252475
1091.306 .0252568
1091.887 .0252693
1092.469 .0252857
1093.050 .0253053
1093.632 .0253276
1094.214 .0253496
1094.796 .0253721
1095.379 .0253912
1095.961 .0254097
1096.544 .0254260
1097.127 .0254424
1097.710 .0254586
1098.294 .0254774
1098.877 .0254993
1099.461 .0255248
1100.046 .0255546
1100.630 .0255877
1101.215 .0256231
1101.800 .0256596
1102.385 .0256948
1102.970 .0257288
1103.556 .0257626
1104.142 .0257971
1104.728 .0258306
1105.315 .0258666
1105.902 .0259042
1106.489 .0259452
1107.077 .0259895
1107.664 .0260359
1108.253 .0260830
1108.841 .0261290
1109.430 .0261734
1110.019 .0262116
1110.609 .0262437
1111.198 .0262697
1111.789 .0262893
1112.379 .0263043
1112.970 .0263160
1113.561 .0263257
1114.153 .0263367
1114.745 .0263516
1115.338 .0263671
1115.931 .0263837
1116.524 .0264021
1117.117 .0264211
1117.712 .0264419
1118.306 .0264650
1118.901 .0264925
1119.496 .0265247
1120.092 .0265699
1120.689 .0266245
1121.285 .0266908
1121.882 .0267705
1122.480 .0268577
1123.078 .0269495
1123.677 .0270454
1124.276 .0271409
1124.875 .0272331
1125.476 .0273239
1126.076 .0274138
1126.677 .0275008
1127.279 .0275854
1127.881 .0276678
1128.484 .0277455
1129.087 .0278187
1129.691 .0278855
1130.295 .0279429
1130.900 .0279967
1131.505 .0280494
1132.111 .0281003
1132.718 .0281559
1133.325 .0282191
1133.933 .0282923
1134.541 .0283714
1135.150 .0284591
1135.760 .0285562
1136.370 .0286565
1136.981 .0287635
1137.592 .0288789
1138.204 .0290028
1138.817 .0291386
1139.431 .0292790
1140.045 .0294257
1140.660 .0295813
1141.275 .0297478
1141.891 .0299116
1142.508 .0300316
1143.126 .0301630
1143.744 .0303926
1144.363 .0307484
1144.983 .0306935
