Measurement Sequence started on: 15-12-46-377
Integration time: 28
Scans to Average: 2 
>>>>>Begin Spectral Data<<<<<
432.689 .0000100
433.621 .0000100
434.552 .0000100
435.482 .0000100
436.410 .0000100
437.337 .0000100
438.262 .0290585
439.187 .0614729
440.110 .1017268
441.031 .1470366
441.952 .1909558
442.871 .2253821
443.789 .2439886
444.705 .2447222
445.621 .2302455
446.535 .2064079
447.447 .1795355
448.359 .1385931
449.269 .1183162
450.178 .1054903
451.086 .0964092
451.993 .0893958
452.898 .0838046
453.803 .0792163
454.706 .0753224
455.608 .0719881
456.508 .0690795
457.408 .0665529
458.306 .0643300
459.204 .0623725
460.100 .0606259
460.995 .0591053
461.888 .0577608
462.781 .0565565
463.673 .0554615
464.563 .0544817
465.452 .0535729
466.340 .0527360
467.228 .0519700
468.114 .0512722
468.999 .0506495
469.882 .0500981
470.765 .0496034
471.647 .0491719
472.528 .0487888
473.407 .0484476
474.286 .0481337
475.163 .0478485
476.040 .0475805
476.915 .0473315
477.790 .0471026
478.663 .0468852
479.535 .0466854
480.407 .0465148
481.277 .0463632
482.147 .0462290
483.015 .0461100
483.883 .0460022
484.749 .0459125
485.615 .0458397
486.479 .0457846
487.343 .0457530
488.206 .0457478
489.067 .0457641
489.928 .0457973
490.788 .0458486
491.647 .0459128
492.505 .0459871
493.362 .0460769
494.218 .0461736
495.073 .0462849
495.928 .0464213
496.781 .0465925
497.634 .0468022
498.486 .0470505
499.337 .0473289
500.187 .0476379
501.036 .0479660
501.884 .0483017
502.731 .0486372
503.578 .0489896
504.424 .0493534
505.268 .0497283
506.113 .0501372
506.956 .0505985
507.798 .0511262
508.640 .0517395
509.480 .0524269
510.320 .0532047
511.160 .0540604
511.998 .0549899
512.836 .0559841
513.672 .0570647
514.508 .0582366
515.344 .0594999
516.178 .0609087
517.012 .0625150
517.845 .0643392
518.677 .0664409
519.508 .0688355
520.339 .0715656
521.169 .0746614
521.998 .0781483
522.826 .0820315
523.654 .0863835
524.481 .0912113
525.307 .0965979
526.133 .1025536
526.958 .1091223
527.782 .1162286
528.605 .1237106
529.428 .1315075
530.250 .1390437
531.072 .1460149
531.892 .1520214
532.712 .1567261
533.532 .1599269
534.350 .1613293
535.168 .1608868
535.986 .1586455
536.802 .1547816
537.618 .1495849
538.434 .1432015
539.249 .1361681
540.063 .1286960
540.876 .1211077
541.689 .1136318
542.501 .1065015
543.313 .0998877
544.124 .0938501
544.934 .0883696
545.744 .0834006
546.553 .0788938
547.361 .0748971
548.169 .0713980
548.976 .0683365
549.783 .0656833
550.589 .0634071
551.395 .0614139
552.200 .0596930
553.004 .0581686
553.808 .0567978
554.611 .0555525
555.414 .0544229
556.216 .0533790
557.018 .0524392
557.819 .0515942
558.619 .0508174
559.419 .0500973
560.218 .0494496
561.017 .0488268
561.815 .0482174
562.613 .0476116
563.410 .0470025
564.207 .0463733
565.003 .0457352
565.799 .0450855
566.594 .0444288
567.388 .0437832
568.182 .0431485
568.976 .0425204
569.769 .0419153
570.562 .0413299
571.354 .0407598
572.145 .0402172
572.936 .0396953
573.727 .0391829
574.517 .0386874
575.307 .0382125
576.096 .0377541
576.885 .0373158
577.673 .0369052
578.461 .0365251
579.248 .0361726
580.035 .0358528
580.821 .0355575
581.607 .0352870
582.392 .0350406
583.177 .0348136
583.962 .0346022
584.746 .0344122
585.529 .0342381
586.313 .0340815
587.095 .0339394
587.878 .0338112
588.660 .0336927
589.441 .0335841
590.222 .0334832
591.003 .0333888
591.783 .0332995
592.563 .0332167
593.342 .0331371
594.121 .0330610
594.899 .0329904
595.678 .0329249
596.455 .0328630
597.233 .0328061
598.009 .0327527
598.786 .0327027
599.562 .0326567
600.338 .0326140
601.113 .0325732
601.888 .0325337
602.663 .0324948
603.437 .0324558
604.211 .0324180
604.984 .0323813
605.757 .0323455
606.530 .0323120
607.302 .0322804
608.074 .0322498
608.845 .0322204
609.616 .0321921
610.387 .0321654
611.158 .0321382
611.928 .0321105
612.697 .0320823
613.467 .0320545
614.236 .0320268
615.004 .0319997
615.773 .0319733
616.541 .0319486
617.308 .0319248
618.076 .0319022
618.843 .0318807
619.609 .0318608
620.375 .0318422
621.141 .0318235
621.907 .0318047
622.672 .0317858
623.437 .0317650
624.202 .0317436
624.966 .0317215
625.730 .0316981
626.493 .0316735
627.257 .0316481
628.020 .0316222
628.782 .0315961
629.545 .0315691
630.307 .0315406
631.068 .0315110
631.830 .0314799
632.591 .0314469
633.352 .0314120
634.112 .0313778
634.872 .0313436
635.632 .0313100
636.392 .0312778
637.151 .0312478
637.910 .0312193
638.668 .0311927
639.427 .0311666
640.185 .0311415
640.943 .0311175
641.700 .0310940
642.457 .0310711
643.214 .0310491
643.971 .0310270
644.727 .0310047
645.483 .0309819
646.239 .0309589
646.994 .0309345
647.750 .0309096
648.505 .0308841
649.259 .0308580
650.014 .0308317
650.768 .0308053
651.521 .0307792
652.275 .0307535
653.028 .0307276
653.781 .0307011
654.534 .0306738
655.286 .0306453
656.039 .0306164
656.791 .0305867
657.542 .0305571
658.294 .0305278
659.045 .0304998
659.796 .0304729
660.546 .0304475
661.297 .0304229
662.047 .0303991
662.796 .0303755
663.546 .0303519
664.295 .0303271
665.044 .0303022
665.793 .0302774
666.542 .0302531
667.290 .0302295
668.038 .0302072
668.786 .0301850
669.533 .0301639
670.281 .0301430
671.028 .0301224
671.774 .0301015
672.521 .0300811
673.267 .0300610
674.013 .0300418
674.759 .0300240
675.505 .0300073
676.250 .0299919
676.995 .0299784
677.740 .0299652
678.484 .0299525
679.229 .0299400
679.973 .0299276
680.717 .0299154
681.460 .0299036
682.204 .0298917
682.947 .0298804
683.690 .0298694
684.433 .0298587
685.175 .0298476
685.917 .0298362
686.659 .0298242
687.401 .0298115
688.142 .0297983
688.884 .0297843
689.625 .0297702
690.365 .0297561
691.106 .0297416
691.846 .0297274
692.586 .0297128
693.326 .0296980
694.066 .0296832
694.805 .0296689
695.545 .0296544
696.284 .0296395
697.022 .0296245
697.761 .0296092
698.499 .0295935
699.237 .0295774
699.975 .0295604
700.713 .0295427
701.450 .0295250
702.187 .0295064
702.924 .0294874
703.661 .0294692
704.397 .0294515
705.133 .0294348
705.869 .0294188
706.605 .0294036
707.341 .0293885
708.076 .0293735
708.811 .0293581
709.546 .0293413
710.281 .0293235
711.015 .0293047
711.749 .0292851
712.483 .0292651
713.217 .0292447
713.950 .0292241
714.684 .0292033
715.417 .0291825
716.150 .0291614
716.882 .0291398
717.615 .0291175
718.347 .0290949
719.079 .0290717
719.811 .0290487
720.542 .0290260
721.273 .0290038
722.005 .0289824
722.735 .0289616
723.466 .0289408
724.196 .0289199
724.927 .0288989
725.656 .0288778
726.386 .0288562
727.116 .0288346
727.845 .0288125
728.574 .0287903
729.303 .0287682
730.031 .0287464
730.760 .0287247
731.488 .0287036
732.216 .0286830
732.944 .0286632
733.671 .0286443
734.398 .0286268
735.125 .0286108
735.852 .0285961
736.579 .0285829
737.305 .0285705
738.031 .0285593
738.757 .0285491
739.483 .0285395
740.208 .0285307
740.933 .0285221
741.658 .0285136
742.383 .0285047
743.108 .0284954
743.832 .0284854
744.556 .0284748
745.280 .0284632
746.004 .0284504
746.727 .0284369
747.450 .0284227
748.173 .0284078
748.896 .0283924
749.618 .0283768
750.340 .0283609
751.062 .0283450
751.784 .0283287
752.506 .0283124
753.227 .0282959
753.948 .0282792
754.669 .0282628
755.389 .0282466
756.110 .0282310
756.830 .0282157
757.550 .0282016
758.269 .0281887
758.989 .0281764
759.708 .0281647
760.427 .0281531
761.146 .0281419
761.864 .0281309
762.582 .0281195
763.300 .0281079
764.018 .0280970
764.736 .0280863
765.453 .0280760
766.170 .0280664
766.887 .0280573
767.603 .0280485
768.320 .0280397
769.036 .0280307
769.751 .0280214
770.467 .0280118
771.182 .0280025
771.897 .0279932
772.612 .0279846
773.327 .0279764
774.041 .0279690
774.755 .0279627
775.469 .0279574
776.183 .0279529
776.896 .0279494
777.609 .0279469
778.322 .0279450
779.035 .0279437
779.747 .0279432
780.459 .0279431
781.171 .0279435
781.882 .0279439
782.594 .0279444
783.305 .0279450
784.016 .0279457
784.726 .0279467
785.436 .0279482
786.147 .0279503
786.856 .0279522
787.566 .0279541
788.275 .0279559
788.984 .0279572
789.693 .0279579
790.401 .0279575
791.110 .0279561
791.818 .0279539
792.525 .0279511
793.233 .0279474
793.940 .0279431
794.647 .0279382
795.353 .0279325
796.060 .0279263
796.766 .0279194
797.472 .0279114
798.177 .0279028
798.883 .0278936
799.588 .0278835
800.292 .0278728
800.997 .0278616
801.701 .0278498
802.405 .0278376
803.109 .0278251
803.812 .0278122
804.515 .0277993
805.218 .0277866
805.921 .0277735
806.623 .0277604
807.325 .0277470
808.027 .0277332
808.728 .0277191
809.429 .0277045
810.130 .0276894
810.831 .0276737
811.531 .0276581
812.231 .0276418
812.931 .0276252
813.630 .0276084
814.330 .0275913
815.029 .0275737
815.727 .0275556
816.426 .0275367
817.124 .0275175
817.821 .0274984
818.519 .0274795
819.216 .0274613
819.913 .0274444
820.609 .0274286
821.306 .0274142
822.002 .0274007
822.697 .0273881
823.393 .0273760
824.088 .0273640
824.783 .0273518
825.477 .0273388
826.171 .0273259
826.865 .0273135
827.559 .0273016
828.252 .0272904
828.945 .0272796
829.638 .0272696
830.330 .0272598
831.023 .0272496
831.714 .0272387
832.406 .0272268
833.097 .0272140
833.788 .0271996
834.479 .0271841
835.169 .0271682
835.859 .0271526
836.548 .0271377
837.238 .0271241
837.927 .0271110
838.615 .0270989
839.304 .0270874
839.992 .0270757
840.680 .0270636
841.367 .0270506
842.054 .0270366
842.741 .0270220
843.428 .0270074
844.114 .0269929
844.800 .0269789
845.485 .0269663
846.170 .0269543
846.855 .0269425
847.540 .0269301
848.224 .0269168
848.908 .0269023
849.592 .0268868
850.275 .0268694
850.958 .0268504
851.641 .0268311
852.323 .0268115
853.005 .0267919
853.687 .0267726
854.368 .0267537
855.049 .0267348
855.730 .0267155
856.410 .0266953
857.090 .0266739
857.769 .0266518
858.449 .0266285
859.128 .0266045
859.806 .0265803
860.485 .0265567
861.163 .0265338
861.840 .0265123
862.518 .0264922
863.195 .0264729
863.871 .0264542
864.548 .0264360
865.224 .0264179
865.899 .0264002
866.574 .0263824
867.249 .0263649
867.924 .0263479
868.598 .0263318
869.272 .0263168
869.946 .0263033
870.619 .0262913
871.292 .0262809
871.964 .0262711
872.636 .0262621
873.308 .0262537
873.979 .0262457
874.651 .0262381
875.321 .0262308
875.992 .0262244
876.662 .0262190
877.331 .0262141
878.001 .0262101
878.670 .0262068
879.338 .0262042
880.007 .0262018
880.675 .0261994
881.342 .0261971
882.009 .0261952
882.676 .0261933
883.343 .0261922
884.009 .0261920
884.675 .0261928
885.340 .0261942
886.005 .0261965
886.670 .0261994
887.334 .0262029
887.998 .0262065
888.662 .0262104
889.325 .0262143
889.988 .0262187
890.650 .0262230
891.312 .0262276
891.974 .0262332
892.636 .0262396
893.297 .0262464
893.957 .0262542
894.618 .0262619
895.278 .0262699
895.937 .0262779
896.596 .0262860
897.255 .0262934
897.914 .0263007
898.572 .0263072
899.230 .0263132
899.887 .0263187
900.544 .0263234
901.201 .0263269
901.857 .0263301
902.513 .0263322
903.168 .0263331
903.823 .0263327
904.478 .0263315
905.132 .0263285
905.786 .0263243
906.440 .0263177
907.093 .0263094
907.746 .0262995
908.399 .0262883
909.051 .0262761
909.703 .0262635
910.354 .0262507
911.005 .0262383
911.656 .0262264
912.306 .0262152
912.956 .0262039
913.605 .0261926
914.254 .0261812
914.903 .0261697
915.551 .0261588
916.199 .0261493
916.847 .0261410
917.494 .0261352
918.141 .0261315
918.788 .0261294
919.434 .0261293
920.079 .0261299
920.725 .0261308
921.370 .0261313
922.014 .0261313
922.658 .0261302
923.302 .0261284
923.946 .0261260
924.589 .0261223
925.231 .0261173
925.873 .0261107
926.515 .0261016
927.157 .0260903
927.798 .0260771
928.439 .0260616
929.079 .0260441
929.719 .0260252
930.359 .0260053
930.998 .0259852
931.637 .0259652
932.275 .0259459
932.913 .0259274
933.551 .0259101
934.188 .0258942
934.825 .0258795
935.462 .0258667
936.098 .0258554
936.733 .0258459
937.369 .0258378
938.004 .0258309
938.638 .0258249
939.273 .0258198
939.907 .0258159
940.540 .0258128
941.173 .0258102
941.806 .0258081
942.438 .0258062
943.070 .0258046
943.702 .0258025
944.333 .0258001
944.964 .0257967
945.594 .0257928
946.224 .0257884
946.854 .0257837
947.483 .0257790
948.112 .0257748
948.741 .0257707
949.369 .0257669
949.996 .0257627
950.624 .0257581
951.251 .0257524
951.878 .0257456
952.504 .0257373
953.130 .0257275
953.755 .0257159
954.380 .0257028
955.005 .0256886
955.629 .0256740
956.253 .0256587
956.877 .0256438
957.500 .0256290
958.123 .0256143
958.746 .0255992
959.368 .0255835
959.990 .0255670
960.611 .0255498
961.232 .0255321
961.853 .0255140
962.473 .0254963
963.093 .0254794
963.712 .0254632
964.331 .0254480
964.950 .0254336
965.569 .0254194
966.187 .0254050
966.804 .0253906
967.422 .0253759
968.039 .0253615
968.655 .0253477
969.272 .0253346
969.887 .0253223
970.503 .0253102
971.118 .0252984
971.733 .0252861
972.347 .0252732
972.961 .0252591
973.575 .0252438
974.188 .0252273
974.801 .0252094
975.414 .0251904
976.026 .0251708
976.638 .0251506
977.250 .0251300
977.861 .0251088
978.472 .0250871
979.083 .0250649
979.693 .0250422
980.303 .0250189
980.912 .0249947
981.521 .0249699
982.130 .0249443
982.738 .0249188
983.346 .0248932
983.954 .0248675
984.562 .0248423
985.169 .0248182
985.775 .0247951
986.382 .0247727
986.988 .0247512
987.594 .0247307
988.199 .0247103
988.804 .0246901
989.409 .0246697
990.013 .0246498
990.617 .0246307
991.221 .0246121
991.824 .0245941
992.427 .0245774
993.030 .0245619
993.632 .0245479
994.234 .0245354
994.836 .0245242
995.438 .0245135
996.039 .0245033
996.640 .0244929
997.240 .0244825
997.840 .0244722
998.440 .0244620
999.040 .0244519
999.639 .0244424
1000.238 .0244331
1000.836 .0244239
1001.435 .0244160
1002.033 .0244088
1002.630 .0244023
1003.228 .0243960
1003.825 .0243897
1004.422 .0243835
1005.018 .0243771
1005.614 .0243704
1006.210 .0243635
1006.806 .0243569
1007.401 .0243498
1007.996 .0243414
1008.591 .0243340
1009.186 .0243273
1009.780 .0243214
1010.374 .0243162
1010.967 .0243112
1011.561 .0243064
1012.154 .0243007
1012.746 .0242938
1013.339 .0242855
1013.931 .0242768
1014.523 .0242674
1015.115 .0242574
1015.706 .0242484
1016.298 .0242411
1016.888 .0242358
1017.479 .0242331
1018.069 .0242327
1018.660 .0242335
1019.250 .0242346
1019.839 .0242354
1020.429 .0242355
1021.018 .0242357
1021.607 .0242353
1022.195 .0242355
1022.784 .0242372
1023.372 .0242407
1023.960 .0242463
1024.547 .0242538
1025.135 .0242634
1025.722 .0242741
1026.309 .0242851
1026.896 .0242958
1027.483 .0243057
1028.069 .0243154
1028.655 .0243241
1029.241 .0243315
1029.827 .0243379
1030.412 .0243434
1030.997 .0243481
1031.582 .0243520
1032.167 .0243561
1032.752 .0243601
1033.336 .0243650
1033.921 .0243709
1034.505 .0243780
1035.089 .0243858
1035.672 .0243941
1036.256 .0244020
1036.839 .0244090
1037.422 .0244150
1038.005 .0244203
1038.588 .0244252
1039.171 .0244308
1039.753 .0244378
1040.335 .0244470
1040.918 .0244576
1041.500 .0244698
1042.081 .0244823
1042.663 .0244946
1043.244 .0245052
1043.826 .0245133
1044.407 .0245188
1044.988 .0245221
1045.569 .0245234
1046.150 .0245235
1046.730 .0245230
1047.311 .0245231
1047.891 .0245230
1048.471 .0245234
1049.052 .0245244
1049.632 .0245255
1050.211 .0245268
1050.791 .0245286
1051.371 .0245310
1051.950 .0245348
1052.530 .0245392
1053.109 .0245457
1053.688 .0245531
1054.268 .0245625
1054.847 .0245734
1055.426 .0245855
1056.005 .0245995
1056.583 .0246145
1057.162 .0246298
1057.741 .0246454
1058.319 .0246609
1058.898 .0246765
1059.476 .0246914
1060.055 .0247063
1060.633 .0247211
1061.211 .0247349
1061.790 .0247479
1062.368 .0247616
1062.946 .0247747
1063.524 .0247893
1064.102 .0248040
1064.680 .0248206
1065.258 .0248392
1065.836 .0248592
1066.414 .0248804
1066.992 .0249027
1067.570 .0249262
1068.148 .0249501
1068.726 .0249732
1069.304 .0249969
1069.882 .0250191
1070.460 .0250407
1071.038 .0250630
1071.616 .0250859
1072.194 .0251082
1072.772 .0251301
1073.350 .0251501
1073.928 .0251682
1074.506 .0251832
1075.084 .0251958
1075.662 .0252052
1076.240 .0252141
1076.819 .0252226
1077.397 .0252301
1077.976 .0252390
1078.554 .0252504
1079.133 .0252618
1079.711 .0252733
1080.290 .0252838
1080.869 .0252920
1081.448 .0252970
1082.027 .0253009
1082.606 .0253027
1083.185 .0253058
1083.764 .0253109
1084.343 .0253169
1084.923 .0253240
1085.502 .0253341
1086.082 .0253459
1086.662 .0253592
1087.242 .0253751
1087.822 .0253914
1088.402 .0254080
1088.983 .0254252
1089.563 .0254421
1090.144 .0254592
1090.725 .0254777
1091.306 .0254972
1091.887 .0255171
1092.469 .0255391
1093.050 .0255631
1093.632 .0255891
1094.214 .0256199
1094.796 .0256513
1095.379 .0256830
1095.961 .0257126
1096.544 .0257385
1097.127 .0257595
1097.710 .0257760
1098.294 .0257893
1098.877 .0258017
1099.461 .0258162
1100.046 .0258331
1100.630 .0258541
1101.215 .0258817
1101.800 .0259142
1102.385 .0259496
1102.970 .0259861
1103.556 .0260192
1104.142 .0260475
1104.728 .0260752
1105.315 .0261001
1105.902 .0261249
1106.489 .0261525
1107.077 .0261839
1107.664 .0262189
1108.253 .0262557
1108.841 .0262940
1109.430 .0263315
1110.019 .0263694
1110.609 .0264028
1111.198 .0264293
1111.789 .0264538
1112.379 .0264762
1112.970 .0264961
1113.561 .0265171
1114.153 .0265409
1114.745 .0265652
1115.338 .0265906
1115.931 .0266145
1116.524 .0266349
1117.117 .0266524
1117.712 .0266665
1118.306 .0266762
1118.901 .0266851
1119.496 .0266951
1120.092 .0267056
1120.689 .0267226
1121.285 .0267470
1121.882 .0267761
1122.480 .0268103
1123.078 .0268507
1123.677 .0268970
1124.276 .0269466
1124.875 .0270020
1125.476 .0270625
1126.076 .0271297
1126.677 .0272051
1127.279 .0272841
1127.881 .0273707
1128.484 .0274656
1129.087 .0275640
1129.691 .0276636
1130.295 .0277643
1130.900 .0278629
1131.505 .0279600
1132.111 .0280524
1132.718 .0281443
1133.325 .0282353
1133.933 .0283273
1134.541 .0284181
1135.150 .0285109
1135.760 .0286062
1136.370 .0287035
1136.981 .0288040
1137.592 .0289091
1138.204 .0290121
1138.817 .0291207
1139.431 .0292355
1140.045 .0293542
1140.660 .0294693
1141.275 .0296031
1141.891 .0297403
1142.508 .0299412
1143.126 .0300193
1143.744 .0298717
1144.363 .0305898
1144.983 .0306099
