Measurement Sequence started on: 15-12-46-377
Integration time: 28
Scans to Average: 2 
>>>>>Begin Spectral Data<<<<<
432.689 .0000100
433.621 .0000100
434.552 .0000100
435.482 .0000100
436.410 .0000100
437.337 .0000100
438.262 .0266872
439.187 .0566735
440.110 .0938866
441.031 .1358691
441.952 .1766443
442.871 .2087087
443.789 .2262208
444.705 .2272062
445.621 .2141026
446.535 .1922482
447.447 .1675197
448.359 .1298254
449.269 .1109957
450.178 .0991605
451.086 .0908144
451.993 .0844579
452.898 .0794697
453.803 .0754156
454.706 .0720298
455.608 .0691452
456.508 .0666630
457.408 .0644968
458.306 .0625992
459.204 .0609306
460.100 .0594526
460.995 .0581586
461.888 .0570131
462.781 .0559973
463.673 .0550743
464.563 .0542372
465.452 .0534445
466.340 .0526874
467.228 .0519761
468.114 .0513035
468.999 .0506783
469.882 .0500948
470.765 .0495618
471.647 .0490829
472.528 .0486466
473.407 .0482516
474.286 .0478984
475.163 .0475847
476.040 .0472986
476.915 .0470359
477.790 .0467933
478.663 .0465740
479.535 .0463762
480.407 .0462057
481.277 .0460644
482.147 .0459574
483.015 .0458826
483.883 .0458371
484.749 .0458260
485.615 .0458373
486.479 .0458599
487.343 .0459053
488.206 .0459631
489.067 .0460280
489.928 .0460912
490.788 .0461665
491.647 .0462528
492.505 .0463559
493.362 .0464747
494.218 .0466115
495.073 .0467646
495.928 .0469366
496.781 .0471042
497.634 .0472858
498.486 .0474764
499.337 .0476749
500.187 .0478804
501.036 .0481008
501.884 .0483344
502.731 .0485888
503.578 .0488653
504.424 .0491799
505.268 .0495216
506.113 .0499087
506.956 .0503360
507.798 .0508200
508.640 .0513634
509.480 .0519618
510.320 .0526380
511.160 .0534051
511.998 .0542418
512.836 .0551674
513.672 .0561894
514.508 .0573383
515.344 .0586245
516.178 .0600890
517.012 .0617756
517.845 .0637375
518.677 .0660065
519.508 .0685742
520.339 .0714976
521.169 .0748039
521.998 .0784961
522.826 .0826071
523.654 .0871817
524.481 .0922130
525.307 .0977473
526.133 .1038360
526.958 .1103866
527.782 .1174253
528.605 .1247258
529.428 .1321326
530.250 .1390455
531.072 .1452031
531.892 .1501940
532.712 .1537920
533.532 .1559040
534.350 .1563443
535.168 .1551174
535.986 .1524340
536.802 .1483908
537.618 .1433390
538.434 .1373672
539.249 .1309458
540.063 .1241154
540.876 .1172157
541.689 .1103960
542.501 .1038833
543.313 .0978903
544.124 .0924756
544.934 .0875793
545.744 .0831581
546.553 .0791168
547.361 .0754869
548.169 .0722165
548.976 .0692569
549.783 .0665422
550.589 .0640926
551.395 .0618516
552.200 .0598223
553.004 .0579795
553.808 .0563311
554.611 .0548568
555.414 .0535589
556.216 .0523955
557.018 .0513564
557.819 .0504283
558.619 .0495877
559.419 .0488178
560.218 .0481166
561.017 .0474557
561.815 .0468253
562.613 .0462206
563.410 .0456361
564.207 .0450580
565.003 .0444952
565.799 .0439433
566.594 .0433945
567.388 .0428555
568.182 .0423243
568.976 .0417928
569.769 .0412703
570.562 .0407551
571.354 .0402442
572.145 .0397456
572.936 .0392596
573.727 .0387842
574.517 .0383234
575.307 .0378810
576.096 .0374532
576.885 .0370422
577.673 .0366595
578.461 .0362989
579.248 .0359610
580.035 .0356502
580.821 .0353617
581.607 .0350965
582.392 .0348507
583.177 .0346229
583.962 .0344115
584.746 .0342182
585.529 .0340433
586.313 .0338831
587.095 .0337412
587.878 .0336161
588.660 .0335058
589.441 .0334087
590.222 .0333205
591.003 .0332401
591.783 .0331657
592.563 .0330951
593.342 .0330270
594.121 .0329606
594.899 .0328985
595.678 .0328400
596.455 .0327845
597.233 .0327324
598.009 .0326827
598.786 .0326344
599.562 .0325868
600.338 .0325393
601.113 .0324926
601.888 .0324449
602.663 .0323976
603.437 .0323508
604.211 .0323043
604.984 .0322592
605.757 .0322150
606.530 .0321711
607.302 .0321285
608.074 .0320859
608.845 .0320438
609.616 .0320021
610.387 .0319627
611.158 .0319258
611.928 .0318912
612.697 .0318600
613.467 .0318313
614.236 .0318042
615.004 .0317788
615.773 .0317539
616.541 .0317295
617.308 .0317061
618.076 .0316833
618.843 .0316615
619.609 .0316413
620.375 .0316226
621.141 .0316048
621.907 .0315879
622.672 .0315714
623.437 .0315540
624.202 .0315349
624.966 .0315140
625.730 .0314913
626.493 .0314673
627.257 .0314418
628.020 .0314158
628.782 .0313893
629.545 .0313623
630.307 .0313344
631.068 .0313061
631.830 .0312776
632.591 .0312485
633.352 .0312184
634.112 .0311873
634.872 .0311552
635.632 .0311229
636.392 .0310892
637.151 .0310553
637.910 .0310217
638.668 .0309880
639.427 .0309548
640.185 .0309225
640.943 .0308912
641.700 .0308617
642.457 .0308341
643.214 .0308086
643.971 .0307839
644.727 .0307605
645.483 .0307379
646.239 .0307157
646.994 .0306938
647.750 .0306712
648.505 .0306479
649.259 .0306251
650.014 .0306020
650.768 .0305786
651.521 .0305555
652.275 .0305328
653.028 .0305110
653.781 .0304895
654.534 .0304688
655.286 .0304480
656.039 .0304269
656.791 .0304055
657.542 .0303827
658.294 .0303592
659.045 .0303361
659.796 .0303130
660.546 .0302915
661.297 .0302708
662.047 .0302516
662.796 .0302333
663.546 .0302162
664.295 .0301995
665.044 .0301823
665.793 .0301645
666.542 .0301466
667.290 .0301275
668.038 .0301083
668.786 .0300885
669.533 .0300686
670.281 .0300480
671.028 .0300273
671.774 .0300055
672.521 .0299840
673.267 .0299626
674.013 .0299418
674.759 .0299212
675.505 .0299016
676.250 .0298820
676.995 .0298621
677.740 .0298414
678.484 .0298195
679.229 .0297963
679.973 .0297724
680.717 .0297473
681.460 .0297220
682.204 .0296972
682.947 .0296737
683.690 .0296514
684.433 .0296306
685.175 .0296109
685.917 .0295922
686.659 .0295741
687.401 .0295565
688.142 .0295393
688.884 .0295225
689.625 .0295064
690.365 .0294911
691.106 .0294762
691.846 .0294618
692.586 .0294475
693.326 .0294334
694.066 .0294191
694.805 .0294043
695.545 .0293890
696.284 .0293732
697.022 .0293568
697.761 .0293392
698.499 .0293205
699.237 .0293008
699.975 .0292801
700.713 .0292589
701.450 .0292372
702.187 .0292155
702.924 .0291947
703.661 .0291751
704.397 .0291566
705.133 .0291394
705.869 .0291237
706.605 .0291088
707.341 .0290943
708.076 .0290798
708.811 .0290653
709.546 .0290501
710.281 .0290348
711.015 .0290185
711.749 .0290013
712.483 .0289839
713.217 .0289657
713.950 .0289470
714.684 .0289277
715.417 .0289077
716.150 .0288871
716.882 .0288661
717.615 .0288451
718.347 .0288237
719.079 .0288029
719.811 .0287828
720.542 .0287637
721.273 .0287453
722.005 .0287279
722.735 .0287111
723.466 .0286948
724.196 .0286790
724.927 .0286628
725.656 .0286466
726.386 .0286308
727.116 .0286150
727.845 .0285996
728.574 .0285846
729.303 .0285699
730.031 .0285552
730.760 .0285408
731.488 .0285264
732.216 .0285116
732.944 .0284968
733.671 .0284819
734.398 .0284669
735.125 .0284522
735.852 .0284382
736.579 .0284245
737.305 .0284116
738.031 .0283993
738.757 .0283870
739.483 .0283750
740.208 .0283630
740.933 .0283506
741.658 .0283377
742.383 .0283242
743.108 .0283101
743.832 .0282948
744.556 .0282798
745.280 .0282643
746.004 .0282485
746.727 .0282330
747.450 .0282181
748.173 .0282035
748.896 .0281898
749.618 .0281766
750.340 .0281642
751.062 .0281525
751.784 .0281415
752.506 .0281303
753.227 .0281194
753.948 .0281084
754.669 .0280970
755.389 .0280851
756.110 .0280732
756.830 .0280608
757.550 .0280487
758.269 .0280371
758.989 .0280254
759.708 .0280134
760.427 .0280007
761.146 .0279867
761.864 .0279709
762.582 .0279528
763.300 .0279325
764.018 .0279109
764.736 .0278889
765.453 .0278672
766.170 .0278469
766.887 .0278289
767.603 .0278133
768.320 .0277995
769.036 .0277872
769.751 .0277751
770.467 .0277627
771.182 .0277497
771.897 .0277359
772.612 .0277215
773.327 .0277077
774.041 .0276945
774.755 .0276827
775.469 .0276725
776.183 .0276635
776.896 .0276552
777.609 .0276469
778.322 .0276378
779.035 .0276269
779.747 .0276143
780.459 .0276006
781.171 .0275855
781.882 .0275706
782.594 .0275565
783.305 .0275437
784.016 .0275329
784.726 .0275241
785.436 .0275170
786.147 .0275119
786.856 .0275080
787.566 .0275047
788.275 .0275019
788.984 .0274990
789.693 .0274958
790.401 .0274918
791.110 .0274872
791.818 .0274819
792.525 .0274757
793.233 .0274688
793.940 .0274608
794.647 .0274520
795.353 .0274422
796.060 .0274309
796.766 .0274185
797.472 .0274040
798.177 .0273879
798.883 .0273703
799.588 .0273517
800.292 .0273327
800.997 .0273143
801.701 .0272968
802.405 .0272810
803.109 .0272667
803.812 .0272539
804.515 .0272419
805.218 .0272308
805.921 .0272194
806.623 .0272073
807.325 .0271944
808.027 .0271807
808.728 .0271666
809.429 .0271522
810.130 .0271374
810.831 .0271228
811.531 .0271078
812.231 .0270923
812.931 .0270759
813.630 .0270586
814.330 .0270402
815.029 .0270212
815.727 .0270017
816.426 .0269820
817.124 .0269628
817.821 .0269442
818.519 .0269265
819.216 .0269100
819.913 .0268950
820.609 .0268815
821.306 .0268697
822.002 .0268596
822.697 .0268511
823.393 .0268444
824.088 .0268385
824.783 .0268333
825.477 .0268289
826.171 .0268248
826.865 .0268211
827.559 .0268181
828.252 .0268158
828.945 .0268142
829.638 .0268136
830.330 .0268135
831.023 .0268140
831.714 .0268153
832.406 .0268165
833.097 .0268170
833.788 .0268167
834.479 .0268149
835.169 .0268115
835.859 .0268071
836.548 .0268016
837.238 .0267950
837.927 .0267881
838.615 .0267809
839.304 .0267736
839.992 .0267665
840.680 .0267596
841.367 .0267527
842.054 .0267454
842.741 .0267379
843.428 .0267293
844.114 .0267208
844.800 .0267123
845.485 .0267041
846.170 .0266958
846.855 .0266877
847.540 .0266794
848.224 .0266708
848.908 .0266620
849.592 .0266522
850.275 .0266415
850.958 .0266298
851.641 .0266170
852.323 .0266030
853.005 .0265880
853.687 .0265724
854.368 .0265562
855.049 .0265395
855.730 .0265222
856.410 .0265047
857.090 .0264874
857.769 .0264709
858.449 .0264553
859.128 .0264407
859.806 .0264273
860.485 .0264150
861.163 .0264037
861.840 .0263930
862.518 .0263828
863.195 .0263732
863.871 .0263638
864.548 .0263549
865.224 .0263462
865.899 .0263377
866.574 .0263301
867.249 .0263232
867.924 .0263172
868.598 .0263115
869.272 .0263061
869.946 .0263005
870.619 .0262944
871.292 .0262876
871.964 .0262798
872.636 .0262716
873.308 .0262633
873.979 .0262553
874.651 .0262482
875.321 .0262421
875.992 .0262377
876.662 .0262348
877.331 .0262329
878.001 .0262309
878.670 .0262282
879.338 .0262239
880.007 .0262185
880.675 .0262119
881.342 .0262047
882.009 .0261977
882.676 .0261919
883.343 .0261874
884.009 .0261839
884.675 .0261810
885.340 .0261784
886.005 .0261748
886.670 .0261702
887.334 .0261635
887.998 .0261553
888.662 .0261465
889.325 .0261379
889.988 .0261303
890.650 .0261247
891.312 .0261206
891.974 .0261182
892.636 .0261172
893.297 .0261169
893.957 .0261168
894.618 .0261168
895.278 .0261169
895.937 .0261169
896.596 .0261171
897.255 .0261177
897.914 .0261185
898.572 .0261199
899.230 .0261215
899.887 .0261226
900.544 .0261234
901.201 .0261234
901.857 .0261225
902.513 .0261210
903.168 .0261184
903.823 .0261147
904.478 .0261097
905.132 .0261031
905.786 .0260947
906.440 .0260843
907.093 .0260722
907.746 .0260581
908.399 .0260429
909.051 .0260267
909.703 .0260097
910.354 .0259925
911.005 .0259755
911.656 .0259587
912.306 .0259415
912.956 .0259239
913.605 .0259054
914.254 .0258867
914.903 .0258676
915.551 .0258482
916.199 .0258292
916.847 .0258112
917.494 .0257944
918.141 .0257785
918.788 .0257645
919.434 .0257518
920.079 .0257396
920.725 .0257282
921.370 .0257167
922.014 .0257050
922.658 .0256927
923.302 .0256798
923.946 .0256661
924.589 .0256514
925.231 .0256354
925.873 .0256183
926.515 .0256006
927.157 .0255824
927.798 .0255636
928.439 .0255443
929.079 .0255252
929.719 .0255055
930.359 .0254855
930.998 .0254649
931.637 .0254437
932.275 .0254222
932.913 .0254005
933.551 .0253787
934.188 .0253575
934.825 .0253371
935.462 .0253180
936.098 .0253002
936.733 .0252838
937.369 .0252687
938.004 .0252547
938.638 .0252410
939.273 .0252276
939.907 .0252144
940.540 .0252018
941.173 .0251895
941.806 .0251785
942.438 .0251686
943.070 .0251596
943.702 .0251516
944.333 .0251438
944.964 .0251359
945.594 .0251278
946.224 .0251190
946.854 .0251098
947.483 .0251003
948.112 .0250909
948.741 .0250819
949.369 .0250740
949.996 .0250670
950.624 .0250603
951.251 .0250534
951.878 .0250459
952.504 .0250373
953.130 .0250272
953.755 .0250159
954.380 .0250034
955.005 .0249901
955.629 .0249764
956.253 .0249628
956.877 .0249500
957.500 .0249374
958.123 .0249252
958.746 .0249126
959.368 .0248993
959.990 .0248855
960.611 .0248706
961.232 .0248556
961.853 .0248408
962.473 .0248260
963.093 .0248119
963.712 .0247986
964.331 .0247861
964.950 .0247742
965.569 .0247628
966.187 .0247517
966.804 .0247407
967.422 .0247303
968.039 .0247205
968.655 .0247116
969.272 .0247036
969.887 .0246965
970.503 .0246900
971.118 .0246841
971.733 .0246781
972.347 .0246719
972.961 .0246655
973.575 .0246581
974.188 .0246500
974.801 .0246408
975.414 .0246305
976.026 .0246196
976.638 .0246078
977.250 .0245957
977.861 .0245826
978.472 .0245691
979.083 .0245548
979.693 .0245393
980.303 .0245229
980.912 .0245046
981.521 .0244854
982.130 .0244654
982.738 .0244450
983.346 .0244250
983.954 .0244060
984.562 .0243888
985.169 .0243731
985.775 .0243586
986.382 .0243453
986.988 .0243325
987.594 .0243203
988.199 .0243082
988.804 .0242962
989.409 .0242851
990.013 .0242754
990.617 .0242672
991.221 .0242608
991.824 .0242564
992.427 .0242537
993.030 .0242518
993.632 .0242505
994.234 .0242496
994.836 .0242482
995.438 .0242467
996.039 .0242452
996.640 .0242437
997.240 .0242421
997.840 .0242406
998.440 .0242390
999.040 .0242376
999.639 .0242360
1000.238 .0242338
1000.836 .0242304
1001.435 .0242265
1002.033 .0242215
1002.630 .0242154
1003.228 .0242088
1003.825 .0242021
1004.422 .0241953
1005.018 .0241892
1005.614 .0241835
1006.210 .0241788
1006.806 .0241758
1007.401 .0241750
1007.996 .0241754
1008.591 .0241775
1009.186 .0241810
1009.780 .0241850
1010.374 .0241895
1010.967 .0241945
1011.561 .0241990
1012.154 .0242028
1012.746 .0242057
1013.339 .0242079
1013.931 .0242093
1014.523 .0242106
1015.115 .0242110
1015.706 .0242116
1016.298 .0242122
1016.888 .0242124
1017.479 .0242115
1018.069 .0242106
1018.660 .0242092
1019.250 .0242078
1019.839 .0242062
1020.429 .0242051
1021.018 .0242046
1021.607 .0242053
1022.195 .0242068
1022.784 .0242097
1023.372 .0242137
1023.960 .0242192
1024.547 .0242254
1025.135 .0242331
1025.722 .0242412
1026.309 .0242500
1026.896 .0242597
1027.483 .0242702
1028.069 .0242806
1028.655 .0242912
1029.241 .0243018
1029.827 .0243129
1030.412 .0243241
1030.997 .0243361
1031.582 .0243484
1032.167 .0243622
1032.752 .0243766
1033.336 .0243915
1033.921 .0244067
1034.505 .0244224
1035.089 .0244373
1035.672 .0244515
1036.256 .0244650
1036.839 .0244767
1037.422 .0244872
1038.005 .0244970
1038.588 .0245058
1039.171 .0245133
1039.753 .0245197
1040.335 .0245253
1040.918 .0245290
1041.500 .0245314
1042.081 .0245317
1042.663 .0245309
1043.244 .0245296
1043.826 .0245276
1044.407 .0245246
1044.988 .0245222
1045.569 .0245207
1046.150 .0245187
1046.730 .0245168
1047.311 .0245155
1047.891 .0245148
1048.471 .0245144
1049.052 .0245148
1049.632 .0245159
1050.211 .0245182
1050.791 .0245217
1051.371 .0245259
1051.950 .0245310
1052.530 .0245365
1053.109 .0245415
1053.688 .0245451
1054.268 .0245481
1054.847 .0245501
1055.426 .0245491
1056.005 .0245481
1056.583 .0245459
1057.162 .0245432
1057.741 .0245402
1058.319 .0245386
1058.898 .0245387
1059.476 .0245412
1060.055 .0245456
1060.633 .0245511
1061.211 .0245582
1061.790 .0245673
1062.368 .0245771
1062.946 .0245880
1063.524 .0245996
1064.102 .0246120
1064.680 .0246244
1065.258 .0246372
1065.836 .0246490
1066.414 .0246612
1066.992 .0246726
1067.570 .0246840
1068.148 .0246935
1068.726 .0247015
1069.304 .0247099
1069.882 .0247186
1070.460 .0247270
1071.038 .0247348
1071.616 .0247425
1072.194 .0247499
1072.772 .0247559
1073.350 .0247617
1073.928 .0247663
1074.506 .0247704
1075.084 .0247747
1075.662 .0247783
1076.240 .0247815
1076.819 .0247852
1077.397 .0247878
1077.976 .0247893
1078.554 .0247894
1079.133 .0247881
1079.711 .0247842
1080.290 .0247811
1080.869 .0247796
1081.448 .0247782
1082.027 .0247772
1082.606 .0247787
1083.185 .0247814
1083.764 .0247860
1084.343 .0247909
1084.923 .0247960
1085.502 .0248029
1086.082 .0248126
1086.662 .0248241
1087.242 .0248389
1087.822 .0248579
1088.402 .0248803
1088.983 .0249020
1089.563 .0249229
1090.144 .0249402
1090.725 .0249548
1091.306 .0249642
1091.887 .0249696
1092.469 .0249725
1093.050 .0249756
1093.632 .0249795
1094.214 .0249872
1094.796 .0249996
1095.379 .0250169
1095.961 .0250382
1096.544 .0250613
1097.127 .0250840
1097.710 .0251074
1098.294 .0251298
1098.877 .0251501
1099.461 .0251712
1100.046 .0251941
1100.630 .0252177
1101.215 .0252458
1101.800 .0252784
1102.385 .0253140
1102.970 .0253542
1103.556 .0253962
1104.142 .0254384
1104.728 .0254799
1105.315 .0255185
1105.902 .0255523
1106.489 .0255827
1107.077 .0256101
1107.664 .0256320
1108.253 .0256496
1108.841 .0256658
1109.430 .0256797
1110.019 .0256922
1110.609 .0257023
1111.198 .0257111
1111.789 .0257191
1112.379 .0257231
1112.970 .0257228
1113.561 .0257207
1114.153 .0257195
1114.745 .0257198
1115.338 .0257228
1115.931 .0257305
1116.524 .0257464
1117.117 .0257724
1117.712 .0258066
1118.306 .0258498
1118.901 .0259034
1119.496 .0259607
1120.092 .0260231
1120.689 .0260888
1121.285 .0261576
1121.882 .0262267
1122.480 .0262991
1123.078 .0263710
1123.677 .0264436
1124.276 .0265165
1124.875 .0265885
1125.476 .0266558
1126.076 .0267216
1126.677 .0267794
1127.279 .0268299
1127.881 .0268747
1128.484 .0269139
1129.087 .0269458
1129.691 .0269765
1130.295 .0270037
1130.900 .0270314
1131.505 .0270606
1132.111 .0270982
1132.718 .0271451
1133.325 .0272050
1133.933 .0272782
1134.541 .0273627
1135.150 .0274574
1135.760 .0275652
1136.370 .0276792
1136.981 .0278009
1137.592 .0279247
1138.204 .0280550
1138.817 .0281892
1139.431 .0283348
1140.045 .0284905
1140.660 .0286532
1141.275 .0288277
1141.891 .0290205
1142.508 .0292731
1143.126 .0294570
1143.744 .0295053
1144.363 .0297837
1144.983 .0302468
