Measurement Sequence started on: 15-12-46-377
Integration time: 28
Scans to Average: 2 
>>>>>Begin Spectral Data<<<<<
432.689 .0000100
433.621 .0000100
434.552 .0000100
435.482 .0000100
436.410 .0000100
437.337 .0000100
438.262 .0278830
439.187 .0591915
440.110 .0981676
441.031 .1422381
441.952 .1851429
442.871 .2190478
443.789 .2378380
444.705 .2393552
445.621 .2260965
446.535 .2036062
447.447 .1779427
448.359 .1385679
449.269 .1187755
450.178 .1061158
451.086 .0970574
451.993 .0900967
452.898 .0846009
453.803 .0801142
454.706 .0764163
455.608 .0732871
456.508 .0705957
457.408 .0682860
458.306 .0662629
459.204 .0644608
460.100 .0628324
460.995 .0613744
461.888 .0600657
462.781 .0588860
463.673 .0578143
464.563 .0568385
465.452 .0559327
466.340 .0550800
467.228 .0542730
468.114 .0535050
468.999 .0527852
469.882 .0520929
470.765 .0514390
471.647 .0508349
472.528 .0502747
473.407 .0497708
474.286 .0493182
475.163 .0489198
476.040 .0485683
476.915 .0482509
477.790 .0479640
478.663 .0477000
479.535 .0474620
480.407 .0472437
481.277 .0470498
482.147 .0468924
483.015 .0467645
483.883 .0466712
484.749 .0466207
485.615 .0466060
486.479 .0466184
487.343 .0466522
488.206 .0466986
489.067 .0467464
489.928 .0467851
490.788 .0468157
491.647 .0468457
492.505 .0468814
493.362 .0469365
494.218 .0470161
495.073 .0471286
495.928 .0472787
496.781 .0474531
497.634 .0476593
498.486 .0478866
499.337 .0481202
500.187 .0483533
501.036 .0485848
501.884 .0488306
502.731 .0490903
503.578 .0493825
504.424 .0497176
505.268 .0500919
506.113 .0505122
506.956 .0509656
507.798 .0514546
508.640 .0519829
509.480 .0525559
510.320 .0531890
511.160 .0538981
511.998 .0546959
512.836 .0555986
513.672 .0566292
514.508 .0578095
515.344 .0591368
516.178 .0606211
517.012 .0622854
517.845 .0641518
518.677 .0662692
519.508 .0686642
520.339 .0713812
521.169 .0745191
521.998 .0781157
522.826 .0822140
523.654 .0868260
524.481 .0919412
525.307 .0976026
526.133 .1037345
526.958 .1103119
527.782 .1172785
528.605 .1244766
529.428 .1318217
530.250 .1388112
531.072 .1452271
531.892 .1506456
532.712 .1547587
533.532 .1573483
534.350 .1581606
535.168 .1571392
535.986 .1543642
536.802 .1500418
537.618 .1444870
538.434 .1379448
539.249 .1308835
540.063 .1235094
540.876 .1161704
541.689 .1090409
542.501 .1023036
543.313 .0961053
544.124 .0905314
544.934 .0855306
545.744 .0810550
546.553 .0771033
547.361 .0736422
548.169 .0706649
548.976 .0680787
549.783 .0658141
550.589 .0638274
551.395 .0620301
552.200 .0603965
553.004 .0588851
553.808 .0574827
554.611 .0561856
555.414 .0549964
556.216 .0539171
557.018 .0529420
557.819 .0520600
558.619 .0512493
559.419 .0504886
560.218 .0497518
561.017 .0490325
561.815 .0483128
562.613 .0476012
563.410 .0469045
564.207 .0462267
565.003 .0455743
565.799 .0449528
566.594 .0443635
567.388 .0438086
568.182 .0432686
568.976 .0427409
569.769 .0422145
570.562 .0416995
571.354 .0411858
572.145 .0406840
572.936 .0401949
573.727 .0397344
574.517 .0392985
575.307 .0388888
576.096 .0385030
576.885 .0381363
577.673 .0377874
578.461 .0374538
579.248 .0371308
580.035 .0368214
580.821 .0365234
581.607 .0362414
582.392 .0359698
583.177 .0357164
583.962 .0354770
584.746 .0352567
585.529 .0350565
586.313 .0348771
587.095 .0347154
587.878 .0345731
588.660 .0344473
589.441 .0343355
590.222 .0342346
591.003 .0341427
591.783 .0340563
592.563 .0339742
593.342 .0338942
594.121 .0338151
594.899 .0337383
595.678 .0336649
596.455 .0335934
597.233 .0335255
598.009 .0334596
598.786 .0333952
599.562 .0333324
600.338 .0332684
601.113 .0332018
601.888 .0331325
602.663 .0330603
603.437 .0329852
604.211 .0329092
604.984 .0328345
605.757 .0327636
606.530 .0326984
607.302 .0326388
608.074 .0325844
608.845 .0325370
609.616 .0324946
610.387 .0324557
611.158 .0324198
611.928 .0323853
612.697 .0323523
613.467 .0323219
614.236 .0322945
615.004 .0322709
615.773 .0322515
616.541 .0322369
617.308 .0322259
618.076 .0322179
618.843 .0322120
619.609 .0322070
620.375 .0322031
621.141 .0321988
621.907 .0321929
622.672 .0321861
623.437 .0321782
624.202 .0321699
624.966 .0321611
625.730 .0321514
626.493 .0321406
627.257 .0321279
628.020 .0321135
628.782 .0320966
629.545 .0320772
630.307 .0320547
631.068 .0320293
631.830 .0320016
632.591 .0319716
633.352 .0319404
634.112 .0319089
634.872 .0318776
635.632 .0318461
636.392 .0318146
637.151 .0317825
637.910 .0317496
638.668 .0317166
639.427 .0316831
640.185 .0316499
640.943 .0316180
641.700 .0315887
642.457 .0315620
643.214 .0315385
643.971 .0315180
644.727 .0314997
645.483 .0314824
646.239 .0314647
646.994 .0314463
647.750 .0314273
648.505 .0314077
649.259 .0313884
650.014 .0313701
650.768 .0313539
651.521 .0313393
652.275 .0313260
653.028 .0313138
653.781 .0313010
654.534 .0312864
655.286 .0312684
656.039 .0312475
656.791 .0312237
657.542 .0311964
658.294 .0311671
659.045 .0311370
659.796 .0311059
660.546 .0310749
661.297 .0310440
662.047 .0310133
662.796 .0309822
663.546 .0309504
664.295 .0309172
665.044 .0308831
665.793 .0308486
666.542 .0308138
667.290 .0307794
668.038 .0307469
668.786 .0307161
669.533 .0306874
670.281 .0306618
671.028 .0306381
671.774 .0306159
672.521 .0305952
673.267 .0305747
674.013 .0305539
674.759 .0305329
675.505 .0305121
676.250 .0304909
676.995 .0304701
677.740 .0304500
678.484 .0304301
679.229 .0304120
679.973 .0303948
680.717 .0303790
681.460 .0303641
682.204 .0303500
682.947 .0303356
683.690 .0303209
684.433 .0303058
685.175 .0302898
685.917 .0302733
686.659 .0302571
687.401 .0302409
688.142 .0302254
688.884 .0302106
689.625 .0301972
690.365 .0301845
691.106 .0301727
691.846 .0301605
692.586 .0301479
693.326 .0301340
694.066 .0301193
694.805 .0301034
695.545 .0300866
696.284 .0300692
697.022 .0300514
697.761 .0300334
698.499 .0300150
699.237 .0299963
699.975 .0299774
700.713 .0299583
701.450 .0299395
702.187 .0299205
702.924 .0299024
703.661 .0298856
704.397 .0298703
705.133 .0298568
705.869 .0298452
706.605 .0298349
707.341 .0298250
708.076 .0298155
708.811 .0298055
709.546 .0297946
710.281 .0297825
711.015 .0297690
711.749 .0297542
712.483 .0297385
713.217 .0297218
713.950 .0297045
714.684 .0296863
715.417 .0296668
716.150 .0296457
716.882 .0296227
717.615 .0295977
718.347 .0295706
719.079 .0295418
719.811 .0295119
720.542 .0294813
721.273 .0294511
722.005 .0294216
722.735 .0293936
723.466 .0293670
724.196 .0293412
724.927 .0293157
725.656 .0292899
726.386 .0292637
727.116 .0292368
727.845 .0292094
728.574 .0291814
729.303 .0291537
730.031 .0291266
730.760 .0291004
731.488 .0290752
732.216 .0290511
732.944 .0290280
733.671 .0290056
734.398 .0289836
735.125 .0289617
735.852 .0289402
736.579 .0289193
737.305 .0288992
738.031 .0288802
738.757 .0288622
739.483 .0288454
740.208 .0288294
740.933 .0288143
741.658 .0287996
742.383 .0287849
743.108 .0287705
743.832 .0287563
744.556 .0287424
745.280 .0287286
746.004 .0287156
746.727 .0287030
747.450 .0286910
748.173 .0286791
748.896 .0286673
749.618 .0286552
750.340 .0286425
751.062 .0286292
751.784 .0286153
752.506 .0286012
753.227 .0285868
753.948 .0285722
754.669 .0285578
755.389 .0285432
756.110 .0285288
756.830 .0285142
757.550 .0285000
758.269 .0284861
758.989 .0284729
759.708 .0284606
760.427 .0284497
761.146 .0284397
761.864 .0284309
762.582 .0284232
763.300 .0284159
764.018 .0284087
764.736 .0284010
765.453 .0283924
766.170 .0283833
766.887 .0283734
767.603 .0283633
768.320 .0283532
769.036 .0283441
769.751 .0283355
770.467 .0283277
771.182 .0283204
771.897 .0283136
772.612 .0283068
773.327 .0283004
774.041 .0282938
774.755 .0282875
775.469 .0282820
776.183 .0282778
776.896 .0282750
777.609 .0282741
778.322 .0282748
779.035 .0282770
779.747 .0282797
780.459 .0282825
781.171 .0282845
781.882 .0282858
782.594 .0282861
783.305 .0282857
784.016 .0282846
784.726 .0282832
785.436 .0282814
786.147 .0282796
786.856 .0282774
787.566 .0282744
788.275 .0282708
788.984 .0282666
789.693 .0282613
790.401 .0282550
791.110 .0282477
791.818 .0282399
792.525 .0282314
793.233 .0282221
793.940 .0282119
794.647 .0282010
795.353 .0281894
796.060 .0281770
796.766 .0281636
797.472 .0281497
798.177 .0281351
798.883 .0281196
799.588 .0281028
800.292 .0280841
800.997 .0280637
801.701 .0280416
802.405 .0280180
803.109 .0279931
803.812 .0279671
804.515 .0279411
805.218 .0279153
805.921 .0278893
806.623 .0278629
807.325 .0278358
808.027 .0278080
808.728 .0277787
809.429 .0277473
810.130 .0277144
810.831 .0276809
811.531 .0276473
812.231 .0276141
812.931 .0275813
813.630 .0275496
814.330 .0275187
815.029 .0274880
815.727 .0274573
816.426 .0274260
817.124 .0273940
817.821 .0273616
818.519 .0273288
819.216 .0272967
819.913 .0272656
820.609 .0272368
821.306 .0272108
822.002 .0271878
822.697 .0271671
823.393 .0271487
824.088 .0271326
824.783 .0271181
825.477 .0271044
826.171 .0270914
826.865 .0270796
827.559 .0270691
828.252 .0270600
828.945 .0270526
829.638 .0270466
830.330 .0270422
831.023 .0270384
831.714 .0270344
832.406 .0270302
833.097 .0270254
833.788 .0270192
834.479 .0270122
835.169 .0270042
835.859 .0269955
836.548 .0269861
837.238 .0269767
837.927 .0269672
838.615 .0269576
839.304 .0269484
839.992 .0269388
840.680 .0269293
841.367 .0269198
842.054 .0269102
842.741 .0269008
843.428 .0268917
844.114 .0268828
844.800 .0268740
845.485 .0268653
846.170 .0268565
846.855 .0268476
847.540 .0268389
848.224 .0268308
848.908 .0268230
849.592 .0268156
850.275 .0268087
850.958 .0268020
851.641 .0267956
852.323 .0267889
853.005 .0267816
853.687 .0267738
854.368 .0267653
855.049 .0267564
855.730 .0267475
856.410 .0267387
857.090 .0267302
857.769 .0267220
858.449 .0267142
859.128 .0267062
859.806 .0266976
860.485 .0266886
861.163 .0266792
861.840 .0266695
862.518 .0266596
863.195 .0266494
863.871 .0266397
864.548 .0266306
865.224 .0266219
865.899 .0266136
866.574 .0266056
867.249 .0265979
867.924 .0265906
868.598 .0265838
869.272 .0265782
869.946 .0265743
870.619 .0265725
871.292 .0265729
871.964 .0265751
872.636 .0265790
873.308 .0265838
873.979 .0265894
874.651 .0265954
875.321 .0266013
875.992 .0266070
876.662 .0266131
877.331 .0266196
878.001 .0266263
878.670 .0266330
879.338 .0266393
880.007 .0266453
880.675 .0266504
881.342 .0266540
882.009 .0266556
882.676 .0266558
883.343 .0266548
884.009 .0266525
884.675 .0266493
885.340 .0266457
886.005 .0266420
886.670 .0266392
887.334 .0266369
887.998 .0266358
888.662 .0266357
889.325 .0266371
889.988 .0266393
890.650 .0266422
891.312 .0266453
891.974 .0266485
892.636 .0266518
893.297 .0266551
893.957 .0266581
894.618 .0266610
895.278 .0266640
895.937 .0266672
896.596 .0266701
897.255 .0266718
897.914 .0266722
898.572 .0266709
899.230 .0266676
899.887 .0266620
900.544 .0266539
901.201 .0266438
901.857 .0266323
902.513 .0266193
903.168 .0266050
903.823 .0265891
904.478 .0265718
905.132 .0265526
905.786 .0265309
906.440 .0265065
907.093 .0264800
907.746 .0264516
908.399 .0264218
909.051 .0263907
909.703 .0263588
910.354 .0263265
911.005 .0262945
911.656 .0262626
912.306 .0262307
912.956 .0261987
913.605 .0261668
914.254 .0261349
914.903 .0261031
915.551 .0260719
916.199 .0260414
916.847 .0260119
917.494 .0259832
918.141 .0259549
918.788 .0259271
919.434 .0258997
920.079 .0258725
920.725 .0258456
921.370 .0258182
922.014 .0257905
922.658 .0257620
923.302 .0257329
923.946 .0257030
924.589 .0256717
925.231 .0256391
925.873 .0256054
926.515 .0255707
927.157 .0255353
927.798 .0254995
928.439 .0254640
929.079 .0254290
929.719 .0253941
930.359 .0253597
930.998 .0253253
931.637 .0252914
932.275 .0252578
932.913 .0252240
933.551 .0251913
934.188 .0251594
934.825 .0251284
935.462 .0250991
936.098 .0250719
936.733 .0250466
937.369 .0250230
938.004 .0250015
938.638 .0249811
939.273 .0249616
939.907 .0249429
940.540 .0249247
941.173 .0249072
941.806 .0248908
942.438 .0248749
943.070 .0248597
943.702 .0248454
944.333 .0248313
944.964 .0248171
945.594 .0248036
946.224 .0247899
946.854 .0247765
947.483 .0247633
948.112 .0247508
948.741 .0247382
949.369 .0247266
949.996 .0247155
950.624 .0247049
951.251 .0246949
951.878 .0246850
952.504 .0246749
953.130 .0246654
953.755 .0246563
954.380 .0246475
955.005 .0246398
955.629 .0246332
956.253 .0246275
956.877 .0246229
957.500 .0246191
958.123 .0246162
958.746 .0246138
959.368 .0246117
959.990 .0246095
960.611 .0246077
961.232 .0246062
961.853 .0246054
962.473 .0246057
963.093 .0246070
963.712 .0246089
964.331 .0246112
964.950 .0246134
965.569 .0246150
966.187 .0246159
966.804 .0246161
967.422 .0246159
968.039 .0246154
968.655 .0246145
969.272 .0246137
969.887 .0246131
970.503 .0246127
971.118 .0246121
971.733 .0246110
972.347 .0246088
972.961 .0246060
973.575 .0246024
974.188 .0245982
974.801 .0245940
975.414 .0245908
976.026 .0245883
976.638 .0245868
977.250 .0245864
977.861 .0245860
978.472 .0245858
979.083 .0245857
979.693 .0245853
980.303 .0245850
980.912 .0245854
981.521 .0245870
982.130 .0245898
982.738 .0245950
983.346 .0246017
983.954 .0246100
984.562 .0246197
985.169 .0246291
985.775 .0246378
986.382 .0246457
986.988 .0246526
987.594 .0246583
988.199 .0246637
988.804 .0246693
989.409 .0246749
990.013 .0246811
990.617 .0246876
991.221 .0246939
991.824 .0247003
992.427 .0247064
993.030 .0247116
993.632 .0247168
994.234 .0247220
994.836 .0247273
995.438 .0247340
996.039 .0247417
996.640 .0247505
997.240 .0247609
997.840 .0247725
998.440 .0247851
999.040 .0247978
999.639 .0248112
1000.238 .0248245
1000.836 .0248379
1001.435 .0248508
1002.033 .0248628
1002.630 .0248741
1003.228 .0248852
1003.825 .0248959
1004.422 .0249068
1005.018 .0249175
1005.614 .0249290
1006.210 .0249409
1006.806 .0249531
1007.401 .0249648
1007.996 .0249760
1008.591 .0249866
1009.186 .0249968
1009.780 .0250057
1010.374 .0250136
1010.967 .0250212
1011.561 .0250288
1012.154 .0250360
1012.746 .0250425
1013.339 .0250486
1013.931 .0250533
1014.523 .0250569
1015.115 .0250595
1015.706 .0250610
1016.298 .0250623
1016.888 .0250640
1017.479 .0250665
1018.069 .0250702
1018.660 .0250746
1019.250 .0250798
1019.839 .0250855
1020.429 .0250915
1021.018 .0250965
1021.607 .0251007
1022.195 .0251046
1022.784 .0251087
1023.372 .0251129
1023.960 .0251185
1024.547 .0251251
1025.135 .0251332
1025.722 .0251415
1026.309 .0251495
1026.896 .0251568
1027.483 .0251636
1028.069 .0251692
1028.655 .0251742
1029.241 .0251787
1029.827 .0251832
1030.412 .0251872
1030.997 .0251922
1031.582 .0251975
1032.167 .0252030
1032.752 .0252085
1033.336 .0252136
1033.921 .0252174
1034.505 .0252201
1035.089 .0252209
1035.672 .0252204
1036.256 .0252180
1036.839 .0252137
1037.422 .0252073
1038.005 .0252002
1038.588 .0251928
1039.171 .0251857
1039.753 .0251792
1040.335 .0251740
1040.918 .0251691
1041.500 .0251645
1042.081 .0251594
1042.663 .0251537
1043.244 .0251465
1043.826 .0251377
1044.407 .0251266
1044.988 .0251142
1045.569 .0251000
1046.150 .0250849
1046.730 .0250685
1047.311 .0250514
1047.891 .0250335
1048.471 .0250140
1049.052 .0249937
1049.632 .0249733
1050.211 .0249531
1050.791 .0249340
1051.371 .0249165
1051.950 .0249016
1052.530 .0248891
1053.109 .0248796
1053.688 .0248720
1054.268 .0248657
1054.847 .0248607
1055.426 .0248556
1056.005 .0248502
1056.583 .0248438
1057.162 .0248363
1057.741 .0248268
1058.319 .0248164
1058.898 .0248039
1059.476 .0247898
1060.055 .0247745
1060.633 .0247573
1061.211 .0247379
1061.790 .0247171
1062.368 .0246944
1062.946 .0246703
1063.524 .0246448
1064.102 .0246187
1064.680 .0245911
1065.258 .0245638
1065.836 .0245370
1066.414 .0245128
1066.992 .0244913
1067.570 .0244739
1068.148 .0244589
1068.726 .0244470
1069.304 .0244362
1069.882 .0244263
1070.460 .0244148
1071.038 .0244026
1071.616 .0243887
1072.194 .0243739
1072.772 .0243591
1073.350 .0243473
1073.928 .0243387
1074.506 .0243344
1075.084 .0243333
1075.662 .0243348
1076.240 .0243366
1076.819 .0243387
1077.397 .0243374
1077.976 .0243339
1078.554 .0243277
1079.133 .0243200
1079.711 .0243097
1080.290 .0243007
1080.869 .0242932
1081.448 .0242875
1082.027 .0242835
1082.606 .0242811
1083.185 .0242781
1083.764 .0242748
1084.343 .0242688
1084.923 .0242614
1085.502 .0242521
1086.082 .0242441
1086.662 .0242361
1087.242 .0242301
1087.822 .0242270
1088.402 .0242260
1088.983 .0242261
1089.563 .0242276
1090.144 .0242276
1090.725 .0242261
1091.306 .0242204
1091.887 .0242117
1092.469 .0242000
1093.050 .0241880
1093.632 .0241776
1094.214 .0241714
1094.796 .0241705
1095.379 .0241761
1095.961 .0241862
1096.544 .0242008
1097.127 .0242162
1097.710 .0242314
1098.294 .0242450
1098.877 .0242562
1099.461 .0242656
1100.046 .0242764
1100.630 .0242900
1101.215 .0243101
1101.800 .0243354
1102.385 .0243657
1102.970 .0243994
1103.556 .0244345
1104.142 .0244688
1104.728 .0245012
1105.315 .0245324
1105.902 .0245621
1106.489 .0245910
1107.077 .0246221
1107.664 .0246554
1108.253 .0246921
1108.841 .0247325
1109.430 .0247766
1110.019 .0248229
1110.609 .0248699
1111.198 .0249178
1111.789 .0249650
1112.379 .0250113
1112.970 .0250559
1113.561 .0250956
1114.153 .0251339
1114.745 .0251686
1115.338 .0252000
1115.931 .0252294
1116.524 .0252583
1117.117 .0252883
1117.712 .0253194
1118.306 .0253533
1118.901 .0253892
1119.496 .0254252
1120.092 .0254619
1120.689 .0254943
1121.285 .0255238
1121.882 .0255513
1122.480 .0255763
1123.078 .0256019
1123.677 .0256315
1124.276 .0256632
1124.875 .0257015
1125.476 .0257451
1126.076 .0257971
1126.677 .0258558
1127.279 .0259210
1127.881 .0259896
1128.484 .0260595
1129.087 .0261323
1129.691 .0262070
1130.295 .0262826
1130.900 .0263658
1131.505 .0264508
1132.111 .0265430
1132.718 .0266403
1133.325 .0267425
1133.933 .0268488
1134.541 .0269613
1135.150 .0270731
1135.760 .0271829
1136.370 .0272872
1136.981 .0273884
1137.592 .0274834
1138.204 .0275816
1138.817 .0276804
1139.431 .0277765
1140.045 .0278764
1140.660 .0279754
1141.275 .0280596
1141.891 .0281588
1142.508 .0282337
1143.126 .0283843
1143.744 .0284044
1144.363 .0281594
1144.983 .0289037
