Measurement Sequence started on: 15-12-46-377
Integration time: 28
Scans to Average: 2 
>>>>>Begin Spectral Data<<<<<
432.689 .0000100
433.621 .0000100
434.552 .0000100
435.482 .0000100
436.410 .0000100
437.337 .0000100
438.262 .0276317
439.187 .0584206
440.110 .0966578
441.031 .1397505
441.952 .1815181
442.871 .2142516
443.789 .2320156
444.705 .2327738
445.621 .2191059
446.535 .1965632
447.447 .1711408
448.359 .1323387
449.269 .1132067
450.178 .1011260
451.086 .0925698
451.993 .0860227
452.898 .0808485
453.803 .0765939
454.706 .0730691
455.608 .0700685
456.508 .0674816
457.408 .0652539
458.306 .0633033
459.204 .0615621
460.100 .0599903
460.995 .0585677
461.888 .0572639
462.781 .0560677
463.673 .0549763
464.563 .0539809
465.452 .0530588
466.340 .0522027
467.228 .0514241
468.114 .0507020
468.999 .0500400
469.882 .0494229
470.765 .0488601
471.647 .0483413
472.528 .0478685
473.407 .0474334
474.286 .0470513
475.163 .0467250
476.040 .0464538
476.915 .0462268
477.790 .0460430
478.663 .0458928
479.535 .0457712
480.407 .0456737
481.277 .0455978
482.147 .0455359
483.015 .0454947
483.883 .0454777
484.749 .0454893
485.615 .0455224
486.479 .0455820
487.343 .0456671
488.206 .0457722
489.067 .0458812
489.928 .0459912
490.788 .0460984
491.647 .0462040
492.505 .0463069
493.362 .0464148
494.218 .0465346
495.073 .0466735
495.928 .0468368
496.781 .0470196
497.634 .0472244
498.486 .0474548
499.337 .0477063
500.187 .0479831
501.036 .0482814
501.884 .0486046
502.731 .0489537
503.578 .0493333
504.424 .0497448
505.268 .0501799
506.113 .0506386
506.956 .0511318
507.798 .0516517
508.640 .0522047
509.480 .0528079
510.320 .0534699
511.160 .0542030
511.998 .0550180
512.836 .0559231
513.672 .0569273
514.508 .0580348
515.344 .0592768
516.178 .0606546
517.012 .0622051
517.845 .0639849
518.677 .0660346
519.508 .0683819
520.339 .0710808
521.169 .0741932
521.998 .0777375
522.826 .0817840
523.654 .0863461
524.481 .0914789
525.307 .0972207
526.133 .1035473
526.958 .1103426
527.782 .1175485
528.605 .1250106
529.428 .1326225
530.250 .1398642
531.072 .1465310
531.892 .1522078
532.712 .1566181
533.532 .1595624
534.350 .1608436
535.168 .1603092
535.986 .1580638
536.802 .1541858
537.618 .1489419
538.434 .1424953
539.249 .1354007
540.063 .1278552
540.876 .1202726
541.689 .1128752
542.501 .1058622
543.313 .0994059
544.124 .0936366
544.934 .0884744
545.744 .0838438
546.553 .0796675
547.361 .0759280
548.169 .0725724
548.976 .0695598
549.783 .0668424
550.589 .0644453
551.395 .0622981
552.200 .0604217
553.004 .0587551
553.808 .0572629
554.611 .0559343
555.414 .0547488
556.216 .0536648
557.018 .0526605
557.819 .0517281
558.619 .0508363
559.419 .0499861
560.218 .0491866
561.017 .0484312
561.815 .0477119
562.613 .0470287
563.410 .0463944
564.207 .0457819
565.003 .0452046
565.799 .0446370
566.594 .0440674
567.388 .0435117
568.182 .0429525
568.976 .0423883
569.769 .0418290
570.562 .0412834
571.354 .0407481
572.145 .0402291
572.936 .0397330
573.727 .0392533
574.517 .0387898
575.307 .0383464
576.096 .0379159
576.885 .0374988
577.673 .0371018
578.461 .0367195
579.248 .0363550
580.035 .0360153
580.821 .0356932
581.607 .0353904
582.392 .0351081
583.177 .0348511
583.962 .0346161
584.746 .0344064
585.529 .0342192
586.313 .0340515
587.095 .0339031
587.878 .0337706
588.660 .0336496
589.441 .0335411
590.222 .0334423
591.003 .0333513
591.783 .0332661
592.563 .0331888
593.342 .0331178
594.121 .0330510
594.899 .0329900
595.678 .0329341
596.455 .0328801
597.233 .0328291
598.009 .0327787
598.786 .0327296
599.562 .0326812
600.338 .0326322
601.113 .0325848
601.888 .0325387
602.663 .0324953
603.437 .0324543
604.211 .0324155
604.984 .0323800
605.757 .0323461
606.530 .0323127
607.302 .0322797
608.074 .0322459
608.845 .0322115
609.616 .0321755
610.387 .0321389
611.158 .0321015
611.928 .0320634
612.697 .0320251
613.467 .0319872
614.236 .0319485
615.004 .0319103
615.773 .0318720
616.541 .0318346
617.308 .0317977
618.076 .0317622
618.843 .0317274
619.609 .0316948
620.375 .0316637
621.141 .0316342
621.907 .0316060
622.672 .0315806
623.437 .0315567
624.202 .0315349
624.966 .0315153
625.730 .0314987
626.493 .0314845
627.257 .0314724
628.020 .0314608
628.782 .0314491
629.545 .0314353
630.307 .0314192
631.068 .0313997
631.830 .0313784
632.591 .0313543
633.352 .0313295
634.112 .0313040
634.872 .0312789
635.632 .0312541
636.392 .0312294
637.151 .0312049
637.910 .0311795
638.668 .0311519
639.427 .0311221
640.185 .0310906
640.943 .0310588
641.700 .0310264
642.457 .0309946
643.214 .0309636
643.971 .0309328
644.727 .0309026
645.483 .0308736
646.239 .0308456
646.994 .0308187
647.750 .0307925
648.505 .0307671
649.259 .0307431
650.014 .0307197
650.768 .0306973
651.521 .0306751
652.275 .0306542
653.028 .0306335
653.781 .0306131
654.534 .0305939
655.286 .0305765
656.039 .0305614
656.791 .0305490
657.542 .0305368
658.294 .0305250
659.045 .0305123
659.796 .0304977
660.546 .0304803
661.297 .0304591
662.047 .0304351
662.796 .0304086
663.546 .0303800
664.295 .0303509
665.044 .0303212
665.793 .0302929
666.542 .0302648
667.290 .0302365
668.038 .0302077
668.786 .0301778
669.533 .0301471
670.281 .0301157
671.028 .0300841
671.774 .0300529
672.521 .0300228
673.267 .0299955
674.013 .0299711
674.759 .0299496
675.505 .0299309
676.250 .0299144
676.995 .0298995
677.740 .0298854
678.484 .0298708
679.229 .0298562
679.973 .0298412
680.717 .0298252
681.460 .0298080
682.204 .0297901
682.947 .0297721
683.690 .0297540
684.433 .0297356
685.175 .0297171
685.917 .0296981
686.659 .0296789
687.401 .0296590
688.142 .0296385
688.884 .0296178
689.625 .0295961
690.365 .0295736
691.106 .0295504
691.846 .0295266
692.586 .0295030
693.326 .0294797
694.066 .0294576
694.805 .0294366
695.545 .0294163
696.284 .0293965
697.022 .0293771
697.761 .0293578
698.499 .0293378
699.237 .0293171
699.975 .0292955
700.713 .0292730
701.450 .0292503
702.187 .0292277
702.924 .0292062
703.661 .0291859
704.397 .0291672
705.133 .0291495
705.869 .0291332
706.605 .0291182
707.341 .0291036
708.076 .0290899
708.811 .0290767
709.546 .0290641
710.281 .0290520
711.015 .0290408
711.749 .0290301
712.483 .0290197
713.217 .0290091
713.950 .0289977
714.684 .0289848
715.417 .0289701
716.150 .0289537
716.882 .0289355
717.615 .0289162
718.347 .0288961
719.079 .0288753
719.811 .0288547
720.542 .0288341
721.273 .0288134
722.005 .0287920
722.735 .0287701
723.466 .0287479
724.196 .0287254
724.927 .0287028
725.656 .0286806
726.386 .0286590
727.116 .0286387
727.845 .0286191
728.574 .0286006
729.303 .0285827
730.031 .0285651
730.760 .0285478
731.488 .0285306
732.216 .0285136
732.944 .0284974
733.671 .0284822
734.398 .0284686
735.125 .0284561
735.852 .0284444
736.579 .0284335
737.305 .0284234
738.031 .0284136
738.757 .0284043
739.483 .0283952
740.208 .0283869
740.933 .0283790
741.658 .0283713
742.383 .0283633
743.108 .0283544
743.832 .0283449
744.556 .0283342
745.280 .0283219
746.004 .0283086
746.727 .0282943
747.450 .0282800
748.173 .0282663
748.896 .0282535
749.618 .0282415
750.340 .0282308
751.062 .0282210
751.784 .0282120
752.506 .0282035
753.227 .0281956
753.948 .0281879
754.669 .0281804
755.389 .0281731
756.110 .0281654
756.830 .0281576
757.550 .0281500
758.269 .0281420
758.989 .0281335
759.708 .0281240
760.427 .0281137
761.146 .0281023
761.864 .0280900
762.582 .0280764
763.300 .0280613
764.018 .0280450
764.736 .0280275
765.453 .0280091
766.170 .0279898
766.887 .0279704
767.603 .0279511
768.320 .0279322
769.036 .0279136
769.751 .0278952
770.467 .0278769
771.182 .0278588
771.897 .0278411
772.612 .0278233
773.327 .0278057
774.041 .0277886
774.755 .0277718
775.469 .0277557
776.183 .0277406
776.896 .0277268
777.609 .0277140
778.322 .0277027
779.035 .0276926
779.747 .0276836
780.459 .0276761
781.171 .0276699
781.882 .0276650
782.594 .0276609
783.305 .0276576
784.016 .0276547
784.726 .0276523
785.436 .0276510
786.147 .0276497
786.856 .0276490
787.566 .0276486
788.275 .0276480
788.984 .0276466
789.693 .0276446
790.401 .0276414
791.110 .0276366
791.818 .0276301
792.525 .0276220
793.233 .0276121
793.940 .0276010
794.647 .0275890
795.353 .0275764
796.060 .0275633
796.766 .0275498
797.472 .0275350
798.177 .0275195
798.883 .0275030
799.588 .0274857
800.292 .0274680
800.997 .0274501
801.701 .0274321
802.405 .0274144
803.109 .0273977
803.812 .0273822
804.515 .0273678
805.218 .0273545
805.921 .0273419
806.623 .0273296
807.325 .0273175
808.027 .0273054
808.728 .0272934
809.429 .0272809
810.130 .0272682
810.831 .0272550
811.531 .0272412
812.231 .0272265
812.931 .0272111
813.630 .0271946
814.330 .0271775
815.029 .0271599
815.727 .0271415
816.426 .0271230
817.124 .0271048
817.821 .0270860
818.519 .0270675
819.216 .0270489
819.913 .0270302
820.609 .0270113
821.306 .0269929
822.002 .0269749
822.697 .0269581
823.393 .0269432
824.088 .0269301
824.783 .0269189
825.477 .0269099
826.171 .0269019
826.865 .0268949
827.559 .0268885
828.252 .0268821
828.945 .0268756
829.638 .0268693
830.330 .0268632
831.023 .0268574
831.714 .0268524
832.406 .0268480
833.097 .0268434
833.788 .0268389
834.479 .0268339
835.169 .0268283
835.859 .0268222
836.548 .0268156
837.238 .0268080
837.927 .0267998
838.615 .0267910
839.304 .0267815
839.992 .0267716
840.680 .0267613
841.367 .0267507
842.054 .0267398
842.741 .0267293
843.428 .0267190
844.114 .0267093
844.800 .0267011
845.485 .0266929
846.170 .0266849
846.855 .0266762
847.540 .0266670
848.224 .0266574
848.908 .0266476
849.592 .0266376
850.275 .0266274
850.958 .0266180
851.641 .0266088
852.323 .0265994
853.005 .0265900
853.687 .0265799
854.368 .0265685
855.049 .0265553
855.730 .0265409
856.410 .0265246
857.090 .0265075
857.769 .0264898
858.449 .0264718
859.128 .0264539
859.806 .0264359
860.485 .0264182
861.163 .0264009
861.840 .0263846
862.518 .0263684
863.195 .0263526
863.871 .0263376
864.548 .0263235
865.224 .0263104
865.899 .0262982
866.574 .0262870
867.249 .0262766
867.924 .0262672
868.598 .0262583
869.272 .0262498
869.946 .0262425
870.619 .0262353
871.292 .0262287
871.964 .0262223
872.636 .0262162
873.308 .0262097
873.979 .0262030
874.651 .0261959
875.321 .0261877
875.992 .0261787
876.662 .0261693
877.331 .0261597
878.001 .0261505
878.670 .0261419
879.338 .0261343
880.007 .0261278
880.675 .0261228
881.342 .0261182
882.009 .0261141
882.676 .0261105
883.343 .0261069
884.009 .0261033
884.675 .0261000
885.340 .0260972
886.005 .0260949
886.670 .0260935
887.334 .0260932
887.998 .0260936
888.662 .0260943
889.325 .0260949
889.988 .0260950
890.650 .0260946
891.312 .0260938
891.974 .0260927
892.636 .0260917
893.297 .0260917
893.957 .0260925
894.618 .0260945
895.278 .0260973
895.937 .0261006
896.596 .0261045
897.255 .0261086
897.914 .0261126
898.572 .0261160
899.230 .0261192
899.887 .0261222
900.544 .0261250
901.201 .0261276
901.857 .0261295
902.513 .0261303
903.168 .0261299
903.823 .0261276
904.478 .0261229
905.132 .0261157
905.786 .0261063
906.440 .0260945
907.093 .0260808
907.746 .0260655
908.399 .0260490
909.051 .0260316
909.703 .0260138
910.354 .0259953
911.005 .0259763
911.656 .0259571
912.306 .0259377
912.956 .0259181
913.605 .0258984
914.254 .0258789
914.903 .0258602
915.551 .0258427
916.199 .0258267
916.847 .0258121
917.494 .0257994
918.141 .0257885
918.788 .0257791
919.434 .0257710
920.079 .0257636
920.725 .0257565
921.370 .0257497
922.014 .0257422
922.658 .0257342
923.302 .0257255
923.946 .0257157
924.589 .0257052
925.231 .0256936
925.873 .0256807
926.515 .0256666
927.157 .0256511
927.798 .0256341
928.439 .0256158
929.079 .0255964
929.719 .0255758
930.359 .0255548
930.998 .0255339
931.637 .0255130
932.275 .0254930
932.913 .0254745
933.551 .0254568
934.188 .0254406
934.825 .0254255
935.462 .0254114
936.098 .0253983
936.733 .0253863
937.369 .0253751
938.004 .0253650
938.638 .0253562
939.273 .0253484
939.907 .0253417
940.540 .0253361
941.173 .0253312
941.806 .0253268
942.438 .0253228
943.070 .0253186
943.702 .0253137
944.333 .0253086
944.964 .0253027
945.594 .0252966
946.224 .0252904
946.854 .0252848
947.483 .0252795
948.112 .0252745
948.741 .0252695
949.369 .0252645
949.996 .0252589
950.624 .0252521
951.251 .0252437
951.878 .0252341
952.504 .0252231
953.130 .0252113
953.755 .0251992
954.380 .0251871
955.005 .0251747
955.629 .0251624
956.253 .0251495
956.877 .0251363
957.500 .0251226
958.123 .0251086
958.746 .0250943
959.368 .0250799
959.990 .0250656
960.611 .0250515
961.232 .0250382
961.853 .0250260
962.473 .0250146
963.093 .0250042
963.712 .0249941
964.331 .0249843
964.950 .0249748
965.569 .0249658
966.187 .0249572
966.804 .0249495
967.422 .0249426
968.039 .0249367
968.655 .0249319
969.272 .0249280
969.887 .0249249
970.503 .0249223
971.118 .0249201
971.733 .0249175
972.347 .0249143
972.961 .0249108
973.575 .0249061
974.188 .0249003
974.801 .0248930
975.414 .0248839
976.026 .0248733
976.638 .0248616
977.250 .0248491
977.861 .0248363
978.472 .0248237
979.083 .0248110
979.693 .0247984
980.303 .0247858
980.912 .0247727
981.521 .0247585
982.130 .0247436
982.738 .0247279
983.346 .0247109
983.954 .0246936
984.562 .0246765
985.169 .0246598
985.775 .0246439
986.382 .0246288
986.988 .0246145
987.594 .0246005
988.199 .0245867
988.804 .0245725
989.409 .0245578
990.013 .0245432
990.617 .0245281
991.221 .0245127
991.824 .0244983
992.427 .0244856
993.030 .0244747
993.632 .0244664
994.234 .0244610
994.836 .0244575
995.438 .0244559
996.039 .0244561
996.640 .0244565
997.240 .0244569
997.840 .0244571
998.440 .0244562
999.040 .0244544
999.639 .0244519
1000.238 .0244482
1000.836 .0244439
1001.435 .0244393
1002.033 .0244338
1002.630 .0244267
1003.228 .0244192
1003.825 .0244109
1004.422 .0244023
1005.018 .0243938
1005.614 .0243856
1006.210 .0243775
1006.806 .0243705
1007.401 .0243635
1007.996 .0243568
1008.591 .0243508
1009.186 .0243454
1009.780 .0243411
1010.374 .0243382
1010.967 .0243362
1011.561 .0243356
1012.154 .0243358
1012.746 .0243370
1013.339 .0243378
1013.931 .0243378
1014.523 .0243359
1015.115 .0243326
1015.706 .0243281
1016.298 .0243225
1016.888 .0243167
1017.479 .0243119
1018.069 .0243080
1018.660 .0243051
1019.250 .0243032
1019.839 .0243018
1020.429 .0243007
1021.018 .0243001
1021.607 .0242993
1022.195 .0242985
1022.784 .0242981
1023.372 .0242981
1023.960 .0242992
1024.547 .0243015
1025.135 .0243052
1025.722 .0243090
1026.309 .0243133
1026.896 .0243179
1027.483 .0243228
1028.069 .0243282
1028.655 .0243348
1029.241 .0243421
1029.827 .0243500
1030.412 .0243576
1030.997 .0243648
1031.582 .0243711
1032.167 .0243767
1032.752 .0243803
1033.336 .0243823
1033.921 .0243833
1034.505 .0243838
1035.089 .0243835
1035.672 .0243836
1036.256 .0243844
1036.839 .0243852
1037.422 .0243850
1038.005 .0243835
1038.588 .0243800
1039.171 .0243746
1039.753 .0243675
1040.335 .0243589
1040.918 .0243503
1041.500 .0243423
1042.081 .0243357
1042.663 .0243316
1043.244 .0243306
1043.826 .0243317
1044.407 .0243339
1044.988 .0243370
1045.569 .0243397
1046.150 .0243413
1046.730 .0243420
1047.311 .0243423
1047.891 .0243429
1048.471 .0243438
1049.052 .0243455
1049.632 .0243481
1050.211 .0243526
1050.791 .0243581
1051.371 .0243636
1051.950 .0243684
1052.530 .0243723
1053.109 .0243744
1053.688 .0243741
1054.268 .0243724
1054.847 .0243704
1055.426 .0243682
1056.005 .0243671
1056.583 .0243676
1057.162 .0243701
1057.741 .0243750
1058.319 .0243824
1058.898 .0243907
1059.476 .0243993
1060.055 .0244076
1060.633 .0244152
1061.211 .0244208
1061.790 .0244254
1062.368 .0244287
1062.946 .0244305
1063.524 .0244316
1064.102 .0244322
1064.680 .0244317
1065.258 .0244321
1065.836 .0244329
1066.414 .0244329
1066.992 .0244326
1067.570 .0244323
1068.148 .0244304
1068.726 .0244276
1069.304 .0244247
1069.882 .0244211
1070.460 .0244172
1071.038 .0244151
1071.616 .0244140
1072.194 .0244149
1072.772 .0244183
1073.350 .0244231
1073.928 .0244284
1074.506 .0244340
1075.084 .0244398
1075.662 .0244434
1076.240 .0244475
1076.819 .0244520
1077.397 .0244563
1077.976 .0244624
1078.554 .0244704
1079.133 .0244807
1079.711 .0244934
1080.290 .0245073
1080.869 .0245218
1081.448 .0245360
1082.027 .0245500
1082.606 .0245626
1083.185 .0245757
1083.764 .0245898
1084.343 .0246046
1084.923 .0246183
1085.502 .0246324
1086.082 .0246447
1086.662 .0246553
1087.242 .0246628
1087.822 .0246680
1088.402 .0246720
1088.983 .0246756
1089.563 .0246791
1090.144 .0246846
1090.725 .0246923
1091.306 .0247036
1091.887 .0247166
1092.469 .0247324
1093.050 .0247502
1093.632 .0247699
1094.214 .0247924
1094.796 .0248177
1095.379 .0248453
1095.961 .0248755
1096.544 .0249054
1097.127 .0249356
1097.710 .0249646
1098.294 .0249921
1098.877 .0250155
1099.461 .0250381
1100.046 .0250601
1100.630 .0250819
1101.215 .0251040
1101.800 .0251271
1102.385 .0251499
1102.970 .0251718
1103.556 .0251913
1104.142 .0252052
1104.728 .0252157
1105.315 .0252248
1105.902 .0252305
1106.489 .0252375
1107.077 .0252466
1107.664 .0252592
1108.253 .0252732
1108.841 .0252885
1109.430 .0253018
1110.019 .0253094
1110.609 .0253148
1111.198 .0253153
1111.789 .0253172
1112.379 .0253221
1112.970 .0253334
1113.561 .0253540
1114.153 .0253845
1114.745 .0254235
1115.338 .0254679
1115.931 .0255157
1116.524 .0255629
1117.117 .0256066
1117.712 .0256473
1118.306 .0256835
1118.901 .0257207
1119.496 .0257572
1120.092 .0257982
1120.689 .0258432
1121.285 .0258917
1121.882 .0259389
1122.480 .0259865
1123.078 .0260330
1123.677 .0260746
1124.276 .0261154
1124.875 .0261541
1125.476 .0261906
1126.076 .0262321
1126.677 .0262788
1127.279 .0263337
1127.881 .0263955
1128.484 .0264679
1129.087 .0265424
1129.691 .0266242
1130.295 .0267101
1130.900 .0267950
1131.505 .0268855
1132.111 .0269801
1132.718 .0270759
1133.325 .0271754
1133.933 .0272780
1134.541 .0273849
1135.150 .0274931
1135.760 .0276046
1136.370 .0277142
1136.981 .0278277
1137.592 .0279426
1138.204 .0280586
1138.817 .0281770
1139.431 .0283035
1140.045 .0284359
1140.660 .0285704
1141.275 .0287148
1141.891 .0289033
1142.508 .0290543
1143.126 .0292239
1143.744 .0292151
1144.363 .0295611
1144.983 .0307868
