Measurement Sequence started on: 15-12-46-377
Integration time: 28
Scans to Average: 2 
>>>>>Begin Spectral Data<<<<<
432.689 .0000100
433.621 .0000100
434.552 .0000100
435.482 .0000100
436.410 .0000100
437.337 .0000100
438.262 .0281903
439.187 .0598133
440.110 .0991250
441.031 .1434236
441.952 .1864220
442.871 .2202149
443.789 .2386598
444.705 .2396493
445.621 .2257387
446.535 .2026241
447.447 .1764721
448.359 .1366324
449.269 .1167502
450.178 .1041828
451.086 .0953456
451.993 .0886075
452.898 .0833136
453.803 .0790019
454.706 .0754273
455.608 .0724205
456.508 .0698080
457.408 .0675293
458.306 .0654962
459.204 .0636733
460.100 .0620217
460.995 .0605388
461.888 .0591977
462.781 .0579914
463.673 .0569069
464.563 .0559418
465.452 .0550501
466.340 .0542203
467.228 .0534469
468.114 .0527167
468.999 .0520262
469.882 .0513773
470.765 .0507736
471.647 .0502283
472.528 .0497371
473.407 .0493120
474.286 .0489427
475.163 .0486291
476.040 .0483667
476.915 .0481435
477.790 .0479458
478.663 .0477708
479.535 .0476139
480.407 .0474839
481.277 .0473763
482.147 .0472957
483.015 .0472387
483.883 .0472090
484.749 .0472022
485.615 .0472067
486.479 .0472269
487.343 .0472678
488.206 .0473153
489.067 .0473771
489.928 .0474446
490.788 .0475252
491.647 .0476158
492.505 .0477180
493.362 .0478322
494.218 .0479548
495.073 .0480846
495.928 .0482284
496.781 .0483821
497.634 .0485637
498.486 .0487684
499.337 .0490034
500.187 .0492739
501.036 .0495773
501.884 .0499070
502.731 .0502735
503.578 .0506643
504.424 .0510868
505.268 .0515194
506.113 .0519682
506.956 .0524401
507.798 .0529434
508.640 .0534888
509.480 .0540874
510.320 .0547581
511.160 .0555132
511.998 .0563524
512.836 .0572913
513.672 .0583356
514.508 .0594972
515.344 .0607692
516.178 .0621889
517.012 .0637778
517.845 .0655840
518.677 .0676404
519.508 .0699984
520.339 .0727459
521.169 .0759228
521.998 .0795770
522.826 .0837912
523.654 .0885925
524.481 .0939854
525.307 .1000422
526.133 .1066609
526.958 .1137999
527.782 .1213486
528.605 .1291191
529.428 .1370064
530.250 .1444338
531.072 .1511739
531.892 .1567731
532.712 .1609992
533.532 .1636316
534.350 .1644174
535.168 .1633707
535.986 .1605352
536.802 .1560990
537.618 .1503247
538.434 .1434260
539.249 .1359788
540.063 .1281826
540.876 .1204322
541.689 .1129406
542.501 .1059678
543.313 .0996307
544.124 .0940097
544.934 .0890092
545.744 .0845338
546.553 .0804921
547.361 .0768589
548.169 .0736028
548.976 .0706491
549.783 .0679892
550.589 .0656169
551.395 .0634689
552.200 .0615603
553.004 .0598242
553.808 .0582398
554.611 .0568051
555.414 .0555181
556.216 .0543423
557.018 .0532938
557.819 .0523483
558.619 .0514893
559.419 .0507013
560.218 .0499791
561.017 .0492923
561.815 .0486253
562.613 .0479839
563.410 .0473471
564.207 .0467054
565.003 .0460702
565.799 .0454336
566.594 .0447961
567.388 .0441683
568.182 .0435495
568.976 .0429383
569.769 .0423474
570.562 .0417768
571.354 .0412183
572.145 .0406871
572.936 .0401861
573.727 .0397088
574.517 .0392586
575.307 .0388372
576.096 .0384362
576.885 .0380525
577.673 .0376880
578.461 .0373358
579.248 .0369997
580.035 .0366831
580.821 .0363852
581.607 .0361038
582.392 .0358419
583.177 .0355993
583.962 .0353771
584.746 .0351761
585.529 .0349941
586.313 .0348296
587.095 .0346819
587.878 .0345455
588.660 .0344191
589.441 .0343014
590.222 .0341934
591.003 .0340937
591.783 .0340035
592.563 .0339222
593.342 .0338514
594.121 .0337887
594.899 .0337353
595.678 .0336880
596.455 .0336454
597.233 .0336046
598.009 .0335640
598.786 .0335228
599.562 .0334793
600.338 .0334336
601.113 .0333864
601.888 .0333373
602.663 .0332878
603.437 .0332377
604.211 .0331876
604.984 .0331382
605.757 .0330896
606.530 .0330412
607.302 .0329934
608.074 .0329454
608.845 .0328969
609.616 .0328475
610.387 .0327975
611.158 .0327473
611.928 .0326966
612.697 .0326473
613.467 .0325995
614.236 .0325544
615.004 .0325130
615.773 .0324756
616.541 .0324419
617.308 .0324128
618.076 .0323865
618.843 .0323621
619.609 .0323389
620.375 .0323168
621.141 .0322950
621.907 .0322746
622.672 .0322555
623.437 .0322376
624.202 .0322214
624.966 .0322067
625.730 .0321924
626.493 .0321787
627.257 .0321643
628.020 .0321478
628.782 .0321287
629.545 .0321067
630.307 .0320810
631.068 .0320532
631.830 .0320236
632.591 .0319925
633.352 .0319609
634.112 .0319287
634.872 .0318958
635.632 .0318626
636.392 .0318294
637.151 .0317963
637.910 .0317634
638.668 .0317314
639.427 .0317001
640.185 .0316712
640.943 .0316444
641.700 .0316196
642.457 .0315968
643.214 .0315756
643.971 .0315548
644.727 .0315345
645.483 .0315146
646.239 .0314947
646.994 .0314749
647.750 .0314560
648.505 .0314365
649.259 .0314172
650.014 .0313973
650.768 .0313767
651.521 .0313548
652.275 .0313322
653.028 .0313074
653.781 .0312811
654.534 .0312545
655.286 .0312269
656.039 .0311992
656.791 .0311723
657.542 .0311452
658.294 .0311178
659.045 .0310904
659.796 .0310626
660.546 .0310340
661.297 .0310060
662.047 .0309778
662.796 .0309493
663.546 .0309215
664.295 .0308933
665.044 .0308641
665.793 .0308345
666.542 .0308041
667.290 .0307722
668.038 .0307399
668.786 .0307076
669.533 .0306749
670.281 .0306429
671.028 .0306117
671.774 .0305807
672.521 .0305503
673.267 .0305204
674.013 .0304901
674.759 .0304602
675.505 .0304308
676.250 .0304014
676.995 .0303728
677.740 .0303458
678.484 .0303194
679.229 .0302940
679.973 .0302694
680.717 .0302448
681.460 .0302202
682.204 .0301960
682.947 .0301717
683.690 .0301475
684.433 .0301240
685.175 .0301011
685.917 .0300790
686.659 .0300583
687.401 .0300388
688.142 .0300203
688.884 .0300031
689.625 .0299867
690.365 .0299706
691.106 .0299548
691.846 .0299394
692.586 .0299241
693.326 .0299086
694.066 .0298930
694.805 .0298771
695.545 .0298606
696.284 .0298439
697.022 .0298266
697.761 .0298085
698.499 .0297898
699.237 .0297707
699.975 .0297511
700.713 .0297314
701.450 .0297123
702.187 .0296935
702.924 .0296754
703.661 .0296587
704.397 .0296427
705.133 .0296276
705.869 .0296138
706.605 .0296009
707.341 .0295888
708.076 .0295774
708.811 .0295662
709.546 .0295551
710.281 .0295442
711.015 .0295333
711.749 .0295220
712.483 .0295105
713.217 .0294990
713.950 .0294872
714.684 .0294754
715.417 .0294632
716.150 .0294509
716.882 .0294383
717.615 .0294254
718.347 .0294120
719.079 .0293982
719.811 .0293840
720.542 .0293694
721.273 .0293540
722.005 .0293380
722.735 .0293213
723.466 .0293042
724.196 .0292864
724.927 .0292684
725.656 .0292501
726.386 .0292317
727.116 .0292133
727.845 .0291952
728.574 .0291770
729.303 .0291586
730.031 .0291404
730.760 .0291224
731.488 .0291045
732.216 .0290870
732.944 .0290706
733.671 .0290559
734.398 .0290430
735.125 .0290321
735.852 .0290223
736.579 .0290140
737.305 .0290066
738.031 .0289993
738.757 .0289920
739.483 .0289847
740.208 .0289770
740.933 .0289686
741.658 .0289603
742.383 .0289512
743.108 .0289415
743.832 .0289313
744.556 .0289203
745.280 .0289083
746.004 .0288950
746.727 .0288808
747.450 .0288661
748.173 .0288507
748.896 .0288349
749.618 .0288182
750.340 .0288013
751.062 .0287838
751.784 .0287661
752.506 .0287479
753.227 .0287298
753.948 .0287115
754.669 .0286930
755.389 .0286741
756.110 .0286546
756.830 .0286341
757.550 .0286130
758.269 .0285916
758.989 .0285693
759.708 .0285462
760.427 .0285232
761.146 .0284998
761.864 .0284762
762.582 .0284516
763.300 .0284261
764.018 .0283992
764.736 .0283711
765.453 .0283422
766.170 .0283130
766.887 .0282846
767.603 .0282578
768.320 .0282331
769.036 .0282108
769.751 .0281908
770.467 .0281725
771.182 .0281554
771.897 .0281391
772.612 .0281231
773.327 .0281072
774.041 .0280918
774.755 .0280772
775.469 .0280639
776.183 .0280520
776.896 .0280416
777.609 .0280323
778.322 .0280234
779.035 .0280145
779.747 .0280053
780.459 .0279955
781.171 .0279855
781.882 .0279754
782.594 .0279657
783.305 .0279569
784.016 .0279492
784.726 .0279424
785.436 .0279361
786.147 .0279302
786.856 .0279240
787.566 .0279172
788.275 .0279095
788.984 .0279016
789.693 .0278933
790.401 .0278855
791.110 .0278780
791.818 .0278713
792.525 .0278652
793.233 .0278593
793.940 .0278532
794.647 .0278464
795.353 .0278384
796.060 .0278293
796.766 .0278188
797.472 .0278074
798.177 .0277948
798.883 .0277819
799.588 .0277693
800.292 .0277576
800.997 .0277464
801.701 .0277361
802.405 .0277267
803.109 .0277185
803.812 .0277110
804.515 .0277042
805.218 .0276975
805.921 .0276907
806.623 .0276834
807.325 .0276755
808.027 .0276673
808.728 .0276591
809.429 .0276510
810.130 .0276438
810.831 .0276375
811.531 .0276321
812.231 .0276273
812.931 .0276228
813.630 .0276179
814.330 .0276120
815.029 .0276043
815.727 .0275951
816.426 .0275849
817.124 .0275744
817.821 .0275642
818.519 .0275555
819.216 .0275488
819.913 .0275442
820.609 .0275415
821.306 .0275404
822.002 .0275402
822.697 .0275406
823.393 .0275412
824.088 .0275419
824.783 .0275428
825.477 .0275444
826.171 .0275466
826.865 .0275499
827.559 .0275544
828.252 .0275599
828.945 .0275656
829.638 .0275716
830.330 .0275775
831.023 .0275830
831.714 .0275882
832.406 .0275932
833.097 .0275975
833.788 .0276016
834.479 .0276049
835.169 .0276074
835.859 .0276092
836.548 .0276106
837.238 .0276110
837.927 .0276109
838.615 .0276102
839.304 .0276089
839.992 .0276067
840.680 .0276040
841.367 .0276003
842.054 .0275954
842.741 .0275895
843.428 .0275826
844.114 .0275750
844.800 .0275673
845.485 .0275594
846.170 .0275510
846.855 .0275425
847.540 .0275338
848.224 .0275242
848.908 .0275140
849.592 .0275032
850.275 .0274917
850.958 .0274791
851.641 .0274659
852.323 .0274518
853.005 .0274367
853.687 .0274204
854.368 .0274024
855.049 .0273826
855.730 .0273611
856.410 .0273379
857.090 .0273132
857.769 .0272877
858.449 .0272618
859.128 .0272351
859.806 .0272083
860.485 .0271814
861.163 .0271546
861.840 .0271277
862.518 .0271011
863.195 .0270746
863.871 .0270481
864.548 .0270220
865.224 .0269963
865.899 .0269709
866.574 .0269460
867.249 .0269215
867.924 .0268973
868.598 .0268735
869.272 .0268505
869.946 .0268281
870.619 .0268067
871.292 .0267865
871.964 .0267666
872.636 .0267474
873.308 .0267286
873.979 .0267099
874.651 .0266909
875.321 .0266717
875.992 .0266522
876.662 .0266326
877.331 .0266132
878.001 .0265942
878.670 .0265757
879.338 .0265581
880.007 .0265412
880.675 .0265250
881.342 .0265088
882.009 .0264926
882.676 .0264760
883.343 .0264595
884.009 .0264421
884.675 .0264247
885.340 .0264072
886.005 .0263902
886.670 .0263739
887.334 .0263586
887.998 .0263442
888.662 .0263314
889.325 .0263195
889.988 .0263084
890.650 .0262978
891.312 .0262883
891.974 .0262790
892.636 .0262702
893.297 .0262623
893.957 .0262549
894.618 .0262477
895.278 .0262414
895.937 .0262352
896.596 .0262291
897.255 .0262226
897.914 .0262156
898.572 .0262080
899.230 .0261999
899.887 .0261910
900.544 .0261814
901.201 .0261717
901.857 .0261616
902.513 .0261503
903.168 .0261383
903.823 .0261254
904.478 .0261111
905.132 .0260951
905.786 .0260777
906.440 .0260588
907.093 .0260390
907.746 .0260181
908.399 .0259968
909.051 .0259755
909.703 .0259542
910.354 .0259328
911.005 .0259119
911.656 .0258918
912.306 .0258722
912.956 .0258532
913.605 .0258352
914.254 .0258180
914.903 .0258018
915.551 .0257864
916.199 .0257726
916.847 .0257602
917.494 .0257488
918.141 .0257382
918.788 .0257286
919.434 .0257197
920.079 .0257112
920.725 .0257029
921.370 .0256949
922.014 .0256866
922.658 .0256779
923.302 .0256681
923.946 .0256573
924.589 .0256454
925.231 .0256320
925.873 .0256171
926.515 .0256012
927.157 .0255845
927.798 .0255675
928.439 .0255507
929.079 .0255344
929.719 .0255184
930.359 .0255032
930.998 .0254886
931.637 .0254748
932.275 .0254619
932.913 .0254503
933.551 .0254404
934.188 .0254325
934.825 .0254265
935.462 .0254221
936.098 .0254195
936.733 .0254184
937.369 .0254183
938.004 .0254192
938.638 .0254205
939.273 .0254225
939.907 .0254256
940.540 .0254300
941.173 .0254358
941.806 .0254436
942.438 .0254530
943.070 .0254634
943.702 .0254743
944.333 .0254845
944.964 .0254937
945.594 .0255022
946.224 .0255095
946.854 .0255161
947.483 .0255226
948.112 .0255297
948.741 .0255372
949.369 .0255456
949.996 .0255541
950.624 .0255620
951.251 .0255692
951.878 .0255750
952.504 .0255789
953.130 .0255815
953.755 .0255833
954.380 .0255841
955.005 .0255847
955.629 .0255853
956.253 .0255855
956.877 .0255864
957.500 .0255876
958.123 .0255888
958.746 .0255903
959.368 .0255922
959.990 .0255937
960.611 .0255951
961.232 .0255966
961.853 .0255976
962.473 .0255987
963.093 .0255991
963.712 .0255991
964.331 .0255990
964.950 .0255988
965.569 .0255990
966.187 .0255996
966.804 .0256006
967.422 .0256021
968.039 .0256044
968.655 .0256069
969.272 .0256093
969.887 .0256116
970.503 .0256137
971.118 .0256161
971.733 .0256186
972.347 .0256211
972.961 .0256241
973.575 .0256280
974.188 .0256314
974.801 .0256344
975.414 .0256369
976.026 .0256385
976.638 .0256392
977.250 .0256394
977.861 .0256385
978.472 .0256372
979.083 .0256358
979.693 .0256337
980.303 .0256299
980.912 .0256252
981.521 .0256182
982.130 .0256090
982.738 .0255985
983.346 .0255866
983.954 .0255740
984.562 .0255621
985.169 .0255505
985.775 .0255390
986.382 .0255281
986.988 .0255172
987.594 .0255058
988.199 .0254935
988.804 .0254807
989.409 .0254675
990.013 .0254548
990.617 .0254434
991.221 .0254340
991.824 .0254273
992.427 .0254235
993.030 .0254215
993.632 .0254210
994.234 .0254212
994.836 .0254214
995.438 .0254208
996.039 .0254189
996.640 .0254158
997.240 .0254116
997.840 .0254070
998.440 .0254022
999.040 .0253969
999.639 .0253911
1000.238 .0253842
1000.836 .0253760
1001.435 .0253660
1002.033 .0253542
1002.630 .0253412
1003.228 .0253274
1003.825 .0253135
1004.422 .0253000
1005.018 .0252870
1005.614 .0252753
1006.210 .0252648
1006.806 .0252548
1007.401 .0252454
1007.996 .0252360
1008.591 .0252275
1009.186 .0252198
1009.780 .0252131
1010.374 .0252073
1010.967 .0252023
1011.561 .0251978
1012.154 .0251931
1012.746 .0251872
1013.339 .0251800
1013.931 .0251713
1014.523 .0251613
1015.115 .0251499
1015.706 .0251377
1016.298 .0251257
1016.888 .0251145
1017.479 .0251034
1018.069 .0250935
1018.660 .0250831
1019.250 .0250725
1019.839 .0250613
1020.429 .0250492
1021.018 .0250366
1021.607 .0250241
1022.195 .0250121
1022.784 .0250009
1023.372 .0249912
1023.960 .0249832
1024.547 .0249763
1025.135 .0249708
1025.722 .0249667
1026.309 .0249630
1026.896 .0249595
1027.483 .0249565
1028.069 .0249532
1028.655 .0249500
1029.241 .0249465
1029.827 .0249421
1030.412 .0249379
1030.997 .0249335
1031.582 .0249287
1032.167 .0249230
1032.752 .0249176
1033.336 .0249116
1033.921 .0249047
1034.505 .0248974
1035.089 .0248895
1035.672 .0248808
1036.256 .0248716
1036.839 .0248620
1037.422 .0248518
1038.005 .0248416
1038.588 .0248308
1039.171 .0248188
1039.753 .0248075
1040.335 .0247955
1040.918 .0247833
1041.500 .0247705
1042.081 .0247588
1042.663 .0247470
1043.244 .0247365
1043.826 .0247273
1044.407 .0247186
1044.988 .0247110
1045.569 .0247038
1046.150 .0246959
1046.730 .0246871
1047.311 .0246773
1047.891 .0246662
1048.471 .0246536
1049.052 .0246409
1049.632 .0246269
1050.211 .0246146
1050.791 .0246034
1051.371 .0245943
1051.950 .0245866
1052.530 .0245805
1053.109 .0245749
1053.688 .0245687
1054.268 .0245620
1054.847 .0245531
1055.426 .0245430
1056.005 .0245319
1056.583 .0245200
1057.162 .0245089
1057.741 .0244991
1058.319 .0244919
1058.898 .0244870
1059.476 .0244838
1060.055 .0244804
1060.633 .0244770
1061.211 .0244714
1061.790 .0244633
1062.368 .0244533
1062.946 .0244412
1063.524 .0244279
1064.102 .0244134
1064.680 .0243990
1065.258 .0243843
1065.836 .0243705
1066.414 .0243564
1066.992 .0243411
1067.570 .0243253
1068.148 .0243080
1068.726 .0242912
1069.304 .0242753
1069.882 .0242616
1070.460 .0242497
1071.038 .0242412
1071.616 .0242358
1072.194 .0242319
1072.772 .0242291
1073.350 .0242275
1073.928 .0242268
1074.506 .0242268
1075.084 .0242264
1075.662 .0242273
1076.240 .0242311
1076.819 .0242378
1077.397 .0242473
1077.976 .0242609
1078.554 .0242767
1079.133 .0242950
1079.711 .0243135
1080.290 .0243314
1080.869 .0243479
1081.448 .0243619
1082.027 .0243729
1082.606 .0243818
1083.185 .0243903
1083.764 .0243989
1084.343 .0244081
1084.923 .0244207
1085.502 .0244350
1086.082 .0244503
1086.662 .0244656
1087.242 .0244788
1087.822 .0244891
1088.402 .0244962
1088.983 .0245006
1089.563 .0245031
1090.144 .0245058
1090.725 .0245113
1091.306 .0245206
1091.887 .0245366
1092.469 .0245587
1093.050 .0245866
1093.632 .0246201
1094.214 .0246566
1094.796 .0246933
1095.379 .0247276
1095.961 .0247592
1096.544 .0247882
1097.127 .0248149
1097.710 .0248403
1098.294 .0248646
1098.877 .0248897
1099.461 .0249165
1100.046 .0249441
1100.630 .0249729
1101.215 .0250024
1101.800 .0250310
1102.385 .0250569
1102.970 .0250786
1103.556 .0250956
1104.142 .0251096
1104.728 .0251209
1105.315 .0251321
1105.902 .0251448
1106.489 .0251621
1107.077 .0251837
1107.664 .0252125
1108.253 .0252488
1108.841 .0252900
1109.430 .0253333
1110.019 .0253763
1110.609 .0254168
1111.198 .0254538
1111.789 .0254866
1112.379 .0255169
1112.970 .0255467
1113.561 .0255779
1114.153 .0256088
1114.745 .0256418
1115.338 .0256785
1115.931 .0257161
1116.524 .0257541
1117.117 .0257934
1117.712 .0258305
1118.306 .0258652
1118.901 .0258971
1119.496 .0259275
1120.092 .0259594
1120.689 .0259909
1121.285 .0260247
1121.882 .0260616
1122.480 .0261052
1123.078 .0261541
1123.677 .0262080
1124.276 .0262699
1124.875 .0263399
1125.476 .0264147
1126.076 .0264968
1126.677 .0265842
1127.279 .0266781
1127.881 .0267770
1128.484 .0268807
1129.087 .0269885
1129.691 .0271008
1130.295 .0272158
1130.900 .0273312
1131.505 .0274450
1132.111 .0275604
1132.718 .0276712
1133.325 .0277825
1133.933 .0278938
1134.541 .0280075
1135.150 .0281204
1135.760 .0282333
1136.370 .0283452
1136.981 .0284584
1137.592 .0285686
1138.204 .0286771
1138.817 .0287863
1139.431 .0289059
1140.045 .0290307
1140.660 .0291595
1141.275 .0292958
1141.891 .0294735
1142.508 .0297459
1143.126 .0298073
1143.744 .0297695
1144.363 .0299937
1144.983 .0310759
