Measurement Sequence started on: 15-12-46-377
Integration time: 28
Scans to Average: 2 
>>>>>Begin Spectral Data<<<<<
432.689 .0000100
433.621 .0000100
434.552 .0000100
435.482 .0000100
436.410 .0000100
437.337 .0000100
438.262 .0271805
439.187 .0576132
440.110 .0953688
441.031 .1379916
441.952 .1793865
442.871 .2119684
443.789 .2298652
444.705 .2310454
445.621 .2179928
446.535 .1961341
447.447 .1713685
448.359 .1333622
449.269 .1145506
450.178 .1026970
451.086 .0942266
451.993 .0876750
452.898 .0824419
453.803 .0780886
454.706 .0744386
455.608 .0713040
456.508 .0685777
457.408 .0662052
458.306 .0641249
459.204 .0622818
460.100 .0606405
460.995 .0591909
461.888 .0579017
462.781 .0567332
463.673 .0556743
464.563 .0547134
465.452 .0538306
466.340 .0530095
467.228 .0522518
468.114 .0515342
468.999 .0508640
469.882 .0502325
470.765 .0496329
471.647 .0490722
472.528 .0485461
473.407 .0480596
474.286 .0476089
475.163 .0472019
476.040 .0468295
476.915 .0464865
477.790 .0461753
478.663 .0458955
479.535 .0456392
480.407 .0454117
481.277 .0452181
482.147 .0450564
483.015 .0449347
483.883 .0448496
484.749 .0447972
485.615 .0447806
486.479 .0447879
487.343 .0448221
488.206 .0448660
489.067 .0449235
489.928 .0449864
490.788 .0450557
491.647 .0451453
492.505 .0452468
493.362 .0453639
494.218 .0455008
495.073 .0456530
495.928 .0458199
496.781 .0459990
497.634 .0461980
498.486 .0464186
499.337 .0466641
500.187 .0469371
501.036 .0472404
501.884 .0475737
502.731 .0479440
503.578 .0483491
504.424 .0487858
505.268 .0492558
506.113 .0497456
506.956 .0502705
507.798 .0508474
508.640 .0514800
509.480 .0521745
510.320 .0529449
511.160 .0538053
511.998 .0547408
512.836 .0557452
513.672 .0568170
514.508 .0579559
515.344 .0591687
516.178 .0604755
517.012 .0619148
517.845 .0635306
518.677 .0653873
519.508 .0675105
520.339 .0699713
521.169 .0728533
521.998 .0761298
522.826 .0798656
523.654 .0840818
524.481 .0887870
525.307 .0939845
526.133 .0996456
526.958 .1057659
527.782 .1123052
528.605 .1191635
529.428 .1261946
530.250 .1329489
531.072 .1391745
531.892 .1444679
532.712 .1485576
533.532 .1512153
534.350 .1522602
535.168 .1516127
535.986 .1493450
536.802 .1455779
537.618 .1405957
538.434 .1346245
539.249 .1280624
540.063 .1211325
540.876 .1141164
541.689 .1072203
542.501 .1007118
543.313 .0947608
544.124 .0894628
544.934 .0847889
545.744 .0806720
546.553 .0770245
547.361 .0738325
548.169 .0710386
548.976 .0685427
549.783 .0662886
550.589 .0642518
551.395 .0623506
552.200 .0605912
553.004 .0589611
553.808 .0574536
554.611 .0560836
555.414 .0548439
556.216 .0536990
557.018 .0526563
557.819 .0517009
558.619 .0507961
559.419 .0499409
560.218 .0491312
561.017 .0483418
561.815 .0475683
562.613 .0468090
563.410 .0460729
564.207 .0453506
565.003 .0446567
565.799 .0439827
566.594 .0433313
567.388 .0427139
568.182 .0421201
568.976 .0415563
569.769 .0410242
570.562 .0405148
571.354 .0400166
572.145 .0395336
572.936 .0390627
573.727 .0386065
574.517 .0381663
575.307 .0377382
576.096 .0373279
576.885 .0369384
577.673 .0365680
578.461 .0362179
579.248 .0358896
580.035 .0355817
580.821 .0352891
581.607 .0350143
582.392 .0347521
583.177 .0345059
583.962 .0342757
584.746 .0340649
585.529 .0338712
586.313 .0336984
587.095 .0335430
587.878 .0334033
588.660 .0332794
589.441 .0331693
590.222 .0330691
591.003 .0329806
591.783 .0329010
592.563 .0328285
593.342 .0327633
594.121 .0327037
594.899 .0326490
595.678 .0325986
596.455 .0325508
597.233 .0325057
598.009 .0324623
598.786 .0324210
599.562 .0323796
600.338 .0323374
601.113 .0322940
601.888 .0322489
602.663 .0322023
603.437 .0321530
604.211 .0321019
604.984 .0320507
605.757 .0319995
606.530 .0319492
607.302 .0319017
608.074 .0318575
608.845 .0318166
609.616 .0317787
610.387 .0317430
611.158 .0317093
611.928 .0316768
612.697 .0316457
613.467 .0316156
614.236 .0315875
615.004 .0315610
615.773 .0315357
616.541 .0315125
617.308 .0314909
618.076 .0314709
618.843 .0314522
619.609 .0314348
620.375 .0314181
621.141 .0314014
621.907 .0313854
622.672 .0313688
623.437 .0313519
624.202 .0313343
624.966 .0313160
625.730 .0312968
626.493 .0312768
627.257 .0312561
628.020 .0312353
628.782 .0312153
629.545 .0311950
630.307 .0311744
631.068 .0311524
631.830 .0311293
632.591 .0311037
633.352 .0310757
634.112 .0310455
634.872 .0310132
635.632 .0309809
636.392 .0309479
637.151 .0309148
637.910 .0308824
638.668 .0308502
639.427 .0308195
640.185 .0307896
640.943 .0307610
641.700 .0307331
642.457 .0307075
643.214 .0306843
643.971 .0306627
644.727 .0306427
645.483 .0306241
646.239 .0306057
646.994 .0305874
647.750 .0305689
648.505 .0305501
649.259 .0305320
650.014 .0305154
650.768 .0304991
651.521 .0304837
652.275 .0304686
653.028 .0304527
653.781 .0304353
654.534 .0304162
655.286 .0303945
656.039 .0303707
656.791 .0303461
657.542 .0303206
658.294 .0302958
659.045 .0302727
659.796 .0302506
660.546 .0302294
661.297 .0302079
662.047 .0301852
662.796 .0301608
663.546 .0301349
664.295 .0301070
665.044 .0300776
665.793 .0300485
666.542 .0300196
667.290 .0299916
668.038 .0299654
668.786 .0299401
669.533 .0299160
670.281 .0298926
671.028 .0298694
671.774 .0298464
672.521 .0298246
673.267 .0298042
674.013 .0297856
674.759 .0297690
675.505 .0297543
676.250 .0297413
676.995 .0297297
677.740 .0297188
678.484 .0297076
679.229 .0296956
679.973 .0296828
680.717 .0296690
681.460 .0296544
682.204 .0296383
682.947 .0296218
683.690 .0296048
684.433 .0295870
685.175 .0295684
685.917 .0295489
686.659 .0295292
687.401 .0295095
688.142 .0294894
688.884 .0294695
689.625 .0294500
690.365 .0294310
691.106 .0294117
691.846 .0293927
692.586 .0293733
693.326 .0293533
694.066 .0293330
694.805 .0293125
695.545 .0292917
696.284 .0292707
697.022 .0292497
697.761 .0292285
698.499 .0292074
699.237 .0291864
699.975 .0291650
700.713 .0291440
701.450 .0291233
702.187 .0291026
702.924 .0290823
703.661 .0290626
704.397 .0290438
705.133 .0290261
705.869 .0290093
706.605 .0289939
707.341 .0289798
708.076 .0289668
708.811 .0289541
709.546 .0289419
710.281 .0289292
711.015 .0289155
711.749 .0289004
712.483 .0288837
713.217 .0288656
713.950 .0288466
714.684 .0288267
715.417 .0288062
716.150 .0287862
716.882 .0287664
717.615 .0287463
718.347 .0287266
719.079 .0287068
719.811 .0286868
720.542 .0286665
721.273 .0286464
722.005 .0286262
722.735 .0286066
723.466 .0285881
724.196 .0285703
724.927 .0285533
725.656 .0285369
726.386 .0285202
727.116 .0285035
727.845 .0284866
728.574 .0284690
729.303 .0284510
730.031 .0284331
730.760 .0284155
731.488 .0283980
732.216 .0283814
732.944 .0283657
733.671 .0283511
734.398 .0283377
735.125 .0283251
735.852 .0283133
736.579 .0283022
737.305 .0282916
738.031 .0282812
738.757 .0282711
739.483 .0282612
740.208 .0282512
740.933 .0282411
741.658 .0282313
742.383 .0282218
743.108 .0282123
743.832 .0282031
744.556 .0281938
745.280 .0281842
746.004 .0281743
746.727 .0281639
747.450 .0281533
748.173 .0281418
748.896 .0281301
749.618 .0281175
750.340 .0281040
751.062 .0280903
751.784 .0280762
752.506 .0280622
753.227 .0280483
753.948 .0280345
754.669 .0280212
755.389 .0280081
756.110 .0279954
756.830 .0279827
757.550 .0279702
758.269 .0279576
758.989 .0279446
759.708 .0279310
760.427 .0279174
761.146 .0279034
761.864 .0278896
762.582 .0278766
763.300 .0278647
764.018 .0278537
764.736 .0278436
765.453 .0278346
766.170 .0278264
766.887 .0278181
767.603 .0278096
768.320 .0278002
769.036 .0277905
769.751 .0277800
770.467 .0277686
771.182 .0277569
771.897 .0277452
772.612 .0277335
773.327 .0277220
774.041 .0277109
774.755 .0276998
775.469 .0276885
776.183 .0276776
776.896 .0276663
777.609 .0276549
778.322 .0276436
779.035 .0276322
779.747 .0276214
780.459 .0276109
781.171 .0276005
781.882 .0275907
782.594 .0275815
783.305 .0275732
784.016 .0275652
784.726 .0275580
785.436 .0275513
786.147 .0275449
786.856 .0275388
787.566 .0275321
788.275 .0275251
788.984 .0275178
789.693 .0275095
790.401 .0275003
791.110 .0274900
791.818 .0274791
792.525 .0274682
793.233 .0274569
793.940 .0274458
794.647 .0274344
795.353 .0274223
796.060 .0274099
796.766 .0273964
797.472 .0273820
798.177 .0273665
798.883 .0273505
799.588 .0273340
800.292 .0273169
800.997 .0272996
801.701 .0272819
802.405 .0272648
803.109 .0272482
803.812 .0272315
804.515 .0272149
805.218 .0271983
805.921 .0271817
806.623 .0271651
807.325 .0271483
808.027 .0271314
808.728 .0271143
809.429 .0270972
810.130 .0270801
810.831 .0270635
811.531 .0270478
812.231 .0270332
812.931 .0270199
813.630 .0270077
814.330 .0269957
815.029 .0269840
815.727 .0269719
816.426 .0269590
817.124 .0269452
817.821 .0269301
818.519 .0269140
819.216 .0268975
819.913 .0268813
820.609 .0268654
821.306 .0268503
822.002 .0268368
822.697 .0268243
823.393 .0268128
824.088 .0268023
824.783 .0267924
825.477 .0267831
826.171 .0267745
826.865 .0267664
827.559 .0267591
828.252 .0267528
828.945 .0267472
829.638 .0267425
830.330 .0267389
831.023 .0267362
831.714 .0267338
832.406 .0267321
833.097 .0267302
833.788 .0267276
834.479 .0267240
835.169 .0267189
835.859 .0267127
836.548 .0267051
837.238 .0266966
837.927 .0266876
838.615 .0266783
839.304 .0266695
839.992 .0266615
840.680 .0266546
841.367 .0266489
842.054 .0266443
842.741 .0266407
843.428 .0266380
844.114 .0266358
844.800 .0266339
845.485 .0266322
846.170 .0266305
846.855 .0266286
847.540 .0266263
848.224 .0266239
848.908 .0266217
849.592 .0266193
850.275 .0266173
850.958 .0266151
851.641 .0266123
852.323 .0266088
853.005 .0266042
853.687 .0265979
854.368 .0265901
855.049 .0265806
855.730 .0265698
856.410 .0265581
857.090 .0265459
857.769 .0265332
858.449 .0265209
859.128 .0265088
859.806 .0264962
860.485 .0264836
861.163 .0264705
861.840 .0264565
862.518 .0264417
863.195 .0264263
863.871 .0264103
864.548 .0263942
865.224 .0263784
865.899 .0263629
866.574 .0263485
867.249 .0263353
867.924 .0263229
868.598 .0263116
869.272 .0263015
869.946 .0262923
870.619 .0262836
871.292 .0262760
871.964 .0262686
872.636 .0262619
873.308 .0262560
873.979 .0262509
874.651 .0262466
875.321 .0262431
875.992 .0262404
876.662 .0262381
877.331 .0262363
878.001 .0262350
878.670 .0262336
879.338 .0262325
880.007 .0262314
880.675 .0262303
881.342 .0262292
882.009 .0262283
882.676 .0262271
883.343 .0262256
884.009 .0262234
884.675 .0262197
885.340 .0262145
886.005 .0262078
886.670 .0262000
887.334 .0261913
887.998 .0261823
888.662 .0261731
889.325 .0261640
889.988 .0261553
890.650 .0261468
891.312 .0261382
891.974 .0261298
892.636 .0261210
893.297 .0261120
893.957 .0261034
894.618 .0260953
895.278 .0260881
895.937 .0260825
896.596 .0260787
897.255 .0260760
897.914 .0260739
898.572 .0260716
899.230 .0260686
899.887 .0260642
900.544 .0260580
901.201 .0260494
901.857 .0260389
902.513 .0260265
903.168 .0260120
903.823 .0259959
904.478 .0259782
905.132 .0259588
905.786 .0259378
906.440 .0259149
907.093 .0258900
907.746 .0258633
908.399 .0258354
909.051 .0258065
909.703 .0257770
910.354 .0257468
911.005 .0257163
911.656 .0256859
912.306 .0256556
912.956 .0256256
913.605 .0255960
914.254 .0255678
914.903 .0255407
915.551 .0255151
916.199 .0254908
916.847 .0254680
917.494 .0254467
918.141 .0254266
918.788 .0254071
919.434 .0253885
920.079 .0253701
920.725 .0253520
921.370 .0253345
922.014 .0253172
922.658 .0253002
923.302 .0252835
923.946 .0252664
924.589 .0252491
925.231 .0252310
925.873 .0252123
926.515 .0251925
927.157 .0251725
927.798 .0251519
928.439 .0251306
929.079 .0251090
929.719 .0250870
930.359 .0250643
930.998 .0250413
931.637 .0250179
932.275 .0249945
932.913 .0249717
933.551 .0249496
934.188 .0249282
934.825 .0249081
935.462 .0248891
936.098 .0248712
936.733 .0248543
937.369 .0248384
938.004 .0248231
938.638 .0248085
939.273 .0247950
939.907 .0247826
940.540 .0247719
941.173 .0247631
941.806 .0247561
942.438 .0247509
943.070 .0247472
943.702 .0247447
944.333 .0247430
944.964 .0247417
945.594 .0247409
946.224 .0247401
946.854 .0247393
947.483 .0247384
948.112 .0247380
948.741 .0247374
949.369 .0247368
949.996 .0247357
950.624 .0247339
951.251 .0247315
951.878 .0247286
952.504 .0247250
953.130 .0247212
953.755 .0247173
954.380 .0247129
955.005 .0247083
955.629 .0247036
956.253 .0246984
956.877 .0246929
957.500 .0246875
958.123 .0246824
958.746 .0246772
959.368 .0246728
959.990 .0246691
960.611 .0246661
961.232 .0246642
961.853 .0246628
962.473 .0246619
963.093 .0246616
963.712 .0246610
964.331 .0246602
964.950 .0246590
965.569 .0246581
966.187 .0246570
966.804 .0246564
967.422 .0246567
968.039 .0246576
968.655 .0246590
969.272 .0246607
969.887 .0246626
970.503 .0246647
971.118 .0246669
971.733 .0246693
972.347 .0246720
972.961 .0246752
973.575 .0246792
974.188 .0246841
974.801 .0246890
975.414 .0246941
976.026 .0246985
976.638 .0247016
977.250 .0247035
977.861 .0247041
978.472 .0247039
979.083 .0247033
979.693 .0247020
980.303 .0246997
980.912 .0246966
981.521 .0246932
982.130 .0246886
982.738 .0246830
983.346 .0246767
983.954 .0246695
984.562 .0246623
985.169 .0246555
985.775 .0246489
986.382 .0246437
986.988 .0246404
987.594 .0246381
988.199 .0246365
988.804 .0246361
989.409 .0246364
990.013 .0246376
990.617 .0246398
991.221 .0246424
991.824 .0246454
992.427 .0246497
993.030 .0246545
993.632 .0246602
994.234 .0246670
994.836 .0246742
995.438 .0246811
996.039 .0246882
996.640 .0246938
997.240 .0246982
997.840 .0247014
998.440 .0247034
999.040 .0247037
999.639 .0247032
1000.238 .0247012
1000.836 .0246984
1001.435 .0246951
1002.033 .0246911
1002.630 .0246861
1003.228 .0246809
1003.825 .0246756
1004.422 .0246703
1005.018 .0246657
1005.614 .0246620
1006.210 .0246586
1006.806 .0246566
1007.401 .0246551
1007.996 .0246542
1008.591 .0246542
1009.186 .0246548
1009.780 .0246560
1010.374 .0246584
1010.967 .0246615
1011.561 .0246654
1012.154 .0246696
1012.746 .0246735
1013.339 .0246767
1013.931 .0246782
1014.523 .0246781
1015.115 .0246762
1015.706 .0246736
1016.298 .0246708
1016.888 .0246683
1017.479 .0246674
1018.069 .0246683
1018.660 .0246711
1019.250 .0246756
1019.839 .0246806
1020.429 .0246859
1021.018 .0246901
1021.607 .0246929
1022.195 .0246950
1022.784 .0246959
1023.372 .0246963
1023.960 .0246970
1024.547 .0246976
1025.135 .0246990
1025.722 .0247006
1026.309 .0247024
1026.896 .0247045
1027.483 .0247059
1028.069 .0247062
1028.655 .0247049
1029.241 .0247024
1029.827 .0246981
1030.412 .0246924
1030.997 .0246863
1031.582 .0246798
1032.167 .0246734
1032.752 .0246675
1033.336 .0246619
1033.921 .0246565
1034.505 .0246518
1035.089 .0246461
1035.672 .0246399
1036.256 .0246334
1036.839 .0246255
1037.422 .0246180
1038.005 .0246106
1038.588 .0246037
1039.171 .0245980
1039.753 .0245936
1040.335 .0245911
1040.918 .0245893
1041.500 .0245882
1042.081 .0245866
1042.663 .0245847
1043.244 .0245825
1043.826 .0245788
1044.407 .0245738
1044.988 .0245683
1045.569 .0245618
1046.150 .0245546
1046.730 .0245471
1047.311 .0245385
1047.891 .0245303
1048.471 .0245217
1049.052 .0245121
1049.632 .0245020
1050.211 .0244916
1050.791 .0244820
1051.371 .0244729
1051.950 .0244659
1052.530 .0244604
1053.109 .0244559
1053.688 .0244534
1054.268 .0244511
1054.847 .0244486
1055.426 .0244454
1056.005 .0244408
1056.583 .0244345
1057.162 .0244260
1057.741 .0244155
1058.319 .0244028
1058.898 .0243896
1059.476 .0243761
1060.055 .0243608
1060.633 .0243442
1061.211 .0243272
1061.790 .0243095
1062.368 .0242923
1062.946 .0242758
1063.524 .0242613
1064.102 .0242494
1064.680 .0242394
1065.258 .0242312
1065.836 .0242243
1066.414 .0242188
1066.992 .0242138
1067.570 .0242081
1068.148 .0242041
1068.726 .0242006
1069.304 .0241989
1069.882 .0242004
1070.460 .0242049
1071.038 .0242127
1071.616 .0242216
1072.194 .0242305
1072.772 .0242388
1073.350 .0242448
1073.928 .0242485
1074.506 .0242491
1075.084 .0242485
1075.662 .0242468
1076.240 .0242449
1076.819 .0242430
1077.397 .0242420
1077.976 .0242413
1078.554 .0242409
1079.133 .0242388
1079.711 .0242347
1080.290 .0242295
1080.869 .0242212
1081.448 .0242114
1082.027 .0242014
1082.606 .0241920
1083.185 .0241847
1083.764 .0241800
1084.343 .0241791
1084.923 .0241818
1085.502 .0241897
1086.082 .0242021
1086.662 .0242179
1087.242 .0242370
1087.822 .0242567
1088.402 .0242756
1088.983 .0242933
1089.563 .0243088
1090.144 .0243214
1090.725 .0243320
1091.306 .0243394
1091.887 .0243452
1092.469 .0243519
1093.050 .0243600
1093.632 .0243707
1094.214 .0243836
1094.796 .0243986
1095.379 .0244142
1095.961 .0244305
1096.544 .0244467
1097.127 .0244613
1097.710 .0244754
1098.294 .0244887
1098.877 .0245018
1099.461 .0245147
1100.046 .0245284
1100.630 .0245445
1101.215 .0245637
1101.800 .0245852
1102.385 .0246082
1102.970 .0246331
1103.556 .0246594
1104.142 .0246883
1104.728 .0247178
1105.315 .0247476
1105.902 .0247770
1106.489 .0248059
1107.077 .0248357
1107.664 .0248665
1108.253 .0248986
1108.841 .0249329
1109.430 .0249725
1110.019 .0250162
1110.609 .0250624
1111.198 .0251122
1111.789 .0251639
1112.379 .0252151
1112.970 .0252621
1113.561 .0253034
1114.153 .0253384
1114.745 .0253691
1115.338 .0253954
1115.931 .0254192
1116.524 .0254447
1117.117 .0254749
1117.712 .0255087
1118.306 .0255474
1118.901 .0255925
1119.496 .0256404
1120.092 .0256896
1120.689 .0257389
1121.285 .0257886
1121.882 .0258360
1122.480 .0258842
1123.078 .0259352
1123.677 .0259886
1124.276 .0260500
1124.875 .0261168
1125.476 .0261886
1126.076 .0262655
1126.677 .0263500
1127.279 .0264361
1127.881 .0265222
1128.484 .0266114
1129.087 .0266963
1129.691 .0267794
1130.295 .0268620
1130.900 .0269416
1131.505 .0270213
1132.111 .0271024
1132.718 .0271841
1133.325 .0272611
1133.933 .0273440
1134.541 .0274236
1135.150 .0275038
1135.760 .0275855
1136.370 .0276663
1136.981 .0277413
1137.592 .0278111
1138.204 .0278766
1138.817 .0279354
1139.431 .0279923
1140.045 .0280520
1140.660 .0281129
1141.275 .0281748
1141.891 .0282177
1142.508 .0283187
1143.126 .0284828
1143.744 .0285780
1144.363 .0284019
1144.983 .0279439
