Measurement Sequence started on: 15-12-46-377
Integration time: 28
Scans to Average: 2 
>>>>>Begin Spectral Data<<<<<
432.689 .0000100
433.621 .0000100
434.552 .0000100
435.482 .0000100
436.410 .0000100
437.337 .0000100
438.262 .0279192
439.187 .0591315
440.110 .0979692
441.031 .1417572
441.952 .1842460
442.871 .2176392
443.789 .2358450
444.705 .2368263
445.621 .2231196
446.535 .2003580
447.447 .1746078
448.359 .1353292
449.269 .1158914
450.178 .1036155
451.086 .0949985
451.993 .0884483
452.898 .0832905
453.803 .0790890
454.706 .0755655
455.608 .0725575
456.508 .0699317
457.408 .0676743
458.306 .0656704
459.204 .0638841
460.100 .0622893
460.995 .0608698
461.888 .0595937
462.781 .0584443
463.673 .0573921
464.563 .0564359
465.452 .0555514
466.340 .0547163
467.228 .0539248
468.114 .0531905
468.999 .0525145
469.882 .0518898
470.765 .0513180
471.647 .0508079
472.528 .0503458
473.407 .0499465
474.286 .0496089
475.163 .0493228
476.040 .0490816
476.915 .0488842
477.790 .0487127
478.663 .0485689
479.535 .0484453
480.407 .0483382
481.277 .0482518
482.147 .0481945
483.015 .0481617
483.883 .0481503
484.749 .0481647
485.615 .0481994
486.479 .0482438
487.343 .0482999
488.206 .0483530
489.067 .0483974
489.928 .0484325
490.788 .0484613
491.647 .0484872
492.505 .0485252
493.362 .0485808
494.218 .0486575
495.073 .0487633
495.928 .0488999
496.781 .0490608
497.634 .0492507
498.486 .0494734
499.337 .0497203
500.187 .0499878
501.036 .0502777
501.884 .0505880
502.731 .0509277
503.578 .0513040
504.424 .0517067
505.268 .0521448
506.113 .0526166
506.956 .0531298
507.798 .0536839
508.640 .0542971
509.480 .0549707
510.320 .0557074
511.160 .0565114
511.998 .0573880
512.836 .0583312
513.672 .0593796
514.508 .0605268
515.344 .0617998
516.178 .0632250
517.012 .0648488
517.845 .0667090
518.677 .0688671
519.508 .0713359
520.339 .0741696
521.169 .0773954
521.998 .0810476
522.826 .0851502
523.654 .0897383
524.481 .0948456
525.307 .1005140
526.133 .1067128
526.958 .1134452
527.782 .1206200
528.605 .1281806
529.428 .1358718
530.250 .1431526
531.072 .1497835
531.892 .1553582
532.712 .1596120
533.532 .1622853
534.350 .1631501
535.168 .1622095
535.986 .1595333
536.802 .1552754
537.618 .1496802
538.434 .1430480
539.249 .1358502
540.063 .1282441
540.876 .1205794
541.689 .1131156
542.501 .1060971
543.313 .0997074
544.124 .0939572
544.934 .0887903
545.744 .0841687
546.553 .0799996
547.361 .0762898
548.169 .0729951
548.976 .0700392
549.783 .0673883
550.589 .0650062
551.395 .0628491
552.200 .0609061
553.004 .0591474
553.808 .0575609
554.611 .0561359
555.414 .0548463
556.216 .0536737
557.018 .0526112
557.819 .0516523
558.619 .0507793
559.419 .0499663
560.218 .0492147
561.017 .0485022
561.815 .0478247
562.613 .0471802
563.410 .0465596
564.207 .0459642
565.003 .0453909
565.799 .0448303
566.594 .0442832
567.388 .0437570
568.182 .0432531
568.976 .0427639
569.769 .0422840
570.562 .0418158
571.354 .0413548
572.145 .0408987
572.936 .0404518
573.727 .0400105
574.517 .0395814
575.307 .0391695
576.096 .0387719
576.885 .0383892
577.673 .0380274
578.461 .0376852
579.248 .0373612
580.035 .0370576
580.821 .0367734
581.607 .0365051
582.392 .0362573
583.177 .0360307
583.962 .0358200
584.746 .0356261
585.529 .0354464
586.313 .0352788
587.095 .0351210
587.878 .0349724
588.660 .0348339
589.441 .0347062
590.222 .0345875
591.003 .0344800
591.783 .0343829
592.563 .0342940
593.342 .0342096
594.121 .0341273
594.899 .0340474
595.678 .0339666
596.455 .0338855
597.233 .0338051
598.009 .0337270
598.786 .0336520
599.562 .0335792
600.338 .0335102
601.113 .0334448
601.888 .0333817
602.663 .0333204
603.437 .0332594
604.211 .0331985
604.984 .0331380
605.757 .0330781
606.530 .0330212
607.302 .0329679
608.074 .0329178
608.845 .0328715
609.616 .0328288
610.387 .0327897
611.158 .0327533
611.928 .0327189
612.697 .0326864
613.467 .0326542
614.236 .0326230
615.004 .0325924
615.773 .0325634
616.541 .0325372
617.308 .0325136
618.076 .0324934
618.843 .0324763
619.609 .0324624
620.375 .0324512
621.141 .0324413
621.907 .0324327
622.672 .0324237
623.437 .0324138
624.202 .0324029
624.966 .0323917
625.730 .0323804
626.493 .0323701
627.257 .0323610
628.020 .0323530
628.782 .0323453
629.545 .0323372
630.307 .0323274
631.068 .0323145
631.830 .0322973
632.591 .0322756
633.352 .0322494
634.112 .0322205
634.872 .0321890
635.632 .0321571
636.392 .0321261
637.151 .0320968
637.910 .0320694
638.668 .0320448
639.427 .0320224
640.185 .0320011
640.943 .0319803
641.700 .0319590
642.457 .0319363
643.214 .0319131
643.971 .0318880
644.727 .0318633
645.483 .0318389
646.239 .0318147
646.994 .0317911
647.750 .0317689
648.505 .0317475
649.259 .0317251
650.014 .0317013
650.768 .0316754
651.521 .0316464
652.275 .0316153
653.028 .0315820
653.781 .0315481
654.534 .0315143
655.286 .0314812
656.039 .0314483
656.791 .0314167
657.542 .0313856
658.294 .0313541
659.045 .0313227
659.796 .0312905
660.546 .0312569
661.297 .0312215
662.047 .0311850
662.796 .0311475
663.546 .0311092
664.295 .0310708
665.044 .0310316
665.793 .0309933
666.542 .0309556
667.290 .0309184
668.038 .0308828
668.786 .0308482
669.533 .0308146
670.281 .0307815
671.028 .0307491
671.774 .0307172
672.521 .0306863
673.267 .0306568
674.013 .0306288
674.759 .0306029
675.505 .0305790
676.250 .0305558
676.995 .0305332
677.740 .0305109
678.484 .0304876
679.229 .0304627
679.973 .0304369
680.717 .0304103
681.460 .0303835
682.204 .0303570
682.947 .0303313
683.690 .0303062
684.433 .0302826
685.175 .0302595
685.917 .0302368
686.659 .0302146
687.401 .0301927
688.142 .0301705
688.884 .0301492
689.625 .0301280
690.365 .0301070
691.106 .0300859
691.846 .0300657
692.586 .0300455
693.326 .0300255
694.066 .0300063
694.805 .0299882
695.545 .0299713
696.284 .0299556
697.022 .0299399
697.761 .0299251
698.499 .0299105
699.237 .0298961
699.975 .0298812
700.713 .0298670
701.450 .0298535
702.187 .0298414
702.924 .0298309
703.661 .0298228
704.397 .0298165
705.133 .0298123
705.869 .0298093
706.605 .0298070
707.341 .0298051
708.076 .0298033
708.811 .0298013
709.546 .0297993
710.281 .0297971
711.015 .0297943
711.749 .0297907
712.483 .0297871
713.217 .0297827
713.950 .0297774
714.684 .0297711
715.417 .0297637
716.150 .0297552
716.882 .0297452
717.615 .0297337
718.347 .0297206
719.079 .0297064
719.811 .0296909
720.542 .0296742
721.273 .0296573
722.005 .0296398
722.735 .0296220
723.466 .0296040
724.196 .0295863
724.927 .0295682
725.656 .0295501
726.386 .0295319
727.116 .0295136
727.845 .0294957
728.574 .0294781
729.303 .0294609
730.031 .0294450
730.760 .0294298
731.488 .0294148
732.216 .0294000
732.944 .0293857
733.671 .0293711
734.398 .0293563
735.125 .0293412
735.852 .0293258
736.579 .0293102
737.305 .0292948
738.031 .0292796
738.757 .0292646
739.483 .0292502
740.208 .0292359
740.933 .0292216
741.658 .0292073
742.383 .0291925
743.108 .0291775
743.832 .0291626
744.556 .0291472
745.280 .0291315
746.004 .0291151
746.727 .0290985
747.450 .0290813
748.173 .0290636
748.896 .0290451
749.618 .0290256
750.340 .0290051
751.062 .0289837
751.784 .0289609
752.506 .0289375
753.227 .0289127
753.948 .0288874
754.669 .0288612
755.389 .0288342
756.110 .0288064
756.830 .0287783
757.550 .0287498
758.269 .0287211
758.989 .0286925
759.708 .0286638
760.427 .0286353
761.146 .0286076
761.864 .0285802
762.582 .0285530
763.300 .0285264
764.018 .0285005
764.736 .0284748
765.453 .0284498
766.170 .0284249
766.887 .0283999
767.603 .0283751
768.320 .0283503
769.036 .0283255
769.751 .0283009
770.467 .0282768
771.182 .0282533
771.897 .0282308
772.612 .0282093
773.327 .0281886
774.041 .0281693
774.755 .0281511
775.469 .0281336
776.183 .0281167
776.896 .0281006
777.609 .0280849
778.322 .0280701
779.035 .0280559
779.747 .0280431
780.459 .0280317
781.171 .0280217
781.882 .0280131
782.594 .0280056
783.305 .0279987
784.016 .0279923
784.726 .0279860
785.436 .0279794
786.147 .0279721
786.856 .0279646
787.566 .0279566
788.275 .0279487
788.984 .0279414
789.693 .0279350
790.401 .0279296
791.110 .0279251
791.818 .0279209
792.525 .0279173
793.233 .0279141
793.940 .0279108
794.647 .0279075
795.353 .0279044
796.060 .0279017
796.766 .0278996
797.472 .0278983
798.177 .0278985
798.883 .0278994
799.588 .0279009
800.292 .0279022
800.997 .0279027
801.701 .0279021
802.405 .0279001
803.109 .0278976
803.812 .0278942
804.515 .0278899
805.218 .0278853
805.921 .0278801
806.623 .0278747
807.325 .0278685
808.027 .0278611
808.728 .0278525
809.429 .0278429
810.130 .0278318
810.831 .0278200
811.531 .0278082
812.231 .0277968
812.931 .0277861
813.630 .0277763
814.330 .0277676
815.029 .0277598
815.727 .0277528
816.426 .0277467
817.124 .0277407
817.821 .0277353
818.519 .0277301
819.216 .0277261
819.913 .0277230
820.609 .0277209
821.306 .0277200
822.002 .0277205
822.697 .0277223
823.393 .0277247
824.088 .0277279
824.783 .0277317
825.477 .0277354
826.171 .0277389
826.865 .0277421
827.559 .0277454
828.252 .0277490
828.945 .0277528
829.638 .0277571
830.330 .0277620
831.023 .0277676
831.714 .0277736
832.406 .0277802
833.097 .0277866
833.788 .0277927
834.479 .0277980
835.169 .0278026
835.859 .0278064
836.548 .0278093
837.238 .0278117
837.927 .0278136
838.615 .0278148
839.304 .0278145
839.992 .0278134
840.680 .0278118
841.367 .0278091
842.054 .0278058
842.741 .0278017
843.428 .0277968
844.114 .0277915
844.800 .0277854
845.485 .0277781
846.170 .0277697
846.855 .0277602
847.540 .0277488
848.224 .0277357
848.908 .0277216
849.592 .0277060
850.275 .0276893
850.958 .0276722
851.641 .0276539
852.323 .0276340
853.005 .0276130
853.687 .0275902
854.368 .0275655
855.049 .0275396
855.730 .0275124
856.410 .0274841
857.090 .0274556
857.769 .0274273
858.449 .0273988
859.128 .0273711
859.806 .0273437
860.485 .0273159
861.163 .0272882
861.840 .0272604
862.518 .0272320
863.195 .0272034
863.871 .0271749
864.548 .0271461
865.224 .0271176
865.899 .0270893
866.574 .0270613
867.249 .0270337
867.924 .0270067
868.598 .0269801
869.272 .0269539
869.946 .0269285
870.619 .0269033
871.292 .0268782
871.964 .0268533
872.636 .0268280
873.308 .0268025
873.979 .0267768
874.651 .0267510
875.321 .0267255
875.992 .0267008
876.662 .0266767
877.331 .0266537
878.001 .0266321
878.670 .0266113
879.338 .0265910
880.007 .0265709
880.675 .0265507
881.342 .0265302
882.009 .0265099
882.676 .0264897
883.343 .0264703
884.009 .0264522
884.675 .0264351
885.340 .0264191
886.005 .0264044
886.670 .0263906
887.334 .0263777
887.998 .0263656
888.662 .0263543
889.325 .0263433
889.988 .0263329
890.650 .0263233
891.312 .0263143
891.974 .0263061
892.636 .0262985
893.297 .0262911
893.957 .0262841
894.618 .0262770
895.278 .0262697
895.937 .0262623
896.596 .0262550
897.255 .0262470
897.914 .0262379
898.572 .0262274
899.230 .0262158
899.887 .0262025
900.544 .0261879
901.201 .0261726
901.857 .0261568
902.513 .0261408
903.168 .0261247
903.823 .0261085
904.478 .0260923
905.132 .0260756
905.786 .0260580
906.440 .0260390
907.093 .0260186
907.746 .0259971
908.399 .0259752
909.051 .0259538
909.703 .0259333
910.354 .0259138
911.005 .0258957
911.656 .0258786
912.306 .0258618
912.956 .0258448
913.605 .0258275
914.254 .0258100
914.903 .0257921
915.551 .0257748
916.199 .0257584
916.847 .0257441
917.494 .0257320
918.141 .0257221
918.788 .0257144
919.434 .0257084
920.079 .0257028
920.725 .0256973
921.370 .0256912
922.014 .0256842
922.658 .0256758
923.302 .0256666
923.946 .0256566
924.589 .0256465
925.231 .0256362
925.873 .0256259
926.515 .0256155
927.157 .0256055
927.798 .0255949
928.439 .0255841
929.079 .0255729
929.719 .0255609
930.359 .0255479
930.998 .0255347
931.637 .0255215
932.275 .0255090
932.913 .0254973
933.551 .0254872
934.188 .0254787
934.825 .0254722
935.462 .0254676
936.098 .0254650
936.733 .0254647
937.369 .0254662
938.004 .0254688
938.638 .0254723
939.273 .0254770
939.907 .0254826
940.540 .0254890
941.173 .0254965
941.806 .0255052
942.438 .0255145
943.070 .0255244
943.702 .0255353
944.333 .0255461
944.964 .0255570
945.594 .0255675
946.224 .0255768
946.854 .0255852
947.483 .0255924
948.112 .0255987
948.741 .0256040
949.369 .0256095
949.996 .0256146
950.624 .0256195
951.251 .0256247
951.878 .0256301
952.504 .0256357
953.130 .0256419
953.755 .0256480
954.380 .0256540
955.005 .0256602
955.629 .0256664
956.253 .0256722
956.877 .0256782
957.500 .0256839
958.123 .0256892
958.746 .0256942
959.368 .0256993
959.990 .0257042
960.611 .0257092
961.232 .0257149
961.853 .0257212
962.473 .0257280
963.093 .0257352
963.712 .0257425
964.331 .0257499
964.950 .0257568
965.569 .0257631
966.187 .0257685
966.804 .0257743
967.422 .0257806
968.039 .0257874
968.655 .0257949
969.272 .0258032
969.887 .0258111
970.503 .0258186
971.118 .0258252
971.733 .0258303
972.347 .0258333
972.961 .0258352
973.575 .0258356
974.188 .0258349
974.801 .0258335
975.414 .0258322
976.026 .0258307
976.638 .0258292
977.250 .0258271
977.861 .0258242
978.472 .0258212
979.083 .0258182
979.693 .0258141
980.303 .0258101
980.912 .0258058
981.521 .0258014
982.130 .0257965
982.738 .0257917
983.346 .0257864
983.954 .0257805
984.562 .0257740
985.169 .0257664
985.775 .0257573
986.382 .0257472
986.988 .0257358
987.594 .0257237
988.199 .0257106
988.804 .0256964
989.409 .0256814
990.013 .0256663
990.617 .0256513
991.221 .0256365
991.824 .0256221
992.427 .0256084
993.030 .0255954
993.632 .0255833
994.234 .0255718
994.836 .0255613
995.438 .0255520
996.039 .0255434
996.640 .0255351
997.240 .0255276
997.840 .0255204
998.440 .0255142
999.040 .0255089
999.639 .0255031
1000.238 .0254977
1000.836 .0254924
1001.435 .0254868
1002.033 .0254806
1002.630 .0254741
1003.228 .0254674
1003.825 .0254600
1004.422 .0254526
1005.018 .0254445
1005.614 .0254365
1006.210 .0254288
1006.806 .0254207
1007.401 .0254123
1007.996 .0254034
1008.591 .0253947
1009.186 .0253859
1009.780 .0253774
1010.374 .0253688
1010.967 .0253598
1011.561 .0253510
1012.154 .0253412
1012.746 .0253309
1013.339 .0253195
1013.931 .0253077
1014.523 .0252955
1015.115 .0252831
1015.706 .0252706
1016.298 .0252580
1016.888 .0252459
1017.479 .0252334
1018.069 .0252203
1018.660 .0252056
1019.250 .0251892
1019.839 .0251720
1020.429 .0251535
1021.018 .0251340
1021.607 .0251135
1022.195 .0250938
1022.784 .0250747
1023.372 .0250565
1023.960 .0250402
1024.547 .0250253
1025.135 .0250128
1025.722 .0250013
1026.309 .0249901
1026.896 .0249796
1027.483 .0249699
1028.069 .0249605
1028.655 .0249511
1029.241 .0249421
1029.827 .0249335
1030.412 .0249257
1030.997 .0249192
1031.582 .0249137
1032.167 .0249088
1032.752 .0249045
1033.336 .0249002
1033.921 .0248951
1034.505 .0248898
1035.089 .0248829
1035.672 .0248758
1036.256 .0248687
1036.839 .0248613
1037.422 .0248536
1038.005 .0248471
1038.588 .0248414
1039.171 .0248362
1039.753 .0248309
1040.335 .0248251
1040.918 .0248183
1041.500 .0248106
1042.081 .0248015
1042.663 .0247904
1043.244 .0247786
1043.826 .0247660
1044.407 .0247514
1044.988 .0247363
1045.569 .0247196
1046.150 .0247014
1046.730 .0246826
1047.311 .0246640
1047.891 .0246453
1048.471 .0246267
1049.052 .0246095
1049.632 .0245930
1050.211 .0245780
1050.791 .0245639
1051.371 .0245500
1051.950 .0245371
1052.530 .0245245
1053.109 .0245115
1053.688 .0244971
1054.268 .0244833
1054.847 .0244697
1055.426 .0244570
1056.005 .0244456
1056.583 .0244352
1057.162 .0244259
1057.741 .0244176
1058.319 .0244098
1058.898 .0244020
1059.476 .0243936
1060.055 .0243847
1060.633 .0243743
1061.211 .0243652
1061.790 .0243563
1062.368 .0243489
1062.946 .0243428
1063.524 .0243382
1064.102 .0243337
1064.680 .0243286
1065.258 .0243214
1065.836 .0243127
1066.414 .0243026
1066.992 .0242926
1067.570 .0242824
1068.148 .0242730
1068.726 .0242656
1069.304 .0242611
1069.882 .0242584
1070.460 .0242581
1071.038 .0242575
1071.616 .0242572
1072.194 .0242574
1072.772 .0242578
1073.350 .0242582
1073.928 .0242594
1074.506 .0242633
1075.084 .0242686
1075.662 .0242737
1076.240 .0242787
1076.819 .0242811
1077.397 .0242829
1077.976 .0242828
1078.554 .0242795
1079.133 .0242744
1079.711 .0242690
1080.290 .0242625
1080.869 .0242554
1081.448 .0242490
1082.027 .0242426
1082.606 .0242360
1083.185 .0242318
1083.764 .0242277
1084.343 .0242254
1084.923 .0242282
1085.502 .0242360
1086.082 .0242487
1086.662 .0242683
1087.242 .0242923
1087.822 .0243199
1088.402 .0243516
1088.983 .0243847
1089.563 .0244171
1090.144 .0244501
1090.725 .0244831
1091.306 .0245127
1091.887 .0245410
1092.469 .0245686
1093.050 .0245941
1093.632 .0246200
1094.214 .0246453
1094.796 .0246684
1095.379 .0246913
1095.961 .0247118
1096.544 .0247282
1097.127 .0247390
1097.710 .0247455
1098.294 .0247461
1098.877 .0247428
1099.461 .0247383
1100.046 .0247331
1100.630 .0247299
1101.215 .0247336
1101.800 .0247419
1102.385 .0247551
1102.970 .0247720
1103.556 .0247899
1104.142 .0248060
1104.728 .0248214
1105.315 .0248350
1105.902 .0248488
1106.489 .0248666
1107.077 .0248909
1107.664 .0249206
1108.253 .0249583
1108.841 .0250034
1109.430 .0250547
1110.019 .0251126
1110.609 .0251747
1111.198 .0252387
1111.789 .0253063
1112.379 .0253768
1112.970 .0254496
1113.561 .0255238
1114.153 .0255992
1114.745 .0256717
1115.338 .0257408
1115.931 .0258050
1116.524 .0258610
1117.117 .0259121
1117.712 .0259604
1118.306 .0260072
1118.901 .0260543
1119.496 .0261007
1120.092 .0261475
1120.689 .0261949
1121.285 .0262411
1121.882 .0262843
1122.480 .0263255
1123.078 .0263694
1123.677 .0264177
1124.276 .0264730
1124.875 .0265388
1125.476 .0266149
1126.076 .0267039
1126.677 .0268011
1127.279 .0269026
1127.881 .0270060
1128.484 .0271074
1129.087 .0272045
1129.691 .0272958
1130.295 .0273837
1130.900 .0274702
1131.505 .0275583
1132.111 .0276512
1132.718 .0277472
1133.325 .0278497
1133.933 .0279589
1134.541 .0280746
1135.150 .0281953
1135.760 .0283173
1136.370 .0284399
1136.981 .0285646
1137.592 .0286886
1138.204 .0288187
1138.817 .0289610
1139.431 .0291142
1140.045 .0292764
1140.660 .0294389
1141.275 .0295979
1141.891 .0297861
1142.508 .0300803
1143.126 .0301551
1143.744 .0300475
1144.363 .0301208
1144.983 .0313075
