Measurement Sequence started on: 15-12-46-377
Integration time: 28
Scans to Average: 2 
>>>>>Begin Spectral Data<<<<<
432.689 .0000100
433.621 .0000100
434.552 .0000100
435.482 .0000100
436.410 .0000100
437.337 .0000100
438.262 .0265666
439.187 .0563407
440.110 .0934682
441.031 .1354084
441.952 .1762814
442.871 .2086488
443.789 .2267471
444.705 .2284905
445.621 .2162545
446.535 .1952700
447.447 .1712777
448.359 .1341832
449.269 .1156953
450.178 .1038372
451.086 .0953411
451.993 .0887200
452.898 .0834142
453.803 .0790070
454.706 .0753423
455.608 .0722010
456.508 .0694759
457.408 .0670921
458.306 .0649739
459.204 .0630731
460.100 .0613622
460.995 .0598352
461.888 .0584698
462.781 .0572525
463.673 .0561570
464.563 .0551838
465.452 .0543099
466.340 .0535156
467.228 .0528023
468.114 .0521473
468.999 .0515534
469.882 .0509968
470.765 .0504766
471.647 .0499918
472.528 .0495293
473.407 .0490974
474.286 .0486968
475.163 .0483324
476.040 .0480001
476.915 .0477003
477.790 .0474384
478.663 .0472111
479.535 .0470161
480.407 .0468554
481.277 .0467144
482.147 .0465954
483.015 .0464968
483.883 .0464075
484.749 .0463317
485.615 .0462809
486.479 .0462451
487.343 .0462379
488.206 .0462571
489.067 .0462970
489.928 .0463475
490.788 .0464185
491.647 .0465002
492.505 .0465830
493.362 .0466742
494.218 .0467734
495.073 .0468805
495.928 .0470219
496.781 .0471893
497.634 .0473972
498.486 .0476586
499.337 .0479633
500.187 .0482986
501.036 .0486693
501.884 .0490681
502.731 .0494824
503.578 .0499123
504.424 .0503651
505.268 .0508190
506.113 .0512983
506.956 .0518017
507.798 .0523345
508.640 .0529089
509.480 .0535331
510.320 .0541997
511.160 .0549344
511.998 .0557513
512.836 .0566643
513.672 .0577054
514.508 .0588873
515.344 .0602087
516.178 .0617049
517.012 .0634073
517.845 .0653444
518.677 .0675215
519.508 .0700085
520.339 .0728231
521.169 .0760458
521.998 .0797094
522.826 .0838656
523.654 .0885373
524.481 .0937380
525.307 .0994705
526.133 .1056548
526.958 .1121953
527.782 .1190892
528.605 .1261650
529.428 .1333243
530.250 .1400419
531.072 .1461751
531.892 .1513619
532.712 .1553834
533.532 .1580141
534.350 .1590125
535.168 .1583326
535.986 .1560103
536.802 .1521175
537.618 .1469361
538.434 .1407077
539.249 .1339227
540.063 .1267373
540.876 .1194881
541.689 .1123848
542.501 .1056378
543.313 .0994139
544.124 .0937374
544.934 .0885740
545.744 .0838707
546.553 .0795865
547.361 .0757334
548.169 .0723206
548.976 .0692753
549.783 .0666079
550.589 .0642669
551.395 .0621752
552.200 .0603058
553.004 .0586226
553.808 .0570884
554.611 .0556926
555.414 .0544260
556.216 .0532792
557.018 .0522496
557.819 .0513449
558.619 .0505149
559.419 .0497713
560.218 .0491093
561.017 .0484877
561.815 .0478706
562.613 .0472520
563.410 .0466032
564.207 .0459430
565.003 .0452779
565.799 .0446156
566.594 .0439644
567.388 .0433525
568.182 .0427626
568.976 .0421927
569.769 .0416493
570.562 .0411302
571.354 .0406217
572.145 .0401368
572.936 .0396539
573.727 .0391780
574.517 .0387182
575.307 .0382830
576.096 .0378702
576.885 .0374889
577.673 .0371347
578.461 .0368042
579.248 .0364963
580.035 .0362088
580.821 .0359349
581.607 .0356807
582.392 .0354421
583.177 .0352190
583.962 .0350098
584.746 .0348186
585.529 .0346412
586.313 .0344820
587.095 .0343383
587.878 .0342099
588.660 .0340931
589.441 .0339879
590.222 .0338909
591.003 .0338023
591.783 .0337191
592.563 .0336399
593.342 .0335637
594.121 .0334888
594.899 .0334151
595.678 .0333429
596.455 .0332713
597.233 .0332021
598.009 .0331350
598.786 .0330706
599.562 .0330085
600.338 .0329488
601.113 .0328904
601.888 .0328341
602.663 .0327794
603.437 .0327264
604.211 .0326746
604.984 .0326254
605.757 .0325785
606.530 .0325344
607.302 .0324943
608.074 .0324576
608.845 .0324246
609.616 .0323949
610.387 .0323678
611.158 .0323426
611.928 .0323186
612.697 .0322952
613.467 .0322719
614.236 .0322489
615.004 .0322263
615.773 .0322038
616.541 .0321825
617.308 .0321622
618.076 .0321430
618.843 .0321239
619.609 .0321049
620.375 .0320847
621.141 .0320627
621.907 .0320383
622.672 .0320125
623.437 .0319845
624.202 .0319555
624.966 .0319264
625.730 .0318979
626.493 .0318698
627.257 .0318428
628.020 .0318159
628.782 .0317894
629.545 .0317616
630.307 .0317324
631.068 .0317014
631.830 .0316689
632.591 .0316343
633.352 .0315982
634.112 .0315624
634.872 .0315268
635.632 .0314920
636.392 .0314590
637.151 .0314281
637.910 .0313985
638.668 .0313700
639.427 .0313420
640.185 .0313139
640.943 .0312858
641.700 .0312576
642.457 .0312298
643.214 .0312032
643.971 .0311780
644.727 .0311551
645.483 .0311351
646.239 .0311189
646.994 .0311041
647.750 .0310916
648.505 .0310798
649.259 .0310676
650.014 .0310545
650.768 .0310408
651.521 .0310269
652.275 .0310125
653.028 .0309980
653.781 .0309833
654.534 .0309681
655.286 .0309533
656.039 .0309380
656.791 .0309220
657.542 .0309053
658.294 .0308877
659.045 .0308694
659.796 .0308511
660.546 .0308322
661.297 .0308118
662.047 .0307903
662.796 .0307667
663.546 .0307415
664.295 .0307145
665.044 .0306873
665.793 .0306597
666.542 .0306330
667.290 .0306072
668.038 .0305820
668.786 .0305577
669.533 .0305338
670.281 .0305098
671.028 .0304860
671.774 .0304619
672.521 .0304391
673.267 .0304179
674.013 .0303995
674.759 .0303832
675.505 .0303693
676.250 .0303566
676.995 .0303443
677.740 .0303309
678.484 .0303159
679.229 .0302986
679.973 .0302799
680.717 .0302599
681.460 .0302390
682.204 .0302178
682.947 .0301972
683.690 .0301766
684.433 .0301558
685.175 .0301340
685.917 .0301114
686.659 .0300871
687.401 .0300620
688.142 .0300361
688.884 .0300100
689.625 .0299842
690.365 .0299591
691.106 .0299347
691.846 .0299118
692.586 .0298896
693.326 .0298682
694.066 .0298477
694.805 .0298279
695.545 .0298080
696.284 .0297878
697.022 .0297674
697.761 .0297468
698.499 .0297254
699.237 .0297039
699.975 .0296822
700.713 .0296610
701.450 .0296404
702.187 .0296205
702.924 .0296015
703.661 .0295834
704.397 .0295654
705.133 .0295477
705.869 .0295303
706.605 .0295135
707.341 .0294967
708.076 .0294805
708.811 .0294654
709.546 .0294507
710.281 .0294360
711.015 .0294207
711.749 .0294044
712.483 .0293868
713.217 .0293670
713.950 .0293453
714.684 .0293223
715.417 .0292986
716.150 .0292751
716.882 .0292523
717.615 .0292305
718.347 .0292097
719.079 .0291898
719.811 .0291707
720.542 .0291519
721.273 .0291334
722.005 .0291150
722.735 .0290968
723.466 .0290794
724.196 .0290625
724.927 .0290460
725.656 .0290305
726.386 .0290162
727.116 .0290022
727.845 .0289882
728.574 .0289737
729.303 .0289585
730.031 .0289423
730.760 .0289250
731.488 .0289064
732.216 .0288871
732.944 .0288679
733.671 .0288483
734.398 .0288291
735.125 .0288108
735.852 .0287937
736.579 .0287777
737.305 .0287630
738.031 .0287495
738.757 .0287369
739.483 .0287253
740.208 .0287143
740.933 .0287041
741.658 .0286950
742.383 .0286863
743.108 .0286780
743.832 .0286701
744.556 .0286625
745.280 .0286547
746.004 .0286463
746.727 .0286373
747.450 .0286277
748.173 .0286172
748.896 .0286064
749.618 .0285953
750.340 .0285844
751.062 .0285739
751.784 .0285637
752.506 .0285535
753.227 .0285431
753.948 .0285316
754.669 .0285196
755.389 .0285064
756.110 .0284927
756.830 .0284780
757.550 .0284629
758.269 .0284482
758.989 .0284335
759.708 .0284183
760.427 .0284027
761.146 .0283861
761.864 .0283686
762.582 .0283494
763.300 .0283284
764.018 .0283063
764.736 .0282840
765.453 .0282619
766.170 .0282407
766.887 .0282206
767.603 .0282022
768.320 .0281847
769.036 .0281679
769.751 .0281511
770.467 .0281340
771.182 .0281167
771.897 .0280987
772.612 .0280807
773.327 .0280635
774.041 .0280476
774.755 .0280333
775.469 .0280212
776.183 .0280110
776.896 .0280023
777.609 .0279947
778.322 .0279878
779.035 .0279807
779.747 .0279735
780.459 .0279660
781.171 .0279578
781.882 .0279498
782.594 .0279426
783.305 .0279361
784.016 .0279311
784.726 .0279271
785.436 .0279240
786.147 .0279212
786.856 .0279186
787.566 .0279152
788.275 .0279108
788.984 .0279055
789.693 .0278989
790.401 .0278913
791.110 .0278830
791.818 .0278740
792.525 .0278643
793.233 .0278543
793.940 .0278434
794.647 .0278314
795.353 .0278183
796.060 .0278042
796.766 .0277895
797.472 .0277740
798.177 .0277582
798.883 .0277416
799.588 .0277246
800.292 .0277074
800.997 .0276894
801.701 .0276710
802.405 .0276523
803.109 .0276335
803.812 .0276149
804.515 .0275969
805.218 .0275800
805.921 .0275639
806.623 .0275488
807.325 .0275345
808.027 .0275205
808.728 .0275062
809.429 .0274914
810.130 .0274755
810.831 .0274594
811.531 .0274426
812.231 .0274251
812.931 .0274069
813.630 .0273885
814.330 .0273703
815.029 .0273518
815.727 .0273333
816.426 .0273148
817.124 .0272965
817.821 .0272785
818.519 .0272606
819.216 .0272429
819.913 .0272258
820.609 .0272096
821.306 .0271940
822.002 .0271800
822.697 .0271676
823.393 .0271575
824.088 .0271498
824.783 .0271442
825.477 .0271402
826.171 .0271367
826.865 .0271340
827.559 .0271316
828.252 .0271290
828.945 .0271265
829.638 .0271242
830.330 .0271223
831.023 .0271209
831.714 .0271200
832.406 .0271193
833.097 .0271182
833.788 .0271164
834.479 .0271130
835.169 .0271081
835.859 .0271026
836.548 .0270968
837.238 .0270914
837.927 .0270873
838.615 .0270845
839.304 .0270826
839.992 .0270818
840.680 .0270814
841.367 .0270809
842.054 .0270798
842.741 .0270777
843.428 .0270747
844.114 .0270718
844.800 .0270689
845.485 .0270658
846.170 .0270630
846.855 .0270599
847.540 .0270554
848.224 .0270495
848.908 .0270421
849.592 .0270329
850.275 .0270222
850.958 .0270103
851.641 .0269972
852.323 .0269830
853.005 .0269682
853.687 .0269521
854.368 .0269355
855.049 .0269181
855.730 .0268996
856.410 .0268804
857.090 .0268615
857.769 .0268429
858.449 .0268248
859.128 .0268070
859.806 .0267900
860.485 .0267730
861.163 .0267558
861.840 .0267382
862.518 .0267198
863.195 .0267009
863.871 .0266813
864.548 .0266616
865.224 .0266424
865.899 .0266240
866.574 .0266068
867.249 .0265910
867.924 .0265766
868.598 .0265632
869.272 .0265507
869.946 .0265394
870.619 .0265292
871.292 .0265199
871.964 .0265112
872.636 .0265032
873.308 .0264960
873.979 .0264899
874.651 .0264843
875.321 .0264795
875.992 .0264754
876.662 .0264719
877.331 .0264686
878.001 .0264654
878.670 .0264620
879.338 .0264581
880.007 .0264532
880.675 .0264472
881.342 .0264400
882.009 .0264320
882.676 .0264241
883.343 .0264165
884.009 .0264096
884.675 .0264035
885.340 .0263980
886.005 .0263935
886.670 .0263900
887.334 .0263871
887.998 .0263846
888.662 .0263826
889.325 .0263811
889.988 .0263801
890.650 .0263799
891.312 .0263809
891.974 .0263825
892.636 .0263847
893.297 .0263873
893.957 .0263896
894.618 .0263912
895.278 .0263924
895.937 .0263924
896.596 .0263917
897.255 .0263902
897.914 .0263877
898.572 .0263846
899.230 .0263811
899.887 .0263768
900.544 .0263709
901.201 .0263633
901.857 .0263540
902.513 .0263418
903.168 .0263273
903.823 .0263107
904.478 .0262921
905.132 .0262717
905.786 .0262502
906.440 .0262280
907.093 .0262054
907.746 .0261826
908.399 .0261596
909.051 .0261367
909.703 .0261140
910.354 .0260913
911.005 .0260689
911.656 .0260478
912.306 .0260278
912.956 .0260086
913.605 .0259906
914.254 .0259735
914.903 .0259572
915.551 .0259409
916.199 .0259249
916.847 .0259086
917.494 .0258920
918.141 .0258754
918.788 .0258583
919.434 .0258416
920.079 .0258246
920.725 .0258071
921.370 .0257895
922.014 .0257709
922.658 .0257517
923.302 .0257315
923.946 .0257109
924.589 .0256897
925.231 .0256679
925.873 .0256461
926.515 .0256240
927.157 .0256016
927.798 .0255789
928.439 .0255555
929.079 .0255315
929.719 .0255071
930.359 .0254819
930.998 .0254567
931.637 .0254316
932.275 .0254073
932.913 .0253836
933.551 .0253606
934.188 .0253388
934.825 .0253176
935.462 .0252973
936.098 .0252779
936.733 .0252590
937.369 .0252411
938.004 .0252244
938.638 .0252086
939.273 .0251943
939.907 .0251815
940.540 .0251699
941.173 .0251591
941.806 .0251492
942.438 .0251400
943.070 .0251310
943.702 .0251225
944.333 .0251142
944.964 .0251058
945.594 .0250980
946.224 .0250910
946.854 .0250852
947.483 .0250809
948.112 .0250780
948.741 .0250759
949.369 .0250748
949.996 .0250738
950.624 .0250728
951.251 .0250714
951.878 .0250697
952.504 .0250668
953.130 .0250630
953.755 .0250585
954.380 .0250534
955.005 .0250482
955.629 .0250426
956.253 .0250365
956.877 .0250301
957.500 .0250235
958.123 .0250164
958.746 .0250088
959.368 .0250012
959.990 .0249930
960.611 .0249843
961.232 .0249754
961.853 .0249663
962.473 .0249578
963.093 .0249494
963.712 .0249411
964.331 .0249328
964.950 .0249241
965.569 .0249146
966.187 .0249048
966.804 .0248948
967.422 .0248848
968.039 .0248751
968.655 .0248660
969.272 .0248577
969.887 .0248504
970.503 .0248441
971.118 .0248384
971.733 .0248327
972.347 .0248268
972.961 .0248196
973.575 .0248117
974.188 .0248028
974.801 .0247932
975.414 .0247831
976.026 .0247728
976.638 .0247624
977.250 .0247515
977.861 .0247404
978.472 .0247291
979.083 .0247166
979.693 .0247030
980.303 .0246878
980.912 .0246718
981.521 .0246551
982.130 .0246388
982.738 .0246235
983.346 .0246098
983.954 .0245977
984.562 .0245872
985.169 .0245782
985.775 .0245703
986.382 .0245632
986.988 .0245566
987.594 .0245505
988.199 .0245443
988.804 .0245384
989.409 .0245331
990.013 .0245282
990.617 .0245241
991.221 .0245200
991.824 .0245160
992.427 .0245121
993.030 .0245080
993.632 .0245041
994.234 .0245015
994.836 .0245008
995.438 .0245012
996.039 .0245033
996.640 .0245072
997.240 .0245121
997.840 .0245177
998.440 .0245234
999.040 .0245285
999.639 .0245331
1000.238 .0245372
1000.836 .0245411
1001.435 .0245452
1002.033 .0245501
1002.630 .0245555
1003.228 .0245609
1003.825 .0245665
1004.422 .0245712
1005.018 .0245748
1005.614 .0245782
1006.210 .0245810
1006.806 .0245835
1007.401 .0245861
1007.996 .0245896
1008.591 .0245939
1009.186 .0245996
1009.780 .0246062
1010.374 .0246132
1010.967 .0246207
1011.561 .0246283
1012.154 .0246354
1012.746 .0246424
1013.339 .0246499
1013.931 .0246572
1014.523 .0246638
1015.115 .0246694
1015.706 .0246736
1016.298 .0246767
1016.888 .0246786
1017.479 .0246792
1018.069 .0246788
1018.660 .0246784
1019.250 .0246778
1019.839 .0246770
1020.429 .0246766
1021.018 .0246767
1021.607 .0246768
1022.195 .0246768
1022.784 .0246769
1023.372 .0246778
1023.960 .0246805
1024.547 .0246857
1025.135 .0246942
1025.722 .0247058
1026.309 .0247201
1026.896 .0247368
1027.483 .0247557
1028.069 .0247752
1028.655 .0247951
1029.241 .0248146
1029.827 .0248337
1030.412 .0248522
1030.997 .0248702
1031.582 .0248884
1032.167 .0249070
1032.752 .0249259
1033.336 .0249442
1033.921 .0249610
1034.505 .0249773
1035.089 .0249915
1035.672 .0250044
1036.256 .0250155
1036.839 .0250255
1037.422 .0250339
1038.005 .0250418
1038.588 .0250489
1039.171 .0250555
1039.753 .0250627
1040.335 .0250700
1040.918 .0250777
1041.500 .0250865
1042.081 .0250963
1042.663 .0251059
1043.244 .0251151
1043.826 .0251235
1044.407 .0251290
1044.988 .0251319
1045.569 .0251311
1046.150 .0251268
1046.730 .0251196
1047.311 .0251105
1047.891 .0251006
1048.471 .0250913
1049.052 .0250825
1049.632 .0250737
1050.211 .0250649
1050.791 .0250555
1051.371 .0250452
1051.950 .0250335
1052.530 .0250209
1053.109 .0250090
1053.688 .0249977
1054.268 .0249880
1054.847 .0249807
1055.426 .0249773
1056.005 .0249770
1056.583 .0249793
1057.162 .0249831
1057.741 .0249872
1058.319 .0249923
1058.898 .0249980
1059.476 .0250035
1060.055 .0250105
1060.633 .0250187
1061.211 .0250267
1061.790 .0250354
1062.368 .0250442
1062.946 .0250518
1063.524 .0250594
1064.102 .0250664
1064.680 .0250721
1065.258 .0250765
1065.836 .0250803
1066.414 .0250819
1066.992 .0250824
1067.570 .0250823
1068.148 .0250798
1068.726 .0250763
1069.304 .0250732
1069.882 .0250695
1070.460 .0250668
1071.038 .0250645
1071.616 .0250629
1072.194 .0250608
1072.772 .0250583
1073.350 .0250533
1073.928 .0250468
1074.506 .0250395
1075.084 .0250306
1075.662 .0250204
1076.240 .0250126
1076.819 .0250057
1077.397 .0250008
1077.976 .0249976
1078.554 .0249952
1079.133 .0249929
1079.711 .0249914
1080.290 .0249887
1080.869 .0249864
1081.448 .0249851
1082.027 .0249866
1082.606 .0249894
1083.185 .0249958
1083.764 .0250050
1084.343 .0250150
1084.923 .0250263
1085.502 .0250385
1086.082 .0250475
1086.662 .0250570
1087.242 .0250658
1087.822 .0250743
1088.402 .0250836
1088.983 .0250932
1089.563 .0251020
1090.144 .0251094
1090.725 .0251155
1091.306 .0251173
1091.887 .0251145
1092.469 .0251112
1093.050 .0251061
1093.632 .0251003
1094.214 .0250963
1094.796 .0250935
1095.379 .0250928
1095.961 .0250963
1096.544 .0251024
1097.127 .0251101
1097.710 .0251206
1098.294 .0251339
1098.877 .0251493
1099.461 .0251650
1100.046 .0251837
1100.630 .0252029
1101.215 .0252231
1101.800 .0252455
1102.385 .0252661
1102.970 .0252842
1103.556 .0253016
1104.142 .0253163
1104.728 .0253282
1105.315 .0253357
1105.902 .0253391
1106.489 .0253365
1107.077 .0253302
1107.664 .0253199
1108.253 .0253073
1108.841 .0252952
1109.430 .0252882
1110.019 .0252822
1110.609 .0252810
1111.198 .0252846
1111.789 .0252937
1112.379 .0253085
1112.970 .0253307
1113.561 .0253585
1114.153 .0253941
1114.745 .0254362
1115.338 .0254895
1115.931 .0255505
1116.524 .0256170
1117.117 .0256878
1117.712 .0257614
1118.306 .0258326
1118.901 .0258996
1119.496 .0259589
1120.092 .0260144
1120.689 .0260640
1121.285 .0261082
1121.882 .0261439
1122.480 .0261784
1123.078 .0262133
1123.677 .0262479
1124.276 .0262856
1124.875 .0263305
1125.476 .0263804
1126.076 .0264348
1126.677 .0264977
1127.279 .0265648
1127.881 .0266342
1128.484 .0267047
1129.087 .0267719
1129.691 .0268392
1130.295 .0269059
1130.900 .0269713
1131.505 .0270423
1132.111 .0271230
1132.718 .0272106
1133.325 .0273025
1133.933 .0274001
1134.541 .0274954
1135.150 .0275812
1135.760 .0276549
1136.370 .0277172
1136.981 .0277675
1137.592 .0278125
1138.204 .0278568
1138.817 .0279048
1139.431 .0279674
1140.045 .0280351
1140.660 .0280946
1141.275 .0281649
1141.891 .0282490
1142.508 .0284751
1143.126 .0283957
1143.744 .0280181
1144.363 .0285384
1144.983 .0290481
