Measurement Sequence started on: 15-12-46-377
Integration time: 28
Scans to Average: 2 
>>>>>Begin Spectral Data<<<<<
432.689 .0000100
433.621 .0000100
434.552 .0000100
435.482 .0000100
436.410 .0000100
437.337 .0000100
438.262 .0283806
439.187 .0601128
440.110 .0996833
441.031 .1442717
441.952 .1876193
442.871 .2217796
443.789 .2405439
444.705 .2417864
445.621 .2280812
446.535 .2051015
447.447 .1790382
448.359 .1391435
449.269 .1193310
450.178 .1066974
451.086 .0978217
451.993 .0910004
452.898 .0856127
453.803 .0812200
454.706 .0775690
455.608 .0744634
456.508 .0717759
457.408 .0694407
458.306 .0673730
459.204 .0655305
460.100 .0638660
460.995 .0623565
461.888 .0609849
462.781 .0597297
463.673 .0585870
464.563 .0575496
465.452 .0565913
466.340 .0556935
467.228 .0548648
468.114 .0540921
468.999 .0533772
469.882 .0527172
470.765 .0521114
471.647 .0515659
472.528 .0510687
473.407 .0506202
474.286 .0502175
475.163 .0498668
476.040 .0495673
476.915 .0493109
477.790 .0491044
478.663 .0489338
479.535 .0487888
480.407 .0486681
481.277 .0485684
482.147 .0484825
483.015 .0484093
483.883 .0483538
484.749 .0483126
485.615 .0482886
486.479 .0482869
487.343 .0483097
488.206 .0483506
489.067 .0484027
489.928 .0484494
490.788 .0484882
491.647 .0485185
492.505 .0485400
493.362 .0485588
494.218 .0485911
495.073 .0486493
495.928 .0487333
496.781 .0488496
497.634 .0490114
498.486 .0492082
499.337 .0494348
500.187 .0496853
501.036 .0499512
501.884 .0502317
502.731 .0505350
503.578 .0508636
504.424 .0512301
505.268 .0516359
506.113 .0520937
506.956 .0525961
507.798 .0531519
508.640 .0537674
509.480 .0544289
510.320 .0551596
511.160 .0559682
511.998 .0568490
512.836 .0578140
513.672 .0588946
514.508 .0601028
515.344 .0614347
516.178 .0629297
517.012 .0645988
517.845 .0664783
518.677 .0686186
519.508 .0710264
520.339 .0737294
521.169 .0767910
521.998 .0802198
522.826 .0840496
523.654 .0883366
524.481 .0931198
525.307 .0984262
526.133 .1042503
526.958 .1105906
527.782 .1173988
528.605 .1244747
529.428 .1317709
530.250 .1386761
531.072 .1449695
531.892 .1502524
532.712 .1541699
533.532 .1565402
534.350 .1572570
535.168 .1562281
535.986 .1535829
536.802 .1494914
537.618 .1442610
538.434 .1380188
539.249 .1312818
540.063 .1241552
540.876 .1169383
541.689 .1098678
542.501 .1031652
543.313 .0969432
544.124 .0913902
544.934 .0864427
545.744 .0820689
546.553 .0782182
547.361 .0748370
548.169 .0718576
548.976 .0691990
549.783 .0668111
550.589 .0646650
551.395 .0626771
552.200 .0608827
553.004 .0592405
553.808 .0577423
554.611 .0563998
555.414 .0552048
556.216 .0541338
557.018 .0531966
557.819 .0523604
558.619 .0515931
559.419 .0508871
560.218 .0502171
561.017 .0495689
561.815 .0489309
562.613 .0483022
563.410 .0476854
564.207 .0470817
565.003 .0465079
565.799 .0459505
566.594 .0454152
567.388 .0449149
568.182 .0444294
568.976 .0439466
569.769 .0434636
570.562 .0429724
571.354 .0424666
572.145 .0419572
572.936 .0414396
573.727 .0409256
574.517 .0404266
575.307 .0399473
576.096 .0394903
576.885 .0390570
577.673 .0386528
578.461 .0382709
579.248 .0379117
580.035 .0375703
580.821 .0372413
581.607 .0369306
582.392 .0366366
583.177 .0363599
583.962 .0361020
584.746 .0358663
585.529 .0356509
586.313 .0354563
587.095 .0352809
587.878 .0351223
588.660 .0349797
589.441 .0348508
590.222 .0347320
591.003 .0346235
591.783 .0345215
592.563 .0344240
593.342 .0343330
594.121 .0342470
594.899 .0341651
595.678 .0340888
596.455 .0340181
597.233 .0339521
598.009 .0338897
598.786 .0338311
599.562 .0337748
600.338 .0337207
601.113 .0336685
601.888 .0336164
602.663 .0335650
603.437 .0335152
604.211 .0334663
604.984 .0334197
605.757 .0333756
606.530 .0333335
607.302 .0332927
608.074 .0332541
608.845 .0332170
609.616 .0331810
610.387 .0331470
611.158 .0331157
611.928 .0330856
612.697 .0330574
613.467 .0330315
614.236 .0330073
615.004 .0329846
615.773 .0329641
616.541 .0329453
617.308 .0329292
618.076 .0329153
618.843 .0329034
619.609 .0328931
620.375 .0328840
621.141 .0328740
621.907 .0328622
622.672 .0328486
623.437 .0328327
624.202 .0328131
624.966 .0327912
625.730 .0327672
626.493 .0327411
627.257 .0327132
628.020 .0326842
628.782 .0326533
629.545 .0326212
630.307 .0325872
631.068 .0325519
631.830 .0325163
632.591 .0324806
633.352 .0324457
634.112 .0324120
634.872 .0323800
635.632 .0323494
636.392 .0323192
637.151 .0322902
637.910 .0322611
638.668 .0322317
639.427 .0322011
640.185 .0321699
640.943 .0321381
641.700 .0321056
642.457 .0320728
643.214 .0320393
643.971 .0320046
644.727 .0319691
645.483 .0319328
646.239 .0318958
646.994 .0318586
647.750 .0318221
648.505 .0317862
649.259 .0317515
650.014 .0317184
650.768 .0316860
651.521 .0316551
652.275 .0316253
653.028 .0315955
653.781 .0315658
654.534 .0315365
655.286 .0315068
656.039 .0314766
656.791 .0314459
657.542 .0314144
658.294 .0313824
659.045 .0313508
659.796 .0313185
660.546 .0312867
661.297 .0312561
662.047 .0312263
662.796 .0311969
663.546 .0311690
664.295 .0311423
665.044 .0311162
665.793 .0310920
666.542 .0310692
667.290 .0310484
668.038 .0310301
668.786 .0310137
669.533 .0309990
670.281 .0309861
671.028 .0309743
671.774 .0309626
672.521 .0309516
673.267 .0309407
674.013 .0309293
674.759 .0309177
675.505 .0309061
676.250 .0308940
676.995 .0308815
677.740 .0308692
678.484 .0308565
679.229 .0308443
679.973 .0308322
680.717 .0308207
681.460 .0308101
682.204 .0307999
682.947 .0307903
683.690 .0307809
684.433 .0307716
685.175 .0307620
685.917 .0307514
686.659 .0307404
687.401 .0307292
688.142 .0307181
688.884 .0307071
689.625 .0306964
690.365 .0306862
691.106 .0306755
691.846 .0306635
692.586 .0306496
693.326 .0306335
694.066 .0306152
694.805 .0305947
695.545 .0305720
696.284 .0305482
697.022 .0305239
697.761 .0304994
698.499 .0304750
699.237 .0304505
699.975 .0304257
700.713 .0304009
701.450 .0303758
702.187 .0303505
702.924 .0303250
703.661 .0303006
704.397 .0302769
705.133 .0302544
705.869 .0302325
706.605 .0302115
707.341 .0301915
708.076 .0301721
708.811 .0301523
709.546 .0301323
710.281 .0301119
711.015 .0300916
711.749 .0300705
712.483 .0300493
713.217 .0300270
713.950 .0300041
714.684 .0299796
715.417 .0299531
716.150 .0299243
716.882 .0298935
717.615 .0298609
718.347 .0298269
719.079 .0297920
719.811 .0297571
720.542 .0297230
721.273 .0296899
722.005 .0296575
722.735 .0296260
723.466 .0295946
724.196 .0295634
724.927 .0295317
725.656 .0294998
726.386 .0294684
727.116 .0294382
727.845 .0294101
728.574 .0293844
729.303 .0293616
730.031 .0293418
730.760 .0293244
731.488 .0293089
732.216 .0292947
732.944 .0292813
733.671 .0292686
734.398 .0292565
735.125 .0292450
735.852 .0292345
736.579 .0292253
737.305 .0292177
738.031 .0292112
738.757 .0292057
739.483 .0292007
740.208 .0291957
740.933 .0291908
741.658 .0291856
742.383 .0291794
743.108 .0291730
743.832 .0291660
744.556 .0291589
745.280 .0291513
746.004 .0291440
746.727 .0291369
747.450 .0291303
748.173 .0291240
748.896 .0291179
749.618 .0291122
750.340 .0291072
751.062 .0291024
751.784 .0290984
752.506 .0290947
753.227 .0290915
753.948 .0290885
754.669 .0290862
755.389 .0290837
756.110 .0290813
756.830 .0290786
757.550 .0290756
758.269 .0290716
758.989 .0290669
759.708 .0290611
760.427 .0290550
761.146 .0290488
761.864 .0290425
762.582 .0290363
763.300 .0290309
764.018 .0290259
764.736 .0290215
765.453 .0290176
766.170 .0290142
766.887 .0290108
767.603 .0290079
768.320 .0290054
769.036 .0290033
769.751 .0290017
770.467 .0290005
771.182 .0289991
771.897 .0289973
772.612 .0289942
773.327 .0289899
774.041 .0289843
774.755 .0289773
775.469 .0289690
776.183 .0289598
776.896 .0289495
777.609 .0289386
778.322 .0289267
779.035 .0289139
779.747 .0289003
780.459 .0288859
781.171 .0288705
781.882 .0288543
782.594 .0288378
783.305 .0288212
784.016 .0288049
784.726 .0287895
785.436 .0287743
786.147 .0287594
786.856 .0287450
787.566 .0287304
788.275 .0287155
788.984 .0287004
789.693 .0286848
790.401 .0286688
791.110 .0286521
791.818 .0286347
792.525 .0286163
793.233 .0285973
793.940 .0285773
794.647 .0285558
795.353 .0285334
796.060 .0285101
796.766 .0284857
797.472 .0284605
798.177 .0284347
798.883 .0284079
799.588 .0283804
800.292 .0283522
800.997 .0283234
801.701 .0282940
802.405 .0282648
803.109 .0282363
803.812 .0282086
804.515 .0281820
805.218 .0281561
805.921 .0281309
806.623 .0281064
807.325 .0280823
808.027 .0280584
808.728 .0280347
809.429 .0280116
810.130 .0279889
810.831 .0279671
811.531 .0279457
812.231 .0279246
812.931 .0279033
813.630 .0278814
814.330 .0278589
815.029 .0278352
815.727 .0278113
816.426 .0277871
817.124 .0277633
817.821 .0277399
818.519 .0277172
819.216 .0276960
819.913 .0276761
820.609 .0276572
821.306 .0276391
822.002 .0276222
822.697 .0276067
823.393 .0275931
824.088 .0275815
824.783 .0275725
825.477 .0275659
826.171 .0275614
826.865 .0275590
827.559 .0275580
828.252 .0275588
828.945 .0275601
829.638 .0275621
830.330 .0275645
831.023 .0275666
831.714 .0275687
832.406 .0275707
833.097 .0275724
833.788 .0275736
834.479 .0275739
835.169 .0275739
835.859 .0275739
836.548 .0275744
837.238 .0275751
837.927 .0275764
838.615 .0275784
839.304 .0275805
839.992 .0275825
840.680 .0275844
841.367 .0275861
842.054 .0275881
842.741 .0275900
843.428 .0275923
844.114 .0275961
844.800 .0276015
845.485 .0276081
846.170 .0276160
846.855 .0276243
847.540 .0276327
848.224 .0276409
848.908 .0276483
849.592 .0276548
850.275 .0276606
850.958 .0276658
851.641 .0276703
852.323 .0276748
853.005 .0276798
853.687 .0276848
854.368 .0276902
855.049 .0276954
855.730 .0277005
856.410 .0277048
857.090 .0277084
857.769 .0277111
858.449 .0277130
859.128 .0277142
859.806 .0277149
860.485 .0277158
861.163 .0277169
861.840 .0277186
862.518 .0277207
863.195 .0277228
863.871 .0277249
864.548 .0277267
865.224 .0277277
865.899 .0277280
866.574 .0277277
867.249 .0277263
867.924 .0277244
868.598 .0277221
869.272 .0277189
869.946 .0277151
870.619 .0277102
871.292 .0277042
871.964 .0276967
872.636 .0276879
873.308 .0276774
873.979 .0276657
874.651 .0276531
875.321 .0276400
875.992 .0276263
876.662 .0276125
877.331 .0275987
878.001 .0275850
878.670 .0275713
879.338 .0275575
880.007 .0275439
880.675 .0275307
881.342 .0275180
882.009 .0275054
882.676 .0274927
883.343 .0274801
884.009 .0274674
884.675 .0274541
885.340 .0274400
886.005 .0274252
886.670 .0274094
887.334 .0273929
887.998 .0273759
888.662 .0273584
889.325 .0273407
889.988 .0273229
890.650 .0273050
891.312 .0272866
891.974 .0272680
892.636 .0272488
893.297 .0272293
893.957 .0272094
894.618 .0271887
895.278 .0271672
895.937 .0271453
896.596 .0271235
897.255 .0271015
897.914 .0270798
898.572 .0270584
899.230 .0270373
899.887 .0270163
900.544 .0269952
901.201 .0269739
901.857 .0269517
902.513 .0269286
903.168 .0269040
903.823 .0268781
904.478 .0268510
905.132 .0268231
905.786 .0267949
906.440 .0267663
907.093 .0267376
907.746 .0267084
908.399 .0266785
909.051 .0266478
909.703 .0266157
910.354 .0265820
911.005 .0265470
911.656 .0265109
912.306 .0264740
912.956 .0264370
913.605 .0264005
914.254 .0263645
914.903 .0263293
915.551 .0262948
916.199 .0262609
916.847 .0262275
917.494 .0261950
918.141 .0261633
918.788 .0261328
919.434 .0261042
920.079 .0260768
920.725 .0260514
921.370 .0260276
922.014 .0260048
922.658 .0259820
923.302 .0259596
923.946 .0259367
924.589 .0259131
925.231 .0258888
925.873 .0258644
926.515 .0258400
927.157 .0258159
927.798 .0257919
928.439 .0257677
929.079 .0257436
929.719 .0257193
930.359 .0256939
930.998 .0256684
931.637 .0256428
932.275 .0256176
932.913 .0255932
933.551 .0255701
934.188 .0255486
934.825 .0255288
935.462 .0255108
936.098 .0254945
936.733 .0254797
937.369 .0254666
938.004 .0254552
938.638 .0254454
939.273 .0254376
939.907 .0254314
940.540 .0254270
941.173 .0254248
941.806 .0254242
942.438 .0254254
943.070 .0254279
943.702 .0254316
944.333 .0254362
944.964 .0254411
945.594 .0254463
946.224 .0254517
946.854 .0254573
947.483 .0254628
948.112 .0254680
948.741 .0254734
949.369 .0254790
949.996 .0254850
950.624 .0254912
951.251 .0254978
951.878 .0255041
952.504 .0255105
953.130 .0255160
953.755 .0255212
954.380 .0255262
955.005 .0255310
955.629 .0255356
956.253 .0255402
956.877 .0255455
957.500 .0255519
958.123 .0255589
958.746 .0255669
959.368 .0255750
959.990 .0255837
960.611 .0255916
961.232 .0255993
961.853 .0256068
962.473 .0256140
963.093 .0256210
963.712 .0256278
964.331 .0256344
964.950 .0256413
965.569 .0256485
966.187 .0256568
966.804 .0256659
967.422 .0256763
968.039 .0256871
968.655 .0256992
969.272 .0257118
969.887 .0257248
970.503 .0257377
971.118 .0257508
971.733 .0257637
972.347 .0257766
972.961 .0257896
973.575 .0258031
974.188 .0258171
974.801 .0258311
975.414 .0258447
976.026 .0258580
976.638 .0258702
977.250 .0258815
977.861 .0258912
978.472 .0259002
979.083 .0259082
979.693 .0259151
980.303 .0259211
980.912 .0259265
981.521 .0259312
982.130 .0259355
982.738 .0259387
983.346 .0259415
983.954 .0259438
984.562 .0259459
985.169 .0259476
985.775 .0259491
986.382 .0259505
986.988 .0259512
987.594 .0259515
988.199 .0259516
988.804 .0259515
989.409 .0259516
990.013 .0259518
990.617 .0259524
991.221 .0259530
991.824 .0259539
992.427 .0259551
993.030 .0259564
993.632 .0259581
994.234 .0259602
994.836 .0259624
995.438 .0259652
996.039 .0259686
996.640 .0259719
997.240 .0259758
997.840 .0259803
998.440 .0259848
999.040 .0259890
999.639 .0259932
1000.238 .0259971
1000.836 .0260002
1001.435 .0260035
1002.033 .0260065
1002.630 .0260087
1003.228 .0260112
1003.825 .0260130
1004.422 .0260137
1005.018 .0260138
1005.614 .0260134
1006.210 .0260121
1006.806 .0260109
1007.401 .0260093
1007.996 .0260069
1008.591 .0260041
1009.186 .0260009
1009.780 .0259959
1010.374 .0259894
1010.967 .0259817
1011.561 .0259715
1012.154 .0259591
1012.746 .0259454
1013.339 .0259298
1013.931 .0259141
1014.523 .0258990
1015.115 .0258846
1015.706 .0258712
1016.298 .0258592
1016.888 .0258473
1017.479 .0258358
1018.069 .0258246
1018.660 .0258126
1019.250 .0257997
1019.839 .0257866
1020.429 .0257733
1021.018 .0257608
1021.607 .0257498
1022.195 .0257405
1022.784 .0257332
1023.372 .0257278
1023.960 .0257231
1024.547 .0257186
1025.135 .0257141
1025.722 .0257089
1026.309 .0257022
1026.896 .0256949
1027.483 .0256868
1028.069 .0256784
1028.655 .0256703
1029.241 .0256625
1029.827 .0256552
1030.412 .0256482
1030.997 .0256407
1031.582 .0256324
1032.167 .0256229
1032.752 .0256122
1033.336 .0255998
1033.921 .0255862
1034.505 .0255728
1035.089 .0255589
1035.672 .0255449
1036.256 .0255315
1036.839 .0255171
1037.422 .0255026
1038.005 .0254871
1038.588 .0254711
1039.171 .0254551
1039.753 .0254395
1040.335 .0254237
1040.918 .0254080
1041.500 .0253925
1042.081 .0253767
1042.663 .0253598
1043.244 .0253415
1043.826 .0253215
1044.407 .0252992
1044.988 .0252749
1045.569 .0252493
1046.150 .0252222
1046.730 .0251946
1047.311 .0251663
1047.891 .0251378
1048.471 .0251085
1049.052 .0250786
1049.632 .0250487
1050.211 .0250199
1050.791 .0249933
1051.371 .0249692
1051.950 .0249484
1052.530 .0249312
1053.109 .0249177
1053.688 .0249058
1054.268 .0248954
1054.847 .0248860
1055.426 .0248752
1056.005 .0248634
1056.583 .0248504
1057.162 .0248366
1057.741 .0248225
1058.319 .0248090
1058.898 .0247969
1059.476 .0247851
1060.055 .0247736
1060.633 .0247608
1061.211 .0247470
1061.790 .0247329
1062.368 .0247170
1062.946 .0247002
1063.524 .0246839
1064.102 .0246675
1064.680 .0246521
1065.258 .0246385
1065.836 .0246265
1066.414 .0246162
1066.992 .0246075
1067.570 .0245996
1068.148 .0245928
1068.726 .0245858
1069.304 .0245796
1069.882 .0245741
1070.460 .0245697
1071.038 .0245650
1071.616 .0245595
1072.194 .0245556
1072.772 .0245533
1073.350 .0245526
1073.928 .0245536
1074.506 .0245544
1075.084 .0245560
1075.662 .0245562
1076.240 .0245548
1076.819 .0245527
1077.397 .0245508
1077.976 .0245494
1078.554 .0245496
1079.133 .0245520
1079.711 .0245574
1080.290 .0245648
1080.869 .0245739
1081.448 .0245832
1082.027 .0245904
1082.606 .0245938
1083.185 .0245935
1083.764 .0245919
1084.343 .0245914
1084.923 .0245924
1085.502 .0245979
1086.082 .0246084
1086.662 .0246245
1087.242 .0246437
1087.822 .0246640
1088.402 .0246845
1088.983 .0247025
1089.563 .0247168
1090.144 .0247271
1090.725 .0247371
1091.306 .0247481
1091.887 .0247634
1092.469 .0247843
1093.050 .0248118
1093.632 .0248440
1094.214 .0248787
1094.796 .0249150
1095.379 .0249514
1095.961 .0249867
1096.544 .0250192
1097.127 .0250501
1097.710 .0250818
1098.294 .0251144
1098.877 .0251499
1099.461 .0251887
1100.046 .0252310
1100.630 .0252738
1101.215 .0253168
1101.800 .0253557
1102.385 .0253913
1102.970 .0254226
1103.556 .0254487
1104.142 .0254714
1104.728 .0254936
1105.315 .0255164
1105.902 .0255413
1106.489 .0255706
1107.077 .0256016
1107.664 .0256328
1108.253 .0256651
1108.841 .0256954
1109.430 .0257242
1110.019 .0257540
1110.609 .0257855
1111.198 .0258175
1111.789 .0258552
1112.379 .0258965
1112.970 .0259401
1113.561 .0259886
1114.153 .0260382
1114.745 .0260873
1115.338 .0261365
1115.931 .0261872
1116.524 .0262358
1117.117 .0262885
1117.712 .0263456
1118.306 .0264048
1118.901 .0264696
1119.496 .0265363
1120.092 .0266031
1120.689 .0266698
1121.285 .0267352
1121.882 .0267963
1122.480 .0268562
1123.078 .0269180
1123.677 .0269799
1124.276 .0270480
1124.875 .0271235
1125.476 .0272048
1126.076 .0272905
1126.677 .0273794
1127.279 .0274664
1127.881 .0275510
1128.484 .0276361
1129.087 .0277172
1129.691 .0277993
1130.295 .0278828
1130.900 .0279698
1131.505 .0280607
1132.111 .0281588
1132.718 .0282636
1133.325 .0283698
1133.933 .0284763
1134.541 .0285814
1135.150 .0286810
1135.760 .0287766
1136.370 .0288723
1136.981 .0289742
1137.592 .0290828
1138.204 .0291988
1138.817 .0293257
1139.431 .0294620
1140.045 .0296104
1140.660 .0297717
1141.275 .0299577
1141.891 .0302108
1142.508 .0301535
1143.126 .0304381
1143.744 .0307659
1144.363 .0314336
1144.983 .0329441
