Measurement Sequence started on: 15-12-46-377
Integration time: 28
Scans to Average: 2 
>>>>>Begin Spectral Data<<<<<
432.689 .0000100
433.621 .0000100
434.552 .0000100
435.482 .0000100
436.410 .0000100
437.337 .0000100
438.262 .0277336
439.187 .0587712
440.110 .0973488
441.031 .1408901
441.952 .1831299
442.871 .2164016
443.789 .2345941
444.705 .2356743
445.621 .2222109
446.535 .1997466
447.447 .1743277
448.359 .1354433
449.269 .1162237
450.178 .1041404
451.086 .0956274
451.993 .0891592
452.898 .0839971
453.803 .0797796
454.706 .0762226
455.608 .0731258
456.508 .0704083
457.408 .0680370
458.306 .0659322
459.204 .0640560
460.100 .0623759
460.995 .0608849
461.888 .0595601
462.781 .0583757
463.673 .0573013
464.563 .0563250
465.452 .0554115
466.340 .0545571
467.228 .0537559
468.114 .0530136
468.999 .0523327
469.882 .0517087
470.765 .0511495
471.647 .0506565
472.528 .0502126
473.407 .0498172
474.286 .0494685
475.163 .0491664
476.040 .0488918
476.915 .0486453
477.790 .0484287
478.663 .0482366
479.535 .0480737
480.407 .0479361
481.277 .0478206
482.147 .0477298
483.015 .0476581
483.883 .0475928
484.749 .0475372
485.615 .0474877
486.479 .0474455
487.343 .0474204
488.206 .0474102
489.067 .0474149
489.928 .0474302
490.788 .0474659
491.647 .0475147
492.505 .0475715
493.362 .0476402
494.218 .0477085
495.073 .0477831
495.928 .0478663
496.781 .0479474
497.634 .0480418
498.486 .0481535
499.337 .0482846
500.187 .0484262
501.036 .0485810
501.884 .0487448
502.731 .0489179
503.578 .0490977
504.424 .0492900
505.268 .0494896
506.113 .0497162
506.956 .0499796
507.798 .0502863
508.640 .0506581
509.480 .0511047
510.320 .0516300
511.160 .0522601
511.998 .0529934
512.836 .0538473
513.672 .0548287
514.508 .0559650
515.344 .0572618
516.178 .0587383
517.012 .0604348
517.845 .0623727
518.677 .0645885
519.508 .0670853
520.339 .0699041
521.169 .0730890
521.998 .0766713
522.826 .0806877
523.654 .0851871
524.481 .0902033
525.307 .0957877
526.133 .1019419
526.958 .1086227
527.782 .1157831
528.605 .1232322
529.428 .1308804
530.250 .1381937
531.072 .1449122
531.892 .1506949
532.712 .1552236
533.532 .1583757
534.350 .1598618
535.168 .1595979
535.986 .1576163
536.802 .1540455
537.618 .1491253
538.434 .1429883
539.249 .1361472
540.063 .1288290
540.876 .1213572
541.689 .1140227
542.501 .1070119
543.313 .1005661
544.124 .0947434
544.934 .0895167
545.744 .0847860
546.553 .0805413
547.361 .0767412
548.169 .0733832
548.976 .0703768
549.783 .0676997
550.589 .0653131
551.395 .0631650
552.200 .0612532
553.004 .0595249
553.808 .0579478
554.611 .0565330
555.414 .0552497
556.216 .0541004
557.018 .0530515
557.819 .0521037
558.619 .0512341
559.419 .0504387
560.218 .0497080
561.017 .0490248
561.815 .0483706
562.613 .0477452
563.410 .0471288
564.207 .0465217
565.003 .0459249
565.799 .0453370
566.594 .0447570
567.388 .0441943
568.182 .0436421
568.976 .0430998
569.769 .0425736
570.562 .0420658
571.354 .0415698
572.145 .0410848
572.936 .0406119
573.727 .0401443
574.517 .0396847
575.307 .0392307
576.096 .0387833
576.885 .0383473
577.673 .0379264
578.461 .0375239
579.248 .0371396
580.035 .0367748
580.821 .0364297
581.607 .0361028
582.392 .0357964
583.177 .0355110
583.962 .0352469
584.746 .0350063
585.529 .0347870
586.313 .0345895
587.095 .0344114
587.878 .0342504
588.660 .0341036
589.441 .0339703
590.222 .0338470
591.003 .0337329
591.783 .0336273
592.563 .0335302
593.342 .0334411
594.121 .0333604
594.899 .0332873
595.678 .0332216
596.455 .0331617
597.233 .0331069
598.009 .0330539
598.786 .0330025
599.562 .0329523
600.338 .0329027
601.113 .0328552
601.888 .0328105
602.663 .0327678
603.437 .0327299
604.211 .0326953
604.984 .0326633
605.757 .0326327
606.530 .0326034
607.302 .0325732
608.074 .0325412
608.845 .0325083
609.616 .0324750
610.387 .0324423
611.158 .0324112
611.928 .0323814
612.697 .0323533
613.467 .0323262
614.236 .0322988
615.004 .0322700
615.773 .0322401
616.541 .0322082
617.308 .0321750
618.076 .0321418
618.843 .0321099
619.609 .0320804
620.375 .0320539
621.141 .0320310
621.907 .0320110
622.672 .0319923
623.437 .0319735
624.202 .0319545
624.966 .0319347
625.730 .0319135
626.493 .0318919
627.257 .0318704
628.020 .0318498
628.782 .0318295
629.545 .0318092
630.307 .0317888
631.068 .0317682
631.830 .0317466
632.591 .0317225
633.352 .0316968
634.112 .0316696
634.872 .0316396
635.632 .0316077
636.392 .0315743
637.151 .0315399
637.910 .0315048
638.668 .0314698
639.427 .0314349
640.185 .0314012
640.943 .0313687
641.700 .0313376
642.457 .0313078
643.214 .0312788
643.971 .0312493
644.727 .0312194
645.483 .0311892
646.239 .0311589
646.994 .0311285
647.750 .0310997
648.505 .0310725
649.259 .0310477
650.014 .0310247
650.768 .0310037
651.521 .0309836
652.275 .0309633
653.028 .0309411
653.781 .0309166
654.534 .0308899
655.286 .0308609
656.039 .0308308
656.791 .0308004
657.542 .0307699
658.294 .0307402
659.045 .0307108
659.796 .0306822
660.546 .0306534
661.297 .0306244
662.047 .0305945
662.796 .0305637
663.546 .0305322
664.295 .0305000
665.044 .0304679
665.793 .0304376
666.542 .0304088
667.290 .0303821
668.038 .0303585
668.786 .0303379
669.533 .0303195
670.281 .0303030
671.028 .0302875
671.774 .0302726
672.521 .0302576
673.267 .0302427
674.013 .0302270
674.759 .0302113
675.505 .0301959
676.250 .0301802
676.995 .0301651
677.740 .0301507
678.484 .0301356
679.229 .0301204
679.973 .0301042
680.717 .0300870
681.460 .0300681
682.204 .0300485
682.947 .0300280
683.690 .0300074
684.433 .0299871
685.175 .0299674
685.917 .0299480
686.659 .0299302
687.401 .0299125
688.142 .0298945
688.884 .0298763
689.625 .0298579
690.365 .0298389
691.106 .0298198
691.846 .0298012
692.586 .0297832
693.326 .0297660
694.066 .0297499
694.805 .0297341
695.545 .0297184
696.284 .0297021
697.022 .0296843
697.761 .0296649
698.499 .0296439
699.237 .0296213
699.975 .0295975
700.713 .0295739
701.450 .0295508
702.187 .0295282
702.924 .0295065
703.661 .0294854
704.397 .0294644
705.133 .0294435
705.869 .0294218
706.605 .0293997
707.341 .0293779
708.076 .0293569
708.811 .0293369
709.546 .0293186
710.281 .0293023
711.015 .0292870
711.749 .0292724
712.483 .0292582
713.217 .0292436
713.950 .0292284
714.684 .0292121
715.417 .0291947
716.150 .0291767
716.882 .0291582
717.615 .0291397
718.347 .0291210
719.079 .0291028
719.811 .0290843
720.542 .0290656
721.273 .0290474
722.005 .0290290
722.735 .0290109
723.466 .0289931
724.196 .0289758
724.927 .0289582
725.656 .0289406
726.386 .0289229
727.116 .0289051
727.845 .0288876
728.574 .0288702
729.303 .0288523
730.031 .0288350
730.760 .0288175
731.488 .0287998
732.216 .0287820
732.944 .0287648
733.671 .0287473
734.398 .0287301
735.125 .0287131
735.852 .0286970
736.579 .0286819
737.305 .0286683
738.031 .0286557
738.757 .0286441
739.483 .0286331
740.208 .0286220
740.933 .0286107
741.658 .0285992
742.383 .0285868
743.108 .0285740
743.832 .0285602
744.556 .0285456
745.280 .0285301
746.004 .0285137
746.727 .0284966
747.450 .0284785
748.173 .0284595
748.896 .0284397
749.618 .0284194
750.340 .0283995
751.062 .0283800
751.784 .0283611
752.506 .0283430
753.227 .0283257
753.948 .0283090
754.669 .0282927
755.389 .0282765
756.110 .0282605
756.830 .0282446
757.550 .0282288
758.269 .0282130
758.989 .0281974
759.708 .0281818
760.427 .0281665
761.146 .0281510
761.864 .0281352
762.582 .0281190
763.300 .0281024
764.018 .0280860
764.736 .0280700
765.453 .0280546
766.170 .0280402
766.887 .0280267
767.603 .0280145
768.320 .0280027
769.036 .0279912
769.751 .0279799
770.467 .0279686
771.182 .0279571
771.897 .0279454
772.612 .0279336
773.327 .0279222
774.041 .0279111
774.755 .0279004
775.469 .0278895
776.183 .0278787
776.896 .0278675
777.609 .0278561
778.322 .0278440
779.035 .0278321
779.747 .0278206
780.459 .0278100
781.171 .0278006
781.882 .0277928
782.594 .0277865
783.305 .0277818
784.016 .0277780
784.726 .0277749
785.436 .0277717
786.147 .0277684
786.856 .0277649
787.566 .0277611
788.275 .0277573
788.984 .0277538
789.693 .0277505
790.401 .0277476
791.110 .0277444
791.818 .0277408
792.525 .0277364
793.233 .0277306
793.940 .0277234
794.647 .0277146
795.353 .0277049
796.060 .0276945
796.766 .0276837
797.472 .0276725
798.177 .0276610
798.883 .0276492
799.588 .0276373
800.292 .0276250
800.997 .0276127
801.701 .0276001
802.405 .0275877
803.109 .0275761
803.812 .0275654
804.515 .0275557
805.218 .0275471
805.921 .0275387
806.623 .0275305
807.325 .0275219
808.027 .0275129
808.728 .0275037
809.429 .0274944
810.130 .0274852
810.831 .0274761
811.531 .0274671
812.231 .0274578
812.931 .0274478
813.630 .0274372
814.330 .0274255
815.029 .0274128
815.727 .0273989
816.426 .0273843
817.124 .0273692
817.821 .0273542
818.519 .0273395
819.216 .0273257
819.913 .0273127
820.609 .0273004
821.306 .0272890
822.002 .0272790
822.697 .0272703
823.393 .0272638
824.088 .0272594
824.783 .0272566
825.477 .0272551
826.171 .0272546
826.865 .0272545
827.559 .0272548
828.252 .0272552
828.945 .0272549
829.638 .0272541
830.330 .0272526
831.023 .0272503
831.714 .0272474
832.406 .0272443
833.097 .0272404
833.788 .0272350
834.479 .0272287
835.169 .0272208
835.859 .0272123
836.548 .0272034
837.238 .0271942
837.927 .0271857
838.615 .0271774
839.304 .0271695
839.992 .0271619
840.680 .0271550
841.367 .0271484
842.054 .0271416
842.741 .0271348
843.428 .0271279
844.114 .0271207
844.800 .0271135
845.485 .0271061
846.170 .0270982
846.855 .0270898
847.540 .0270804
848.224 .0270694
848.908 .0270575
849.592 .0270442
850.275 .0270302
850.958 .0270149
851.641 .0269993
852.323 .0269832
853.005 .0269670
853.687 .0269509
854.368 .0269351
855.049 .0269193
855.730 .0269039
856.410 .0268885
857.090 .0268733
857.769 .0268580
858.449 .0268431
859.128 .0268277
859.806 .0268126
860.485 .0267973
861.163 .0267821
861.840 .0267670
862.518 .0267529
863.195 .0267387
863.871 .0267247
864.548 .0267108
865.224 .0266965
865.899 .0266817
866.574 .0266668
867.249 .0266511
867.924 .0266355
868.598 .0266203
869.272 .0266055
869.946 .0265913
870.619 .0265784
871.292 .0265660
871.964 .0265539
872.636 .0265421
873.308 .0265300
873.979 .0265174
874.651 .0265052
875.321 .0264932
875.992 .0264813
876.662 .0264703
877.331 .0264598
878.001 .0264494
878.670 .0264393
879.338 .0264289
880.007 .0264182
880.675 .0264076
881.342 .0263968
882.009 .0263859
882.676 .0263755
883.343 .0263658
884.009 .0263566
884.675 .0263477
885.340 .0263385
886.005 .0263285
886.670 .0263178
887.334 .0263067
887.998 .0262951
888.662 .0262836
889.325 .0262727
889.988 .0262625
890.650 .0262533
891.312 .0262447
891.974 .0262365
892.636 .0262286
893.297 .0262203
893.957 .0262119
894.618 .0262031
895.278 .0261948
895.937 .0261872
896.596 .0261807
897.255 .0261754
897.914 .0261710
898.572 .0261672
899.230 .0261639
899.887 .0261605
900.544 .0261564
901.201 .0261514
901.857 .0261455
902.513 .0261387
903.168 .0261309
903.823 .0261222
904.478 .0261128
905.132 .0261024
905.786 .0260912
906.440 .0260786
907.093 .0260648
907.746 .0260500
908.399 .0260342
909.051 .0260175
909.703 .0260002
910.354 .0259823
911.005 .0259641
911.656 .0259455
912.306 .0259263
912.956 .0259067
913.605 .0258866
914.254 .0258663
914.903 .0258455
915.551 .0258250
916.199 .0258054
916.847 .0257866
917.494 .0257691
918.141 .0257527
918.788 .0257372
919.434 .0257224
920.079 .0257077
920.725 .0256932
921.370 .0256788
922.014 .0256643
922.658 .0256497
923.302 .0256354
923.946 .0256212
924.589 .0256070
925.231 .0255928
925.873 .0255784
926.515 .0255631
927.157 .0255464
927.798 .0255284
928.439 .0255085
929.079 .0254870
929.719 .0254644
930.359 .0254410
930.998 .0254175
931.637 .0253944
932.275 .0253716
932.913 .0253491
933.551 .0253277
934.188 .0253069
934.825 .0252868
935.462 .0252679
936.098 .0252505
936.733 .0252349
937.369 .0252219
938.004 .0252112
938.638 .0252024
939.273 .0251957
939.907 .0251907
940.540 .0251860
941.173 .0251814
941.806 .0251772
942.438 .0251726
943.070 .0251678
943.702 .0251628
944.333 .0251569
944.964 .0251512
945.594 .0251452
946.224 .0251388
946.854 .0251321
947.483 .0251253
948.112 .0251184
948.741 .0251112
949.369 .0251044
949.996 .0250973
950.624 .0250903
951.251 .0250838
951.878 .0250779
952.504 .0250722
953.130 .0250673
953.755 .0250631
954.380 .0250599
955.005 .0250576
955.629 .0250554
956.253 .0250537
956.877 .0250522
957.500 .0250503
958.123 .0250480
958.746 .0250447
959.368 .0250412
959.990 .0250371
960.611 .0250324
961.232 .0250278
961.853 .0250235
962.473 .0250194
963.093 .0250155
963.712 .0250119
964.331 .0250079
964.950 .0250037
965.569 .0249997
966.187 .0249958
966.804 .0249918
967.422 .0249887
968.039 .0249862
968.655 .0249843
969.272 .0249835
969.887 .0249824
970.503 .0249816
971.118 .0249805
971.733 .0249787
972.347 .0249760
972.961 .0249731
973.575 .0249699
974.188 .0249659
974.801 .0249616
975.414 .0249569
976.026 .0249512
976.638 .0249451
977.250 .0249385
977.861 .0249310
978.472 .0249233
979.083 .0249152
979.693 .0249066
980.303 .0248979
980.912 .0248891
981.521 .0248802
982.130 .0248717
982.738 .0248640
983.346 .0248569
983.954 .0248505
984.562 .0248460
985.169 .0248426
985.775 .0248399
986.382 .0248381
986.988 .0248367
987.594 .0248351
988.199 .0248330
988.804 .0248303
989.409 .0248268
990.013 .0248231
990.617 .0248197
991.221 .0248159
991.824 .0248129
992.427 .0248107
993.030 .0248089
993.632 .0248079
994.234 .0248073
994.836 .0248065
995.438 .0248064
996.039 .0248064
996.640 .0248065
997.240 .0248070
997.840 .0248086
998.440 .0248109
999.040 .0248136
999.639 .0248175
1000.238 .0248210
1000.836 .0248240
1001.435 .0248268
1002.033 .0248286
1002.630 .0248298
1003.228 .0248304
1003.825 .0248303
1004.422 .0248302
1005.018 .0248303
1005.614 .0248299
1006.210 .0248296
1006.806 .0248296
1007.401 .0248295
1007.996 .0248287
1008.591 .0248275
1009.186 .0248269
1009.780 .0248265
1010.374 .0248272
1010.967 .0248281
1011.561 .0248300
1012.154 .0248322
1012.746 .0248337
1013.339 .0248348
1013.931 .0248355
1014.523 .0248354
1015.115 .0248347
1015.706 .0248341
1016.298 .0248335
1016.888 .0248342
1017.479 .0248362
1018.069 .0248398
1018.660 .0248453
1019.250 .0248512
1019.839 .0248575
1020.429 .0248639
1021.018 .0248707
1021.607 .0248773
1022.195 .0248844
1022.784 .0248926
1023.372 .0249017
1023.960 .0249120
1024.547 .0249231
1025.135 .0249352
1025.722 .0249484
1026.309 .0249622
1026.896 .0249759
1027.483 .0249895
1028.069 .0250035
1028.655 .0250170
1029.241 .0250307
1029.827 .0250441
1030.412 .0250572
1030.997 .0250696
1031.582 .0250814
1032.167 .0250924
1032.752 .0251029
1033.336 .0251127
1033.921 .0251219
1034.505 .0251300
1035.089 .0251367
1035.672 .0251410
1036.256 .0251436
1036.839 .0251438
1037.422 .0251422
1038.005 .0251388
1038.588 .0251345
1039.171 .0251295
1039.753 .0251243
1040.335 .0251190
1040.918 .0251141
1041.500 .0251090
1042.081 .0251041
1042.663 .0250986
1043.244 .0250933
1043.826 .0250874
1044.407 .0250820
1044.988 .0250774
1045.569 .0250735
1046.150 .0250698
1046.730 .0250667
1047.311 .0250630
1047.891 .0250581
1048.471 .0250522
1049.052 .0250452
1049.632 .0250376
1050.211 .0250308
1050.791 .0250251
1051.371 .0250217
1051.950 .0250215
1052.530 .0250236
1053.109 .0250275
1053.688 .0250323
1054.268 .0250371
1054.847 .0250405
1055.426 .0250422
1056.005 .0250423
1056.583 .0250408
1057.162 .0250391
1057.741 .0250369
1058.319 .0250340
1058.898 .0250315
1059.476 .0250291
1060.055 .0250266
1060.633 .0250236
1061.211 .0250192
1061.790 .0250134
1062.368 .0250057
1062.946 .0249960
1063.524 .0249842
1064.102 .0249719
1064.680 .0249599
1065.258 .0249489
1065.836 .0249398
1066.414 .0249336
1066.992 .0249304
1067.570 .0249313
1068.148 .0249350
1068.726 .0249403
1069.304 .0249464
1069.882 .0249520
1070.460 .0249562
1071.038 .0249581
1071.616 .0249580
1072.194 .0249568
1072.772 .0249550
1073.350 .0249534
1073.928 .0249522
1074.506 .0249517
1075.084 .0249523
1075.662 .0249532
1076.240 .0249542
1076.819 .0249540
1077.397 .0249528
1077.976 .0249511
1078.554 .0249483
1079.133 .0249460
1079.711 .0249440
1080.290 .0249433
1080.869 .0249449
1081.448 .0249462
1082.027 .0249465
1082.606 .0249465
1083.185 .0249468
1083.764 .0249456
1084.343 .0249434
1084.923 .0249410
1085.502 .0249389
1086.082 .0249366
1086.662 .0249356
1087.242 .0249358
1087.822 .0249373
1088.402 .0249406
1088.983 .0249434
1089.563 .0249453
1090.144 .0249468
1090.725 .0249478
1091.306 .0249483
1091.887 .0249496
1092.469 .0249524
1093.050 .0249565
1093.632 .0249635
1094.214 .0249742
1094.796 .0249886
1095.379 .0250048
1095.961 .0250245
1096.544 .0250460
1097.127 .0250674
1097.710 .0250896
1098.294 .0251109
1098.877 .0251319
1099.461 .0251520
1100.046 .0251712
1100.630 .0251892
1101.215 .0252069
1101.800 .0252246
1102.385 .0252400
1102.970 .0252543
1103.556 .0252679
1104.142 .0252802
1104.728 .0252913
1105.315 .0253026
1105.902 .0253136
1106.489 .0253232
1107.077 .0253320
1107.664 .0253407
1108.253 .0253492
1108.841 .0253585
1109.430 .0253691
1110.019 .0253806
1110.609 .0253923
1111.198 .0254090
1111.789 .0254295
1112.379 .0254544
1112.970 .0254838
1113.561 .0255160
1114.153 .0255475
1114.745 .0255779
1115.338 .0256042
1115.931 .0256236
1116.524 .0256382
1117.117 .0256509
1117.712 .0256599
1118.306 .0256719
1118.901 .0256911
1119.496 .0257179
1120.092 .0257539
1120.689 .0257997
1121.285 .0258489
1121.882 .0258974
1122.480 .0259462
1123.078 .0259919
1123.677 .0260333
1124.276 .0260735
1124.875 .0261148
1125.476 .0261599
1126.076 .0262136
1126.677 .0262760
1127.279 .0263480
1127.881 .0264302
1128.484 .0265200
1129.087 .0266061
1129.691 .0266899
1130.295 .0267663
1130.900 .0268334
1131.505 .0268915
1132.111 .0269470
1132.718 .0270035
1133.325 .0270671
1133.933 .0271417
1134.541 .0272347
1135.150 .0273458
1135.760 .0274743
1136.370 .0276128
1136.981 .0277608
1137.592 .0279078
1138.204 .0280505
1138.817 .0281902
1139.431 .0283325
1140.045 .0284791
1140.660 .0286341
1141.275 .0288012
1141.891 .0289894
1142.508 .0292191
1143.126 .0294285
1143.744 .0295943
1144.363 .0298390
1144.983 .0302295
