Measurement Sequence started on: 15-12-46-377
Integration time: 28
Scans to Average: 2 
>>>>>Begin Spectral Data<<<<<
432.689 .0000100
433.621 .0000100
434.552 .0000100
435.482 .0000100
436.410 .0000100
437.337 .0000100
438.262 .0260768
439.187 .0552625
440.110 .0916550
441.031 .1327591
441.952 .1727967
442.871 .2044781
443.789 .2221183
444.705 .2236981
445.621 .2115811
446.535 .1908991
447.447 .1673264
448.359 .1309661
449.269 .1129690
450.178 .1015283
451.086 .0934504
451.993 .0872571
452.898 .0823775
453.803 .0783963
454.706 .0751291
455.608 .0723419
456.508 .0699596
457.408 .0678945
458.306 .0660767
459.204 .0644661
460.100 .0630293
460.995 .0617350
461.888 .0605701
462.781 .0595040
463.673 .0585212
464.563 .0576126
465.452 .0567658
466.340 .0559582
467.228 .0551952
468.114 .0544728
468.999 .0537928
469.882 .0531450
470.765 .0525434
471.647 .0519890
472.528 .0514820
473.407 .0510252
474.286 .0506166
475.163 .0502545
476.040 .0499436
476.915 .0496711
477.790 .0494433
478.663 .0492507
479.535 .0490945
480.407 .0489697
481.277 .0488651
482.147 .0487841
483.015 .0487264
483.883 .0486858
484.749 .0486629
485.615 .0486592
486.479 .0486696
487.343 .0486944
488.206 .0487400
489.067 .0487881
489.928 .0488393
490.788 .0488861
491.647 .0489291
492.505 .0489720
493.362 .0490202
494.218 .0490818
495.073 .0491608
495.928 .0492792
496.781 .0494265
497.634 .0496064
498.486 .0498291
499.337 .0500856
500.187 .0503694
501.036 .0506761
501.884 .0509995
502.731 .0513473
503.578 .0517231
504.424 .0521292
505.268 .0525678
506.113 .0530596
506.956 .0535810
507.798 .0541435
508.640 .0547538
509.480 .0554218
510.320 .0561549
511.160 .0569802
511.998 .0578971
512.836 .0589306
513.672 .0600887
514.508 .0613864
515.344 .0628218
516.178 .0644298
517.012 .0662202
517.845 .0682319
518.677 .0705315
519.508 .0731569
520.339 .0761444
521.169 .0795857
521.998 .0834950
522.826 .0879008
523.654 .0927913
524.481 .0982031
525.307 .1041601
526.133 .1106279
526.958 .1175340
527.782 .1248345
528.605 .1323635
529.428 .1400147
530.250 .1472732
531.072 .1538205
531.892 .1592582
532.712 .1633219
533.532 .1657349
534.350 .1663503
535.168 .1650994
535.986 .1621216
536.802 .1575653
537.618 .1517747
538.434 .1449453
539.249 .1375369
540.063 .1298280
540.876 .1221013
541.689 .1145318
542.501 .1073974
543.313 .1008194
544.124 .0949495
544.934 .0897298
545.744 .0851208
546.553 .0810182
547.361 .0774269
548.169 .0742696
548.976 .0714369
549.783 .0688795
550.589 .0665678
551.395 .0644165
552.200 .0624475
553.004 .0606369
553.808 .0589719
554.611 .0574537
555.414 .0561070
556.216 .0548776
557.018 .0537798
557.819 .0527765
558.619 .0518614
559.419 .0510160
560.218 .0502379
561.017 .0494999
561.815 .0487875
562.613 .0481247
563.410 .0474971
564.207 .0468910
565.003 .0463291
565.799 .0457971
566.594 .0452898
567.388 .0448045
568.182 .0443303
568.976 .0438570
569.769 .0433871
570.562 .0429111
571.354 .0424268
572.145 .0419370
572.936 .0414542
573.727 .0409702
574.517 .0404983
575.307 .0400441
576.096 .0396023
576.885 .0391802
577.673 .0387843
578.461 .0384128
579.248 .0380659
580.035 .0377386
580.821 .0374339
581.607 .0371446
582.392 .0368742
583.177 .0366190
583.962 .0363814
584.746 .0361638
585.529 .0359655
586.313 .0357835
587.095 .0356219
587.878 .0354769
588.660 .0353469
589.441 .0352295
590.222 .0351206
591.003 .0350202
591.783 .0349258
592.563 .0348355
593.342 .0347502
594.121 .0346662
594.899 .0345859
595.678 .0345085
596.455 .0344338
597.233 .0343628
598.009 .0342951
598.786 .0342310
599.562 .0341689
600.338 .0341091
601.113 .0340501
601.888 .0339913
602.663 .0339330
603.437 .0338759
604.211 .0338190
604.984 .0337643
605.757 .0337124
606.530 .0336627
607.302 .0336153
608.074 .0335703
608.845 .0335280
609.616 .0334879
610.387 .0334501
611.158 .0334150
611.928 .0333817
612.697 .0333516
613.467 .0333231
614.236 .0332972
615.004 .0332728
615.773 .0332495
616.541 .0332270
617.308 .0332048
618.076 .0331832
618.843 .0331614
619.609 .0331404
620.375 .0331210
621.141 .0331020
621.907 .0330834
622.672 .0330647
623.437 .0330457
624.202 .0330262
624.966 .0330065
625.730 .0329856
626.493 .0329643
627.257 .0329424
628.020 .0329205
628.782 .0328985
629.545 .0328756
630.307 .0328523
631.068 .0328278
631.830 .0328027
632.591 .0327756
633.352 .0327470
634.112 .0327175
634.872 .0326870
635.632 .0326559
636.392 .0326233
637.151 .0325892
637.910 .0325538
638.668 .0325173
639.427 .0324800
640.185 .0324421
640.943 .0324046
641.700 .0323669
642.457 .0323302
643.214 .0322943
643.971 .0322588
644.727 .0322241
645.483 .0321903
646.239 .0321574
646.994 .0321253
647.750 .0320939
648.505 .0320640
649.259 .0320360
650.014 .0320100
650.768 .0319855
651.521 .0319620
652.275 .0319385
653.028 .0319142
653.781 .0318883
654.534 .0318607
655.286 .0318314
656.039 .0318010
656.791 .0317704
657.542 .0317395
658.294 .0317095
659.045 .0316796
659.796 .0316503
660.546 .0316210
661.297 .0315906
662.047 .0315587
662.796 .0315247
663.546 .0314895
664.295 .0314539
665.044 .0314189
665.793 .0313864
666.542 .0313568
667.290 .0313308
668.038 .0313082
668.786 .0312886
669.533 .0312706
670.281 .0312530
671.028 .0312353
671.774 .0312166
672.521 .0311965
673.267 .0311758
674.013 .0311550
674.759 .0311352
675.505 .0311172
676.250 .0311002
676.995 .0310841
677.740 .0310686
678.484 .0310526
679.229 .0310351
679.973 .0310161
680.717 .0309957
681.460 .0309737
682.204 .0309506
682.947 .0309277
683.690 .0309053
684.433 .0308846
685.175 .0308657
685.917 .0308485
686.659 .0308329
687.401 .0308179
688.142 .0308032
688.884 .0307880
689.625 .0307720
690.365 .0307548
691.106 .0307364
691.846 .0307176
692.586 .0306985
693.326 .0306799
694.066 .0306622
694.805 .0306456
695.545 .0306300
696.284 .0306148
697.022 .0305999
697.761 .0305847
698.499 .0305688
699.237 .0305519
699.975 .0305343
700.713 .0305163
701.450 .0304987
702.187 .0304819
702.924 .0304666
703.661 .0304522
704.397 .0304389
705.133 .0304262
705.869 .0304130
706.605 .0303987
707.341 .0303830
708.076 .0303654
708.811 .0303462
709.546 .0303249
710.281 .0303031
711.015 .0302807
711.749 .0302588
712.483 .0302370
713.217 .0302153
713.950 .0301938
714.684 .0301717
715.417 .0301490
716.150 .0301259
716.882 .0301022
717.615 .0300786
718.347 .0300547
719.079 .0300316
719.811 .0300090
720.542 .0299874
721.273 .0299665
722.005 .0299463
722.735 .0299259
723.466 .0299053
724.196 .0298837
724.927 .0298611
725.656 .0298375
726.386 .0298131
727.116 .0297877
727.845 .0297619
728.574 .0297359
729.303 .0297101
730.031 .0296845
730.760 .0296602
731.488 .0296367
732.216 .0296147
732.944 .0295936
733.671 .0295740
734.398 .0295555
735.125 .0295382
735.852 .0295221
736.579 .0295070
737.305 .0294933
738.031 .0294806
738.757 .0294691
739.483 .0294583
740.208 .0294480
740.933 .0294380
741.658 .0294277
742.383 .0294167
743.108 .0294049
743.832 .0293921
744.556 .0293789
745.280 .0293651
746.004 .0293508
746.727 .0293360
747.450 .0293211
748.173 .0293053
748.896 .0292890
749.618 .0292721
750.340 .0292546
751.062 .0292369
751.784 .0292197
752.506 .0292030
753.227 .0291874
753.948 .0291727
754.669 .0291592
755.389 .0291465
756.110 .0291343
756.830 .0291216
757.550 .0291091
758.269 .0290964
758.989 .0290837
759.708 .0290706
760.427 .0290581
761.146 .0290460
761.864 .0290341
762.582 .0290227
763.300 .0290115
764.018 .0290007
764.736 .0289901
765.453 .0289794
766.170 .0289692
766.887 .0289593
767.603 .0289497
768.320 .0289406
769.036 .0289316
769.751 .0289230
770.467 .0289143
771.182 .0289055
771.897 .0288968
772.612 .0288883
773.327 .0288803
774.041 .0288731
774.755 .0288667
775.469 .0288610
776.183 .0288558
776.896 .0288510
777.609 .0288460
778.322 .0288404
779.035 .0288349
779.747 .0288293
780.459 .0288239
781.171 .0288193
781.882 .0288157
782.594 .0288134
783.305 .0288123
784.016 .0288122
784.726 .0288127
785.436 .0288133
786.147 .0288133
786.856 .0288126
787.566 .0288113
788.275 .0288095
788.984 .0288071
789.693 .0288042
790.401 .0288006
791.110 .0287960
791.818 .0287898
792.525 .0287823
793.233 .0287734
793.940 .0287636
794.647 .0287524
795.353 .0287405
796.060 .0287282
796.766 .0287157
797.472 .0287029
798.177 .0286901
798.883 .0286766
799.588 .0286623
800.292 .0286474
800.997 .0286322
801.701 .0286172
802.405 .0286036
803.109 .0285911
803.812 .0285805
804.515 .0285710
805.218 .0285624
805.921 .0285532
806.623 .0285435
807.325 .0285330
808.027 .0285207
808.728 .0285071
809.429 .0284927
810.130 .0284782
810.831 .0284646
811.531 .0284516
812.231 .0284390
812.931 .0284261
813.630 .0284128
814.330 .0283977
815.029 .0283804
815.727 .0283616
816.426 .0283411
817.124 .0283193
817.821 .0282972
818.519 .0282751
819.216 .0282536
819.913 .0282334
820.609 .0282142
821.306 .0281957
822.002 .0281781
822.697 .0281611
823.393 .0281447
824.088 .0281296
824.783 .0281151
825.477 .0281008
826.171 .0280874
826.865 .0280748
827.559 .0280620
828.252 .0280495
828.945 .0280372
829.638 .0280246
830.330 .0280119
831.023 .0279990
831.714 .0279857
832.406 .0279727
833.097 .0279591
833.788 .0279447
834.479 .0279292
835.169 .0279135
835.859 .0278967
836.548 .0278800
837.238 .0278636
837.927 .0278471
838.615 .0278312
839.304 .0278160
839.992 .0278015
840.680 .0277874
841.367 .0277736
842.054 .0277601
842.741 .0277466
843.428 .0277332
844.114 .0277197
844.800 .0277066
845.485 .0276938
846.170 .0276810
846.855 .0276678
847.540 .0276546
848.224 .0276409
848.908 .0276268
849.592 .0276127
850.275 .0275984
850.958 .0275841
851.641 .0275700
852.323 .0275564
853.005 .0275434
853.687 .0275311
854.368 .0275195
855.049 .0275088
855.730 .0274989
856.410 .0274892
857.090 .0274794
857.769 .0274697
858.449 .0274595
859.128 .0274487
859.806 .0274376
860.485 .0274262
861.163 .0274147
861.840 .0274034
862.518 .0273923
863.195 .0273812
863.871 .0273707
864.548 .0273605
865.224 .0273507
865.899 .0273416
866.574 .0273329
867.249 .0273245
867.924 .0273167
868.598 .0273096
869.272 .0273030
869.946 .0272971
870.619 .0272916
871.292 .0272863
871.964 .0272817
872.636 .0272775
873.308 .0272739
873.979 .0272710
874.651 .0272690
875.321 .0272668
875.992 .0272647
876.662 .0272619
877.331 .0272586
878.001 .0272548
878.670 .0272504
879.338 .0272456
880.007 .0272410
880.675 .0272368
881.342 .0272335
882.009 .0272315
882.676 .0272313
883.343 .0272320
884.009 .0272336
884.675 .0272352
885.340 .0272369
886.005 .0272384
886.670 .0272397
887.334 .0272412
887.998 .0272429
888.662 .0272448
889.325 .0272466
889.988 .0272488
890.650 .0272515
891.312 .0272542
891.974 .0272573
892.636 .0272605
893.297 .0272639
893.957 .0272674
894.618 .0272711
895.278 .0272750
895.937 .0272796
896.596 .0272851
897.255 .0272911
897.914 .0272976
898.572 .0273049
899.230 .0273125
899.887 .0273200
900.544 .0273276
901.201 .0273345
901.857 .0273401
902.513 .0273443
903.168 .0273463
903.823 .0273465
904.478 .0273445
905.132 .0273403
905.786 .0273340
906.440 .0273261
907.093 .0273163
907.746 .0273044
908.399 .0272910
909.051 .0272762
909.703 .0272601
910.354 .0272427
911.005 .0272242
911.656 .0272046
912.306 .0271844
912.956 .0271636
913.605 .0271424
914.254 .0271220
914.903 .0271019
915.551 .0270827
916.199 .0270646
916.847 .0270477
917.494 .0270323
918.141 .0270184
918.788 .0270059
919.434 .0269943
920.079 .0269832
920.725 .0269719
921.370 .0269602
922.014 .0269483
922.658 .0269355
923.302 .0269218
923.946 .0269073
924.589 .0268922
925.231 .0268760
925.873 .0268592
926.515 .0268415
927.157 .0268230
927.798 .0268029
928.439 .0267806
929.079 .0267564
929.719 .0267299
930.359 .0267010
930.998 .0266704
931.637 .0266384
932.275 .0266060
932.913 .0265736
933.551 .0265424
934.188 .0265131
934.825 .0264862
935.462 .0264611
936.098 .0264378
936.733 .0264159
937.369 .0263948
938.004 .0263742
938.638 .0263538
939.273 .0263342
939.907 .0263153
940.540 .0262979
941.173 .0262823
941.806 .0262691
942.438 .0262581
943.070 .0262486
943.702 .0262399
944.333 .0262316
944.964 .0262222
945.594 .0262115
946.224 .0261993
946.854 .0261858
947.483 .0261710
948.112 .0261555
948.741 .0261391
949.369 .0261229
949.996 .0261064
950.624 .0260893
951.251 .0260716
951.878 .0260529
952.504 .0260330
953.130 .0260116
953.755 .0259894
954.380 .0259666
955.005 .0259430
955.629 .0259192
956.253 .0258948
956.877 .0258703
957.500 .0258456
958.123 .0258208
958.746 .0257964
959.368 .0257723
959.990 .0257489
960.611 .0257263
961.232 .0257046
961.853 .0256836
962.473 .0256633
963.093 .0256431
963.712 .0256231
964.331 .0256030
964.950 .0255828
965.569 .0255634
966.187 .0255453
966.804 .0255289
967.422 .0255146
968.039 .0255024
968.655 .0254918
969.272 .0254819
969.887 .0254725
970.503 .0254627
971.118 .0254520
971.733 .0254406
972.347 .0254283
972.961 .0254155
973.575 .0254028
974.188 .0253898
974.801 .0253767
975.414 .0253634
976.026 .0253492
976.638 .0253334
977.250 .0253169
977.861 .0252993
978.472 .0252814
979.083 .0252639
979.693 .0252467
980.303 .0252304
980.912 .0252151
981.521 .0252004
982.130 .0251861
982.738 .0251723
983.346 .0251595
983.954 .0251472
984.562 .0251363
985.169 .0251265
985.775 .0251174
986.382 .0251091
986.988 .0251013
987.594 .0250930
988.199 .0250840
988.804 .0250745
989.409 .0250643
990.013 .0250542
990.617 .0250446
991.221 .0250360
991.824 .0250287
992.427 .0250233
993.030 .0250195
993.632 .0250168
994.234 .0250156
994.836 .0250151
995.438 .0250155
996.039 .0250168
996.640 .0250188
997.240 .0250219
997.840 .0250267
998.440 .0250326
999.040 .0250393
999.639 .0250467
1000.238 .0250542
1000.836 .0250615
1001.435 .0250680
1002.033 .0250737
1002.630 .0250780
1003.228 .0250818
1003.825 .0250847
1004.422 .0250870
1005.018 .0250896
1005.614 .0250920
1006.210 .0250947
1006.806 .0250983
1007.401 .0251023
1007.996 .0251072
1008.591 .0251129
1009.186 .0251199
1009.780 .0251271
1010.374 .0251351
1010.967 .0251431
1011.561 .0251508
1012.154 .0251581
1012.746 .0251648
1013.339 .0251707
1013.931 .0251767
1014.523 .0251826
1015.115 .0251887
1015.706 .0251960
1016.298 .0252044
1016.888 .0252140
1017.479 .0252245
1018.069 .0252351
1018.660 .0252452
1019.250 .0252547
1019.839 .0252640
1020.429 .0252726
1021.018 .0252818
1021.607 .0252924
1022.195 .0253049
1022.784 .0253202
1023.372 .0253374
1023.960 .0253575
1024.547 .0253788
1025.135 .0254010
1025.722 .0254220
1026.309 .0254416
1026.896 .0254602
1027.483 .0254788
1028.069 .0254977
1028.655 .0255181
1029.241 .0255399
1029.827 .0255635
1030.412 .0255885
1030.997 .0256147
1031.582 .0256406
1032.167 .0256658
1032.752 .0256901
1033.336 .0257128
1033.921 .0257331
1034.505 .0257525
1035.089 .0257711
1035.672 .0257894
1036.256 .0258081
1036.839 .0258260
1037.422 .0258434
1038.005 .0258602
1038.588 .0258764
1039.171 .0258920
1039.753 .0259068
1040.335 .0259210
1040.918 .0259332
1041.500 .0259443
1042.081 .0259546
1042.663 .0259627
1043.244 .0259705
1043.826 .0259776
1044.407 .0259845
1044.988 .0259907
1045.569 .0259969
1046.150 .0260035
1046.730 .0260108
1047.311 .0260194
1047.891 .0260282
1048.471 .0260372
1049.052 .0260463
1049.632 .0260551
1050.211 .0260632
1050.791 .0260716
1051.371 .0260799
1051.950 .0260891
1052.530 .0261005
1053.109 .0261138
1053.688 .0261285
1054.268 .0261445
1054.847 .0261613
1055.426 .0261784
1056.005 .0261940
1056.583 .0262078
1057.162 .0262182
1057.741 .0262265
1058.319 .0262324
1058.898 .0262366
1059.476 .0262394
1060.055 .0262421
1060.633 .0262439
1061.211 .0262438
1061.790 .0262408
1062.368 .0262348
1062.946 .0262258
1063.524 .0262145
1064.102 .0262012
1064.680 .0261875
1065.258 .0261745
1065.836 .0261633
1066.414 .0261544
1066.992 .0261472
1067.570 .0261421
1068.148 .0261382
1068.726 .0261352
1069.304 .0261338
1069.882 .0261345
1070.460 .0261383
1071.038 .0261448
1071.616 .0261546
1072.194 .0261676
1072.772 .0261823
1073.350 .0261979
1073.928 .0262137
1074.506 .0262271
1075.084 .0262383
1075.662 .0262474
1076.240 .0262548
1076.819 .0262610
1077.397 .0262667
1077.976 .0262709
1078.554 .0262738
1079.133 .0262746
1079.711 .0262732
1080.290 .0262680
1080.869 .0262612
1081.448 .0262506
1082.027 .0262373
1082.606 .0262233
1083.185 .0262096
1083.764 .0261962
1084.343 .0261865
1084.923 .0261782
1085.502 .0261717
1086.082 .0261658
1086.662 .0261622
1087.242 .0261578
1087.822 .0261547
1088.402 .0261508
1088.983 .0261467
1089.563 .0261421
1090.144 .0261382
1090.725 .0261355
1091.306 .0261369
1091.887 .0261428
1092.469 .0261545
1093.050 .0261720
1093.632 .0261970
1094.214 .0262256
1094.796 .0262575
1095.379 .0262888
1095.961 .0263207
1096.544 .0263499
1097.127 .0263761
1097.710 .0264000
1098.294 .0264237
1098.877 .0264473
1099.461 .0264709
1100.046 .0264937
1100.630 .0265149
1101.215 .0265323
1101.800 .0265451
1102.385 .0265505
1102.970 .0265505
1103.556 .0265459
1104.142 .0265398
1104.728 .0265350
1105.315 .0265342
1105.902 .0265361
1106.489 .0265433
1107.077 .0265560
1107.664 .0265722
1108.253 .0265897
1108.841 .0266069
1109.430 .0266236
1110.019 .0266386
1110.609 .0266522
1111.198 .0266646
1111.789 .0266765
1112.379 .0266918
1112.970 .0267086
1113.561 .0267255
1114.153 .0267443
1114.745 .0267654
1115.338 .0267884
1115.931 .0268108
1116.524 .0268308
1117.117 .0268497
1117.712 .0268692
1118.306 .0268901
1118.901 .0269121
1119.496 .0269380
1120.092 .0269706
1120.689 .0270075
1121.285 .0270468
1121.882 .0270889
1122.480 .0271304
1123.078 .0271740
1123.677 .0272168
1124.276 .0272589
1124.875 .0273042
1125.476 .0273518
1126.076 .0274038
1126.677 .0274617
1127.279 .0275214
1127.881 .0275805
1128.484 .0276389
1129.087 .0276982
1129.691 .0277562
1130.295 .0278157
1130.900 .0278795
1131.505 .0279478
1132.111 .0280234
1132.718 .0281045
1133.325 .0281854
1133.933 .0282728
1134.541 .0283639
1135.150 .0284514
1135.760 .0285406
1136.370 .0286332
1136.981 .0287302
1137.592 .0288347
1138.204 .0289491
1138.817 .0290704
1139.431 .0292081
1140.045 .0293731
1140.660 .0295586
1141.275 .0297541
1141.891 .0299793
1142.508 .0301624
1143.126 .0306510
1143.744 .0308678
1144.363 .0307208
1144.983 .0313128
