Measurement Sequence started on: 15-12-46-377
Integration time: 28
Scans to Average: 2 
>>>>>Begin Spectral Data<<<<<
432.689 .0000100
433.621 .0000100
434.552 .0000100
435.482 .0000100
436.410 .0000100
437.337 .0000100
438.262 .0252499
439.187 .0535160
440.110 .0886234
441.031 .1281945
441.952 .1665722
442.871 .1967036
443.789 .2131064
444.705 .2139287
445.621 .2014886
446.535 .1808691
447.447 .1575971
448.359 .1220976
449.269 .1045131
450.178 .0934520
451.086 .0856727
451.993 .0797558
452.898 .0751193
453.803 .0713536
454.706 .0682721
455.608 .0657194
456.508 .0635714
457.408 .0617540
458.306 .0601961
459.204 .0588268
460.100 .0575986
460.995 .0564866
461.888 .0554664
462.781 .0545207
463.673 .0536536
464.563 .0528461
465.452 .0520879
466.340 .0513700
467.228 .0506938
468.114 .0500484
468.999 .0494506
469.882 .0488804
470.765 .0483462
471.647 .0478528
472.528 .0473961
473.407 .0469768
474.286 .0465985
475.163 .0462604
476.040 .0459635
476.915 .0456995
477.790 .0454638
478.663 .0452426
479.535 .0450452
480.407 .0448617
481.277 .0446871
482.147 .0445265
483.015 .0443829
483.883 .0442504
484.749 .0441399
485.615 .0440489
486.479 .0439836
487.343 .0439425
488.206 .0439294
489.067 .0439338
489.928 .0439479
490.788 .0439849
491.647 .0440365
492.505 .0441071
493.362 .0442130
494.218 .0443423
495.073 .0444969
495.928 .0446877
496.781 .0449033
497.634 .0451392
498.486 .0453937
499.337 .0456602
500.187 .0459263
501.036 .0461892
501.884 .0464583
502.731 .0467330
503.578 .0470372
504.424 .0473898
505.268 .0477637
506.113 .0481885
506.956 .0486641
507.798 .0491855
508.640 .0497653
509.480 .0504040
510.320 .0511110
511.160 .0519043
511.998 .0527913
512.836 .0537782
513.672 .0548774
514.508 .0561164
515.344 .0574987
516.178 .0590433
517.012 .0607695
517.845 .0626948
518.677 .0648477
519.508 .0672673
520.339 .0699666
521.169 .0730122
521.998 .0764150
522.826 .0802310
523.654 .0844874
524.481 .0892003
525.307 .0943902
526.133 .1000661
526.958 .1062363
527.782 .1128302
528.605 .1197047
529.428 .1267620
530.250 .1334556
531.072 .1395961
531.892 .1447914
532.712 .1487884
533.532 .1513682
534.350 .1523714
535.168 .1516792
535.986 .1493744
536.802 .1456197
537.618 .1406612
538.434 .1346672
539.249 .1281283
540.063 .1211705
540.876 .1141135
541.689 .1072111
542.501 .1006829
543.313 .0946612
544.124 .0892576
544.934 .0843793
545.744 .0799956
546.553 .0760530
547.361 .0725629
548.169 .0694796
548.976 .0667443
549.783 .0643151
550.589 .0621399
551.395 .0601736
552.200 .0584063
553.004 .0567777
553.808 .0552797
554.611 .0539073
555.414 .0526463
556.216 .0514757
557.018 .0503957
557.819 .0494004
558.619 .0484781
559.419 .0476146
560.218 .0468104
561.017 .0460495
561.815 .0453377
562.613 .0446660
563.410 .0440189
564.207 .0434002
565.003 .0428092
565.799 .0422396
566.594 .0416876
567.388 .0411601
568.182 .0406532
568.976 .0401651
569.769 .0396979
570.562 .0392458
571.354 .0388089
572.145 .0383874
572.936 .0379734
573.727 .0375651
574.517 .0371574
575.307 .0367523
576.096 .0363523
576.885 .0359661
577.673 .0355982
578.461 .0352546
579.248 .0349376
580.035 .0346483
580.821 .0343831
581.607 .0341419
582.392 .0339220
583.177 .0337230
583.962 .0335443
584.746 .0333863
585.529 .0332425
586.313 .0331153
587.095 .0329996
587.878 .0328957
588.660 .0328009
589.441 .0327153
590.222 .0326368
591.003 .0325666
591.783 .0325024
592.563 .0324436
593.342 .0323891
594.121 .0323359
594.899 .0322813
595.678 .0322251
596.455 .0321669
597.233 .0321063
598.009 .0320436
598.786 .0319812
599.562 .0319191
600.338 .0318599
601.113 .0318028
601.888 .0317472
602.663 .0316938
603.437 .0316416
604.211 .0315889
604.984 .0315368
605.757 .0314842
606.530 .0314314
607.302 .0313798
608.074 .0313293
608.845 .0312807
609.616 .0312340
610.387 .0311902
611.158 .0311492
611.928 .0311096
612.697 .0310717
613.467 .0310345
614.236 .0309990
615.004 .0309650
615.773 .0309315
616.541 .0308995
617.308 .0308689
618.076 .0308393
618.843 .0308116
619.609 .0307852
620.375 .0307604
621.141 .0307377
621.907 .0307165
622.672 .0306973
623.437 .0306794
624.202 .0306628
624.966 .0306477
625.730 .0306334
626.493 .0306192
627.257 .0306040
628.020 .0305887
628.782 .0305739
629.545 .0305588
630.307 .0305442
631.068 .0305308
631.830 .0305187
632.591 .0305081
633.352 .0304990
634.112 .0304908
634.872 .0304829
635.632 .0304749
636.392 .0304662
637.151 .0304563
637.910 .0304460
638.668 .0304353
639.427 .0304239
640.185 .0304124
640.943 .0304003
641.700 .0303863
642.457 .0303716
643.214 .0303555
643.971 .0303374
644.727 .0303180
645.483 .0302975
646.239 .0302767
646.994 .0302558
647.750 .0302351
648.505 .0302150
649.259 .0301955
650.014 .0301766
650.768 .0301572
651.521 .0301377
652.275 .0301182
653.028 .0300983
653.781 .0300780
654.534 .0300571
655.286 .0300349
656.039 .0300112
656.791 .0299855
657.542 .0299573
658.294 .0299263
659.045 .0298930
659.796 .0298575
660.546 .0298201
661.297 .0297813
662.047 .0297418
662.796 .0297016
663.546 .0296626
664.295 .0296243
665.044 .0295869
665.793 .0295513
666.542 .0295174
667.290 .0294851
668.038 .0294551
668.786 .0294270
669.533 .0294003
670.281 .0293749
671.028 .0293509
671.774 .0293270
672.521 .0293037
673.267 .0292811
674.013 .0292587
674.759 .0292362
675.505 .0292132
676.250 .0291891
676.995 .0291644
677.740 .0291392
678.484 .0291134
679.229 .0290874
679.973 .0290623
680.717 .0290378
681.460 .0290142
682.204 .0289920
682.947 .0289712
683.690 .0289520
684.433 .0289339
685.175 .0289166
685.917 .0289004
686.659 .0288853
687.401 .0288716
688.142 .0288596
688.884 .0288492
689.625 .0288398
690.365 .0288311
691.106 .0288222
691.846 .0288125
692.586 .0288014
693.326 .0287889
694.066 .0287752
694.805 .0287606
695.545 .0287455
696.284 .0287306
697.022 .0287164
697.761 .0287032
698.499 .0286906
699.237 .0286789
699.975 .0286676
700.713 .0286569
701.450 .0286470
702.187 .0286383
702.924 .0286313
703.661 .0286266
704.397 .0286239
705.133 .0286234
705.869 .0286243
706.605 .0286262
707.341 .0286281
708.076 .0286292
708.811 .0286286
709.546 .0286261
710.281 .0286217
711.015 .0286153
711.749 .0286073
712.483 .0285980
713.217 .0285875
713.950 .0285761
714.684 .0285635
715.417 .0285494
716.150 .0285340
716.882 .0285172
717.615 .0284989
718.347 .0284796
719.079 .0284598
719.811 .0284400
720.542 .0284208
721.273 .0284024
722.005 .0283849
722.735 .0283682
723.466 .0283522
724.196 .0283359
724.927 .0283188
725.656 .0283008
726.386 .0282810
727.116 .0282599
727.845 .0282373
728.574 .0282133
729.303 .0281885
730.031 .0281636
730.760 .0281386
731.488 .0281132
732.216 .0280877
732.944 .0280617
733.671 .0280353
734.398 .0280087
735.125 .0279818
735.852 .0279547
736.579 .0279284
737.305 .0279030
738.031 .0278784
738.757 .0278549
739.483 .0278323
740.208 .0278099
740.933 .0277877
741.658 .0277650
742.383 .0277417
743.108 .0277180
743.832 .0276945
744.556 .0276708
745.280 .0276475
746.004 .0276249
746.727 .0276028
747.450 .0275813
748.173 .0275599
748.896 .0275382
749.618 .0275160
750.340 .0274936
751.062 .0274705
751.784 .0274473
752.506 .0274246
753.227 .0274028
753.948 .0273823
754.669 .0273630
755.389 .0273444
756.110 .0273266
756.830 .0273095
757.550 .0272927
758.269 .0272760
758.989 .0272595
759.708 .0272428
760.427 .0272266
761.146 .0272107
761.864 .0271953
762.582 .0271807
763.300 .0271671
764.018 .0271546
764.736 .0271429
765.453 .0271324
766.170 .0271231
766.887 .0271150
767.603 .0271083
768.320 .0271021
769.036 .0270971
769.751 .0270927
770.467 .0270886
771.182 .0270852
771.897 .0270819
772.612 .0270792
773.327 .0270773
774.041 .0270761
774.755 .0270756
775.469 .0270758
776.183 .0270772
776.896 .0270798
777.609 .0270837
778.322 .0270885
779.035 .0270942
779.747 .0271010
780.459 .0271095
781.171 .0271189
781.882 .0271298
782.594 .0271419
783.305 .0271555
784.016 .0271704
784.726 .0271864
785.436 .0272031
786.147 .0272200
786.856 .0272364
787.566 .0272523
788.275 .0272666
788.984 .0272797
789.693 .0272909
790.401 .0273005
791.110 .0273086
791.818 .0273153
792.525 .0273204
793.233 .0273242
793.940 .0273267
794.647 .0273276
795.353 .0273263
796.060 .0273233
796.766 .0273184
797.472 .0273116
798.177 .0273033
798.883 .0272937
799.588 .0272833
800.292 .0272723
800.997 .0272610
801.701 .0272490
802.405 .0272367
803.109 .0272241
803.812 .0272104
804.515 .0271962
805.218 .0271810
805.921 .0271646
806.623 .0271472
807.325 .0271287
808.027 .0271094
808.728 .0270890
809.429 .0270680
810.130 .0270463
810.831 .0270245
811.531 .0270026
812.231 .0269805
812.931 .0269579
813.630 .0269347
814.330 .0269103
815.029 .0268846
815.727 .0268573
816.426 .0268286
817.124 .0267985
817.821 .0267672
818.519 .0267356
819.216 .0267045
819.913 .0266737
820.609 .0266439
821.306 .0266150
822.002 .0265870
822.697 .0265593
823.393 .0265320
824.088 .0265049
824.783 .0264775
825.477 .0264500
826.171 .0264225
826.865 .0263955
827.559 .0263691
828.252 .0263436
828.945 .0263193
829.638 .0262961
830.330 .0262737
831.023 .0262517
831.714 .0262305
832.406 .0262096
833.097 .0261887
833.788 .0261676
834.479 .0261463
835.169 .0261251
835.859 .0261045
836.548 .0260846
837.238 .0260661
837.927 .0260488
838.615 .0260323
839.304 .0260164
839.992 .0260010
840.680 .0259854
841.367 .0259699
842.054 .0259543
842.741 .0259387
843.428 .0259233
844.114 .0259089
844.800 .0258954
845.485 .0258828
846.170 .0258703
846.855 .0258575
847.540 .0258437
848.224 .0258290
848.908 .0258131
849.592 .0257967
850.275 .0257805
850.958 .0257648
851.641 .0257502
852.323 .0257371
853.005 .0257255
853.687 .0257152
854.368 .0257055
855.049 .0256959
855.730 .0256856
856.410 .0256749
857.090 .0256641
857.769 .0256540
858.449 .0256447
859.128 .0256370
859.806 .0256313
860.485 .0256275
861.163 .0256251
861.840 .0256241
862.518 .0256239
863.195 .0256242
863.871 .0256243
864.548 .0256242
865.224 .0256242
865.899 .0256247
866.574 .0256259
867.249 .0256280
867.924 .0256313
868.598 .0256361
869.272 .0256417
869.946 .0256486
870.619 .0256563
871.292 .0256642
871.964 .0256724
872.636 .0256806
873.308 .0256887
873.979 .0256975
874.651 .0257071
875.321 .0257177
875.992 .0257297
876.662 .0257430
877.331 .0257575
878.001 .0257728
878.670 .0257887
879.338 .0258040
880.007 .0258190
880.675 .0258335
881.342 .0258472
882.009 .0258602
882.676 .0258727
883.343 .0258847
884.009 .0258965
884.675 .0259077
885.340 .0259184
886.005 .0259285
886.670 .0259386
887.334 .0259479
887.998 .0259569
888.662 .0259657
889.325 .0259748
889.988 .0259843
890.650 .0259945
891.312 .0260048
891.974 .0260159
892.636 .0260275
893.297 .0260392
893.957 .0260511
894.618 .0260631
895.278 .0260747
895.937 .0260864
896.596 .0260979
897.255 .0261092
897.914 .0261198
898.572 .0261297
899.230 .0261381
899.887 .0261443
900.544 .0261481
901.201 .0261490
901.857 .0261470
902.513 .0261425
903.168 .0261352
903.823 .0261259
904.478 .0261153
905.132 .0261032
905.786 .0260898
906.440 .0260754
907.093 .0260599
907.746 .0260426
908.399 .0260235
909.051 .0260031
909.703 .0259817
910.354 .0259595
911.005 .0259371
911.656 .0259148
912.306 .0258934
912.956 .0258721
913.605 .0258508
914.254 .0258292
914.903 .0258071
915.551 .0257842
916.199 .0257608
916.847 .0257368
917.494 .0257124
918.141 .0256875
918.788 .0256626
919.434 .0256372
920.079 .0256112
920.725 .0255840
921.370 .0255557
922.014 .0255265
922.658 .0254960
923.302 .0254642
923.946 .0254321
924.589 .0253992
925.231 .0253657
925.873 .0253310
926.515 .0252954
927.157 .0252587
927.798 .0252213
928.439 .0251828
929.079 .0251435
929.719 .0251032
930.359 .0250624
930.998 .0250208
931.637 .0249789
932.275 .0249369
932.913 .0248950
933.551 .0248532
934.188 .0248117
934.825 .0247707
935.462 .0247308
936.098 .0246922
936.733 .0246556
937.369 .0246202
938.004 .0245861
938.638 .0245529
939.273 .0245202
939.907 .0244884
940.540 .0244574
941.173 .0244273
941.806 .0243986
942.438 .0243712
943.070 .0243451
943.702 .0243203
944.333 .0242969
944.964 .0242746
945.594 .0242528
946.224 .0242311
946.854 .0242096
947.483 .0241884
948.112 .0241678
948.741 .0241473
949.369 .0241279
949.996 .0241093
950.624 .0240913
951.251 .0240741
951.878 .0240572
952.504 .0240406
953.130 .0240243
953.755 .0240077
954.380 .0239903
955.005 .0239722
955.629 .0239535
956.253 .0239341
956.877 .0239148
957.500 .0238958
958.123 .0238770
958.746 .0238594
959.368 .0238428
959.990 .0238269
960.611 .0238120
961.232 .0237979
961.853 .0237845
962.473 .0237718
963.093 .0237593
963.712 .0237469
964.331 .0237348
964.950 .0237234
965.569 .0237129
966.187 .0237033
966.804 .0236951
967.422 .0236889
968.039 .0236843
968.655 .0236812
969.272 .0236789
969.887 .0236778
970.503 .0236769
971.118 .0236761
971.733 .0236755
972.347 .0236745
972.961 .0236738
973.575 .0236738
974.188 .0236742
974.801 .0236752
975.414 .0236770
976.026 .0236792
976.638 .0236818
977.250 .0236854
977.861 .0236889
978.472 .0236929
979.083 .0236972
979.693 .0237017
980.303 .0237057
980.912 .0237100
981.521 .0237138
982.130 .0237177
982.738 .0237221
983.346 .0237266
983.954 .0237316
984.562 .0237377
985.169 .0237447
985.775 .0237528
986.382 .0237613
986.988 .0237704
987.594 .0237793
988.199 .0237880
988.804 .0237965
989.409 .0238051
990.013 .0238145
990.617 .0238252
991.221 .0238371
991.824 .0238514
992.427 .0238674
993.030 .0238849
993.632 .0239037
994.234 .0239235
994.836 .0239433
995.438 .0239635
996.039 .0239840
996.640 .0240053
997.240 .0240277
997.840 .0240516
998.440 .0240766
999.040 .0241026
999.639 .0241289
1000.238 .0241544
1000.836 .0241785
1001.435 .0242017
1002.033 .0242232
1002.630 .0242436
1003.228 .0242637
1003.825 .0242842
1004.422 .0243058
1005.018 .0243291
1005.614 .0243537
1006.210 .0243791
1006.806 .0244049
1007.401 .0244300
1007.996 .0244536
1008.591 .0244757
1009.186 .0244970
1009.780 .0245172
1010.374 .0245368
1010.967 .0245563
1011.561 .0245754
1012.154 .0245939
1012.746 .0246118
1013.339 .0246283
1013.931 .0246435
1014.523 .0246569
1015.115 .0246687
1015.706 .0246791
1016.298 .0246891
1016.888 .0246990
1017.479 .0247089
1018.069 .0247194
1018.660 .0247309
1019.250 .0247424
1019.839 .0247543
1020.429 .0247662
1021.018 .0247782
1021.607 .0247906
1022.195 .0248034
1022.784 .0248169
1023.372 .0248310
1023.960 .0248465
1024.547 .0248627
1025.135 .0248796
1025.722 .0248968
1026.309 .0249133
1026.896 .0249292
1027.483 .0249441
1028.069 .0249575
1028.655 .0249699
1029.241 .0249819
1029.827 .0249937
1030.412 .0250056
1030.997 .0250181
1031.582 .0250298
1032.167 .0250412
1032.752 .0250523
1033.336 .0250628
1033.921 .0250719
1034.505 .0250806
1035.089 .0250880
1035.672 .0250949
1036.256 .0251012
1036.839 .0251069
1037.422 .0251113
1038.005 .0251158
1038.588 .0251190
1039.171 .0251204
1039.753 .0251203
1040.335 .0251192
1040.918 .0251163
1041.500 .0251130
1042.081 .0251087
1042.663 .0251033
1043.244 .0250970
1043.826 .0250901
1044.407 .0250811
1044.988 .0250707
1045.569 .0250588
1046.150 .0250452
1046.730 .0250299
1047.311 .0250146
1047.891 .0249978
1048.471 .0249815
1049.052 .0249654
1049.632 .0249491
1050.211 .0249331
1050.791 .0249171
1051.371 .0249010
1051.950 .0248852
1052.530 .0248692
1053.109 .0248541
1053.688 .0248381
1054.268 .0248234
1054.847 .0248089
1055.426 .0247946
1056.005 .0247816
1056.583 .0247689
1057.162 .0247566
1057.741 .0247451
1058.319 .0247327
1058.898 .0247202
1059.476 .0247066
1060.055 .0246918
1060.633 .0246758
1061.211 .0246584
1061.790 .0246408
1062.368 .0246222
1062.946 .0246035
1063.524 .0245855
1064.102 .0245669
1064.680 .0245495
1065.258 .0245320
1065.836 .0245145
1066.414 .0244981
1066.992 .0244821
1067.570 .0244675
1068.148 .0244541
1068.726 .0244427
1069.304 .0244331
1069.882 .0244242
1070.460 .0244165
1071.038 .0244082
1071.616 .0243991
1072.194 .0243887
1072.772 .0243762
1073.350 .0243623
1073.928 .0243477
1074.506 .0243312
1075.084 .0243135
1075.662 .0242950
1076.240 .0242762
1076.819 .0242558
1077.397 .0242344
1077.976 .0242134
1078.554 .0241921
1079.133 .0241721
1079.711 .0241542
1080.290 .0241376
1080.869 .0241240
1081.448 .0241111
1082.027 .0240999
1082.606 .0240883
1083.185 .0240768
1083.764 .0240651
1084.343 .0240537
1084.923 .0240428
1085.502 .0240325
1086.082 .0240218
1086.662 .0240124
1087.242 .0240029
1087.822 .0239929
1088.402 .0239812
1088.983 .0239697
1089.563 .0239564
1090.144 .0239421
1090.725 .0239269
1091.306 .0239123
1091.887 .0238973
1092.469 .0238850
1093.050 .0238746
1093.632 .0238661
1094.214 .0238607
1094.796 .0238577
1095.379 .0238556
1095.961 .0238549
1096.544 .0238543
1097.127 .0238531
1097.710 .0238530
1098.294 .0238547
1098.877 .0238566
1099.461 .0238619
1100.046 .0238718
1100.630 .0238850
1101.215 .0239016
1101.800 .0239205
1102.385 .0239393
1102.970 .0239577
1103.556 .0239755
1104.142 .0239885
1104.728 .0240003
1105.315 .0240126
1105.902 .0240266
1106.489 .0240430
1107.077 .0240643
1107.664 .0240873
1108.253 .0241115
1108.841 .0241353
1109.430 .0241551
1110.019 .0241691
1110.609 .0241791
1111.198 .0241838
1111.789 .0241883
1112.379 .0241916
1112.970 .0241960
1113.561 .0242034
1114.153 .0242175
1114.745 .0242344
1115.338 .0242542
1115.931 .0242772
1116.524 .0243012
1117.117 .0243278
1117.712 .0243569
1118.306 .0243878
1118.901 .0244224
1119.496 .0244587
1120.092 .0244966
1120.689 .0245371
1121.285 .0245826
1121.882 .0246295
1122.480 .0246807
1123.078 .0247386
1123.677 .0247993
1124.276 .0248606
1124.875 .0249245
1125.476 .0249880
1126.076 .0250507
1126.677 .0251129
1127.279 .0251707
1127.881 .0252276
1128.484 .0252874
1129.087 .0253488
1129.691 .0254153
1130.295 .0254907
1130.900 .0255729
1131.505 .0256598
1132.111 .0257535
1132.718 .0258523
1133.325 .0259534
1133.933 .0260592
1134.541 .0261706
1135.150 .0262898
1135.760 .0264188
1136.370 .0265521
1136.981 .0266936
1137.592 .0268433
1138.204 .0269979
1138.817 .0271608
1139.431 .0273285
1140.045 .0275021
1140.660 .0276772
1141.275 .0278565
1141.891 .0280159
1142.508 .0283068
1143.126 .0284603
1143.744 .0284509
1144.363 .0287477
1144.983 .0283593
