Measurement Sequence started on: 15-12-46-377
Integration time: 28
Scans to Average: 2 
>>>>>Begin Spectral Data<<<<<
432.689 .0000100
433.621 .0000100
434.552 .0000100
435.482 .0000100
436.410 .0000100
437.337 .0000100
438.262 .0271209
439.187 .0575064
440.110 .0952025
441.031 .1376734
441.952 .1788751
442.871 .2112182
443.789 .2288175
444.705 .2296446
445.621 .2162309
446.535 .1940224
447.447 .1689449
448.359 .1307187
449.269 .1117341
450.178 .0997921
451.086 .0913810
451.993 .0849474
452.898 .0798747
453.803 .0757292
454.706 .0723084
455.608 .0693835
456.508 .0668581
457.408 .0646571
458.306 .0627140
459.204 .0609727
460.100 .0594263
460.995 .0580438
461.888 .0568071
462.781 .0556965
463.673 .0546938
464.563 .0537869
465.452 .0529554
466.340 .0521716
467.228 .0514508
468.114 .0507766
468.999 .0501491
469.882 .0495555
470.765 .0490110
471.647 .0485130
472.528 .0480609
473.407 .0476466
474.286 .0472719
475.163 .0469367
476.040 .0466365
476.915 .0463669
477.790 .0461221
478.663 .0459004
479.535 .0457020
480.407 .0455207
481.277 .0453644
482.147 .0452222
483.015 .0450975
483.883 .0449869
484.749 .0448908
485.615 .0448096
486.479 .0447435
487.343 .0446965
488.206 .0446742
489.067 .0446721
489.928 .0446844
490.788 .0447124
491.647 .0447571
492.505 .0448148
493.362 .0448964
494.218 .0449908
495.073 .0451002
495.928 .0452322
496.781 .0453870
497.634 .0455635
498.486 .0457596
499.337 .0459801
500.187 .0462208
501.036 .0464810
501.884 .0467555
502.731 .0470420
503.578 .0473606
504.424 .0477053
505.268 .0480670
506.113 .0484560
506.956 .0488867
507.798 .0493555
508.640 .0498778
509.480 .0504768
510.320 .0511570
511.160 .0519360
511.998 .0528204
512.836 .0538280
513.672 .0549632
514.508 .0562326
515.344 .0576323
516.178 .0591853
517.012 .0609162
517.845 .0628384
518.677 .0649990
519.508 .0674438
520.339 .0702132
521.169 .0733483
521.998 .0768532
522.826 .0808174
523.654 .0852671
524.481 .0901933
525.307 .0956779
526.133 .1017022
526.958 .1082304
527.782 .1151999
528.605 .1224228
529.428 .1298358
530.250 .1368972
531.072 .1433890
531.892 .1488955
532.712 .1531521
533.532 .1559689
534.350 .1571238
535.168 .1565495
535.986 .1543211
536.802 .1505023
537.618 .1453614
538.434 .1390731
539.249 .1321253
540.063 .1247139
540.876 .1171954
541.689 .1098515
542.501 .1029187
543.313 .0965272
544.124 .0908180
544.934 .0857175
545.744 .0811978
546.553 .0771494
547.361 .0735342
548.169 .0703489
548.976 .0675095
549.783 .0649957
550.589 .0627867
551.395 .0608239
552.200 .0591073
553.004 .0575654
553.808 .0561907
554.611 .0549673
555.414 .0538769
556.216 .0528806
557.018 .0519928
557.819 .0512007
558.619 .0504672
559.419 .0497722
560.218 .0491269
561.017 .0484893
561.815 .0478409
562.613 .0471773
563.410 .0464907
564.207 .0457846
565.003 .0450780
565.799 .0443685
566.594 .0436671
567.388 .0429927
568.182 .0423397
568.976 .0417090
569.769 .0411101
570.562 .0405432
571.354 .0399919
572.145 .0394728
572.936 .0389813
573.727 .0385079
574.517 .0380603
575.307 .0376366
576.096 .0372360
576.885 .0368590
577.673 .0365030
578.461 .0361685
579.248 .0358515
580.035 .0355572
580.821 .0352752
581.607 .0350085
582.392 .0347556
583.177 .0345168
583.962 .0342932
584.746 .0340890
585.529 .0338999
586.313 .0337284
587.095 .0335711
587.878 .0334274
588.660 .0332961
589.441 .0331776
590.222 .0330701
591.003 .0329729
591.783 .0328864
592.563 .0328088
593.342 .0327373
594.121 .0326697
594.899 .0326046
595.678 .0325397
596.455 .0324746
597.233 .0324088
598.009 .0323430
598.786 .0322799
599.562 .0322202
600.338 .0321647
601.113 .0321135
601.888 .0320651
602.663 .0320183
603.437 .0319720
604.211 .0319265
604.984 .0318799
605.757 .0318336
606.530 .0317874
607.302 .0317423
608.074 .0316996
608.845 .0316608
609.616 .0316258
610.387 .0315951
611.158 .0315679
611.928 .0315435
612.697 .0315200
613.467 .0314976
614.236 .0314751
615.004 .0314522
615.773 .0314294
616.541 .0314061
617.308 .0313827
618.076 .0313606
618.843 .0313397
619.609 .0313208
620.375 .0313036
621.141 .0312877
621.907 .0312717
622.672 .0312554
623.437 .0312377
624.202 .0312180
624.966 .0311961
625.730 .0311721
626.493 .0311462
627.257 .0311193
628.020 .0310921
628.782 .0310653
629.545 .0310396
630.307 .0310150
631.068 .0309906
631.830 .0309661
632.591 .0309409
633.352 .0309148
634.112 .0308878
634.872 .0308604
635.632 .0308326
636.392 .0308051
637.151 .0307773
637.910 .0307497
638.668 .0307221
639.427 .0306948
640.185 .0306677
640.943 .0306403
641.700 .0306124
642.457 .0305839
643.214 .0305545
643.971 .0305246
644.727 .0304949
645.483 .0304653
646.239 .0304361
646.994 .0304069
647.750 .0303781
648.505 .0303497
649.259 .0303225
650.014 .0302970
650.768 .0302725
651.521 .0302492
652.275 .0302266
653.028 .0302045
653.781 .0301834
654.534 .0301632
655.286 .0301435
656.039 .0301246
656.791 .0301063
657.542 .0300876
658.294 .0300686
659.045 .0300500
659.796 .0300310
660.546 .0300113
661.297 .0299905
662.047 .0299691
662.796 .0299469
663.546 .0299257
664.295 .0299057
665.044 .0298866
665.793 .0298691
666.542 .0298527
667.290 .0298364
668.038 .0298208
668.786 .0298055
669.533 .0297904
670.281 .0297758
671.028 .0297621
671.774 .0297484
672.521 .0297354
673.267 .0297240
674.013 .0297129
674.759 .0297012
675.505 .0296891
676.250 .0296751
676.995 .0296595
677.740 .0296431
678.484 .0296254
679.229 .0296072
679.973 .0295892
680.717 .0295709
681.460 .0295523
682.204 .0295334
682.947 .0295140
683.690 .0294940
684.433 .0294739
685.175 .0294535
685.917 .0294334
686.659 .0294152
687.401 .0293987
688.142 .0293840
688.884 .0293707
689.625 .0293583
690.365 .0293451
691.106 .0293309
691.846 .0293151
692.586 .0292969
693.326 .0292768
694.066 .0292555
694.805 .0292331
695.545 .0292102
696.284 .0291871
697.022 .0291641
697.761 .0291406
698.499 .0291167
699.237 .0290918
699.975 .0290659
700.713 .0290394
701.450 .0290127
702.187 .0289860
702.924 .0289601
703.661 .0289355
704.397 .0289122
705.133 .0288902
705.869 .0288697
706.605 .0288501
707.341 .0288313
708.076 .0288134
708.811 .0287961
709.546 .0287786
710.281 .0287611
711.015 .0287432
711.749 .0287243
712.483 .0287044
713.217 .0286832
713.950 .0286608
714.684 .0286371
715.417 .0286128
716.150 .0285883
716.882 .0285641
717.615 .0285409
718.347 .0285187
719.079 .0284976
719.811 .0284777
720.542 .0284589
721.273 .0284410
722.005 .0284237
722.735 .0284070
723.466 .0283901
724.196 .0283735
724.927 .0283568
725.656 .0283398
726.386 .0283230
727.116 .0283065
727.845 .0282903
728.574 .0282741
729.303 .0282583
730.031 .0282431
730.760 .0282284
731.488 .0282143
732.216 .0282006
732.944 .0281879
733.671 .0281757
734.398 .0281644
735.125 .0281543
735.852 .0281455
736.579 .0281384
737.305 .0281329
738.031 .0281291
738.757 .0281265
739.483 .0281250
740.208 .0281240
740.933 .0281234
741.658 .0281224
742.383 .0281209
743.108 .0281185
743.832 .0281156
744.556 .0281124
745.280 .0281080
746.004 .0281031
746.727 .0280979
747.450 .0280926
748.173 .0280871
748.896 .0280814
749.618 .0280763
750.340 .0280717
751.062 .0280682
751.784 .0280654
752.506 .0280631
753.227 .0280616
753.948 .0280601
754.669 .0280579
755.389 .0280547
756.110 .0280500
756.830 .0280439
757.550 .0280364
758.269 .0280279
758.989 .0280180
759.708 .0280072
760.427 .0279960
761.146 .0279844
761.864 .0279720
762.582 .0279586
763.300 .0279441
764.018 .0279290
764.736 .0279129
765.453 .0278957
766.170 .0278784
766.887 .0278613
767.603 .0278450
768.320 .0278289
769.036 .0278135
769.751 .0277991
770.467 .0277853
771.182 .0277717
771.897 .0277581
772.612 .0277439
773.327 .0277292
774.041 .0277137
774.755 .0276974
775.469 .0276804
776.183 .0276630
776.896 .0276453
777.609 .0276281
778.322 .0276112
779.035 .0275946
779.747 .0275782
780.459 .0275627
781.171 .0275474
781.882 .0275322
782.594 .0275170
783.305 .0275023
784.016 .0274879
784.726 .0274739
785.436 .0274600
786.147 .0274466
786.856 .0274334
787.566 .0274205
788.275 .0274074
788.984 .0273945
789.693 .0273813
790.401 .0273682
791.110 .0273541
791.818 .0273397
792.525 .0273242
793.233 .0273075
793.940 .0272895
794.647 .0272702
795.353 .0272495
796.060 .0272280
796.766 .0272057
797.472 .0271829
798.177 .0271597
798.883 .0271370
799.588 .0271141
800.292 .0270918
800.997 .0270697
801.701 .0270479
802.405 .0270264
803.109 .0270056
803.812 .0269855
804.515 .0269663
805.218 .0269476
805.921 .0269296
806.623 .0269119
807.325 .0268950
808.027 .0268782
808.728 .0268620
809.429 .0268460
810.130 .0268305
810.831 .0268149
811.531 .0267999
812.231 .0267851
812.931 .0267705
813.630 .0267556
814.330 .0267399
815.029 .0267236
815.727 .0267065
816.426 .0266890
817.124 .0266720
817.821 .0266552
818.519 .0266398
819.216 .0266261
819.913 .0266145
820.609 .0266047
821.306 .0265969
822.002 .0265910
822.697 .0265866
823.393 .0265835
824.088 .0265814
824.783 .0265804
825.477 .0265808
826.171 .0265825
826.865 .0265853
827.559 .0265900
828.252 .0265964
828.945 .0266040
829.638 .0266129
830.330 .0266225
831.023 .0266323
831.714 .0266420
832.406 .0266512
833.097 .0266599
833.788 .0266680
834.479 .0266758
835.169 .0266833
835.859 .0266913
836.548 .0266995
837.238 .0267083
837.927 .0267179
838.615 .0267281
839.304 .0267387
839.992 .0267495
840.680 .0267605
841.367 .0267715
842.054 .0267820
842.741 .0267920
843.428 .0268014
844.114 .0268101
844.800 .0268179
845.485 .0268247
846.170 .0268303
846.855 .0268346
847.540 .0268370
848.224 .0268383
848.908 .0268380
849.592 .0268367
850.275 .0268345
850.958 .0268314
851.641 .0268277
852.323 .0268231
853.005 .0268176
853.687 .0268115
854.368 .0268041
855.049 .0267954
855.730 .0267854
856.410 .0267743
857.090 .0267623
857.769 .0267497
858.449 .0267369
859.128 .0267239
859.806 .0267110
860.485 .0266984
861.163 .0266853
861.840 .0266725
862.518 .0266592
863.195 .0266448
863.871 .0266299
864.548 .0266143
865.224 .0265980
865.899 .0265814
866.574 .0265651
867.249 .0265487
867.924 .0265326
868.598 .0265167
869.272 .0265009
869.946 .0264852
870.619 .0264692
871.292 .0264525
871.964 .0264349
872.636 .0264169
873.308 .0263983
873.979 .0263793
874.651 .0263607
875.321 .0263426
875.992 .0263250
876.662 .0263081
877.331 .0262916
878.001 .0262753
878.670 .0262589
879.338 .0262421
880.007 .0262245
880.675 .0262064
881.342 .0261879
882.009 .0261696
882.676 .0261522
883.343 .0261355
884.009 .0261194
884.675 .0261041
885.340 .0260891
886.005 .0260735
886.670 .0260575
887.334 .0260410
887.998 .0260239
888.662 .0260067
889.325 .0259893
889.988 .0259724
890.650 .0259566
891.312 .0259422
891.974 .0259285
892.636 .0259160
893.297 .0259043
893.957 .0258927
894.618 .0258809
895.278 .0258690
895.937 .0258565
896.596 .0258437
897.255 .0258304
897.914 .0258165
898.572 .0258018
899.230 .0257869
899.887 .0257713
900.544 .0257554
901.201 .0257389
901.857 .0257219
902.513 .0257037
903.168 .0256848
903.823 .0256643
904.478 .0256423
905.132 .0256185
905.786 .0255937
906.440 .0255678
907.093 .0255412
907.746 .0255141
908.399 .0254869
909.051 .0254597
909.703 .0254323
910.354 .0254046
911.005 .0253768
911.656 .0253489
912.306 .0253209
912.956 .0252925
913.605 .0252647
914.254 .0252380
914.903 .0252122
915.551 .0251878
916.199 .0251647
916.847 .0251427
917.494 .0251213
918.141 .0251003
918.788 .0250800
919.434 .0250604
920.079 .0250414
920.725 .0250231
921.370 .0250055
922.014 .0249892
922.658 .0249738
923.302 .0249589
923.946 .0249446
924.589 .0249301
925.231 .0249150
925.873 .0248990
926.515 .0248819
927.157 .0248640
927.798 .0248454
928.439 .0248265
929.079 .0248073
929.719 .0247881
930.359 .0247693
930.998 .0247507
931.637 .0247328
932.275 .0247159
932.913 .0246999
933.551 .0246858
934.188 .0246736
934.825 .0246640
935.462 .0246569
936.098 .0246524
936.733 .0246507
937.369 .0246513
938.004 .0246541
938.638 .0246583
939.273 .0246639
939.907 .0246708
940.540 .0246791
941.173 .0246887
941.806 .0247000
942.438 .0247129
943.070 .0247273
943.702 .0247425
944.333 .0247577
944.964 .0247728
945.594 .0247874
946.224 .0248004
946.854 .0248121
947.483 .0248226
948.112 .0248326
948.741 .0248420
949.369 .0248518
949.996 .0248623
950.624 .0248734
951.251 .0248847
951.878 .0248960
952.504 .0249067
953.130 .0249169
953.755 .0249258
954.380 .0249335
955.005 .0249396
955.629 .0249450
956.253 .0249494
956.877 .0249536
957.500 .0249583
958.123 .0249632
958.746 .0249685
959.368 .0249744
959.990 .0249803
960.611 .0249860
961.232 .0249917
961.853 .0249971
962.473 .0250024
963.093 .0250074
963.712 .0250127
964.331 .0250183
964.950 .0250247
965.569 .0250320
966.187 .0250398
966.804 .0250487
967.422 .0250586
968.039 .0250686
968.655 .0250794
969.272 .0250898
969.887 .0251001
970.503 .0251093
971.118 .0251175
971.733 .0251245
972.347 .0251303
972.961 .0251350
973.575 .0251394
974.188 .0251430
974.801 .0251463
975.414 .0251488
976.026 .0251507
976.638 .0251516
977.250 .0251514
977.861 .0251497
978.472 .0251471
979.083 .0251432
979.693 .0251386
980.303 .0251330
980.912 .0251273
981.521 .0251217
982.130 .0251160
982.738 .0251101
983.346 .0251040
983.954 .0250972
984.562 .0250895
985.169 .0250807
985.775 .0250710
986.382 .0250601
986.988 .0250486
987.594 .0250367
988.199 .0250249
988.804 .0250139
989.409 .0250035
990.013 .0249941
990.617 .0249854
991.221 .0249778
991.824 .0249704
992.427 .0249644
993.030 .0249594
993.632 .0249548
994.234 .0249515
994.836 .0249491
995.438 .0249467
996.039 .0249446
996.640 .0249424
997.240 .0249403
997.840 .0249382
998.440 .0249363
999.040 .0249334
999.639 .0249307
1000.238 .0249270
1000.836 .0249219
1001.435 .0249153
1002.033 .0249072
1002.630 .0248968
1003.228 .0248843
1003.825 .0248705
1004.422 .0248550
1005.018 .0248387
1005.614 .0248222
1006.210 .0248050
1006.806 .0247886
1007.401 .0247720
1007.996 .0247551
1008.591 .0247385
1009.186 .0247224
1009.780 .0247062
1010.374 .0246900
1010.967 .0246746
1011.561 .0246593
1012.154 .0246441
1012.746 .0246293
1013.339 .0246150
1013.931 .0246014
1014.523 .0245887
1015.115 .0245770
1015.706 .0245663
1016.298 .0245561
1016.888 .0245460
1017.479 .0245358
1018.069 .0245256
1018.660 .0245142
1019.250 .0245018
1019.839 .0244882
1020.429 .0244742
1021.018 .0244596
1021.607 .0244447
1022.195 .0244303
1022.784 .0244170
1023.372 .0244045
1023.960 .0243929
1024.547 .0243823
1025.135 .0243727
1025.722 .0243639
1026.309 .0243566
1026.896 .0243504
1027.483 .0243446
1028.069 .0243387
1028.655 .0243331
1029.241 .0243277
1029.827 .0243228
1030.412 .0243182
1030.997 .0243147
1031.582 .0243121
1032.167 .0243103
1032.752 .0243084
1033.336 .0243064
1033.921 .0243039
1034.505 .0242997
1035.089 .0242932
1035.672 .0242851
1036.256 .0242749
1036.839 .0242622
1037.422 .0242485
1038.005 .0242345
1038.588 .0242201
1039.171 .0242054
1039.753 .0241904
1040.335 .0241756
1040.918 .0241602
1041.500 .0241437
1042.081 .0241262
1042.663 .0241083
1043.244 .0240902
1043.826 .0240716
1044.407 .0240538
1044.988 .0240373
1045.569 .0240222
1046.150 .0240092
1046.730 .0239988
1047.311 .0239900
1047.891 .0239827
1048.471 .0239760
1049.052 .0239699
1049.632 .0239636
1050.211 .0239567
1050.791 .0239494
1051.371 .0239426
1051.950 .0239370
1052.530 .0239312
1053.109 .0239254
1053.688 .0239207
1054.268 .0239155
1054.847 .0239094
1055.426 .0239018
1056.005 .0238922
1056.583 .0238806
1057.162 .0238678
1057.741 .0238543
1058.319 .0238414
1058.898 .0238296
1059.476 .0238192
1060.055 .0238103
1060.633 .0238027
1061.211 .0237960
1061.790 .0237894
1062.368 .0237845
1062.946 .0237803
1063.524 .0237764
1064.102 .0237731
1064.680 .0237704
1065.258 .0237691
1065.836 .0237687
1066.414 .0237698
1066.992 .0237731
1067.570 .0237776
1068.148 .0237836
1068.726 .0237904
1069.304 .0237988
1069.882 .0238082
1070.460 .0238180
1071.038 .0238287
1071.616 .0238387
1072.194 .0238484
1072.772 .0238578
1073.350 .0238676
1073.928 .0238779
1074.506 .0238888
1075.084 .0239001
1075.662 .0239114
1076.240 .0239230
1076.819 .0239345
1077.397 .0239461
1077.976 .0239578
1078.554 .0239692
1079.133 .0239799
1079.711 .0239901
1080.290 .0240000
1080.869 .0240087
1081.448 .0240170
1082.027 .0240246
1082.606 .0240316
1083.185 .0240371
1083.764 .0240427
1084.343 .0240488
1084.923 .0240555
1085.502 .0240653
1086.082 .0240775
1086.662 .0240933
1087.242 .0241124
1087.822 .0241342
1088.402 .0241587
1088.983 .0241840
1089.563 .0242096
1090.144 .0242351
1090.725 .0242601
1091.306 .0242846
1091.887 .0243073
1092.469 .0243305
1093.050 .0243559
1093.632 .0243813
1094.214 .0244085
1094.796 .0244363
1095.379 .0244633
1095.961 .0244905
1096.544 .0245154
1097.127 .0245400
1097.710 .0245655
1098.294 .0245929
1098.877 .0246228
1099.461 .0246558
1100.046 .0246925
1100.630 .0247307
1101.215 .0247705
1101.800 .0248116
1102.385 .0248508
1102.970 .0248888
1103.556 .0249261
1104.142 .0249621
1104.728 .0250002
1105.315 .0250413
1105.902 .0250832
1106.489 .0251277
1107.077 .0251722
1107.664 .0252152
1108.253 .0252570
1108.841 .0252978
1109.430 .0253357
1110.019 .0253712
1110.609 .0254047
1111.198 .0254339
1111.789 .0254604
1112.379 .0254868
1112.970 .0255125
1113.561 .0255397
1114.153 .0255718
1114.745 .0256082
1115.338 .0256489
1115.931 .0256969
1116.524 .0257477
1117.117 .0258035
1117.712 .0258606
1118.306 .0259165
1118.901 .0259693
1119.496 .0260214
1120.092 .0260745
1120.689 .0261294
1121.285 .0261912
1121.882 .0262601
1122.480 .0263355
1123.078 .0264154
1123.677 .0264962
1124.276 .0265741
1124.875 .0266464
1125.476 .0267103
1126.076 .0267645
1126.677 .0268124
1127.279 .0268536
1127.881 .0268946
1128.484 .0269377
1129.087 .0269851
1129.691 .0270381
1130.295 .0270920
1130.900 .0271501
1131.505 .0272074
1132.111 .0272656
1132.718 .0273202
1133.325 .0273746
1133.933 .0274328
1134.541 .0274917
1135.150 .0275546
1135.760 .0276273
1136.370 .0277050
1136.981 .0277910
1137.592 .0278804
1138.204 .0279721
1138.817 .0280609
1139.431 .0281545
1140.045 .0282575
1140.660 .0283724
1141.275 .0285051
1141.891 .0286492
1142.508 .0287055
1143.126 .0291004
1143.744 .0292822
1144.363 .0294654
1144.983 .0293811
