Measurement Sequence started on: 15-12-46-377
Integration time: 28
Scans to Average: 2 
>>>>>Begin Spectral Data<<<<<
432.689 .0000100
433.621 .0000100
434.552 .0000100
435.482 .0000100
436.410 .0000100
437.337 .0000100
438.262 .0288807
439.187 .0610997
440.110 .1011924
441.031 .1463188
441.952 .1900533
442.871 .2243384
443.789 .2429002
444.705 .2436430
445.621 .2292307
446.535 .2054927
447.447 .1787519
448.359 .1380702
449.269 .1180104
450.178 .1053836
451.086 .0966089
451.993 .0899850
452.898 .0848221
453.803 .0806580
454.706 .0772128
455.608 .0742835
456.508 .0717471
457.408 .0695296
458.306 .0675493
459.204 .0657638
460.100 .0641464
460.995 .0627065
461.888 .0614118
462.781 .0602424
463.673 .0591829
464.563 .0582215
465.452 .0573295
466.340 .0564636
467.228 .0556327
468.114 .0548322
468.999 .0540604
469.882 .0533314
470.765 .0526500
471.647 .0520311
472.528 .0514788
473.407 .0509948
474.286 .0505743
475.163 .0502132
476.040 .0499004
476.915 .0496357
477.790 .0494127
478.663 .0492247
479.535 .0490705
480.407 .0489534
481.277 .0488768
482.147 .0488332
483.015 .0488168
483.883 .0488300
484.749 .0488622
485.615 .0489122
486.479 .0489674
487.343 .0490274
488.206 .0490933
489.067 .0491571
489.928 .0492125
490.788 .0492677
491.647 .0493195
492.505 .0493651
493.362 .0494127
494.218 .0494658
495.073 .0495238
495.928 .0495969
496.781 .0496856
497.634 .0497991
498.486 .0499437
499.337 .0501262
500.187 .0503434
501.036 .0505984
501.884 .0508935
502.731 .0512178
503.578 .0515743
504.424 .0519641
505.268 .0523674
506.113 .0527948
506.956 .0532606
507.798 .0537658
508.640 .0543250
509.480 .0549559
510.320 .0556689
511.160 .0564831
511.998 .0573945
512.836 .0583899
513.672 .0594732
514.508 .0606526
515.344 .0619206
516.178 .0632987
517.012 .0648265
517.845 .0665567
518.677 .0685266
519.508 .0707998
520.339 .0734176
521.169 .0764413
521.998 .0799373
522.826 .0838972
523.654 .0883482
524.481 .0933245
525.307 .0987971
526.133 .1047526
526.958 .1111841
527.782 .1180305
528.605 .1251708
529.428 .1325634
530.250 .1396787
531.072 .1462625
531.892 .1519523
532.712 .1564606
533.532 .1594972
534.350 .1607839
535.168 .1601978
535.986 .1577389
536.802 .1535920
537.618 .1480060
538.434 .1412359
539.249 .1339000
540.063 .1262352
540.876 .1186111
541.689 .1112686
542.501 .1044511
543.313 .0983360
544.124 .0929028
544.934 .0880735
545.744 .0837394
546.553 .0798337
547.361 .0763303
548.169 .0732141
548.976 .0704361
549.783 .0679778
550.589 .0657918
551.395 .0638369
552.200 .0620842
553.004 .0605035
553.808 .0590614
554.611 .0577515
555.414 .0565662
556.216 .0554681
557.018 .0544542
557.819 .0535252
558.619 .0526588
559.419 .0518568
560.218 .0511088
561.017 .0503997
561.815 .0497164
562.613 .0490602
563.410 .0484157
564.207 .0477753
565.003 .0471431
565.799 .0465058
566.594 .0458697
567.388 .0452382
568.182 .0446094
568.976 .0439879
569.769 .0433892
570.562 .0428111
571.354 .0422548
572.145 .0417355
572.936 .0412413
573.727 .0407702
574.517 .0403203
575.307 .0398843
576.096 .0394656
576.885 .0390612
577.673 .0386784
578.461 .0383144
579.248 .0379757
580.035 .0376632
580.821 .0373712
581.607 .0371012
582.392 .0368459
583.177 .0366042
583.962 .0363753
584.746 .0361589
585.529 .0359535
586.313 .0357619
587.095 .0355841
587.878 .0354212
588.660 .0352729
589.441 .0351377
590.222 .0350140
591.003 .0349043
591.783 .0348048
592.563 .0347128
593.342 .0346272
594.121 .0345475
594.899 .0344723
595.678 .0344020
596.455 .0343337
597.233 .0342664
598.009 .0341998
598.786 .0341349
599.562 .0340707
600.338 .0340091
601.113 .0339501
601.888 .0338946
602.663 .0338424
603.437 .0337933
604.211 .0337456
604.984 .0336996
605.757 .0336549
606.530 .0336096
607.302 .0335653
608.074 .0335220
608.845 .0334790
609.616 .0334386
610.387 .0334017
611.158 .0333679
611.928 .0333367
612.697 .0333074
613.467 .0332794
614.236 .0332525
615.004 .0332263
615.773 .0332000
616.541 .0331746
617.308 .0331503
618.076 .0331270
618.843 .0331054
619.609 .0330860
620.375 .0330674
621.141 .0330499
621.907 .0330330
622.672 .0330158
623.437 .0329974
624.202 .0329782
624.966 .0329588
625.730 .0329399
626.493 .0329202
627.257 .0329010
628.020 .0328818
628.782 .0328624
629.545 .0328421
630.307 .0328204
631.068 .0327971
631.830 .0327717
632.591 .0327448
633.352 .0327161
634.112 .0326859
634.872 .0326562
635.632 .0326257
636.392 .0325959
637.151 .0325669
637.910 .0325379
638.668 .0325088
639.427 .0324804
640.185 .0324521
640.943 .0324230
641.700 .0323943
642.457 .0323659
643.214 .0323377
643.971 .0323104
644.727 .0322845
645.483 .0322597
646.239 .0322364
646.994 .0322138
647.750 .0321909
648.505 .0321683
649.259 .0321455
650.014 .0321219
650.768 .0320974
651.521 .0320717
652.275 .0320449
653.028 .0320169
653.781 .0319879
654.534 .0319579
655.286 .0319268
656.039 .0318953
656.791 .0318633
657.542 .0318313
658.294 .0317996
659.045 .0317687
659.796 .0317391
660.546 .0317106
661.297 .0316829
662.047 .0316556
662.796 .0316287
663.546 .0316024
664.295 .0315761
665.044 .0315499
665.793 .0315235
666.542 .0314977
667.290 .0314720
668.038 .0314467
668.786 .0314218
669.533 .0313974
670.281 .0313730
671.028 .0313484
671.774 .0313232
672.521 .0312979
673.267 .0312724
674.013 .0312473
674.759 .0312228
675.505 .0311991
676.250 .0311756
676.995 .0311529
677.740 .0311309
678.484 .0311097
679.229 .0310893
679.973 .0310695
680.717 .0310503
681.460 .0310318
682.204 .0310137
682.947 .0309961
683.690 .0309791
684.433 .0309623
685.175 .0309447
685.917 .0309265
686.659 .0309080
687.401 .0308890
688.142 .0308701
688.884 .0308519
689.625 .0308345
690.365 .0308177
691.106 .0308014
691.846 .0307852
692.586 .0307689
693.326 .0307525
694.066 .0307352
694.805 .0307170
695.545 .0306982
696.284 .0306791
697.022 .0306601
697.761 .0306417
698.499 .0306241
699.237 .0306066
699.975 .0305894
700.713 .0305715
701.450 .0305529
702.187 .0305332
702.924 .0305125
703.661 .0304909
704.397 .0304690
705.133 .0304469
705.869 .0304249
706.605 .0304038
707.341 .0303833
708.076 .0303629
708.811 .0303431
709.546 .0303234
710.281 .0303037
711.015 .0302839
711.749 .0302644
712.483 .0302451
713.217 .0302261
713.950 .0302074
714.684 .0301887
715.417 .0301705
716.150 .0301529
716.882 .0301359
717.615 .0301193
718.347 .0301033
719.079 .0300874
719.811 .0300716
720.542 .0300556
721.273 .0300391
722.005 .0300220
722.735 .0300047
723.466 .0299875
724.196 .0299702
724.927 .0299527
725.656 .0299357
726.386 .0299192
727.116 .0299032
727.845 .0298871
728.574 .0298706
729.303 .0298536
730.031 .0298367
730.760 .0298199
731.488 .0298029
732.216 .0297868
732.944 .0297715
733.671 .0297566
734.398 .0297422
735.125 .0297281
735.852 .0297142
736.579 .0297004
737.305 .0296870
738.031 .0296733
738.757 .0296597
739.483 .0296463
740.208 .0296329
740.933 .0296199
741.658 .0296068
742.383 .0295934
743.108 .0295796
743.832 .0295658
744.556 .0295519
745.280 .0295379
746.004 .0295247
746.727 .0295121
747.450 .0295001
748.173 .0294879
748.896 .0294753
749.618 .0294617
750.340 .0294471
751.062 .0294313
751.784 .0294144
752.506 .0293971
753.227 .0293795
753.948 .0293619
754.669 .0293446
755.389 .0293276
756.110 .0293107
756.830 .0292935
757.550 .0292759
758.269 .0292575
758.989 .0292382
759.708 .0292179
760.427 .0291973
761.146 .0291766
761.864 .0291559
762.582 .0291353
763.300 .0291149
764.018 .0290954
764.736 .0290764
765.453 .0290581
766.170 .0290405
766.887 .0290236
767.603 .0290075
768.320 .0289922
769.036 .0289779
769.751 .0289648
770.467 .0289525
771.182 .0289412
771.897 .0289303
772.612 .0289199
773.327 .0289096
774.041 .0288997
774.755 .0288897
775.469 .0288800
776.183 .0288706
776.896 .0288622
777.609 .0288541
778.322 .0288470
779.035 .0288405
779.747 .0288341
780.459 .0288276
781.171 .0288206
781.882 .0288130
782.594 .0288052
783.305 .0287970
784.016 .0287894
784.726 .0287824
785.436 .0287769
786.147 .0287724
786.856 .0287691
787.566 .0287666
788.275 .0287640
788.984 .0287604
789.693 .0287560
790.401 .0287499
791.110 .0287419
791.818 .0287326
792.525 .0287223
793.233 .0287113
793.940 .0287000
794.647 .0286884
795.353 .0286769
796.060 .0286652
796.766 .0286536
797.472 .0286409
798.177 .0286282
798.883 .0286151
799.588 .0286015
800.292 .0285884
800.997 .0285758
801.701 .0285634
802.405 .0285521
803.109 .0285417
803.812 .0285317
804.515 .0285218
805.218 .0285119
805.921 .0285010
806.623 .0284899
807.325 .0284782
808.027 .0284660
808.728 .0284534
809.429 .0284408
810.130 .0284275
810.831 .0284141
811.531 .0284000
812.231 .0283848
812.931 .0283686
813.630 .0283521
814.330 .0283345
815.029 .0283168
815.727 .0282993
816.426 .0282827
817.124 .0282673
817.821 .0282532
818.519 .0282399
819.216 .0282279
819.913 .0282168
820.609 .0282064
821.306 .0281965
822.002 .0281876
822.697 .0281795
823.393 .0281725
824.088 .0281662
824.783 .0281608
825.477 .0281557
826.171 .0281512
826.865 .0281468
827.559 .0281426
828.252 .0281381
828.945 .0281332
829.638 .0281277
830.330 .0281217
831.023 .0281152
831.714 .0281083
832.406 .0281007
833.097 .0280929
833.788 .0280846
834.479 .0280759
835.169 .0280671
835.859 .0280589
836.548 .0280512
837.238 .0280440
837.927 .0280372
838.615 .0280312
839.304 .0280257
839.992 .0280208
840.680 .0280163
841.367 .0280117
842.054 .0280072
842.741 .0280019
843.428 .0279965
844.114 .0279909
844.800 .0279854
845.485 .0279796
846.170 .0279734
846.855 .0279667
847.540 .0279589
848.224 .0279501
848.908 .0279400
849.592 .0279284
850.275 .0279157
850.958 .0279017
851.641 .0278871
852.323 .0278719
853.005 .0278569
853.687 .0278415
854.368 .0278265
855.049 .0278112
855.730 .0277957
856.410 .0277798
857.090 .0277639
857.769 .0277482
858.449 .0277329
859.128 .0277183
859.806 .0277043
860.485 .0276912
861.163 .0276792
861.840 .0276675
862.518 .0276562
863.195 .0276444
863.871 .0276324
864.548 .0276196
865.224 .0276062
865.899 .0275923
866.574 .0275783
867.249 .0275646
867.924 .0275511
868.598 .0275381
869.272 .0275259
869.946 .0275146
870.619 .0275043
871.292 .0274948
871.964 .0274855
872.636 .0274764
873.308 .0274672
873.979 .0274583
874.651 .0274494
875.321 .0274413
875.992 .0274340
876.662 .0274282
877.331 .0274235
878.001 .0274200
878.670 .0274172
879.338 .0274148
880.007 .0274122
880.675 .0274088
881.342 .0274043
882.009 .0273987
882.676 .0273922
883.343 .0273855
884.009 .0273781
884.675 .0273708
885.340 .0273632
886.005 .0273555
886.670 .0273473
887.334 .0273390
887.998 .0273301
888.662 .0273215
889.325 .0273130
889.988 .0273047
890.650 .0272966
891.312 .0272889
891.974 .0272815
892.636 .0272742
893.297 .0272674
893.957 .0272609
894.618 .0272544
895.278 .0272486
895.937 .0272427
896.596 .0272371
897.255 .0272317
897.914 .0272264
898.572 .0272203
899.230 .0272136
899.887 .0272059
900.544 .0271970
901.201 .0271871
901.857 .0271766
902.513 .0271655
903.168 .0271541
903.823 .0271422
904.478 .0271293
905.132 .0271152
905.786 .0271002
906.440 .0270838
907.093 .0270664
907.746 .0270481
908.399 .0270295
909.051 .0270106
909.703 .0269920
910.354 .0269735
911.005 .0269549
911.656 .0269361
912.306 .0269170
912.956 .0268977
913.605 .0268778
914.254 .0268580
914.903 .0268387
915.551 .0268201
916.199 .0268027
916.847 .0267866
917.494 .0267716
918.141 .0267572
918.788 .0267431
919.434 .0267286
920.079 .0267135
920.725 .0266979
921.370 .0266813
922.014 .0266639
922.658 .0266457
923.302 .0266268
923.946 .0266070
924.589 .0265866
925.231 .0265655
925.873 .0265431
926.515 .0265197
927.157 .0264953
927.798 .0264700
928.439 .0264440
929.079 .0264178
929.719 .0263915
930.359 .0263654
930.998 .0263397
931.637 .0263144
932.275 .0262901
932.913 .0262668
933.551 .0262446
934.188 .0262234
934.825 .0262034
935.462 .0261846
936.098 .0261667
936.733 .0261500
937.369 .0261343
938.004 .0261196
938.638 .0261056
939.273 .0260923
939.907 .0260793
940.540 .0260671
941.173 .0260556
941.806 .0260451
942.438 .0260357
943.070 .0260272
943.702 .0260194
944.333 .0260118
944.964 .0260039
945.594 .0259958
946.224 .0259872
946.854 .0259786
947.483 .0259699
948.112 .0259619
948.741 .0259545
949.369 .0259480
949.996 .0259423
950.624 .0259374
951.251 .0259324
951.878 .0259273
952.504 .0259212
953.130 .0259139
953.755 .0259058
954.380 .0258967
955.005 .0258870
955.629 .0258770
956.253 .0258669
956.877 .0258568
957.500 .0258469
958.123 .0258372
958.746 .0258271
959.368 .0258169
959.990 .0258063
960.611 .0257950
961.232 .0257835
961.853 .0257721
962.473 .0257610
963.093 .0257505
963.712 .0257409
964.331 .0257315
964.950 .0257231
965.569 .0257161
966.187 .0257105
966.804 .0257064
967.422 .0257036
968.039 .0257021
968.655 .0257013
969.272 .0257012
969.887 .0257006
970.503 .0256994
971.118 .0256975
971.733 .0256947
972.347 .0256909
972.961 .0256867
973.575 .0256827
974.188 .0256784
974.801 .0256739
975.414 .0256688
976.026 .0256628
976.638 .0256558
977.250 .0256478
977.861 .0256389
978.472 .0256294
979.083 .0256198
979.693 .0256099
980.303 .0256000
980.912 .0255908
981.521 .0255817
982.130 .0255722
982.738 .0255629
983.346 .0255532
983.954 .0255432
984.562 .0255334
985.169 .0255241
985.775 .0255150
986.382 .0255066
986.988 .0254987
987.594 .0254903
988.199 .0254818
988.804 .0254734
989.409 .0254644
990.013 .0254557
990.617 .0254476
991.221 .0254405
991.824 .0254353
992.427 .0254332
993.030 .0254338
993.632 .0254369
994.234 .0254426
994.836 .0254496
995.438 .0254572
996.039 .0254654
996.640 .0254736
997.240 .0254813
997.840 .0254896
998.440 .0254988
999.040 .0255083
999.639 .0255190
1000.238 .0255304
1000.836 .0255419
1001.435 .0255527
1002.033 .0255624
1002.630 .0255700
1003.228 .0255754
1003.825 .0255795
1004.422 .0255820
1005.018 .0255842
1005.614 .0255871
1006.210 .0255905
1006.806 .0255945
1007.401 .0255995
1007.996 .0256049
1008.591 .0256100
1009.186 .0256147
1009.780 .0256185
1010.374 .0256220
1010.967 .0256253
1011.561 .0256288
1012.154 .0256329
1012.746 .0256375
1013.339 .0256427
1013.931 .0256478
1014.523 .0256527
1015.115 .0256566
1015.706 .0256599
1016.298 .0256626
1016.888 .0256644
1017.479 .0256659
1018.069 .0256672
1018.660 .0256682
1019.250 .0256693
1019.839 .0256712
1020.429 .0256727
1021.018 .0256747
1021.607 .0256780
1022.195 .0256815
1022.784 .0256861
1023.372 .0256918
1023.960 .0256985
1024.547 .0257065
1025.135 .0257164
1025.722 .0257273
1026.309 .0257395
1026.896 .0257539
1027.483 .0257696
1028.069 .0257861
1028.655 .0258039
1029.241 .0258213
1029.827 .0258378
1030.412 .0258539
1030.997 .0258687
1031.582 .0258815
1032.167 .0258937
1032.752 .0259048
1033.336 .0259154
1033.921 .0259260
1034.505 .0259355
1035.089 .0259433
1035.672 .0259499
1036.256 .0259543
1036.839 .0259558
1037.422 .0259553
1038.005 .0259542
1038.588 .0259526
1039.171 .0259521
1039.753 .0259526
1040.335 .0259535
1040.918 .0259546
1041.500 .0259552
1042.081 .0259530
1042.663 .0259483
1043.244 .0259412
1043.826 .0259319
1044.407 .0259214
1044.988 .0259119
1045.569 .0259028
1046.150 .0258952
1046.730 .0258888
1047.311 .0258828
1047.891 .0258755
1048.471 .0258670
1049.052 .0258564
1049.632 .0258440
1050.211 .0258314
1050.791 .0258198
1051.371 .0258095
1051.950 .0258038
1052.530 .0258020
1053.109 .0258027
1053.688 .0258049
1054.268 .0258080
1054.847 .0258094
1055.426 .0258085
1056.005 .0258048
1056.583 .0257991
1057.162 .0257910
1057.741 .0257830
1058.319 .0257743
1058.898 .0257670
1059.476 .0257605
1060.055 .0257543
1060.633 .0257472
1061.211 .0257403
1061.790 .0257320
1062.368 .0257232
1062.946 .0257149
1063.524 .0257089
1064.102 .0257042
1064.680 .0257027
1065.258 .0257034
1065.836 .0257067
1066.414 .0257110
1066.992 .0257159
1067.570 .0257202
1068.148 .0257240
1068.726 .0257272
1069.304 .0257306
1069.882 .0257350
1070.460 .0257400
1071.038 .0257457
1071.616 .0257515
1072.194 .0257564
1072.772 .0257596
1073.350 .0257601
1073.928 .0257580
1074.506 .0257537
1075.084 .0257480
1075.662 .0257417
1076.240 .0257369
1076.819 .0257343
1077.397 .0257335
1077.976 .0257351
1078.554 .0257365
1079.133 .0257375
1079.711 .0257362
1080.290 .0257324
1080.869 .0257237
1081.448 .0257110
1082.027 .0256951
1082.606 .0256775
1083.185 .0256599
1083.764 .0256436
1084.343 .0256299
1084.923 .0256201
1085.502 .0256125
1086.082 .0256076
1086.662 .0256046
1087.242 .0256032
1087.822 .0256017
1088.402 .0256016
1088.983 .0256026
1089.563 .0256056
1090.144 .0256121
1090.725 .0256224
1091.306 .0256356
1091.887 .0256520
1092.469 .0256695
1093.050 .0256887
1093.632 .0257078
1094.214 .0257259
1094.796 .0257427
1095.379 .0257587
1095.961 .0257726
1096.544 .0257834
1097.127 .0257921
1097.710 .0257988
1098.294 .0258030
1098.877 .0258054
1099.461 .0258063
1100.046 .0258062
1100.630 .0258058
1101.215 .0258066
1101.800 .0258069
1102.385 .0258076
1102.970 .0258068
1103.556 .0258043
1104.142 .0258001
1104.728 .0257948
1105.315 .0257899
1105.902 .0257866
1106.489 .0257873
1107.077 .0257923
1107.664 .0258019
1108.253 .0258181
1108.841 .0258373
1109.430 .0258574
1110.019 .0258767
1110.609 .0258962
1111.198 .0259135
1111.789 .0259315
1112.379 .0259504
1112.970 .0259721
1113.561 .0259982
1114.153 .0260266
1114.745 .0260590
1115.338 .0260955
1115.931 .0261319
1116.524 .0261695
1117.117 .0262079
1117.712 .0262498
1118.306 .0262933
1118.901 .0263418
1119.496 .0263962
1120.092 .0264554
1120.689 .0265179
1121.285 .0265813
1121.882 .0266427
1122.480 .0267067
1123.078 .0267672
1123.677 .0268241
1124.276 .0268810
1124.875 .0269367
1125.476 .0269903
1126.076 .0270449
1126.677 .0271020
1127.279 .0271601
1127.881 .0272209
1128.484 .0272843
1129.087 .0273469
1129.691 .0274127
1130.295 .0274814
1130.900 .0275502
1131.505 .0276241
1132.111 .0277042
1132.718 .0277867
1133.325 .0278757
1133.933 .0279762
1134.541 .0280855
1135.150 .0282069
1135.760 .0283398
1136.370 .0284836
1136.981 .0286348
1137.592 .0287893
1138.204 .0289434
1138.817 .0290942
1139.431 .0292457
1140.045 .0293983
1140.660 .0295534
1141.275 .0297185
1141.891 .0298941
1142.508 .0300241
1143.126 .0302817
1143.744 .0304874
1144.363 .0307676
1144.983 .0309423
