Measurement Sequence started on: 15-12-46-377
Integration time: 28
Scans to Average: 2 
>>>>>Begin Spectral Data<<<<<
432.689 .0000100
433.621 .0000100
434.552 .0000100
435.482 .0000100
436.410 .0000100
437.337 .0000100
438.262 .0287591
439.187 .0608916
440.110 .1007867
441.031 .1457985
441.952 .1894333
442.871 .2236972
443.789 .2423133
444.705 .2431700
445.621 .2289170
446.535 .2053094
447.447 .1786368
448.359 .1379900
449.269 .1177570
450.178 .1049412
451.086 .0958537
451.993 .0889618
452.898 .0835595
453.803 .0792231
454.706 .0756875
455.608 .0727353
456.508 .0702197
457.408 .0680538
458.306 .0661493
459.204 .0644359
460.100 .0628655
460.995 .0614192
461.888 .0600997
462.781 .0588954
463.673 .0577989
464.563 .0568105
465.452 .0559122
466.340 .0550895
467.228 .0543228
468.114 .0535971
468.999 .0529028
469.882 .0522246
470.765 .0515723
471.647 .0509499
472.528 .0503672
473.407 .0498360
474.286 .0493658
475.163 .0489641
476.040 .0486365
476.915 .0483628
477.790 .0481353
478.663 .0479430
479.535 .0477749
480.407 .0476248
481.277 .0474897
482.147 .0473700
483.015 .0472726
483.883 .0472004
484.749 .0471524
485.615 .0471264
486.479 .0471219
487.343 .0471324
488.206 .0471544
489.067 .0471737
489.928 .0471888
490.788 .0471953
491.647 .0471979
492.505 .0471992
493.362 .0472067
494.218 .0472258
495.073 .0472627
495.928 .0473268
496.781 .0474193
497.634 .0475420
498.486 .0477017
499.337 .0479021
500.187 .0481477
501.036 .0484370
501.884 .0487703
502.731 .0491473
503.578 .0495827
504.424 .0500601
505.268 .0505770
506.113 .0511321
506.956 .0517315
507.798 .0523802
508.640 .0530859
509.480 .0538540
510.320 .0547083
511.160 .0556583
511.998 .0567015
512.836 .0578378
513.672 .0590781
514.508 .0604144
515.344 .0618545
516.178 .0634079
517.012 .0651072
517.845 .0669927
518.677 .0691301
519.508 .0715490
520.339 .0743151
521.169 .0774623
521.998 .0810419
522.826 .0850687
523.654 .0895818
524.481 .0945478
525.307 .1000335
526.133 .1060182
526.958 .1124977
527.782 .1194220
528.605 .1266339
529.428 .1340699
530.250 .1412902
531.072 .1480061
531.892 .1538178
532.712 .1583899
533.532 .1615386
534.350 .1629805
535.168 .1626273
535.986 .1604518
536.802 .1566509
537.618 .1515086
538.434 .1452303
539.249 .1382810
540.063 .1309137
540.876 .1234783
541.689 .1161942
542.501 .1092557
543.313 .1028233
544.124 .0969712
544.934 .0917120
545.744 .0869451
546.553 .0826560
547.361 .0788208
548.169 .0754543
548.976 .0724753
549.783 .0698436
550.589 .0674946
551.395 .0653575
552.200 .0634175
553.004 .0616407
553.808 .0599961
554.611 .0584738
555.414 .0570739
556.216 .0557919
557.018 .0546266
557.819 .0535748
558.619 .0526067
559.419 .0517155
560.218 .0508774
561.017 .0500812
561.815 .0493004
562.613 .0485355
563.410 .0477923
564.207 .0470635
565.003 .0463659
565.799 .0457002
566.594 .0450643
567.388 .0444781
568.182 .0439282
568.976 .0434017
569.769 .0428965
570.562 .0424078
571.354 .0419241
572.145 .0414461
572.936 .0409794
573.727 .0405197
574.517 .0400721
575.307 .0396382
576.096 .0392122
576.885 .0387983
577.673 .0384070
578.461 .0380309
579.248 .0376708
580.035 .0373243
580.821 .0369892
581.607 .0366697
582.392 .0363692
583.177 .0360867
583.962 .0358272
584.746 .0355928
585.529 .0353804
586.313 .0351868
587.095 .0350121
587.878 .0348556
588.660 .0347154
589.441 .0345893
590.222 .0344733
591.003 .0343694
591.783 .0342748
592.563 .0341886
593.342 .0341106
594.121 .0340383
594.899 .0339720
595.678 .0339090
596.455 .0338488
597.233 .0337896
598.009 .0337314
598.786 .0336738
599.562 .0336153
600.338 .0335573
601.113 .0334982
601.888 .0334373
602.663 .0333761
603.437 .0333155
604.211 .0332559
604.984 .0331971
605.757 .0331406
606.530 .0330863
607.302 .0330353
608.074 .0329866
608.845 .0329401
609.616 .0328961
610.387 .0328549
611.158 .0328163
611.928 .0327797
612.697 .0327473
613.467 .0327182
614.236 .0326915
615.004 .0326676
615.773 .0326450
616.541 .0326234
617.308 .0326017
618.076 .0325809
618.843 .0325601
619.609 .0325399
620.375 .0325202
621.141 .0325016
621.907 .0324858
622.672 .0324713
623.437 .0324574
624.202 .0324441
624.966 .0324307
625.730 .0324159
626.493 .0323993
627.257 .0323816
628.020 .0323629
628.782 .0323437
629.545 .0323234
630.307 .0323021
631.068 .0322806
631.830 .0322578
632.591 .0322329
633.352 .0322058
634.112 .0321764
634.872 .0321433
635.632 .0321085
636.392 .0320722
637.151 .0320355
637.910 .0319993
638.668 .0319638
639.427 .0319299
640.185 .0318980
640.943 .0318673
641.700 .0318385
642.457 .0318112
643.214 .0317854
643.971 .0317599
644.727 .0317354
645.483 .0317120
646.239 .0316896
646.994 .0316676
647.750 .0316461
648.505 .0316248
649.259 .0316044
650.014 .0315831
650.768 .0315618
651.521 .0315398
652.275 .0315169
653.028 .0314921
653.781 .0314657
654.534 .0314372
655.286 .0314073
656.039 .0313761
656.791 .0313434
657.542 .0313099
658.294 .0312765
659.045 .0312434
659.796 .0312114
660.546 .0311805
661.297 .0311500
662.047 .0311192
662.796 .0310879
663.546 .0310557
664.295 .0310223
665.044 .0309880
665.793 .0309532
666.542 .0309186
667.290 .0308846
668.038 .0308515
668.786 .0308194
669.533 .0307892
670.281 .0307602
671.028 .0307321
671.774 .0307050
672.521 .0306786
673.267 .0306528
674.013 .0306278
674.759 .0306036
675.505 .0305808
676.250 .0305587
676.995 .0305374
677.740 .0305166
678.484 .0304965
679.229 .0304771
679.973 .0304578
680.717 .0304393
681.460 .0304212
682.204 .0304032
682.947 .0303858
683.690 .0303689
684.433 .0303522
685.175 .0303359
685.917 .0303196
686.659 .0303038
687.401 .0302882
688.142 .0302732
688.884 .0302587
689.625 .0302452
690.365 .0302316
691.106 .0302174
691.846 .0302021
692.586 .0301860
693.326 .0301678
694.066 .0301483
694.805 .0301275
695.545 .0301060
696.284 .0300843
697.022 .0300630
697.761 .0300420
698.499 .0300220
699.237 .0300023
699.975 .0299827
700.713 .0299631
701.450 .0299441
702.187 .0299251
702.924 .0299074
703.661 .0298922
704.397 .0298795
705.133 .0298699
705.869 .0298635
706.605 .0298590
707.341 .0298562
708.076 .0298535
708.811 .0298496
709.546 .0298438
710.281 .0298355
711.015 .0298248
711.749 .0298117
712.483 .0297977
713.217 .0297829
713.950 .0297675
714.684 .0297523
715.417 .0297365
716.150 .0297200
716.882 .0297032
717.615 .0296851
718.347 .0296666
719.079 .0296477
719.811 .0296291
720.542 .0296106
721.273 .0295929
722.005 .0295763
722.735 .0295607
723.466 .0295455
724.196 .0295305
724.927 .0295143
725.656 .0294977
726.386 .0294801
727.116 .0294616
727.845 .0294426
728.574 .0294233
729.303 .0294032
730.031 .0293834
730.760 .0293634
731.488 .0293436
732.216 .0293245
732.944 .0293060
733.671 .0292883
734.398 .0292711
735.125 .0292548
735.852 .0292395
736.579 .0292251
737.305 .0292116
738.031 .0291981
738.757 .0291845
739.483 .0291709
740.208 .0291568
740.933 .0291422
741.658 .0291274
742.383 .0291120
743.108 .0290960
743.832 .0290799
744.556 .0290629
745.280 .0290457
746.004 .0290280
746.727 .0290102
747.450 .0289924
748.173 .0289744
748.896 .0289567
749.618 .0289386
750.340 .0289209
751.062 .0289030
751.784 .0288845
752.506 .0288660
753.227 .0288471
753.948 .0288281
754.669 .0288092
755.389 .0287901
756.110 .0287710
756.830 .0287513
757.550 .0287310
758.269 .0287092
758.989 .0286860
759.708 .0286614
760.427 .0286354
761.146 .0286088
761.864 .0285825
762.582 .0285569
763.300 .0285327
764.018 .0285101
764.736 .0284887
765.453 .0284684
766.170 .0284487
766.887 .0284291
767.603 .0284096
768.320 .0283897
769.036 .0283698
769.751 .0283503
770.467 .0283320
771.182 .0283151
771.897 .0283001
772.612 .0282869
773.327 .0282756
774.041 .0282656
774.755 .0282563
775.469 .0282477
776.183 .0282401
776.896 .0282329
777.609 .0282261
778.322 .0282197
779.035 .0282141
779.747 .0282088
780.459 .0282043
781.171 .0282001
781.882 .0281967
782.594 .0281946
783.305 .0281933
784.016 .0281930
784.726 .0281941
785.436 .0281958
786.147 .0281981
786.856 .0282006
787.566 .0282029
788.275 .0282044
788.984 .0282056
789.693 .0282064
790.401 .0282068
791.110 .0282067
791.818 .0282068
792.525 .0282066
793.233 .0282065
793.940 .0282060
794.647 .0282048
795.353 .0282030
796.060 .0282006
796.766 .0281969
797.472 .0281925
798.177 .0281873
798.883 .0281816
799.588 .0281752
800.292 .0281689
800.997 .0281626
801.701 .0281565
802.405 .0281513
803.109 .0281469
803.812 .0281433
804.515 .0281404
805.218 .0281376
805.921 .0281346
806.623 .0281308
807.325 .0281262
808.027 .0281201
808.728 .0281131
809.429 .0281051
810.130 .0280971
810.831 .0280893
811.531 .0280821
812.231 .0280757
812.931 .0280697
813.630 .0280637
814.330 .0280572
815.029 .0280499
815.727 .0280417
816.426 .0280327
817.124 .0280239
817.821 .0280151
818.519 .0280071
819.216 .0280000
819.913 .0279941
820.609 .0279887
821.306 .0279840
822.002 .0279791
822.697 .0279742
823.393 .0279696
824.088 .0279647
824.783 .0279596
825.477 .0279550
826.171 .0279511
826.865 .0279478
827.559 .0279454
828.252 .0279440
828.945 .0279427
829.638 .0279417
830.330 .0279402
831.023 .0279379
831.714 .0279348
832.406 .0279310
833.097 .0279260
833.788 .0279201
834.479 .0279137
835.169 .0279067
835.859 .0278999
836.548 .0278936
837.238 .0278871
837.927 .0278806
838.615 .0278736
839.304 .0278664
839.992 .0278582
840.680 .0278496
841.367 .0278399
842.054 .0278295
842.741 .0278187
843.428 .0278075
844.114 .0277962
844.800 .0277852
845.485 .0277741
846.170 .0277628
846.855 .0277510
847.540 .0277380
848.224 .0277233
848.908 .0277075
849.592 .0276893
850.275 .0276694
850.958 .0276475
851.641 .0276242
852.323 .0275994
853.005 .0275736
853.687 .0275467
854.368 .0275189
855.049 .0274906
855.730 .0274618
856.410 .0274323
857.090 .0274029
857.769 .0273726
858.449 .0273423
859.128 .0273117
859.806 .0272817
860.485 .0272519
861.163 .0272230
861.840 .0271950
862.518 .0271680
863.195 .0271415
863.871 .0271158
864.548 .0270908
865.224 .0270669
865.899 .0270437
866.574 .0270210
867.249 .0269987
867.924 .0269771
868.598 .0269555
869.272 .0269342
869.946 .0269130
870.619 .0268920
871.292 .0268709
871.964 .0268496
872.636 .0268286
873.308 .0268078
873.979 .0267877
874.651 .0267681
875.321 .0267486
875.992 .0267295
876.662 .0267104
877.331 .0266914
878.001 .0266728
878.670 .0266547
879.338 .0266372
880.007 .0266207
880.675 .0266050
881.342 .0265903
882.009 .0265764
882.676 .0265633
883.343 .0265507
884.009 .0265384
884.675 .0265263
885.340 .0265143
886.005 .0265028
886.670 .0264927
887.334 .0264835
887.998 .0264758
888.662 .0264697
889.325 .0264650
889.988 .0264614
890.650 .0264583
891.312 .0264556
891.974 .0264530
892.636 .0264507
893.297 .0264485
893.957 .0264465
894.618 .0264453
895.278 .0264448
895.937 .0264453
896.596 .0264471
897.255 .0264497
897.914 .0264522
898.572 .0264548
899.230 .0264567
899.887 .0264574
900.544 .0264567
901.201 .0264547
901.857 .0264518
902.513 .0264478
903.168 .0264432
903.823 .0264374
904.478 .0264306
905.132 .0264229
905.786 .0264135
906.440 .0264027
907.093 .0263903
907.746 .0263760
908.399 .0263605
909.051 .0263441
909.703 .0263269
910.354 .0263091
911.005 .0262915
911.656 .0262737
912.306 .0262560
912.956 .0262385
913.605 .0262215
914.254 .0262055
914.903 .0261909
915.551 .0261774
916.199 .0261660
916.847 .0261565
917.494 .0261490
918.141 .0261434
918.788 .0261396
919.434 .0261368
920.079 .0261349
920.725 .0261342
921.370 .0261347
922.014 .0261359
922.658 .0261383
923.302 .0261415
923.946 .0261451
924.589 .0261485
925.231 .0261513
925.873 .0261530
926.515 .0261541
927.157 .0261536
927.798 .0261514
928.439 .0261476
929.079 .0261424
929.719 .0261359
930.359 .0261284
930.998 .0261204
931.637 .0261120
932.275 .0261030
932.913 .0260944
933.551 .0260861
934.188 .0260784
934.825 .0260716
935.462 .0260657
936.098 .0260603
936.733 .0260555
937.369 .0260517
938.004 .0260487
938.638 .0260468
939.273 .0260463
939.907 .0260473
940.540 .0260495
941.173 .0260534
941.806 .0260584
942.438 .0260646
943.070 .0260718
943.702 .0260791
944.333 .0260861
944.964 .0260929
945.594 .0260992
946.224 .0261053
946.854 .0261114
947.483 .0261180
948.112 .0261248
948.741 .0261321
949.369 .0261396
949.996 .0261470
950.624 .0261535
951.251 .0261592
951.878 .0261636
952.504 .0261668
953.130 .0261684
953.755 .0261690
954.380 .0261691
955.005 .0261691
955.629 .0261691
956.253 .0261691
956.877 .0261690
957.500 .0261692
958.123 .0261688
958.746 .0261673
959.368 .0261647
959.990 .0261608
960.611 .0261557
961.232 .0261498
961.853 .0261432
962.473 .0261368
963.093 .0261308
963.712 .0261251
964.331 .0261196
964.950 .0261144
965.569 .0261094
966.187 .0261044
966.804 .0260991
967.422 .0260941
968.039 .0260896
968.655 .0260856
969.272 .0260823
969.887 .0260800
970.503 .0260785
971.118 .0260774
971.733 .0260761
972.347 .0260742
972.961 .0260712
973.575 .0260670
974.188 .0260615
974.801 .0260541
975.414 .0260454
976.026 .0260354
976.638 .0260237
977.250 .0260107
977.861 .0259961
978.472 .0259803
979.083 .0259632
979.693 .0259450
980.303 .0259253
980.912 .0259043
981.521 .0258824
982.130 .0258602
982.738 .0258383
983.346 .0258171
983.954 .0257965
984.562 .0257770
985.169 .0257587
985.775 .0257411
986.382 .0257235
986.988 .0257060
987.594 .0256878
988.199 .0256690
988.804 .0256490
989.409 .0256278
990.013 .0256062
990.617 .0255849
991.221 .0255639
991.824 .0255438
992.427 .0255252
993.030 .0255080
993.632 .0254921
994.234 .0254778
994.836 .0254642
995.438 .0254511
996.039 .0254377
996.640 .0254239
997.240 .0254095
997.840 .0253955
998.440 .0253819
999.040 .0253694
999.639 .0253587
1000.238 .0253491
1000.836 .0253403
1001.435 .0253327
1002.033 .0253255
1002.630 .0253177
1003.228 .0253090
1003.825 .0252991
1004.422 .0252880
1005.018 .0252761
1005.614 .0252636
1006.210 .0252510
1006.806 .0252392
1007.401 .0252282
1007.996 .0252174
1008.591 .0252068
1009.186 .0251962
1009.780 .0251849
1010.374 .0251726
1010.967 .0251589
1011.561 .0251434
1012.154 .0251264
1012.746 .0251085
1013.339 .0250903
1013.931 .0250725
1014.523 .0250555
1015.115 .0250394
1015.706 .0250246
1016.298 .0250107
1016.888 .0249976
1017.479 .0249853
1018.069 .0249742
1018.660 .0249638
1019.250 .0249542
1019.839 .0249455
1020.429 .0249382
1021.018 .0249328
1021.607 .0249287
1022.195 .0249251
1022.784 .0249222
1023.372 .0249194
1023.960 .0249163
1024.547 .0249134
1025.135 .0249107
1025.722 .0249078
1026.309 .0249054
1026.896 .0249042
1027.483 .0249038
1028.069 .0249038
1028.655 .0249040
1029.241 .0249041
1029.827 .0249037
1030.412 .0249023
1030.997 .0248992
1031.582 .0248956
1032.167 .0248920
1032.752 .0248879
1033.336 .0248840
1033.921 .0248808
1034.505 .0248775
1035.089 .0248733
1035.672 .0248680
1036.256 .0248612
1036.839 .0248521
1037.422 .0248408
1038.005 .0248279
1038.588 .0248145
1039.171 .0248010
1039.753 .0247882
1040.335 .0247769
1040.918 .0247683
1041.500 .0247618
1042.081 .0247564
1042.663 .0247522
1043.244 .0247489
1043.826 .0247457
1044.407 .0247425
1044.988 .0247397
1045.569 .0247372
1046.150 .0247351
1046.730 .0247326
1047.311 .0247301
1047.891 .0247270
1048.471 .0247233
1049.052 .0247181
1049.632 .0247116
1050.211 .0247044
1050.791 .0246968
1051.371 .0246887
1051.950 .0246820
1052.530 .0246752
1053.109 .0246688
1053.688 .0246605
1054.268 .0246510
1054.847 .0246400
1055.426 .0246288
1056.005 .0246174
1056.583 .0246074
1057.162 .0246004
1057.741 .0245965
1058.319 .0245954
1058.898 .0245974
1059.476 .0246003
1060.055 .0246043
1060.633 .0246057
1061.211 .0246044
1061.790 .0246005
1062.368 .0245964
1062.946 .0245918
1063.524 .0245892
1064.102 .0245904
1064.680 .0245963
1065.258 .0246055
1065.836 .0246183
1066.414 .0246329
1066.992 .0246481
1067.570 .0246631
1068.148 .0246761
1068.726 .0246858
1069.304 .0246942
1069.882 .0247000
1070.460 .0247045
1071.038 .0247083
1071.616 .0247121
1072.194 .0247156
1072.772 .0247188
1073.350 .0247227
1073.928 .0247263
1074.506 .0247294
1075.084 .0247331
1075.662 .0247361
1076.240 .0247396
1076.819 .0247428
1077.397 .0247460
1077.976 .0247502
1078.554 .0247580
1079.133 .0247679
1079.711 .0247806
1080.290 .0247971
1080.869 .0248174
1081.448 .0248386
1082.027 .0248616
1082.606 .0248848
1083.185 .0249083
1083.764 .0249302
1084.343 .0249511
1084.923 .0249695
1085.502 .0249875
1086.082 .0250057
1086.662 .0250245
1087.242 .0250440
1087.822 .0250658
1088.402 .0250871
1088.983 .0251095
1089.563 .0251307
1090.144 .0251511
1090.725 .0251695
1091.306 .0251860
1091.887 .0252015
1092.469 .0252146
1093.050 .0252267
1093.632 .0252396
1094.214 .0252523
1094.796 .0252651
1095.379 .0252785
1095.961 .0252920
1096.544 .0253059
1097.127 .0253201
1097.710 .0253349
1098.294 .0253502
1098.877 .0253676
1099.461 .0253886
1100.046 .0254129
1100.630 .0254422
1101.215 .0254790
1101.800 .0255186
1102.385 .0255638
1102.970 .0256107
1103.556 .0256570
1104.142 .0257020
1104.728 .0257473
1105.315 .0257907
1105.902 .0258329
1106.489 .0258761
1107.077 .0259214
1107.664 .0259666
1108.253 .0260158
1108.841 .0260646
1109.430 .0261118
1110.019 .0261573
1110.609 .0262002
1111.198 .0262393
1111.789 .0262799
1112.379 .0263215
1112.970 .0263650
1113.561 .0264102
1114.153 .0264579
1114.745 .0265043
1115.338 .0265495
1115.931 .0265906
1116.524 .0266257
1117.117 .0266567
1117.712 .0266885
1118.306 .0267178
1118.901 .0267500
1119.496 .0267873
1120.092 .0268288
1120.689 .0268725
1121.285 .0269165
1121.882 .0269599
1122.480 .0270032
1123.078 .0270498
1123.677 .0270996
1124.276 .0271577
1124.875 .0272305
1125.476 .0273160
1126.076 .0274153
1126.677 .0275260
1127.279 .0276391
1127.881 .0277473
1128.484 .0278522
1129.087 .0279507
1129.691 .0280423
1130.295 .0281332
1130.900 .0282279
1131.505 .0283310
1132.111 .0284424
1132.718 .0285630
1133.325 .0286888
1133.933 .0288229
1134.541 .0289553
1135.150 .0290771
1135.760 .0291907
1136.370 .0292981
1136.981 .0294014
1137.592 .0295053
1138.204 .0296155
1138.817 .0297333
1139.431 .0298602
1140.045 .0299979
1140.660 .0301271
1141.275 .0302529
1141.891 .0303955
1142.508 .0306137
1143.126 .0307429
1143.744 .0304741
1144.363 .0305911
1144.983 .0314852
