Measurement Sequence started on: 15-12-46-377
Integration time: 28
Scans to Average: 2 
>>>>>Begin Spectral Data<<<<<
432.689 .0000100
433.621 .0000100
434.552 .0000100
435.482 .0000100
436.410 .0000100
437.337 .0000100
438.262 .0284915
439.187 .0603322
440.110 .1000012
441.031 .1447825
441.952 .1882292
442.871 .2224471
443.789 .2412137
444.705 .2423753
445.621 .2285348
446.535 .2053904
447.447 .1791421
448.359 .1389858
449.269 .1190018
450.178 .1062284
451.086 .0971308
451.993 .0901752
452.898 .0846060
453.803 .0800435
454.706 .0762713
455.608 .0730833
456.508 .0703636
457.408 .0680552
458.306 .0660537
459.204 .0642746
460.100 .0626833
460.995 .0612599
461.888 .0599738
462.781 .0588301
463.673 .0578046
464.563 .0569131
465.452 .0561324
466.340 .0554388
467.228 .0548150
468.114 .0542446
468.999 .0537043
469.882 .0531783
470.765 .0526641
471.647 .0521632
472.528 .0516791
473.407 .0512258
474.286 .0508130
475.163 .0504401
476.040 .0501083
476.915 .0498070
477.790 .0495301
478.663 .0492678
479.535 .0490128
480.407 .0487675
481.277 .0485439
482.147 .0483503
483.015 .0481928
483.883 .0480791
484.749 .0480095
485.615 .0479788
486.479 .0479837
487.343 .0480133
488.206 .0480596
489.067 .0481153
489.928 .0481879
490.788 .0482720
491.647 .0483722
492.505 .0484920
493.362 .0486349
494.218 .0487968
495.073 .0489736
495.928 .0491641
496.781 .0493563
497.634 .0495701
498.486 .0497963
499.337 .0500376
500.187 .0502991
501.036 .0505829
501.884 .0508943
502.731 .0512304
503.578 .0515994
504.424 .0519976
505.268 .0524204
506.113 .0528845
506.956 .0533783
507.798 .0539381
508.640 .0545636
509.480 .0552598
510.320 .0560381
511.160 .0569081
511.998 .0578538
512.836 .0588879
513.672 .0600189
514.508 .0612546
515.344 .0626149
516.178 .0641303
517.012 .0658459
517.845 .0678029
518.677 .0700441
519.508 .0726042
520.339 .0755199
521.169 .0788490
521.998 .0825383
522.826 .0866509
523.654 .0912494
524.481 .0963246
525.307 .1019314
526.133 .1081125
526.958 .1148875
527.782 .1221892
528.605 .1298755
529.428 .1378229
530.250 .1454691
531.072 .1525522
531.892 .1585714
532.712 .1631653
533.532 .1661342
534.350 .1672465
535.168 .1663783
535.986 .1636691
536.802 .1593460
537.618 .1536826
538.434 .1469124
539.249 .1395577
540.063 .1318196
540.876 .1240568
541.689 .1164977
542.501 .1093454
543.313 .1027739
544.124 .0968697
544.934 .0915538
545.744 .0867758
546.553 .0824907
547.361 .0786917
548.169 .0753375
548.976 .0723594
549.783 .0697083
550.589 .0673650
551.395 .0652705
552.200 .0633998
553.004 .0617246
553.808 .0601963
554.611 .0587827
555.414 .0574777
556.216 .0562525
557.018 .0551119
557.819 .0540561
558.619 .0530695
559.419 .0521463
560.218 .0512844
561.017 .0504639
561.815 .0496620
562.613 .0488897
563.410 .0481460
564.207 .0474172
565.003 .0467110
565.799 .0460285
566.594 .0453703
567.388 .0447558
568.182 .0441757
568.976 .0436272
569.769 .0431159
570.562 .0426305
571.354 .0421576
572.145 .0416990
572.936 .0412568
573.727 .0408281
574.517 .0404109
575.307 .0400072
576.096 .0396156
576.885 .0392363
577.673 .0388719
578.461 .0385211
579.248 .0381843
580.035 .0378621
580.821 .0375471
581.607 .0372444
582.392 .0369525
583.177 .0366742
583.962 .0364143
584.746 .0361751
585.529 .0359563
586.313 .0357594
587.095 .0355826
587.878 .0354269
588.660 .0352900
589.441 .0351698
590.222 .0350628
591.003 .0349697
591.783 .0348864
592.563 .0348099
593.342 .0347387
594.121 .0346728
594.899 .0346091
595.678 .0345493
596.455 .0344921
597.233 .0344379
598.009 .0343853
598.786 .0343370
599.562 .0342904
600.338 .0342463
601.113 .0342034
601.888 .0341623
602.663 .0341210
603.437 .0340801
604.211 .0340379
604.984 .0339947
605.757 .0339518
606.530 .0339101
607.302 .0338690
608.074 .0338309
608.845 .0337950
609.616 .0337619
610.387 .0337310
611.158 .0337033
611.928 .0336760
612.697 .0336500
613.467 .0336244
614.236 .0335994
615.004 .0335746
615.773 .0335504
616.541 .0335265
617.308 .0335034
618.076 .0334814
618.843 .0334597
619.609 .0334387
620.375 .0334189
621.141 .0333986
621.907 .0333777
622.672 .0333560
623.437 .0333326
624.202 .0333071
624.966 .0332803
625.730 .0332512
626.493 .0332199
627.257 .0331859
628.020 .0331495
628.782 .0331115
629.545 .0330712
630.307 .0330288
631.068 .0329843
631.830 .0329383
632.591 .0328906
633.352 .0328417
634.112 .0327924
634.872 .0327432
635.632 .0326944
636.392 .0326458
637.151 .0325981
637.910 .0325518
638.668 .0325070
639.427 .0324633
640.185 .0324216
640.943 .0323811
641.700 .0323413
642.457 .0323033
643.214 .0322670
643.971 .0322316
644.727 .0321976
645.483 .0321650
646.239 .0321329
646.994 .0321015
647.750 .0320702
648.505 .0320386
649.259 .0320081
650.014 .0319785
650.768 .0319494
651.521 .0319220
652.275 .0318969
653.028 .0318726
653.781 .0318490
654.534 .0318266
655.286 .0318038
656.039 .0317806
656.791 .0317572
657.542 .0317332
658.294 .0317089
659.045 .0316860
659.796 .0316633
660.546 .0316417
661.297 .0316219
662.047 .0316031
662.796 .0315842
663.546 .0315657
664.295 .0315471
665.044 .0315275
665.793 .0315079
666.542 .0314897
667.290 .0314723
668.038 .0314577
668.786 .0314463
669.533 .0314378
670.281 .0314318
671.028 .0314279
671.774 .0314237
672.521 .0314193
673.267 .0314139
674.013 .0314065
674.759 .0313966
675.505 .0313859
676.250 .0313738
676.995 .0313611
677.740 .0313482
678.484 .0313352
679.229 .0313216
679.973 .0313077
680.717 .0312924
681.460 .0312753
682.204 .0312569
682.947 .0312374
683.690 .0312164
684.433 .0311954
685.175 .0311744
685.917 .0311541
686.659 .0311348
687.401 .0311164
688.142 .0310985
688.884 .0310807
689.625 .0310620
690.365 .0310417
691.106 .0310196
691.846 .0309957
692.586 .0309694
693.326 .0309414
694.066 .0309120
694.805 .0308816
695.545 .0308508
696.284 .0308198
697.022 .0307882
697.761 .0307568
698.499 .0307250
699.237 .0306925
699.975 .0306595
700.713 .0306258
701.450 .0305917
702.187 .0305573
702.924 .0305235
703.661 .0304903
704.397 .0304581
705.133 .0304277
705.869 .0303987
706.605 .0303707
707.341 .0303431
708.076 .0303153
708.811 .0302872
709.546 .0302586
710.281 .0302289
711.015 .0301988
711.749 .0301686
712.483 .0301389
713.217 .0301095
713.950 .0300808
714.684 .0300532
715.417 .0300263
716.150 .0299996
716.882 .0299725
717.615 .0299449
718.347 .0299168
719.079 .0298881
719.811 .0298594
720.542 .0298308
721.273 .0298029
722.005 .0297758
722.735 .0297501
723.466 .0297256
724.196 .0297023
724.927 .0296800
725.656 .0296584
726.386 .0296378
727.116 .0296182
727.845 .0296000
728.574 .0295837
729.303 .0295693
730.031 .0295570
730.760 .0295465
731.488 .0295375
732.216 .0295303
732.944 .0295242
733.671 .0295194
734.398 .0295157
735.125 .0295128
735.852 .0295105
736.579 .0295089
737.305 .0295080
738.031 .0295081
738.757 .0295084
739.483 .0295086
740.208 .0295085
740.933 .0295080
741.658 .0295077
742.383 .0295070
743.108 .0295069
743.832 .0295074
744.556 .0295086
745.280 .0295104
746.004 .0295124
746.727 .0295147
747.450 .0295170
748.173 .0295185
748.896 .0295198
749.618 .0295204
750.340 .0295209
751.062 .0295214
751.784 .0295226
752.506 .0295242
753.227 .0295259
753.948 .0295270
754.669 .0295274
755.389 .0295264
756.110 .0295243
756.830 .0295208
757.550 .0295166
758.269 .0295117
758.989 .0295061
759.708 .0294994
760.427 .0294924
761.146 .0294841
761.864 .0294747
762.582 .0294638
763.300 .0294514
764.018 .0294370
764.736 .0294215
765.453 .0294051
766.170 .0293887
766.887 .0293723
767.603 .0293562
768.320 .0293400
769.036 .0293243
769.751 .0293085
770.467 .0292925
771.182 .0292762
771.897 .0292597
772.612 .0292428
773.327 .0292257
774.041 .0292086
774.755 .0291914
775.469 .0291743
776.183 .0291574
776.896 .0291400
777.609 .0291225
778.322 .0291044
779.035 .0290855
779.747 .0290663
780.459 .0290468
781.171 .0290265
781.882 .0290055
782.594 .0289839
783.305 .0289617
784.016 .0289393
784.726 .0289165
785.436 .0288937
786.147 .0288706
786.856 .0288475
787.566 .0288241
788.275 .0288003
788.984 .0287766
789.693 .0287521
790.401 .0287266
791.110 .0287000
791.818 .0286726
792.525 .0286443
793.233 .0286152
793.940 .0285864
794.647 .0285576
795.353 .0285291
796.060 .0285013
796.766 .0284734
797.472 .0284456
798.177 .0284174
798.883 .0283883
799.588 .0283586
800.292 .0283289
800.997 .0282990
801.701 .0282700
802.405 .0282421
803.109 .0282163
803.812 .0281921
804.515 .0281697
805.218 .0281488
805.921 .0281286
806.623 .0281089
807.325 .0280893
808.027 .0280698
808.728 .0280508
809.429 .0280322
810.130 .0280144
810.831 .0279973
811.531 .0279815
812.231 .0279665
812.931 .0279519
813.630 .0279378
814.330 .0279246
815.029 .0279113
815.727 .0278982
816.426 .0278858
817.124 .0278742
817.821 .0278639
818.519 .0278553
819.216 .0278491
819.913 .0278450
820.609 .0278429
821.306 .0278432
822.002 .0278455
822.697 .0278504
823.393 .0278568
824.088 .0278642
824.783 .0278731
825.477 .0278827
826.171 .0278925
826.865 .0279029
827.559 .0279136
828.252 .0279244
828.945 .0279352
829.638 .0279457
830.330 .0279559
831.023 .0279659
831.714 .0279757
832.406 .0279853
833.097 .0279947
833.788 .0280039
834.479 .0280128
835.169 .0280221
835.859 .0280321
836.548 .0280427
837.238 .0280546
837.927 .0280677
838.615 .0280818
839.304 .0280971
839.992 .0281127
840.680 .0281286
841.367 .0281443
842.054 .0281590
842.741 .0281727
843.428 .0281854
844.114 .0281975
844.800 .0282090
845.485 .0282203
846.170 .0282312
846.855 .0282412
847.540 .0282502
848.224 .0282575
848.908 .0282630
849.592 .0282665
850.275 .0282678
850.958 .0282672
851.641 .0282652
852.323 .0282617
853.005 .0282573
853.687 .0282519
854.368 .0282458
855.049 .0282390
855.730 .0282316
856.410 .0282234
857.090 .0282150
857.769 .0282061
858.449 .0281970
859.128 .0281879
859.806 .0281786
860.485 .0281694
861.163 .0281600
861.840 .0281509
862.518 .0281418
863.195 .0281324
863.871 .0281229
864.548 .0281131
865.224 .0281032
865.899 .0280929
866.574 .0280816
867.249 .0280695
867.924 .0280563
868.598 .0280421
869.272 .0280265
869.946 .0280098
870.619 .0279922
871.292 .0279739
871.964 .0279545
872.636 .0279341
873.308 .0279123
873.979 .0278892
874.651 .0278649
875.321 .0278393
875.992 .0278127
876.662 .0277853
877.331 .0277576
878.001 .0277304
878.670 .0277034
879.338 .0276768
880.007 .0276505
880.675 .0276248
881.342 .0275995
882.009 .0275743
882.676 .0275489
883.343 .0275236
884.009 .0274983
884.675 .0274727
885.340 .0274465
886.005 .0274201
886.670 .0273936
887.334 .0273668
887.998 .0273397
888.662 .0273126
889.325 .0272856
889.988 .0272589
890.650 .0272324
891.312 .0272059
891.974 .0271794
892.636 .0271527
893.297 .0271255
893.957 .0270979
894.618 .0270697
895.278 .0270407
895.937 .0270113
896.596 .0269823
897.255 .0269541
897.914 .0269268
898.572 .0269013
899.230 .0268774
899.887 .0268544
900.544 .0268319
901.201 .0268091
901.857 .0267856
902.513 .0267612
903.168 .0267356
903.823 .0267089
904.478 .0266820
905.132 .0266546
905.786 .0266272
906.440 .0266003
907.093 .0265741
907.746 .0265480
908.399 .0265218
909.051 .0264950
909.703 .0264673
910.354 .0264386
911.005 .0264092
911.656 .0263788
912.306 .0263486
912.956 .0263184
913.605 .0262883
914.254 .0262595
914.903 .0262320
915.551 .0262057
916.199 .0261817
916.847 .0261594
917.494 .0261392
918.141 .0261208
918.788 .0261042
919.434 .0260890
920.079 .0260749
920.725 .0260617
921.370 .0260486
922.014 .0260357
922.658 .0260231
923.302 .0260103
923.946 .0259980
924.589 .0259858
925.231 .0259733
925.873 .0259608
926.515 .0259479
927.157 .0259342
927.798 .0259201
928.439 .0259053
929.079 .0258900
929.719 .0258741
930.359 .0258582
930.998 .0258422
931.637 .0258273
932.275 .0258136
932.913 .0258014
933.551 .0257913
934.188 .0257830
934.825 .0257766
935.462 .0257728
936.098 .0257711
936.733 .0257712
937.369 .0257732
938.004 .0257768
938.638 .0257819
939.273 .0257888
939.907 .0257972
940.540 .0258076
941.173 .0258199
941.806 .0258341
942.438 .0258496
943.070 .0258662
943.702 .0258837
944.333 .0259011
944.964 .0259188
945.594 .0259356
946.224 .0259519
946.854 .0259681
947.483 .0259845
948.112 .0260012
948.741 .0260185
949.369 .0260361
949.996 .0260535
950.624 .0260702
951.251 .0260856
951.878 .0260996
952.504 .0261119
953.130 .0261230
953.755 .0261334
954.380 .0261433
955.005 .0261534
955.629 .0261633
956.253 .0261740
956.877 .0261847
957.500 .0261953
958.123 .0262056
958.746 .0262150
959.368 .0262243
959.990 .0262330
960.611 .0262418
961.232 .0262508
961.853 .0262607
962.473 .0262716
963.093 .0262835
963.712 .0262956
964.331 .0263080
964.950 .0263204
965.569 .0263327
966.187 .0263449
966.804 .0263563
967.422 .0263677
968.039 .0263787
968.655 .0263893
969.272 .0263995
969.887 .0264089
970.503 .0264188
971.118 .0264283
971.733 .0264379
972.347 .0264474
972.961 .0264571
973.575 .0264669
974.188 .0264761
974.801 .0264845
975.414 .0264912
976.026 .0264961
976.638 .0264995
977.250 .0265015
977.861 .0265024
978.472 .0265031
979.083 .0265037
979.693 .0265044
980.303 .0265050
980.912 .0265045
981.521 .0265023
982.130 .0264987
982.738 .0264932
983.346 .0264860
983.954 .0264771
984.562 .0264679
985.169 .0264585
985.775 .0264495
986.382 .0264407
986.988 .0264319
987.594 .0264227
988.199 .0264126
988.804 .0264009
989.409 .0263874
990.013 .0263729
990.617 .0263579
991.221 .0263423
991.824 .0263270
992.427 .0263125
993.030 .0262988
993.632 .0262859
994.234 .0262744
994.836 .0262637
995.438 .0262532
996.039 .0262431
996.640 .0262329
997.240 .0262231
997.840 .0262140
998.440 .0262050
999.040 .0261967
999.639 .0261898
1000.238 .0261831
1000.836 .0261762
1001.435 .0261696
1002.033 .0261627
1002.630 .0261542
1003.228 .0261439
1003.825 .0261319
1004.422 .0261179
1005.018 .0261025
1005.614 .0260860
1006.210 .0260682
1006.806 .0260503
1007.401 .0260314
1007.996 .0260114
1008.591 .0259905
1009.186 .0259686
1009.780 .0259448
1010.374 .0259198
1010.967 .0258945
1011.561 .0258685
1012.154 .0258422
1012.746 .0258166
1013.339 .0257914
1013.931 .0257665
1014.523 .0257416
1015.115 .0257163
1015.706 .0256909
1016.298 .0256660
1016.888 .0256413
1017.479 .0256171
1018.069 .0255946
1018.660 .0255735
1019.250 .0255538
1019.839 .0255356
1020.429 .0255181
1021.018 .0255010
1021.607 .0254843
1022.195 .0254680
1022.784 .0254511
1023.372 .0254350
1023.960 .0254195
1024.547 .0254050
1025.135 .0253909
1025.722 .0253773
1026.309 .0253635
1026.896 .0253500
1027.483 .0253364
1028.069 .0253220
1028.655 .0253071
1029.241 .0252924
1029.827 .0252771
1030.412 .0252621
1030.997 .0252461
1031.582 .0252299
1032.167 .0252130
1032.752 .0251957
1033.336 .0251774
1033.921 .0251581
1034.505 .0251379
1035.089 .0251176
1035.672 .0250966
1036.256 .0250756
1036.839 .0250545
1037.422 .0250338
1038.005 .0250141
1038.588 .0249946
1039.171 .0249764
1039.753 .0249599
1040.335 .0249452
1040.918 .0249323
1041.500 .0249204
1042.081 .0249095
1042.663 .0248992
1043.244 .0248892
1043.826 .0248791
1044.407 .0248684
1044.988 .0248581
1045.569 .0248477
1046.150 .0248375
1046.730 .0248278
1047.311 .0248177
1047.891 .0248066
1048.471 .0247953
1049.052 .0247815
1049.632 .0247660
1050.211 .0247495
1050.791 .0247325
1051.371 .0247154
1051.950 .0246996
1052.530 .0246861
1053.109 .0246742
1053.688 .0246648
1054.268 .0246567
1054.847 .0246483
1055.426 .0246403
1056.005 .0246318
1056.583 .0246224
1057.162 .0246134
1057.741 .0246052
1058.319 .0245984
1058.898 .0245933
1059.476 .0245897
1060.055 .0245867
1060.633 .0245837
1061.211 .0245805
1061.790 .0245769
1062.368 .0245722
1062.946 .0245686
1063.524 .0245662
1064.102 .0245663
1064.680 .0245693
1065.258 .0245746
1065.836 .0245819
1066.414 .0245906
1066.992 .0245997
1067.570 .0246093
1068.148 .0246186
1068.726 .0246287
1069.304 .0246388
1069.882 .0246500
1070.460 .0246627
1071.038 .0246764
1071.616 .0246903
1072.194 .0247042
1072.772 .0247160
1073.350 .0247254
1073.928 .0247325
1074.506 .0247376
1075.084 .0247433
1075.662 .0247498
1076.240 .0247576
1076.819 .0247671
1077.397 .0247800
1077.976 .0247948
1078.554 .0248104
1079.133 .0248262
1079.711 .0248411
1080.290 .0248540
1080.869 .0248651
1081.448 .0248746
1082.027 .0248843
1082.606 .0248958
1083.185 .0249105
1083.764 .0249289
1084.343 .0249527
1084.923 .0249799
1085.502 .0250113
1086.082 .0250469
1086.662 .0250848
1087.242 .0251221
1087.822 .0251591
1088.402 .0251956
1088.983 .0252318
1089.563 .0252679
1090.144 .0253039
1090.725 .0253422
1091.306 .0253830
1091.887 .0254253
1092.469 .0254678
1093.050 .0255101
1093.632 .0255513
1094.214 .0255873
1094.796 .0256180
1095.379 .0256433
1095.961 .0256630
1096.544 .0256795
1097.127 .0256938
1097.710 .0257080
1098.294 .0257241
1098.877 .0257440
1099.461 .0257682
1100.046 .0257960
1100.630 .0258261
1101.215 .0258572
1101.800 .0258866
1102.385 .0259150
1102.970 .0259413
1103.556 .0259651
1104.142 .0259886
1104.728 .0260130
1105.315 .0260373
1105.902 .0260628
1106.489 .0260902
1107.077 .0261204
1107.664 .0261534
1108.253 .0261900
1108.841 .0262270
1109.430 .0262649
1110.019 .0263047
1110.609 .0263458
1111.198 .0263867
1111.789 .0264303
1112.379 .0264760
1112.970 .0265231
1113.561 .0265732
1114.153 .0266267
1114.745 .0266829
1115.338 .0267452
1115.931 .0268095
1116.524 .0268749
1117.117 .0269391
1117.712 .0270029
1118.306 .0270625
1118.901 .0271202
1119.496 .0271754
1120.092 .0272289
1120.689 .0272812
1121.285 .0273350
1121.882 .0273911
1122.480 .0274519
1123.078 .0275210
1123.677 .0275973
1124.276 .0276802
1124.875 .0277714
1125.476 .0278645
1126.076 .0279594
1126.677 .0280550
1127.279 .0281502
1127.881 .0282427
1128.484 .0283331
1129.087 .0284220
1129.691 .0285082
1130.295 .0285981
1130.900 .0286912
1131.505 .0287858
1132.111 .0288840
1132.718 .0289858
1133.325 .0290860
1133.933 .0291878
1134.541 .0292892
1135.150 .0293861
1135.760 .0294849
1136.370 .0295886
1136.981 .0296990
1137.592 .0298178
1138.204 .0299483
1138.817 .0300963
1139.431 .0302503
1140.045 .0304158
1140.660 .0305827
1141.275 .0307600
1141.891 .0309700
1142.508 .0310194
1143.126 .0312923
1143.744 .0313708
1144.363 .0318057
1144.983 .0327139
