Measurement Sequence started on: 15-12-46-377
Integration time: 28
Scans to Average: 2 
>>>>>Begin Spectral Data<<<<<
432.689 .0000100
433.621 .0000100
434.552 .0000100
435.482 .0000100
436.410 .0000100
437.337 .0000100
438.262 .0294222
439.187 .0622085
440.110 .1029388
441.031 .1488303
441.952 .1933466
442.871 .2282899
443.789 .2473352
444.705 .2483314
445.621 .2340111
446.535 .2102477
447.447 .1834230
448.359 .1423100
449.269 .1220973
450.178 .1093285
451.086 .1002828
451.993 .0933207
452.898 .0878038
453.803 .0832727
454.706 .0795266
455.608 .0763471
456.508 .0736276
457.408 .0712750
458.306 .0692026
459.204 .0673294
460.100 .0656200
460.995 .0640521
461.888 .0626047
462.781 .0612680
463.673 .0600336
464.563 .0588888
465.452 .0578344
466.340 .0568443
467.228 .0559344
468.114 .0551014
468.999 .0543396
469.882 .0536401
470.765 .0530114
471.647 .0524446
472.528 .0519393
473.407 .0514978
474.286 .0511154
475.163 .0507736
476.040 .0504807
476.915 .0502217
477.790 .0499893
478.663 .0497861
479.535 .0496089
480.407 .0494543
481.277 .0493281
482.147 .0492213
483.015 .0491228
483.883 .0490398
484.749 .0489713
485.615 .0489094
486.479 .0488590
487.343 .0488216
488.206 .0487985
489.067 .0487878
489.928 .0487972
490.788 .0488178
491.647 .0488564
492.505 .0489180
493.362 .0489953
494.218 .0490985
495.073 .0492244
495.928 .0493848
496.781 .0495754
497.634 .0498104
498.486 .0500813
499.337 .0503763
500.187 .0507033
501.036 .0510517
501.884 .0514186
502.731 .0518062
503.578 .0522144
504.424 .0526475
505.268 .0530999
506.113 .0535768
506.956 .0540789
507.798 .0546211
508.640 .0552119
509.480 .0558632
510.320 .0565719
511.160 .0573600
511.998 .0582295
512.836 .0591966
513.672 .0602778
514.508 .0614578
515.344 .0627506
516.178 .0641823
517.012 .0657749
517.845 .0675815
518.677 .0696465
519.508 .0720267
520.339 .0747636
521.169 .0779261
521.998 .0815509
522.826 .0856872
523.654 .0903404
524.481 .0955434
525.307 .1013562
526.133 .1077317
526.958 .1146370
527.782 .1220270
528.605 .1298095
529.428 .1378166
530.250 .1454442
531.072 .1524564
531.892 .1583969
532.712 .1630001
533.532 .1659873
534.350 .1671701
535.168 .1664666
535.986 .1639650
536.802 .1598086
537.618 .1542361
538.434 .1475398
539.249 .1402222
540.063 .1324450
540.876 .1246266
541.689 .1170067
542.501 .1098097
543.313 .1032082
544.124 .0973387
544.934 .0920649
545.744 .0873285
546.553 .0830702
547.361 .0792544
548.169 .0758739
548.976 .0728638
549.783 .0701754
550.589 .0677857
551.395 .0656505
552.200 .0637157
553.004 .0619362
553.808 .0603136
554.611 .0588213
555.414 .0574408
556.216 .0561850
557.018 .0550482
557.819 .0540095
558.619 .0530545
559.419 .0521699
560.218 .0513454
561.017 .0505673
561.815 .0498234
562.613 .0491034
563.410 .0484117
564.207 .0477433
565.003 .0470988
565.799 .0464838
566.594 .0458981
567.388 .0453433
568.182 .0448037
568.976 .0442786
569.769 .0437559
570.562 .0432374
571.354 .0427207
572.145 .0422157
572.936 .0417239
573.727 .0412354
574.517 .0407587
575.307 .0402931
576.096 .0398386
576.885 .0394004
577.673 .0389798
578.461 .0385809
579.248 .0382041
580.035 .0378526
580.821 .0375249
581.607 .0372249
582.392 .0369503
583.177 .0366980
583.962 .0364668
584.746 .0362583
585.529 .0360657
586.313 .0358903
587.095 .0357333
587.878 .0355896
588.660 .0354601
589.441 .0353420
590.222 .0352315
591.003 .0351293
591.783 .0350338
592.563 .0349432
593.342 .0348584
594.121 .0347779
594.899 .0347002
595.678 .0346251
596.455 .0345535
597.233 .0344835
598.009 .0344150
598.786 .0343495
599.562 .0342861
600.338 .0342254
601.113 .0341674
601.888 .0341114
602.663 .0340569
603.437 .0340044
604.211 .0339524
604.984 .0339005
605.757 .0338501
606.530 .0338015
607.302 .0337550
608.074 .0337126
608.845 .0336733
609.616 .0336374
610.387 .0336051
611.158 .0335752
611.928 .0335466
612.697 .0335182
613.467 .0334899
614.236 .0334616
615.004 .0334336
615.773 .0334074
616.541 .0333826
617.308 .0333604
618.076 .0333411
618.843 .0333232
619.609 .0333058
620.375 .0332885
621.141 .0332695
621.907 .0332491
622.672 .0332271
623.437 .0332036
624.202 .0331796
624.966 .0331560
625.730 .0331335
626.493 .0331118
627.257 .0330910
628.020 .0330710
628.782 .0330496
629.545 .0330274
630.307 .0330032
631.068 .0329766
631.830 .0329481
632.591 .0329181
633.352 .0328868
634.112 .0328555
634.872 .0328240
635.632 .0327927
636.392 .0327611
637.151 .0327303
637.910 .0326990
638.668 .0326674
639.427 .0326358
640.185 .0326038
640.943 .0325717
641.700 .0325408
642.457 .0325101
643.214 .0324809
643.971 .0324522
644.727 .0324247
645.483 .0323975
646.239 .0323706
646.994 .0323436
647.750 .0323163
648.505 .0322889
649.259 .0322618
650.014 .0322345
650.768 .0322079
651.521 .0321821
652.275 .0321563
653.028 .0321303
653.781 .0321034
654.534 .0320755
655.286 .0320466
656.039 .0320167
656.791 .0319863
657.542 .0319551
658.294 .0319244
659.045 .0318938
659.796 .0318634
660.546 .0318341
661.297 .0318053
662.047 .0317768
662.796 .0317481
663.546 .0317194
664.295 .0316904
665.044 .0316613
665.793 .0316329
666.542 .0316048
667.290 .0315773
668.038 .0315504
668.786 .0315238
669.533 .0314977
670.281 .0314724
671.028 .0314478
671.774 .0314240
672.521 .0314016
673.267 .0313808
674.013 .0313605
674.759 .0313412
675.505 .0313228
676.250 .0313039
676.995 .0312843
677.740 .0312640
678.484 .0312428
679.229 .0312219
679.973 .0312014
680.717 .0311818
681.460 .0311631
682.204 .0311465
682.947 .0311308
683.690 .0311161
684.433 .0311020
685.175 .0310876
685.917 .0310728
686.659 .0310574
687.401 .0310414
688.142 .0310248
688.884 .0310082
689.625 .0309915
690.365 .0309749
691.106 .0309582
691.846 .0309409
692.586 .0309235
693.326 .0309055
694.066 .0308862
694.805 .0308656
695.545 .0308437
696.284 .0308203
697.022 .0307956
697.761 .0307701
698.499 .0307442
699.237 .0307189
699.975 .0306947
700.713 .0306717
701.450 .0306509
702.187 .0306324
702.924 .0306156
703.661 .0306003
704.397 .0305861
705.133 .0305723
705.869 .0305585
706.605 .0305450
707.341 .0305313
708.076 .0305176
708.811 .0305040
709.546 .0304907
710.281 .0304773
711.015 .0304634
711.749 .0304486
712.483 .0304326
713.217 .0304156
713.950 .0303971
714.684 .0303769
715.417 .0303558
716.150 .0303343
716.882 .0303122
717.615 .0302898
718.347 .0302678
719.079 .0302458
719.811 .0302238
720.542 .0302017
721.273 .0301796
722.005 .0301574
722.735 .0301355
723.466 .0301140
724.196 .0300926
724.927 .0300715
725.656 .0300504
726.386 .0300291
727.116 .0300078
727.845 .0299866
728.574 .0299652
729.303 .0299441
730.031 .0299239
730.760 .0299041
731.488 .0298853
732.216 .0298677
732.944 .0298515
733.671 .0298367
734.398 .0298230
735.125 .0298105
735.852 .0297990
736.579 .0297888
737.305 .0297795
738.031 .0297711
738.757 .0297635
739.483 .0297563
740.208 .0297492
740.933 .0297421
741.658 .0297350
742.383 .0297276
743.108 .0297200
743.832 .0297125
744.556 .0297050
745.280 .0296971
746.004 .0296887
746.727 .0296798
747.450 .0296698
748.173 .0296581
748.896 .0296449
749.618 .0296303
750.340 .0296149
751.062 .0295989
751.784 .0295826
752.506 .0295666
753.227 .0295511
753.948 .0295357
754.669 .0295202
755.389 .0295044
756.110 .0294884
756.830 .0294719
757.550 .0294553
758.269 .0294386
758.989 .0294220
759.708 .0294058
760.427 .0293900
761.146 .0293745
761.864 .0293591
762.582 .0293438
763.300 .0293287
764.018 .0293142
764.736 .0293004
765.453 .0292871
766.170 .0292748
766.887 .0292632
767.603 .0292515
768.320 .0292388
769.036 .0292253
769.751 .0292104
770.467 .0291943
771.182 .0291772
771.897 .0291598
772.612 .0291429
773.327 .0291274
774.041 .0291130
774.755 .0291004
775.469 .0290893
776.183 .0290793
776.896 .0290694
777.609 .0290597
778.322 .0290496
779.035 .0290396
779.747 .0290301
780.459 .0290217
781.171 .0290147
781.882 .0290096
782.594 .0290060
783.305 .0290040
784.016 .0290028
784.726 .0290018
785.436 .0290000
786.147 .0289972
786.856 .0289930
787.566 .0289869
788.275 .0289793
788.984 .0289706
789.693 .0289608
790.401 .0289501
791.110 .0289383
791.818 .0289261
792.525 .0289131
793.233 .0288996
793.940 .0288855
794.647 .0288712
795.353 .0288568
796.060 .0288423
796.766 .0288275
797.472 .0288128
798.177 .0287980
798.883 .0287831
799.588 .0287684
800.292 .0287547
800.997 .0287416
801.701 .0287292
802.405 .0287178
803.109 .0287075
803.812 .0286983
804.515 .0286898
805.218 .0286814
805.921 .0286729
806.623 .0286640
807.325 .0286543
808.027 .0286443
808.728 .0286343
809.429 .0286239
810.130 .0286133
810.831 .0286020
811.531 .0285900
812.231 .0285768
812.931 .0285623
813.630 .0285467
814.330 .0285299
815.029 .0285122
815.727 .0284936
816.426 .0284749
817.124 .0284566
817.821 .0284385
818.519 .0284214
819.216 .0284050
819.913 .0283895
820.609 .0283750
821.306 .0283621
822.002 .0283511
822.697 .0283428
823.393 .0283364
824.088 .0283315
824.783 .0283279
825.477 .0283250
826.171 .0283217
826.865 .0283185
827.559 .0283150
828.252 .0283110
828.945 .0283066
829.638 .0283020
830.330 .0282970
831.023 .0282922
831.714 .0282872
832.406 .0282814
833.097 .0282742
833.788 .0282659
834.479 .0282561
835.169 .0282458
835.859 .0282357
836.548 .0282263
837.238 .0282178
837.927 .0282110
838.615 .0282049
839.304 .0281995
839.992 .0281945
840.680 .0281899
841.367 .0281847
842.054 .0281791
842.741 .0281732
843.428 .0281671
844.114 .0281616
844.800 .0281566
845.485 .0281514
846.170 .0281459
846.855 .0281392
847.540 .0281303
848.224 .0281193
848.908 .0281065
849.592 .0280923
850.275 .0280771
850.958 .0280612
851.641 .0280454
852.323 .0280299
853.005 .0280151
853.687 .0280011
854.368 .0279871
855.049 .0279732
855.730 .0279590
856.410 .0279442
857.090 .0279294
857.769 .0279143
858.449 .0278994
859.128 .0278848
859.806 .0278709
860.485 .0278576
861.163 .0278447
861.840 .0278328
862.518 .0278215
863.195 .0278104
863.871 .0277993
864.548 .0277881
865.224 .0277768
865.899 .0277652
866.574 .0277537
867.249 .0277421
867.924 .0277312
868.598 .0277207
869.272 .0277111
869.946 .0277025
870.619 .0276942
871.292 .0276863
871.964 .0276786
872.636 .0276707
873.308 .0276628
873.979 .0276545
874.651 .0276461
875.321 .0276374
875.992 .0276290
876.662 .0276205
877.331 .0276123
878.001 .0276044
878.670 .0275964
879.338 .0275880
880.007 .0275797
880.675 .0275715
881.342 .0275633
882.009 .0275556
882.676 .0275484
883.343 .0275412
884.009 .0275343
884.675 .0275273
885.340 .0275202
886.005 .0275129
886.670 .0275059
887.334 .0274987
887.998 .0274913
888.662 .0274841
889.325 .0274770
889.988 .0274702
890.650 .0274638
891.312 .0274572
891.974 .0274502
892.636 .0274433
893.297 .0274368
893.957 .0274301
894.618 .0274241
895.278 .0274185
895.937 .0274133
896.596 .0274087
897.255 .0274040
897.914 .0273992
898.572 .0273943
899.230 .0273890
899.887 .0273828
900.544 .0273756
901.201 .0273674
901.857 .0273581
902.513 .0273477
903.168 .0273363
903.823 .0273231
904.478 .0273090
905.132 .0272938
905.786 .0272776
906.440 .0272606
907.093 .0272428
907.746 .0272242
908.399 .0272055
909.051 .0271861
909.703 .0271661
910.354 .0271458
911.005 .0271253
911.656 .0271046
912.306 .0270838
912.956 .0270634
913.605 .0270435
914.254 .0270239
914.903 .0270051
915.551 .0269867
916.199 .0269689
916.847 .0269516
917.494 .0269344
918.141 .0269178
918.788 .0269014
919.434 .0268851
920.079 .0268688
920.725 .0268529
921.370 .0268375
922.014 .0268225
922.658 .0268075
923.302 .0267928
923.946 .0267778
924.589 .0267622
925.231 .0267457
925.873 .0267280
926.515 .0267091
927.157 .0266888
927.798 .0266674
928.439 .0266451
929.079 .0266220
929.719 .0265983
930.359 .0265739
930.998 .0265491
931.637 .0265240
932.275 .0264988
932.913 .0264737
933.551 .0264494
934.188 .0264259
934.825 .0264036
935.462 .0263829
936.098 .0263643
936.733 .0263477
937.369 .0263330
938.004 .0263199
938.638 .0263082
939.273 .0262975
939.907 .0262878
940.540 .0262786
941.173 .0262706
941.806 .0262635
942.438 .0262571
943.070 .0262514
943.702 .0262461
944.333 .0262410
944.964 .0262355
945.594 .0262289
946.224 .0262213
946.854 .0262128
947.483 .0262034
948.112 .0261931
948.741 .0261826
949.369 .0261716
949.996 .0261601
950.624 .0261479
951.251 .0261353
951.878 .0261222
952.504 .0261088
953.130 .0260952
953.755 .0260815
954.380 .0260678
955.005 .0260539
955.629 .0260402
956.253 .0260271
956.877 .0260141
957.500 .0260016
958.123 .0259901
958.746 .0259797
959.368 .0259705
959.990 .0259624
960.611 .0259553
961.232 .0259491
961.853 .0259436
962.473 .0259385
963.093 .0259336
963.712 .0259285
964.331 .0259231
964.950 .0259172
965.569 .0259115
966.187 .0259060
966.804 .0259010
967.422 .0258969
968.039 .0258936
968.655 .0258908
969.272 .0258883
969.887 .0258854
970.503 .0258829
971.118 .0258803
971.733 .0258776
972.347 .0258751
972.961 .0258729
973.575 .0258711
974.188 .0258696
974.801 .0258681
975.414 .0258665
976.026 .0258642
976.638 .0258610
977.250 .0258570
977.861 .0258519
978.472 .0258457
979.083 .0258389
979.693 .0258312
980.303 .0258226
980.912 .0258126
981.521 .0258020
982.130 .0257908
982.738 .0257797
983.346 .0257687
983.954 .0257578
984.562 .0257476
985.169 .0257384
985.775 .0257296
986.382 .0257214
986.988 .0257139
987.594 .0257069
988.199 .0257000
988.804 .0256938
989.409 .0256874
990.013 .0256818
990.617 .0256771
991.221 .0256734
991.824 .0256704
992.427 .0256691
993.030 .0256689
993.632 .0256698
994.234 .0256720
994.836 .0256750
995.438 .0256782
996.039 .0256823
996.640 .0256863
997.240 .0256904
997.840 .0256949
998.440 .0257002
999.040 .0257061
999.639 .0257137
1000.238 .0257224
1000.836 .0257318
1001.435 .0257422
1002.033 .0257528
1002.630 .0257625
1003.228 .0257713
1003.825 .0257790
1004.422 .0257855
1005.018 .0257914
1005.614 .0257972
1006.210 .0258027
1006.806 .0258086
1007.401 .0258140
1007.996 .0258187
1008.591 .0258234
1009.186 .0258274
1009.780 .0258307
1010.374 .0258333
1010.967 .0258361
1011.561 .0258389
1012.154 .0258425
1012.746 .0258465
1013.339 .0258511
1013.931 .0258564
1014.523 .0258621
1015.115 .0258672
1015.706 .0258722
1016.298 .0258775
1016.888 .0258834
1017.479 .0258901
1018.069 .0258978
1018.660 .0259050
1019.250 .0259131
1019.839 .0259212
1020.429 .0259285
1021.018 .0259346
1021.607 .0259402
1022.195 .0259448
1022.784 .0259485
1023.372 .0259515
1023.960 .0259542
1024.547 .0259570
1025.135 .0259607
1025.722 .0259642
1026.309 .0259685
1026.896 .0259741
1027.483 .0259808
1028.069 .0259884
1028.655 .0259975
1029.241 .0260067
1029.827 .0260159
1030.412 .0260251
1030.997 .0260341
1031.582 .0260426
1032.167 .0260516
1032.752 .0260613
1033.336 .0260718
1033.921 .0260841
1034.505 .0260972
1035.089 .0261106
1035.672 .0261234
1036.256 .0261341
1036.839 .0261414
1037.422 .0261454
1038.005 .0261462
1038.588 .0261435
1039.171 .0261387
1039.753 .0261329
1040.335 .0261266
1040.918 .0261206
1041.500 .0261145
1042.081 .0261078
1042.663 .0261001
1043.244 .0260916
1043.826 .0260805
1044.407 .0260672
1044.988 .0260535
1045.569 .0260394
1046.150 .0260264
1046.730 .0260148
1047.311 .0260052
1047.891 .0259980
1048.471 .0259942
1049.052 .0259926
1049.632 .0259928
1050.211 .0259950
1050.791 .0259979
1051.371 .0260011
1051.950 .0260049
1052.530 .0260088
1053.109 .0260122
1053.688 .0260150
1054.268 .0260167
1054.847 .0260173
1055.426 .0260174
1056.005 .0260162
1056.583 .0260146
1057.162 .0260129
1057.741 .0260109
1058.319 .0260085
1058.898 .0260055
1059.476 .0260023
1060.055 .0259987
1060.633 .0259946
1061.211 .0259890
1061.790 .0259837
1062.368 .0259788
1062.946 .0259752
1063.524 .0259740
1064.102 .0259760
1064.680 .0259796
1065.258 .0259847
1065.836 .0259913
1066.414 .0259968
1066.992 .0260003
1067.570 .0260017
1068.148 .0259996
1068.726 .0259958
1069.304 .0259894
1069.882 .0259821
1070.460 .0259746
1071.038 .0259697
1071.616 .0259647
1072.194 .0259601
1072.772 .0259555
1073.350 .0259495
1073.928 .0259410
1074.506 .0259307
1075.084 .0259187
1075.662 .0259066
1076.240 .0258949
1076.819 .0258852
1077.397 .0258787
1077.976 .0258765
1078.554 .0258765
1079.133 .0258788
1079.711 .0258817
1080.290 .0258839
1080.869 .0258825
1081.448 .0258774
1082.027 .0258681
1082.606 .0258554
1083.185 .0258409
1083.764 .0258256
1084.343 .0258115
1084.923 .0257997
1085.502 .0257901
1086.082 .0257846
1086.662 .0257827
1087.242 .0257825
1087.822 .0257827
1088.402 .0257835
1088.983 .0257843
1089.563 .0257835
1090.144 .0257818
1090.725 .0257807
1091.306 .0257796
1091.887 .0257797
1092.469 .0257813
1093.050 .0257855
1093.632 .0257937
1094.214 .0258051
1094.796 .0258190
1095.379 .0258344
1095.961 .0258508
1096.544 .0258663
1097.127 .0258804
1097.710 .0258927
1098.294 .0259022
1098.877 .0259097
1099.461 .0259160
1100.046 .0259227
1100.630 .0259296
1101.215 .0259399
1101.800 .0259537
1102.385 .0259706
1102.970 .0259906
1103.556 .0260113
1104.142 .0260330
1104.728 .0260547
1105.315 .0260747
1105.902 .0260909
1106.489 .0261040
1107.077 .0261159
1107.664 .0261261
1108.253 .0261385
1108.841 .0261537
1109.430 .0261746
1110.019 .0261999
1110.609 .0262304
1111.198 .0262625
1111.789 .0262960
1112.379 .0263285
1112.970 .0263566
1113.561 .0263796
1114.153 .0263968
1114.745 .0264087
1115.338 .0264179
1115.931 .0264274
1116.524 .0264392
1117.117 .0264541
1117.712 .0264751
1118.306 .0265009
1118.901 .0265336
1119.496 .0265698
1120.092 .0266085
1120.689 .0266478
1121.285 .0266886
1121.882 .0267278
1122.480 .0267662
1123.078 .0268067
1123.677 .0268493
1124.276 .0268973
1124.875 .0269523
1125.476 .0270142
1126.076 .0270850
1126.677 .0271655
1127.279 .0272532
1127.881 .0273441
1128.484 .0274353
1129.087 .0275213
1129.691 .0276010
1130.295 .0276734
1130.900 .0277385
1131.505 .0277973
1132.111 .0278551
1132.718 .0279156
1133.325 .0279771
1133.933 .0280418
1134.541 .0281094
1135.150 .0281825
1135.760 .0282588
1136.370 .0283351
1136.981 .0284124
1137.592 .0284891
1138.204 .0285717
1138.817 .0286597
1139.431 .0287550
1140.045 .0288671
1140.660 .0290012
1141.275 .0291791
1141.891 .0293593
1142.508 .0294252
1143.126 .0297264
1143.744 .0300450
1144.363 .0308796
1144.983 .0301669
