Measurement Sequence started on: 15-12-46-377
Integration time: 28
Scans to Average: 2 
>>>>>Begin Spectral Data<<<<<
432.689 .0000100
433.621 .0000100
434.552 .0000100
435.482 .0000100
436.410 .0000100
437.337 .0000100
438.262 .0298122
439.187 .0632840
440.110 .1048360
441.031 .1517158
441.952 .1972527
442.871 .2331250
443.789 .2528148
444.705 .2540729
445.621 .2396598
446.535 .2155375
447.447 .1882076
448.359 .1463635
449.269 .1255341
450.178 .1123953
451.086 .1030425
451.993 .0957997
452.898 .0899822
453.803 .0851726
454.706 .0811440
455.608 .0776940
456.508 .0747241
457.408 .0721687
458.306 .0699539
459.204 .0680193
460.100 .0662980
460.995 .0647629
461.888 .0633806
462.781 .0621202
463.673 .0609533
464.563 .0598794
465.452 .0588654
466.340 .0579137
467.228 .0570309
468.114 .0561993
468.999 .0554299
469.882 .0547262
470.765 .0540867
471.647 .0535082
472.528 .0529826
473.407 .0525013
474.286 .0520600
475.163 .0516487
476.040 .0512713
476.915 .0509244
477.790 .0506122
478.663 .0503388
479.535 .0501047
480.407 .0499167
481.277 .0497672
482.147 .0496508
483.015 .0495689
483.883 .0495083
484.749 .0494573
485.615 .0494106
486.479 .0493710
487.343 .0493408
488.206 .0493236
489.067 .0493180
489.928 .0493273
490.788 .0493507
491.647 .0493806
492.505 .0494117
493.362 .0494444
494.218 .0494808
495.073 .0495200
495.928 .0495776
496.781 .0496602
497.634 .0497705
498.486 .0499162
499.337 .0500967
500.187 .0503083
501.036 .0505426
501.884 .0507953
502.731 .0510642
503.578 .0513561
504.424 .0516758
505.268 .0520250
506.113 .0524267
506.956 .0528919
507.798 .0534214
508.640 .0540165
509.480 .0546757
510.320 .0554053
511.160 .0561996
511.998 .0570771
512.836 .0580466
513.672 .0591386
514.508 .0603622
515.344 .0617353
516.178 .0632910
517.012 .0650502
517.845 .0670352
518.677 .0692762
519.508 .0717847
520.339 .0746084
521.169 .0778117
521.998 .0814392
522.826 .0855681
523.654 .0902329
524.481 .0954495
525.307 .1012778
526.133 .1076679
526.958 .1145869
527.782 .1219070
528.605 .1295174
529.428 .1371990
530.250 .1444377
531.072 .1510089
531.892 .1565023
532.712 .1606901
533.532 .1633461
534.350 .1642619
535.168 .1633955
535.986 .1608282
536.802 .1566908
537.618 .1511989
538.434 .1446248
539.249 .1374048
540.063 .1297606
540.876 .1220590
541.689 .1145689
542.501 .1075357
543.313 .1011580
544.124 .0955044
544.934 .0904873
545.744 .0860816
546.553 .0821704
547.361 .0787103
548.169 .0756442
548.976 .0728716
549.783 .0703710
550.589 .0680998
551.395 .0660266
552.200 .0641279
553.004 .0623976
553.808 .0608325
554.611 .0594244
555.414 .0581721
556.216 .0570510
557.018 .0560502
557.819 .0551578
558.619 .0543342
559.419 .0535556
560.218 .0528194
561.017 .0521020
561.815 .0513954
562.613 .0506828
563.410 .0499639
564.207 .0492501
565.003 .0485497
565.799 .0478614
566.594 .0471824
567.388 .0465266
568.182 .0458866
568.976 .0452509
569.769 .0446236
570.562 .0440096
571.354 .0434104
572.145 .0428256
572.936 .0422590
573.727 .0417159
574.517 .0411965
575.307 .0407028
576.096 .0402314
576.885 .0397852
577.673 .0393636
578.461 .0389640
579.248 .0385901
580.035 .0382481
580.821 .0379331
581.607 .0376438
582.392 .0373793
583.177 .0371373
583.962 .0369109
584.746 .0366967
585.529 .0364928
586.313 .0363015
587.095 .0361222
587.878 .0359546
588.660 .0358005
589.441 .0356627
590.222 .0355377
591.003 .0354252
591.783 .0353242
592.563 .0352311
593.342 .0351445
594.121 .0350614
594.899 .0349818
595.678 .0349065
596.455 .0348361
597.233 .0347702
598.009 .0347096
598.786 .0346553
599.562 .0346042
600.338 .0345550
601.113 .0345068
601.888 .0344573
602.663 .0344055
603.437 .0343514
604.211 .0342954
604.984 .0342383
605.757 .0341820
606.530 .0341257
607.302 .0340709
608.074 .0340180
608.845 .0339653
609.616 .0339130
610.387 .0338622
611.158 .0338129
611.928 .0337642
612.697 .0337172
613.467 .0336730
614.236 .0336315
615.004 .0335932
615.773 .0335574
616.541 .0335245
617.308 .0334944
618.076 .0334656
618.843 .0334376
619.609 .0334110
620.375 .0333860
621.141 .0333615
621.907 .0333377
622.672 .0333141
623.437 .0332906
624.202 .0332667
624.966 .0332431
625.730 .0332201
626.493 .0331969
627.257 .0331736
628.020 .0331506
628.782 .0331279
629.545 .0331042
630.307 .0330794
631.068 .0330539
631.830 .0330270
632.591 .0329988
633.352 .0329692
634.112 .0329384
634.872 .0329075
635.632 .0328767
636.392 .0328446
637.151 .0328115
637.910 .0327775
638.668 .0327421
639.427 .0327058
640.185 .0326692
640.943 .0326323
641.700 .0325969
642.457 .0325640
643.214 .0325330
643.971 .0325035
644.727 .0324763
645.483 .0324505
646.239 .0324253
646.994 .0324004
647.750 .0323756
648.505 .0323519
649.259 .0323293
650.014 .0323075
650.768 .0322870
651.521 .0322679
652.275 .0322503
653.028 .0322336
653.781 .0322172
654.534 .0322005
655.286 .0321828
656.039 .0321643
656.791 .0321447
657.542 .0321240
658.294 .0321020
659.045 .0320786
659.796 .0320544
660.546 .0320291
661.297 .0320017
662.047 .0319731
662.796 .0319436
663.546 .0319128
664.295 .0318811
665.044 .0318487
665.793 .0318163
666.542 .0317845
667.290 .0317532
668.038 .0317220
668.786 .0316907
669.533 .0316602
670.281 .0316294
671.028 .0315986
671.774 .0315681
672.521 .0315377
673.267 .0315080
674.013 .0314794
674.759 .0314517
675.505 .0314247
676.250 .0313983
676.995 .0313721
677.740 .0313454
678.484 .0313185
679.229 .0312913
679.973 .0312643
680.717 .0312382
681.460 .0312135
682.204 .0311899
682.947 .0311680
683.690 .0311479
684.433 .0311286
685.175 .0311100
685.917 .0310916
686.659 .0310726
687.401 .0310531
688.142 .0310333
688.884 .0310140
689.625 .0309948
690.365 .0309766
691.106 .0309591
691.846 .0309425
692.586 .0309265
693.326 .0309104
694.066 .0308942
694.805 .0308776
695.545 .0308598
696.284 .0308410
697.022 .0308216
697.761 .0308024
698.499 .0307835
699.237 .0307659
699.975 .0307496
700.713 .0307345
701.450 .0307198
702.187 .0307054
702.924 .0306909
703.661 .0306756
704.397 .0306592
705.133 .0306415
705.869 .0306234
706.605 .0306048
707.341 .0305861
708.076 .0305681
708.811 .0305505
709.546 .0305334
710.281 .0305162
711.015 .0304989
711.749 .0304807
712.483 .0304616
713.217 .0304421
713.950 .0304223
714.684 .0304026
715.417 .0303832
716.150 .0303643
716.882 .0303464
717.615 .0303288
718.347 .0303110
719.079 .0302930
719.811 .0302747
720.542 .0302559
721.273 .0302366
722.005 .0302166
722.735 .0301967
723.466 .0301766
724.196 .0301567
724.927 .0301365
725.656 .0301163
726.386 .0300961
727.116 .0300758
727.845 .0300556
728.574 .0300353
729.303 .0300149
730.031 .0299951
730.760 .0299754
731.488 .0299560
732.216 .0299372
732.944 .0299193
733.671 .0299028
734.398 .0298874
735.125 .0298732
735.852 .0298601
736.579 .0298478
737.305 .0298362
738.031 .0298247
738.757 .0298132
739.483 .0298012
740.208 .0297883
740.933 .0297748
741.658 .0297605
742.383 .0297454
743.108 .0297297
743.832 .0297139
744.556 .0296977
745.280 .0296812
746.004 .0296642
746.727 .0296471
747.450 .0296298
748.173 .0296120
748.896 .0295941
749.618 .0295762
750.340 .0295589
751.062 .0295421
751.784 .0295260
752.506 .0295110
753.227 .0294966
753.948 .0294828
754.669 .0294691
755.389 .0294556
756.110 .0294415
756.830 .0294269
757.550 .0294115
758.269 .0293954
758.989 .0293789
759.708 .0293614
760.427 .0293438
761.146 .0293261
761.864 .0293088
762.582 .0292914
763.300 .0292739
764.018 .0292571
764.736 .0292407
765.453 .0292252
766.170 .0292106
766.887 .0291971
767.603 .0291848
768.320 .0291735
769.036 .0291635
769.751 .0291541
770.467 .0291454
771.182 .0291368
771.897 .0291284
772.612 .0291197
773.327 .0291114
774.041 .0291034
774.755 .0290959
775.469 .0290894
776.183 .0290835
776.896 .0290777
777.609 .0290721
778.322 .0290664
779.035 .0290600
779.747 .0290530
780.459 .0290454
781.171 .0290378
781.882 .0290306
782.594 .0290242
783.305 .0290190
784.016 .0290155
784.726 .0290136
785.436 .0290124
786.147 .0290110
786.856 .0290092
787.566 .0290061
788.275 .0290017
788.984 .0289963
789.693 .0289902
790.401 .0289839
791.110 .0289778
791.818 .0289726
792.525 .0289682
793.233 .0289645
793.940 .0289611
794.647 .0289574
795.353 .0289530
796.060 .0289476
796.766 .0289409
797.472 .0289336
798.177 .0289262
798.883 .0289187
799.588 .0289117
800.292 .0289054
800.997 .0288996
801.701 .0288943
802.405 .0288890
803.109 .0288839
803.812 .0288780
804.515 .0288712
805.218 .0288630
805.921 .0288534
806.623 .0288424
807.325 .0288303
808.027 .0288175
808.728 .0288044
809.429 .0287908
810.130 .0287770
810.831 .0287634
811.531 .0287495
812.231 .0287352
812.931 .0287200
813.630 .0287035
814.330 .0286862
815.029 .0286679
815.727 .0286491
816.426 .0286306
817.124 .0286130
817.821 .0285968
818.519 .0285819
819.216 .0285688
819.913 .0285567
820.609 .0285454
821.306 .0285350
822.002 .0285242
822.697 .0285133
823.393 .0285025
824.088 .0284917
824.783 .0284809
825.477 .0284697
826.171 .0284585
826.865 .0284474
827.559 .0284363
828.252 .0284252
828.945 .0284141
829.638 .0284030
830.330 .0283921
831.023 .0283810
831.714 .0283700
832.406 .0283589
833.097 .0283475
833.788 .0283352
834.479 .0283221
835.169 .0283082
835.859 .0282939
836.548 .0282796
837.238 .0282662
837.927 .0282529
838.615 .0282400
839.304 .0282274
839.992 .0282150
840.680 .0282021
841.367 .0281882
842.054 .0281733
842.741 .0281576
843.428 .0281414
844.114 .0281248
844.800 .0281082
845.485 .0280926
846.170 .0280775
846.855 .0280624
847.540 .0280475
848.224 .0280323
848.908 .0280166
849.592 .0280003
850.275 .0279834
850.958 .0279661
851.641 .0279483
852.323 .0279302
853.005 .0279120
853.687 .0278935
854.368 .0278748
855.049 .0278552
855.730 .0278350
856.410 .0278141
857.090 .0277926
857.769 .0277711
858.449 .0277498
859.128 .0277295
859.806 .0277104
860.485 .0276928
861.163 .0276768
861.840 .0276625
862.518 .0276495
863.195 .0276373
863.871 .0276257
864.548 .0276147
865.224 .0276043
865.899 .0275943
866.574 .0275853
867.249 .0275771
867.924 .0275698
868.598 .0275630
869.272 .0275565
869.946 .0275504
870.619 .0275440
871.292 .0275375
871.964 .0275305
872.636 .0275234
873.308 .0275163
873.979 .0275090
874.651 .0275020
875.321 .0274951
875.992 .0274883
876.662 .0274817
877.331 .0274753
878.001 .0274689
878.670 .0274628
879.338 .0274570
880.007 .0274517
880.675 .0274470
881.342 .0274427
882.009 .0274389
882.676 .0274352
883.343 .0274320
884.009 .0274287
884.675 .0274252
885.340 .0274217
886.005 .0274180
886.670 .0274145
887.334 .0274119
887.998 .0274101
888.662 .0274094
889.325 .0274097
889.988 .0274109
890.650 .0274127
891.312 .0274149
891.974 .0274176
892.636 .0274206
893.297 .0274239
893.957 .0274276
894.618 .0274317
895.278 .0274365
895.937 .0274421
896.596 .0274489
897.255 .0274566
897.914 .0274648
898.572 .0274726
899.230 .0274796
899.887 .0274861
900.544 .0274912
901.201 .0274946
901.857 .0274962
902.513 .0274963
903.168 .0274951
903.823 .0274922
904.478 .0274878
905.132 .0274823
905.786 .0274758
906.440 .0274679
907.093 .0274582
907.746 .0274474
908.399 .0274354
909.051 .0274225
909.703 .0274090
910.354 .0273953
911.005 .0273816
911.656 .0273686
912.306 .0273563
912.956 .0273453
913.605 .0273352
914.254 .0273261
914.903 .0273181
915.551 .0273112
916.199 .0273047
916.847 .0272986
917.494 .0272927
918.141 .0272875
918.788 .0272818
919.434 .0272761
920.079 .0272701
920.725 .0272640
921.370 .0272578
922.014 .0272508
922.658 .0272432
923.302 .0272355
923.946 .0272264
924.589 .0272159
925.231 .0272035
925.873 .0271894
926.515 .0271729
927.157 .0271544
927.798 .0271338
928.439 .0271114
929.079 .0270877
929.719 .0270629
930.359 .0270370
930.998 .0270109
931.637 .0269847
932.275 .0269584
932.913 .0269321
933.551 .0269058
934.188 .0268794
934.825 .0268533
935.462 .0268278
936.098 .0268032
936.733 .0267799
937.369 .0267583
938.004 .0267384
938.638 .0267197
939.273 .0267024
939.907 .0266859
940.540 .0266702
941.173 .0266550
941.806 .0266402
942.438 .0266254
943.070 .0266111
943.702 .0265975
944.333 .0265849
944.964 .0265728
945.594 .0265620
946.224 .0265516
946.854 .0265424
947.483 .0265333
948.112 .0265246
948.741 .0265158
949.369 .0265074
949.996 .0264987
950.624 .0264892
951.251 .0264795
951.878 .0264697
952.504 .0264589
953.130 .0264477
953.755 .0264354
954.380 .0264224
955.005 .0264076
955.629 .0263916
956.253 .0263737
956.877 .0263546
957.500 .0263347
958.123 .0263144
958.746 .0262937
959.368 .0262735
959.990 .0262533
960.611 .0262335
961.232 .0262143
961.853 .0261957
962.473 .0261771
963.093 .0261586
963.712 .0261395
964.331 .0261197
964.950 .0260991
965.569 .0260785
966.187 .0260578
966.804 .0260375
967.422 .0260178
968.039 .0259987
968.655 .0259800
969.272 .0259618
969.887 .0259434
970.503 .0259248
971.118 .0259057
971.733 .0258862
972.347 .0258663
972.961 .0258468
973.575 .0258285
974.188 .0258116
974.801 .0257963
975.414 .0257820
976.026 .0257683
976.638 .0257546
977.250 .0257403
977.861 .0257251
978.472 .0257084
979.083 .0256903
979.693 .0256707
980.303 .0256501
980.912 .0256288
981.521 .0256070
982.130 .0255853
982.738 .0255635
983.346 .0255420
983.954 .0255199
984.562 .0254976
985.169 .0254753
985.775 .0254532
986.382 .0254311
986.988 .0254096
987.594 .0253889
988.199 .0253702
988.804 .0253539
989.409 .0253400
990.013 .0253290
990.617 .0253203
991.221 .0253136
991.824 .0253085
992.427 .0253042
993.030 .0253013
993.632 .0252990
994.234 .0252978
994.836 .0252970
995.438 .0252971
996.039 .0252983
996.640 .0253004
997.240 .0253033
997.840 .0253067
998.440 .0253094
999.040 .0253109
999.639 .0253113
1000.238 .0253101
1000.836 .0253079
1001.435 .0253049
1002.033 .0253016
1002.630 .0252986
1003.228 .0252961
1003.825 .0252950
1004.422 .0252949
1005.018 .0252964
1005.614 .0252986
1006.210 .0253007
1006.806 .0253032
1007.401 .0253054
1007.996 .0253074
1008.591 .0253094
1009.186 .0253121
1009.780 .0253149
1010.374 .0253181
1010.967 .0253217
1011.561 .0253257
1012.154 .0253297
1012.746 .0253330
1013.339 .0253350
1013.931 .0253355
1014.523 .0253344
1015.115 .0253318
1015.706 .0253283
1016.298 .0253250
1016.888 .0253222
1017.479 .0253208
1018.069 .0253214
1018.660 .0253238
1019.250 .0253283
1019.839 .0253340
1020.429 .0253412
1021.018 .0253492
1021.607 .0253580
1022.195 .0253674
1022.784 .0253780
1023.372 .0253891
1023.960 .0254010
1024.547 .0254146
1025.135 .0254302
1025.722 .0254469
1026.309 .0254654
1026.896 .0254854
1027.483 .0255067
1028.069 .0255283
1028.655 .0255506
1029.241 .0255717
1029.827 .0255928
1030.412 .0256130
1030.997 .0256324
1031.582 .0256511
1032.167 .0256703
1032.752 .0256901
1033.336 .0257112
1033.921 .0257337
1034.505 .0257565
1035.089 .0257791
1035.672 .0258013
1036.256 .0258218
1036.839 .0258405
1037.422 .0258570
1038.005 .0258725
1038.588 .0258875
1039.171 .0259025
1039.753 .0259181
1040.335 .0259348
1040.918 .0259526
1041.500 .0259708
1042.081 .0259890
1042.663 .0260062
1043.244 .0260223
1043.826 .0260371
1044.407 .0260506
1044.988 .0260628
1045.569 .0260744
1046.150 .0260851
1046.730 .0260957
1047.311 .0261064
1047.891 .0261166
1048.471 .0261260
1049.052 .0261352
1049.632 .0261435
1050.211 .0261510
1050.791 .0261578
1051.371 .0261644
1051.950 .0261717
1052.530 .0261801
1053.109 .0261884
1053.688 .0261973
1054.268 .0262062
1054.847 .0262149
1055.426 .0262224
1056.005 .0262290
1056.583 .0262342
1057.162 .0262382
1057.741 .0262417
1058.319 .0262454
1058.898 .0262501
1059.476 .0262563
1060.055 .0262648
1060.633 .0262751
1061.211 .0262868
1061.790 .0262981
1062.368 .0263092
1062.946 .0263201
1063.524 .0263299
1064.102 .0263394
1064.680 .0263496
1065.258 .0263616
1065.836 .0263756
1066.414 .0263911
1066.992 .0264094
1067.570 .0264286
1068.148 .0264471
1068.726 .0264630
1069.304 .0264757
1069.882 .0264844
1070.460 .0264894
1071.038 .0264914
1071.616 .0264917
1072.194 .0264917
1072.772 .0264930
1073.350 .0264951
1073.928 .0264995
1074.506 .0265052
1075.084 .0265102
1075.662 .0265144
1076.240 .0265165
1076.819 .0265154
1077.397 .0265118
1077.976 .0265075
1078.554 .0265043
1079.133 .0265032
1079.711 .0265055
1080.290 .0265113
1080.869 .0265205
1081.448 .0265324
1082.027 .0265441
1082.606 .0265549
1083.185 .0265646
1083.764 .0265719
1084.343 .0265765
1084.923 .0265798
1085.502 .0265814
1086.082 .0265831
1086.662 .0265844
1087.242 .0265858
1087.822 .0265870
1088.402 .0265893
1088.983 .0265920
1089.563 .0265926
1090.144 .0265940
1090.725 .0265951
1091.306 .0265945
1091.887 .0265941
1092.469 .0265938
1093.050 .0265956
1093.632 .0265985
1094.214 .0266049
1094.796 .0266148
1095.379 .0266285
1095.961 .0266472
1096.544 .0266664
1097.127 .0266866
1097.710 .0267071
1098.294 .0267241
1098.877 .0267387
1099.461 .0267526
1100.046 .0267654
1100.630 .0267769
1101.215 .0267879
1101.800 .0267993
1102.385 .0268089
1102.970 .0268174
1103.556 .0268256
1104.142 .0268341
1104.728 .0268453
1105.315 .0268582
1105.902 .0268748
1106.489 .0268978
1107.077 .0269264
1107.664 .0269591
1108.253 .0269948
1108.841 .0270331
1109.430 .0270694
1110.019 .0271031
1110.609 .0271342
1111.198 .0271654
1111.789 .0271963
1112.379 .0272291
1112.970 .0272615
1113.561 .0272955
1114.153 .0273291
1114.745 .0273588
1115.338 .0273861
1115.931 .0274082
1116.524 .0274250
1117.117 .0274383
1117.712 .0274491
1118.306 .0274621
1118.901 .0274773
1119.496 .0275017
1120.092 .0275313
1120.689 .0275698
1121.285 .0276141
1121.882 .0276595
1122.480 .0277068
1123.078 .0277549
1123.677 .0277993
1124.276 .0278395
1124.875 .0278802
1125.476 .0279223
1126.076 .0279670
1126.677 .0280185
1127.279 .0280737
1127.881 .0281367
1128.484 .0282057
1129.087 .0282744
1129.691 .0283387
1130.295 .0284012
1130.900 .0284603
1131.505 .0285132
1132.111 .0285659
1132.718 .0286220
1133.325 .0286838
1133.933 .0287525
1134.541 .0288272
1135.150 .0289106
1135.760 .0289998
1136.370 .0290927
1136.981 .0291863
1137.592 .0292787
1138.204 .0293685
1138.817 .0294567
1139.431 .0295424
1140.045 .0296331
1140.660 .0297261
1141.275 .0298372
1141.891 .0299565
1142.508 .0299860
1143.126 .0302231
1143.744 .0302303
1144.363 .0307454
1144.983 .0307624
