Measurement Sequence started on: 15-12-46-377
Integration time: 28
Scans to Average: 2 
>>>>>Begin Spectral Data<<<<<
432.689 .0000100
433.621 .0000100
434.552 .0000100
435.482 .0000100
436.410 .0000100
437.337 .0000100
438.262 .0280099
439.187 .0593744
440.110 .0983813
441.031 .1423625
441.952 .1850900
442.871 .2187275
443.789 .2371662
444.705 .2383181
445.621 .2247294
446.535 .2019933
447.447 .1762412
448.359 .1368755
449.269 .1173340
450.178 .1049979
451.086 .0963316
451.993 .0897459
452.898 .0846029
453.803 .0804411
454.706 .0770190
455.608 .0741221
456.508 .0716211
457.408 .0694230
458.306 .0674447
459.204 .0656644
460.100 .0640338
460.995 .0625619
461.888 .0612201
462.781 .0599980
463.673 .0588903
464.563 .0578796
465.452 .0569460
466.340 .0560680
467.228 .0552422
468.114 .0544565
468.999 .0537187
469.882 .0530260
470.765 .0523763
471.647 .0517840
472.528 .0512496
473.407 .0507771
474.286 .0503591
475.163 .0499955
476.040 .0496722
476.915 .0493808
477.790 .0491237
478.663 .0488826
479.535 .0486573
480.407 .0484469
481.277 .0482521
482.147 .0480816
483.015 .0479310
483.883 .0477982
484.749 .0476832
485.615 .0475885
486.479 .0475091
487.343 .0474470
488.206 .0474080
489.067 .0473905
489.928 .0473978
490.788 .0474370
491.647 .0475086
492.505 .0476127
493.362 .0477533
494.218 .0479235
495.073 .0481196
495.928 .0483459
496.781 .0485853
497.634 .0488496
498.486 .0491377
499.337 .0494489
500.187 .0497826
501.036 .0501373
501.884 .0505176
502.731 .0509079
503.578 .0513171
504.424 .0517456
505.268 .0521820
506.113 .0526367
506.956 .0531071
507.798 .0536112
508.640 .0541637
509.480 .0547780
510.320 .0554748
511.160 .0562727
511.998 .0571844
512.836 .0582127
513.672 .0593722
514.508 .0606691
515.344 .0621186
516.178 .0637297
517.012 .0655319
517.845 .0675375
518.677 .0697781
519.508 .0722936
520.339 .0751191
521.169 .0783364
521.998 .0819746
522.826 .0860785
523.654 .0906748
524.481 .0957607
525.307 .1013555
526.133 .1074214
526.958 .1139358
527.782 .1208227
528.605 .1279527
529.428 .1351822
530.250 .1420220
531.072 .1482846
531.892 .1536038
532.712 .1576856
533.532 .1603324
534.350 .1614266
535.168 .1608311
535.986 .1586161
536.802 .1549106
537.618 .1499257
538.434 .1438686
539.249 .1371495
540.063 .1299243
540.876 .1225438
541.689 .1152748
542.501 .1083153
543.313 .1018321
544.124 .0959917
544.934 .0907138
545.744 .0859386
546.553 .0816323
547.361 .0777842
548.169 .0743576
548.976 .0712925
549.783 .0685629
550.589 .0661345
551.395 .0639662
552.200 .0620023
553.004 .0602332
553.808 .0586441
554.611 .0572341
555.414 .0559795
556.216 .0548705
557.018 .0538991
557.819 .0530483
558.619 .0522805
559.419 .0515795
560.218 .0509201
561.017 .0502874
561.815 .0496553
562.613 .0490289
563.410 .0483847
564.207 .0477311
565.003 .0470743
565.799 .0464277
566.594 .0457907
567.388 .0451798
568.182 .0445963
568.976 .0440322
569.769 .0434918
570.562 .0429736
571.354 .0424598
572.145 .0419584
572.936 .0414574
573.727 .0409651
574.517 .0404777
575.307 .0400004
576.096 .0395358
576.885 .0390889
577.673 .0386650
578.461 .0382600
579.248 .0378724
580.035 .0375086
580.821 .0371677
581.607 .0368488
582.392 .0365545
583.177 .0362863
583.962 .0360381
584.746 .0358126
585.529 .0356062
586.313 .0354230
587.095 .0352583
587.878 .0351119
588.660 .0349827
589.441 .0348678
590.222 .0347674
591.003 .0346780
591.783 .0345983
592.563 .0345268
593.342 .0344594
594.121 .0343946
594.899 .0343291
595.678 .0342639
596.455 .0341987
597.233 .0341332
598.009 .0340680
598.786 .0340041
599.562 .0339409
600.338 .0338778
601.113 .0338155
601.888 .0337536
602.663 .0336916
603.437 .0336297
604.211 .0335673
604.984 .0335045
605.757 .0334427
606.530 .0333827
607.302 .0333245
608.074 .0332701
608.845 .0332192
609.616 .0331730
610.387 .0331316
611.158 .0330946
611.928 .0330617
612.697 .0330322
613.467 .0330053
614.236 .0329800
615.004 .0329556
615.773 .0329318
616.541 .0329093
617.308 .0328889
618.076 .0328705
618.843 .0328539
619.609 .0328407
620.375 .0328296
621.141 .0328196
621.907 .0328106
622.672 .0328010
623.437 .0327897
624.202 .0327765
624.966 .0327601
625.730 .0327414
626.493 .0327216
627.257 .0327012
628.020 .0326803
628.782 .0326607
629.545 .0326417
630.307 .0326228
631.068 .0326041
631.830 .0325858
632.591 .0325652
633.352 .0325434
634.112 .0325193
634.872 .0324925
635.632 .0324637
636.392 .0324334
637.151 .0324022
637.910 .0323714
638.668 .0323405
639.427 .0323096
640.185 .0322788
640.943 .0322487
641.700 .0322174
642.457 .0321852
643.214 .0321514
643.971 .0321164
644.727 .0320792
645.483 .0320416
646.239 .0320032
646.994 .0319655
647.750 .0319286
648.505 .0318924
649.259 .0318580
650.014 .0318251
650.768 .0317940
651.521 .0317650
652.275 .0317380
653.028 .0317132
653.781 .0316894
654.534 .0316670
655.286 .0316444
656.039 .0316217
656.791 .0315982
657.542 .0315733
658.294 .0315472
659.045 .0315202
659.796 .0314923
660.546 .0314641
661.297 .0314361
662.047 .0314081
662.796 .0313800
663.546 .0313521
664.295 .0313238
665.044 .0312950
665.793 .0312660
666.542 .0312373
667.290 .0312088
668.038 .0311815
668.786 .0311553
669.533 .0311304
670.281 .0311069
671.028 .0310846
671.774 .0310628
672.521 .0310416
673.267 .0310208
674.013 .0309999
674.759 .0309792
675.505 .0309591
676.250 .0309391
676.995 .0309201
677.740 .0309022
678.484 .0308856
679.229 .0308702
679.973 .0308562
680.717 .0308430
681.460 .0308310
682.204 .0308195
682.947 .0308085
683.690 .0307983
684.433 .0307883
685.175 .0307785
685.917 .0307690
686.659 .0307602
687.401 .0307518
688.142 .0307440
688.884 .0307366
689.625 .0307286
690.365 .0307196
691.106 .0307086
691.846 .0306955
692.586 .0306806
693.326 .0306637
694.066 .0306458
694.805 .0306270
695.545 .0306080
696.284 .0305886
697.022 .0305697
697.761 .0305511
698.499 .0305317
699.237 .0305119
699.975 .0304904
700.713 .0304676
701.450 .0304437
702.187 .0304193
702.924 .0303950
703.661 .0303716
704.397 .0303491
705.133 .0303273
705.869 .0303067
706.605 .0302868
707.341 .0302672
708.076 .0302484
708.811 .0302293
709.546 .0302096
710.281 .0301894
711.015 .0301692
711.749 .0301485
712.483 .0301283
713.217 .0301079
713.950 .0300871
714.684 .0300661
715.417 .0300442
716.150 .0300215
716.882 .0299986
717.615 .0299751
718.347 .0299507
719.079 .0299256
719.811 .0299003
720.542 .0298739
721.273 .0298471
722.005 .0298191
722.735 .0297902
723.466 .0297604
724.196 .0297295
724.927 .0296977
725.656 .0296652
726.386 .0296324
727.116 .0295995
727.845 .0295671
728.574 .0295352
729.303 .0295034
730.031 .0294726
730.760 .0294424
731.488 .0294125
732.216 .0293833
732.944 .0293549
733.671 .0293281
734.398 .0293035
735.125 .0292811
735.852 .0292608
736.579 .0292435
737.305 .0292292
738.031 .0292167
738.757 .0292057
739.483 .0291956
740.208 .0291857
740.933 .0291763
741.658 .0291673
742.383 .0291588
743.108 .0291512
743.832 .0291447
744.556 .0291389
745.280 .0291333
746.004 .0291274
746.727 .0291210
747.450 .0291141
748.173 .0291064
748.896 .0290978
749.618 .0290885
750.340 .0290792
751.062 .0290705
751.784 .0290619
752.506 .0290532
753.227 .0290442
753.948 .0290343
754.669 .0290234
755.389 .0290114
756.110 .0289984
756.830 .0289851
757.550 .0289722
758.269 .0289598
758.989 .0289481
759.708 .0289372
760.427 .0289274
761.146 .0289180
761.864 .0289089
762.582 .0288993
763.300 .0288891
764.018 .0288792
764.736 .0288694
765.453 .0288596
766.170 .0288505
766.887 .0288420
767.603 .0288344
768.320 .0288273
769.036 .0288204
769.751 .0288139
770.467 .0288074
771.182 .0288007
771.897 .0287936
772.612 .0287865
773.327 .0287798
774.041 .0287734
774.755 .0287679
775.469 .0287631
776.183 .0287589
776.896 .0287558
777.609 .0287531
778.322 .0287506
779.035 .0287481
779.747 .0287453
780.459 .0287421
781.171 .0287387
781.882 .0287350
782.594 .0287310
783.305 .0287273
784.016 .0287234
784.726 .0287190
785.436 .0287141
786.147 .0287084
786.856 .0287019
787.566 .0286946
788.275 .0286863
788.984 .0286773
789.693 .0286681
790.401 .0286585
791.110 .0286481
791.818 .0286370
792.525 .0286249
793.233 .0286114
793.940 .0285964
794.647 .0285800
795.353 .0285624
796.060 .0285442
796.766 .0285251
797.472 .0285051
798.177 .0284847
798.883 .0284633
799.588 .0284409
800.292 .0284179
800.997 .0283939
801.701 .0283690
802.405 .0283437
803.109 .0283187
803.812 .0282939
804.515 .0282698
805.218 .0282458
805.921 .0282215
806.623 .0281970
807.325 .0281723
808.027 .0281466
808.728 .0281207
809.429 .0280944
810.130 .0280674
810.831 .0280403
811.531 .0280133
812.231 .0279860
812.931 .0279589
813.630 .0279317
814.330 .0279042
815.029 .0278761
815.727 .0278477
816.426 .0278189
817.124 .0277906
817.821 .0277631
818.519 .0277365
819.216 .0277105
819.913 .0276859
820.609 .0276620
821.306 .0276392
822.002 .0276174
822.697 .0275968
823.393 .0275773
824.088 .0275590
824.783 .0275418
825.477 .0275260
826.171 .0275112
826.865 .0274981
827.559 .0274863
828.252 .0274755
828.945 .0274655
829.638 .0274563
830.330 .0274478
831.023 .0274403
831.714 .0274336
832.406 .0274273
833.097 .0274211
833.788 .0274155
834.479 .0274098
835.169 .0274043
835.859 .0273996
836.548 .0273954
837.238 .0273917
837.927 .0273889
838.615 .0273863
839.304 .0273837
839.992 .0273815
840.680 .0273792
841.367 .0273764
842.054 .0273735
842.741 .0273706
843.428 .0273681
844.114 .0273664
844.800 .0273660
845.485 .0273660
846.170 .0273668
846.855 .0273678
847.540 .0273677
848.224 .0273667
848.908 .0273651
849.592 .0273623
850.275 .0273591
850.958 .0273560
851.641 .0273528
852.323 .0273501
853.005 .0273474
853.687 .0273441
854.368 .0273396
855.049 .0273342
855.730 .0273273
856.410 .0273186
857.090 .0273092
857.769 .0272989
858.449 .0272880
859.128 .0272777
859.806 .0272674
860.485 .0272571
861.163 .0272472
861.840 .0272374
862.518 .0272271
863.195 .0272171
863.871 .0272072
864.548 .0271984
865.224 .0271908
865.899 .0271849
866.574 .0271801
867.249 .0271769
867.924 .0271753
868.598 .0271741
869.272 .0271735
869.946 .0271734
870.619 .0271728
871.292 .0271723
871.964 .0271717
872.636 .0271714
873.308 .0271714
873.979 .0271718
874.651 .0271724
875.321 .0271731
875.992 .0271737
876.662 .0271737
877.331 .0271732
878.001 .0271723
878.670 .0271709
879.338 .0271691
880.007 .0271677
880.675 .0271666
881.342 .0271662
882.009 .0271665
882.676 .0271672
883.343 .0271680
884.009 .0271683
884.675 .0271680
885.340 .0271670
886.005 .0271654
886.670 .0271635
887.334 .0271616
887.998 .0271603
888.662 .0271596
889.325 .0271595
889.988 .0271596
890.650 .0271598
891.312 .0271594
891.974 .0271584
892.636 .0271565
893.297 .0271538
893.957 .0271502
894.618 .0271458
895.278 .0271409
895.937 .0271358
896.596 .0271305
897.255 .0271247
897.914 .0271181
898.572 .0271105
899.230 .0271016
899.887 .0270913
900.544 .0270787
901.201 .0270642
901.857 .0270474
902.513 .0270283
903.168 .0270067
903.823 .0269827
904.478 .0269567
905.132 .0269287
905.786 .0268989
906.440 .0268679
907.093 .0268358
907.746 .0268027
908.399 .0267692
909.051 .0267349
909.703 .0266999
910.354 .0266642
911.005 .0266280
911.656 .0265918
912.306 .0265558
912.956 .0265202
913.605 .0264852
914.254 .0264513
914.903 .0264190
915.551 .0263878
916.199 .0263582
916.847 .0263294
917.494 .0263013
918.141 .0262734
918.788 .0262452
919.434 .0262167
920.079 .0261880
920.725 .0261590
921.370 .0261300
922.014 .0261007
922.658 .0260715
923.302 .0260422
923.946 .0260127
924.589 .0259829
925.231 .0259522
925.873 .0259205
926.515 .0258878
927.157 .0258544
927.798 .0258206
928.439 .0257864
929.079 .0257525
929.719 .0257188
930.359 .0256862
930.998 .0256543
931.637 .0256230
932.275 .0255925
932.913 .0255629
933.551 .0255336
934.188 .0255048
934.825 .0254766
935.462 .0254495
936.098 .0254239
936.733 .0254001
937.369 .0253782
938.004 .0253582
938.638 .0253405
939.273 .0253243
939.907 .0253092
940.540 .0252954
941.173 .0252819
941.806 .0252689
942.438 .0252568
943.070 .0252450
943.702 .0252332
944.333 .0252220
944.964 .0252112
945.594 .0252008
946.224 .0251908
946.854 .0251814
947.483 .0251726
948.112 .0251648
948.741 .0251575
949.369 .0251508
949.996 .0251451
950.624 .0251402
951.251 .0251357
951.878 .0251317
952.504 .0251276
953.130 .0251234
953.755 .0251194
954.380 .0251150
955.005 .0251104
955.629 .0251059
956.253 .0251013
956.877 .0250971
957.500 .0250939
958.123 .0250915
958.746 .0250897
959.368 .0250888
959.990 .0250889
960.611 .0250895
961.232 .0250914
961.853 .0250945
962.473 .0250989
963.093 .0251048
963.712 .0251119
964.331 .0251200
964.950 .0251296
965.569 .0251405
966.187 .0251519
966.804 .0251637
967.422 .0251756
968.039 .0251871
968.655 .0251977
969.272 .0252076
969.887 .0252163
970.503 .0252236
971.118 .0252298
971.733 .0252342
972.347 .0252376
972.961 .0252405
973.575 .0252428
974.188 .0252447
974.801 .0252459
975.414 .0252471
976.026 .0252474
976.638 .0252471
977.250 .0252470
977.861 .0252470
978.472 .0252475
979.083 .0252489
979.693 .0252507
980.303 .0252534
980.912 .0252562
981.521 .0252591
982.130 .0252617
982.738 .0252639
983.346 .0252657
983.954 .0252673
984.562 .0252694
985.169 .0252726
985.775 .0252767
986.382 .0252825
986.988 .0252894
987.594 .0252973
988.199 .0253050
988.804 .0253120
989.409 .0253179
990.013 .0253228
990.617 .0253270
991.221 .0253305
991.824 .0253344
992.427 .0253393
993.030 .0253452
993.632 .0253527
994.234 .0253611
994.836 .0253699
995.438 .0253781
996.039 .0253851
996.640 .0253900
997.240 .0253936
997.840 .0253970
998.440 .0254004
999.040 .0254043
999.639 .0254095
1000.238 .0254156
1000.836 .0254223
1001.435 .0254291
1002.033 .0254354
1002.630 .0254406
1003.228 .0254448
1003.825 .0254474
1004.422 .0254492
1005.018 .0254510
1005.614 .0254537
1006.210 .0254573
1006.806 .0254626
1007.401 .0254694
1007.996 .0254769
1008.591 .0254849
1009.186 .0254940
1009.780 .0255032
1010.374 .0255125
1010.967 .0255214
1011.561 .0255301
1012.154 .0255375
1012.746 .0255441
1013.339 .0255495
1013.931 .0255542
1014.523 .0255587
1015.115 .0255626
1015.706 .0255658
1016.298 .0255689
1016.888 .0255718
1017.479 .0255738
1018.069 .0255745
1018.660 .0255741
1019.250 .0255716
1019.839 .0255678
1020.429 .0255630
1021.018 .0255579
1021.607 .0255531
1022.195 .0255492
1022.784 .0255463
1023.372 .0255440
1023.960 .0255419
1024.547 .0255399
1025.135 .0255372
1025.722 .0255341
1026.309 .0255305
1026.896 .0255270
1027.483 .0255241
1028.069 .0255218
1028.655 .0255203
1029.241 .0255196
1029.827 .0255197
1030.412 .0255198
1030.997 .0255202
1031.582 .0255207
1032.167 .0255211
1032.752 .0255210
1033.336 .0255203
1033.921 .0255195
1034.505 .0255176
1035.089 .0255148
1035.672 .0255106
1036.256 .0255056
1036.839 .0254998
1037.422 .0254929
1038.005 .0254858
1038.588 .0254780
1039.171 .0254702
1039.753 .0254613
1040.335 .0254511
1040.918 .0254395
1041.500 .0254265
1042.081 .0254129
1042.663 .0253988
1043.244 .0253854
1043.826 .0253722
1044.407 .0253601
1044.988 .0253489
1045.569 .0253386
1046.150 .0253288
1046.730 .0253179
1047.311 .0253070
1047.891 .0252950
1048.471 .0252827
1049.052 .0252698
1049.632 .0252569
1050.211 .0252461
1050.791 .0252361
1051.371 .0252262
1051.950 .0252163
1052.530 .0252062
1053.109 .0251954
1053.688 .0251830
1054.268 .0251687
1054.847 .0251540
1055.426 .0251390
1056.005 .0251239
1056.583 .0251094
1057.162 .0250963
1057.741 .0250851
1058.319 .0250747
1058.898 .0250655
1059.476 .0250576
1060.055 .0250496
1060.633 .0250422
1061.211 .0250344
1061.790 .0250263
1062.368 .0250160
1062.946 .0250031
1063.524 .0249886
1064.102 .0249729
1064.680 .0249551
1065.258 .0249361
1065.836 .0249159
1066.414 .0248950
1066.992 .0248728
1067.570 .0248496
1068.148 .0248261
1068.726 .0248034
1069.304 .0247810
1069.882 .0247589
1070.460 .0247373
1071.038 .0247177
1071.616 .0246993
1072.194 .0246830
1072.772 .0246687
1073.350 .0246548
1073.928 .0246413
1074.506 .0246288
1075.084 .0246162
1075.662 .0246031
1076.240 .0245922
1076.819 .0245828
1077.397 .0245747
1077.976 .0245692
1078.554 .0245658
1079.133 .0245625
1079.711 .0245598
1080.290 .0245557
1080.869 .0245492
1081.448 .0245420
1082.027 .0245359
1082.606 .0245303
1083.185 .0245301
1083.764 .0245364
1084.343 .0245480
1084.923 .0245648
1085.502 .0245869
1086.082 .0246102
1086.662 .0246334
1087.242 .0246554
1087.822 .0246745
1088.402 .0246906
1088.983 .0247052
1089.563 .0247178
1090.144 .0247302
1090.725 .0247436
1091.306 .0247560
1091.887 .0247689
1092.469 .0247825
1093.050 .0247954
1093.632 .0248069
1094.214 .0248176
1094.796 .0248284
1095.379 .0248394
1095.961 .0248508
1096.544 .0248633
1097.127 .0248772
1097.710 .0248928
1098.294 .0249084
1098.877 .0249254
1099.461 .0249423
1100.046 .0249597
1100.630 .0249781
1101.215 .0249974
1101.800 .0250160
1102.385 .0250358
1102.970 .0250561
1103.556 .0250765
1104.142 .0250972
1104.728 .0251171
1105.315 .0251345
1105.902 .0251517
1106.489 .0251674
1107.077 .0251809
1107.664 .0251921
1108.253 .0252040
1108.841 .0252156
1109.430 .0252297
1110.019 .0252468
1110.609 .0252676
1111.198 .0252919
1111.789 .0253221
1112.379 .0253544
1112.970 .0253889
1113.561 .0254252
1114.153 .0254622
1114.745 .0254990
1115.338 .0255382
1115.931 .0255770
1116.524 .0256174
1117.117 .0256617
1117.712 .0257110
1118.306 .0257626
1118.901 .0258174
1119.496 .0258738
1120.092 .0259310
1120.689 .0259872
1121.285 .0260424
1121.882 .0260949
1122.480 .0261474
1123.078 .0262002
1123.677 .0262534
1124.276 .0263079
1124.875 .0263657
1125.476 .0264245
1126.076 .0264835
1126.677 .0265405
1127.279 .0265943
1127.881 .0266424
1128.484 .0266858
1129.087 .0267268
1129.691 .0267699
1130.295 .0268160
1130.900 .0268690
1131.505 .0269309
1132.111 .0270048
1132.718 .0270885
1133.325 .0271815
1133.933 .0272835
1134.541 .0273974
1135.150 .0275250
1135.760 .0276654
1136.370 .0278180
1136.981 .0279850
1137.592 .0281589
1138.204 .0283442
1138.817 .0285289
1139.431 .0287219
1140.045 .0289187
1140.660 .0291166
1141.275 .0292994
1141.891 .0294436
1142.508 .0298489
1143.126 .0300146
1143.744 .0301120
1144.363 .0298449
1144.983 .0291966
