Measurement Sequence started on: 15-12-46-377
Integration time: 28
Scans to Average: 2 
>>>>>Begin Spectral Data<<<<<
432.689 .0000100
433.621 .0000100
434.552 .0000100
435.482 .0000100
436.410 .0000100
437.337 .0000100
438.262 .0282050
439.187 .0598400
440.110 .0991835
441.031 .1436235
441.952 .1867878
442.871 .2208462
443.789 .2396158
444.705 .2409607
445.621 .2274297
446.535 .2046294
447.447 .1786949
448.359 .1389634
449.269 .1190987
450.178 .1064493
451.086 .0974194
451.993 .0905340
452.898 .0850861
453.803 .0806671
454.706 .0770373
455.608 .0739872
456.508 .0713789
457.408 .0691202
458.306 .0670943
459.204 .0652653
460.100 .0636118
460.995 .0621192
461.888 .0607590
462.781 .0595362
463.673 .0584343
464.563 .0574392
465.452 .0565183
466.340 .0556518
467.228 .0548307
468.114 .0540463
468.999 .0533034
469.882 .0525999
470.765 .0519477
471.647 .0513449
472.528 .0507919
473.407 .0503032
474.286 .0498729
475.163 .0494859
476.040 .0491467
476.915 .0488485
477.790 .0485764
478.663 .0483326
479.535 .0481181
480.407 .0479400
481.277 .0478041
482.147 .0477077
483.015 .0476481
483.883 .0476223
484.749 .0476301
485.615 .0476653
486.479 .0477180
487.343 .0477968
488.206 .0478802
489.067 .0479632
489.928 .0480494
490.788 .0481323
491.647 .0482171
492.505 .0483132
493.362 .0484212
494.218 .0485478
495.073 .0486920
495.928 .0488631
496.781 .0490520
497.634 .0492659
498.486 .0494963
499.337 .0497367
500.187 .0499842
501.036 .0502429
501.884 .0505114
502.731 .0508064
503.578 .0511405
504.424 .0515209
505.268 .0519494
506.113 .0524311
506.956 .0529659
507.798 .0535609
508.640 .0542005
509.480 .0548965
510.320 .0556359
511.160 .0564200
511.998 .0572633
512.836 .0581707
513.672 .0591612
514.508 .0602513
515.344 .0614691
516.178 .0628535
517.012 .0644070
517.845 .0661740
518.677 .0681817
519.508 .0704699
520.339 .0730743
521.169 .0760259
521.998 .0793359
522.826 .0830970
523.654 .0873182
524.481 .0920657
525.307 .0974168
526.133 .1033500
526.958 .1098532
527.782 .1168558
528.605 .1241806
529.428 .1317097
530.250 .1388390
531.072 .1453916
531.892 .1508785
532.712 .1550491
533.532 .1576442
534.350 .1584653
535.168 .1575041
535.986 .1548537
536.802 .1506879
537.618 .1452804
538.434 .1388767
539.249 .1319999
540.063 .1247976
540.876 .1176335
541.689 .1107113
542.501 .1042130
543.313 .0982618
544.124 .0929368
544.934 .0881410
545.744 .0838467
546.553 .0800212
547.361 .0766055
548.169 .0735960
548.976 .0709110
549.783 .0685277
550.589 .0664073
551.395 .0644915
552.200 .0627628
553.004 .0611702
553.808 .0596995
554.611 .0583515
555.414 .0571135
556.216 .0559793
557.018 .0549470
557.819 .0539934
558.619 .0531207
559.419 .0523139
560.218 .0515665
561.017 .0508605
561.815 .0501650
562.613 .0494916
563.410 .0488191
564.207 .0481458
565.003 .0474788
565.799 .0468080
566.594 .0461408
567.388 .0454920
568.182 .0448615
568.976 .0442511
569.769 .0436657
570.562 .0431142
571.354 .0425880
572.145 .0420803
572.936 .0415894
573.727 .0411034
574.517 .0406215
575.307 .0401463
576.096 .0396745
576.885 .0392151
577.673 .0387746
578.461 .0383549
579.248 .0379622
580.035 .0375961
580.821 .0372568
581.607 .0369379
582.392 .0366376
583.177 .0363544
583.962 .0360851
584.746 .0358317
585.529 .0355976
586.313 .0353864
587.095 .0351970
587.878 .0350308
588.660 .0348881
589.441 .0347652
590.222 .0346571
591.003 .0345608
591.783 .0344734
592.563 .0343913
593.342 .0343137
594.121 .0342379
594.899 .0341669
595.678 .0340991
596.455 .0340349
597.233 .0339744
598.009 .0339173
598.786 .0338630
599.562 .0338091
600.338 .0337552
601.113 .0337009
601.888 .0336460
602.663 .0335901
603.437 .0335337
604.211 .0334770
604.984 .0334203
605.757 .0333649
606.530 .0333107
607.302 .0332587
608.074 .0332084
608.845 .0331615
609.616 .0331170
610.387 .0330756
611.158 .0330363
611.928 .0329992
612.697 .0329646
613.467 .0329323
614.236 .0329020
615.004 .0328740
615.773 .0328482
616.541 .0328262
617.308 .0328077
618.076 .0327925
618.843 .0327791
619.609 .0327685
620.375 .0327589
621.141 .0327497
621.907 .0327400
622.672 .0327297
623.437 .0327172
624.202 .0327035
624.966 .0326872
625.730 .0326693
626.493 .0326507
627.257 .0326313
628.020 .0326106
628.782 .0325895
629.545 .0325672
630.307 .0325434
631.068 .0325185
631.830 .0324926
632.591 .0324642
633.352 .0324346
634.112 .0324032
634.872 .0323701
635.632 .0323368
636.392 .0323026
637.151 .0322686
637.910 .0322350
638.668 .0322023
639.427 .0321694
640.185 .0321372
640.943 .0321051
641.700 .0320727
642.457 .0320401
643.214 .0320072
643.971 .0319729
644.727 .0319391
645.483 .0319052
646.239 .0318715
646.994 .0318381
647.750 .0318063
648.505 .0317749
649.259 .0317454
650.014 .0317167
650.768 .0316893
651.521 .0316627
652.275 .0316367
653.028 .0316100
653.781 .0315829
654.534 .0315546
655.286 .0315249
656.039 .0314927
656.791 .0314593
657.542 .0314235
658.294 .0313874
659.045 .0313510
659.796 .0313149
660.546 .0312796
661.297 .0312455
662.047 .0312124
662.796 .0311804
663.546 .0311489
664.295 .0311177
665.044 .0310866
665.793 .0310559
666.542 .0310256
667.290 .0309966
668.038 .0309690
668.786 .0309437
669.533 .0309199
670.281 .0308976
671.028 .0308768
671.774 .0308564
672.521 .0308364
673.267 .0308161
674.013 .0307954
674.759 .0307740
675.505 .0307524
676.250 .0307306
676.995 .0307081
677.740 .0306862
678.484 .0306646
679.229 .0306436
679.973 .0306232
680.717 .0306033
681.460 .0305836
682.204 .0305647
682.947 .0305459
683.690 .0305270
684.433 .0305083
685.175 .0304898
685.917 .0304718
686.659 .0304544
687.401 .0304381
688.142 .0304227
688.884 .0304083
689.625 .0303951
690.365 .0303818
691.106 .0303688
691.846 .0303559
692.586 .0303426
693.326 .0303287
694.066 .0303149
694.805 .0303012
695.545 .0302876
696.284 .0302742
697.022 .0302612
697.761 .0302481
698.499 .0302350
699.237 .0302217
699.975 .0302076
700.713 .0301929
701.450 .0301779
702.187 .0301622
702.924 .0301465
703.661 .0301309
704.397 .0301155
705.133 .0301005
705.869 .0300863
706.605 .0300723
707.341 .0300584
708.076 .0300449
708.811 .0300313
709.546 .0300172
710.281 .0300023
711.015 .0299866
711.749 .0299698
712.483 .0299524
713.217 .0299345
713.950 .0299157
714.684 .0298968
715.417 .0298773
716.150 .0298573
716.882 .0298367
717.615 .0298154
718.347 .0297939
719.079 .0297718
719.811 .0297494
720.542 .0297273
721.273 .0297052
722.005 .0296835
722.735 .0296618
723.466 .0296401
724.196 .0296179
724.927 .0295947
725.656 .0295704
726.386 .0295450
727.116 .0295192
727.845 .0294934
728.574 .0294674
729.303 .0294426
730.031 .0294190
730.760 .0293958
731.488 .0293736
732.216 .0293521
732.944 .0293310
733.671 .0293103
734.398 .0292898
735.125 .0292698
735.852 .0292504
736.579 .0292324
737.305 .0292154
738.031 .0291999
738.757 .0291858
739.483 .0291717
740.208 .0291574
740.933 .0291427
741.658 .0291264
742.383 .0291085
743.108 .0290895
743.832 .0290693
744.556 .0290482
745.280 .0290269
746.004 .0290056
746.727 .0289850
747.450 .0289656
748.173 .0289464
748.896 .0289274
749.618 .0289092
750.340 .0288911
751.062 .0288733
751.784 .0288565
752.506 .0288409
753.227 .0288266
753.948 .0288132
754.669 .0288006
755.389 .0287879
756.110 .0287757
756.830 .0287627
757.550 .0287489
758.269 .0287344
758.989 .0287191
759.708 .0287029
760.427 .0286868
761.146 .0286704
761.864 .0286542
762.582 .0286377
763.300 .0286209
764.018 .0286034
764.736 .0285855
765.453 .0285676
766.170 .0285501
766.887 .0285333
767.603 .0285178
768.320 .0285028
769.036 .0284896
769.751 .0284773
770.467 .0284659
771.182 .0284552
771.897 .0284444
772.612 .0284338
773.327 .0284235
774.041 .0284136
774.755 .0284046
775.469 .0283971
776.183 .0283914
776.896 .0283868
777.609 .0283835
778.322 .0283813
779.035 .0283799
779.747 .0283792
780.459 .0283789
781.171 .0283786
781.882 .0283787
782.594 .0283795
783.305 .0283806
784.016 .0283828
784.726 .0283858
785.436 .0283893
786.147 .0283930
786.856 .0283970
787.566 .0284008
788.275 .0284044
788.984 .0284081
789.693 .0284112
790.401 .0284142
791.110 .0284170
791.818 .0284194
792.525 .0284218
793.233 .0284239
793.940 .0284256
794.647 .0284263
795.353 .0284262
796.060 .0284253
796.766 .0284232
797.472 .0284203
798.177 .0284163
798.883 .0284116
799.588 .0284060
800.292 .0283998
800.997 .0283927
801.701 .0283849
802.405 .0283761
803.109 .0283662
803.812 .0283557
804.515 .0283444
805.218 .0283323
805.921 .0283195
806.623 .0283059
807.325 .0282917
808.027 .0282768
808.728 .0282613
809.429 .0282446
810.130 .0282270
810.831 .0282084
811.531 .0281886
812.231 .0281677
812.931 .0281462
813.630 .0281244
814.330 .0281022
815.029 .0280801
815.727 .0280583
816.426 .0280373
817.124 .0280172
817.821 .0279976
818.519 .0279788
819.216 .0279608
819.913 .0279434
820.609 .0279265
821.306 .0279107
822.002 .0278961
822.697 .0278826
823.393 .0278698
824.088 .0278578
824.783 .0278455
825.477 .0278325
826.171 .0278184
826.865 .0278030
827.559 .0277865
828.252 .0277696
828.945 .0277523
829.638 .0277359
830.330 .0277207
831.023 .0277069
831.714 .0276943
832.406 .0276827
833.097 .0276711
833.788 .0276585
834.479 .0276449
835.169 .0276303
835.859 .0276153
836.548 .0276000
837.238 .0275855
837.927 .0275719
838.615 .0275593
839.304 .0275475
839.992 .0275359
840.680 .0275238
841.367 .0275112
842.054 .0274967
842.741 .0274807
843.428 .0274631
844.114 .0274449
844.800 .0274258
845.485 .0274067
846.170 .0273872
846.855 .0273675
847.540 .0273473
848.224 .0273268
848.908 .0273058
849.592 .0272849
850.275 .0272636
850.958 .0272420
851.641 .0272203
852.323 .0271981
853.005 .0271748
853.687 .0271513
854.368 .0271270
855.049 .0271023
855.730 .0270770
856.410 .0270513
857.090 .0270262
857.769 .0270022
858.449 .0269792
859.128 .0269571
859.806 .0269361
860.485 .0269162
861.163 .0268963
861.840 .0268769
862.518 .0268577
863.195 .0268387
863.871 .0268204
864.548 .0268029
865.224 .0267864
865.899 .0267712
866.574 .0267574
867.249 .0267453
867.924 .0267348
868.598 .0267251
869.272 .0267160
869.946 .0267075
870.619 .0266995
871.292 .0266911
871.964 .0266824
872.636 .0266738
873.308 .0266654
873.979 .0266571
874.651 .0266486
875.321 .0266400
875.992 .0266319
876.662 .0266240
877.331 .0266161
878.001 .0266082
878.670 .0266007
879.338 .0265936
880.007 .0265875
880.675 .0265826
881.342 .0265793
882.009 .0265781
882.676 .0265794
883.343 .0265828
884.009 .0265879
884.675 .0265943
885.340 .0266019
886.005 .0266104
886.670 .0266195
887.334 .0266288
887.998 .0266384
888.662 .0266486
889.325 .0266594
889.988 .0266702
890.650 .0266814
891.312 .0266927
891.974 .0267039
892.636 .0267147
893.297 .0267247
893.957 .0267343
894.618 .0267435
895.278 .0267525
895.937 .0267612
896.596 .0267697
897.255 .0267783
897.914 .0267869
898.572 .0267954
899.230 .0268042
899.887 .0268124
900.544 .0268203
901.201 .0268277
901.857 .0268343
902.513 .0268395
903.168 .0268432
903.823 .0268451
904.478 .0268457
905.132 .0268442
905.786 .0268413
906.440 .0268368
907.093 .0268316
907.746 .0268256
908.399 .0268191
909.051 .0268122
909.703 .0268052
910.354 .0267976
911.005 .0267897
911.656 .0267809
912.306 .0267716
912.956 .0267616
913.605 .0267511
914.254 .0267406
914.903 .0267304
915.551 .0267204
916.199 .0267110
916.847 .0267021
917.494 .0266937
918.141 .0266859
918.788 .0266786
919.434 .0266721
920.079 .0266662
920.725 .0266605
921.370 .0266548
922.014 .0266489
922.658 .0266425
923.302 .0266348
923.946 .0266258
924.589 .0266153
925.231 .0266028
925.873 .0265889
926.515 .0265733
927.157 .0265567
927.798 .0265389
928.439 .0265201
929.079 .0264998
929.719 .0264780
930.359 .0264547
930.998 .0264303
931.637 .0264050
932.275 .0263796
932.913 .0263542
933.551 .0263295
934.188 .0263058
934.825 .0262836
935.462 .0262627
936.098 .0262436
936.733 .0262256
937.369 .0262087
938.004 .0261926
938.638 .0261773
939.273 .0261626
939.907 .0261493
940.540 .0261375
941.173 .0261267
941.806 .0261170
942.438 .0261084
943.070 .0261001
943.702 .0260920
944.333 .0260838
944.964 .0260751
945.594 .0260654
946.224 .0260550
946.854 .0260439
947.483 .0260320
948.112 .0260198
948.741 .0260067
949.369 .0259926
949.996 .0259778
950.624 .0259616
951.251 .0259439
951.878 .0259252
952.504 .0259058
953.130 .0258859
953.755 .0258660
954.380 .0258465
955.005 .0258273
955.629 .0258087
956.253 .0257903
956.877 .0257713
957.500 .0257518
958.123 .0257316
958.746 .0257104
959.368 .0256885
959.990 .0256663
960.611 .0256439
961.232 .0256216
961.853 .0255995
962.473 .0255775
963.093 .0255548
963.712 .0255313
964.331 .0255064
964.950 .0254803
965.569 .0254534
966.187 .0254261
966.804 .0253996
967.422 .0253749
968.039 .0253520
968.655 .0253313
969.272 .0253121
969.887 .0252943
970.503 .0252770
971.118 .0252597
971.733 .0252414
972.347 .0252219
972.961 .0252017
973.575 .0251807
974.188 .0251590
974.801 .0251375
975.414 .0251157
976.026 .0250939
976.638 .0250719
977.250 .0250494
977.861 .0250267
978.472 .0250037
979.083 .0249799
979.693 .0249554
980.303 .0249301
980.912 .0249043
981.521 .0248778
982.130 .0248512
982.738 .0248252
983.346 .0247999
983.954 .0247754
984.562 .0247521
985.169 .0247299
985.775 .0247084
986.382 .0246873
986.988 .0246668
987.594 .0246463
988.199 .0246258
988.804 .0246057
989.409 .0245857
990.013 .0245675
990.617 .0245508
991.221 .0245355
991.824 .0245219
992.427 .0245102
993.030 .0244996
993.632 .0244898
994.234 .0244812
994.836 .0244730
995.438 .0244649
996.039 .0244575
996.640 .0244500
997.240 .0244433
997.840 .0244372
998.440 .0244318
999.040 .0244267
999.639 .0244225
1000.238 .0244182
1000.836 .0244138
1001.435 .0244094
1002.033 .0244057
1002.630 .0244024
1003.228 .0244002
1003.825 .0243994
1004.422 .0244007
1005.018 .0244040
1005.614 .0244091
1006.210 .0244156
1006.806 .0244236
1007.401 .0244319
1007.996 .0244400
1008.591 .0244475
1009.186 .0244544
1009.780 .0244614
1010.374 .0244677
1010.967 .0244735
1011.561 .0244797
1012.154 .0244855
1012.746 .0244912
1013.339 .0244965
1013.931 .0245014
1014.523 .0245058
1015.115 .0245095
1015.706 .0245131
1016.298 .0245161
1016.888 .0245197
1017.479 .0245237
1018.069 .0245286
1018.660 .0245350
1019.250 .0245432
1019.839 .0245526
1020.429 .0245645
1021.018 .0245790
1021.607 .0245955
1022.195 .0246141
1022.784 .0246340
1023.372 .0246544
1023.960 .0246749
1024.547 .0246944
1025.135 .0247131
1025.722 .0247312
1026.309 .0247495
1026.896 .0247676
1027.483 .0247859
1028.069 .0248056
1028.655 .0248252
1029.241 .0248448
1029.827 .0248635
1030.412 .0248804
1030.997 .0248958
1031.582 .0249096
1032.167 .0249220
1032.752 .0249340
1033.336 .0249464
1033.921 .0249594
1034.505 .0249735
1035.089 .0249884
1035.672 .0250037
1036.256 .0250193
1036.839 .0250348
1037.422 .0250512
1038.005 .0250677
1038.588 .0250854
1039.171 .0251051
1039.753 .0251258
1040.335 .0251483
1040.918 .0251709
1041.500 .0251943
1042.081 .0252164
1042.663 .0252369
1043.244 .0252569
1043.826 .0252753
1044.407 .0252930
1044.988 .0253114
1045.569 .0253300
1046.150 .0253496
1046.730 .0253693
1047.311 .0253878
1047.891 .0254051
1048.471 .0254224
1049.052 .0254372
1049.632 .0254509
1050.211 .0254652
1050.791 .0254807
1051.371 .0254969
1051.950 .0255162
1052.530 .0255374
1053.109 .0255589
1053.688 .0255801
1054.268 .0256002
1054.847 .0256167
1055.426 .0256319
1056.005 .0256446
1056.583 .0256559
1057.162 .0256663
1057.741 .0256768
1058.319 .0256862
1058.898 .0256960
1059.476 .0257052
1060.055 .0257121
1060.633 .0257174
1061.211 .0257213
1061.790 .0257236
1062.368 .0257265
1062.946 .0257306
1063.524 .0257375
1064.102 .0257469
1064.680 .0257587
1065.258 .0257711
1065.836 .0257839
1066.414 .0257957
1066.992 .0258050
1067.570 .0258128
1068.148 .0258179
1068.726 .0258212
1069.304 .0258241
1069.882 .0258280
1070.460 .0258319
1071.038 .0258368
1071.616 .0258423
1072.194 .0258464
1072.772 .0258495
1073.350 .0258507
1073.928 .0258499
1074.506 .0258492
1075.084 .0258485
1075.662 .0258495
1076.240 .0258535
1076.819 .0258613
1077.397 .0258723
1077.976 .0258863
1078.554 .0259024
1079.133 .0259187
1079.711 .0259334
1080.290 .0259459
1080.869 .0259549
1081.448 .0259613
1082.027 .0259663
1082.606 .0259695
1083.185 .0259756
1083.764 .0259836
1084.343 .0259933
1084.923 .0260052
1085.502 .0260172
1086.082 .0260292
1086.662 .0260416
1087.242 .0260521
1087.822 .0260619
1088.402 .0260719
1088.983 .0260848
1089.563 .0260991
1090.144 .0261164
1090.725 .0261367
1091.306 .0261567
1091.887 .0261758
1092.469 .0261935
1093.050 .0262055
1093.632 .0262145
1094.214 .0262203
1094.796 .0262231
1095.379 .0262245
1095.961 .0262264
1096.544 .0262286
1097.127 .0262320
1097.710 .0262363
1098.294 .0262414
1098.877 .0262446
1099.461 .0262480
1100.046 .0262508
1100.630 .0262520
1101.215 .0262545
1101.800 .0262574
1102.385 .0262605
1102.970 .0262655
1103.556 .0262697
1104.142 .0262731
1104.728 .0262760
1105.315 .0262789
1105.902 .0262806
1106.489 .0262826
1107.077 .0262882
1107.664 .0262959
1108.253 .0263058
1108.841 .0263186
1109.430 .0263317
1110.019 .0263461
1110.609 .0263625
1111.198 .0263783
1111.789 .0263973
1112.379 .0264206
1112.970 .0264467
1113.561 .0264762
1114.153 .0265100
1114.745 .0265440
1115.338 .0265758
1115.931 .0266057
1116.524 .0266313
1117.117 .0266502
1117.712 .0266678
1118.306 .0266855
1118.901 .0267054
1119.496 .0267283
1120.092 .0267546
1120.689 .0267843
1121.285 .0268189
1121.882 .0268561
1122.480 .0268967
1123.078 .0269444
1123.677 .0270012
1124.276 .0270661
1124.875 .0271430
1125.476 .0272307
1126.076 .0273280
1126.677 .0274262
1127.279 .0275232
1127.881 .0276103
1128.484 .0276857
1129.087 .0277496
1129.691 .0278062
1130.295 .0278584
1130.900 .0279097
1131.505 .0279611
1132.111 .0280151
1132.718 .0280673
1133.325 .0281136
1133.933 .0281535
1134.541 .0281873
1135.150 .0282150
1135.760 .0282408
1136.370 .0282736
1136.981 .0283276
1137.592 .0284007
1138.204 .0284985
1138.817 .0286179
1139.431 .0287631
1140.045 .0289353
1140.660 .0291398
1141.275 .0293717
1141.891 .0296664
1142.508 .0297217
1143.126 .0301113
1143.744 .0307767
1144.363 .0309624
1144.983 .0321855
