Measurement Sequence started on: 15-12-46-377
Integration time: 28
Scans to Average: 2 
>>>>>Begin Spectral Data<<<<<
432.689 .0000100
433.621 .0000100
434.552 .0000100
435.482 .0000100
436.410 .0000100
437.337 .0000100
438.262 .0274319
439.187 .0581677
440.110 .0963722
441.031 .1394833
441.952 .1813643
442.871 .2143553
443.789 .2324369
444.705 .2335961
445.621 .2203480
446.535 .1981467
447.447 .1730003
448.359 .1345118
449.269 .1154266
450.178 .1034047
451.086 .0949266
451.993 .0884305
452.898 .0832816
453.803 .0790776
454.706 .0755581
455.608 .0725429
456.508 .0699621
457.408 .0677276
458.306 .0657719
459.204 .0640481
460.100 .0624980
460.995 .0610936
461.888 .0598188
462.781 .0586312
463.673 .0575136
464.563 .0564616
465.452 .0554658
466.340 .0545244
467.228 .0536563
468.114 .0528561
468.999 .0521232
469.882 .0514548
470.765 .0508611
471.647 .0503324
472.528 .0498534
473.407 .0494277
474.286 .0490487
475.163 .0487156
476.040 .0484262
476.915 .0481748
477.790 .0479625
478.663 .0477901
479.535 .0476562
480.407 .0475524
481.277 .0474685
482.147 .0474030
483.015 .0473408
483.883 .0472788
484.749 .0472129
485.615 .0471391
486.479 .0470607
487.343 .0469953
488.206 .0469404
489.067 .0469003
489.928 .0468829
490.788 .0468880
491.647 .0469113
492.505 .0469517
493.362 .0470067
494.218 .0470700
495.073 .0471406
495.928 .0472368
496.781 .0473491
497.634 .0475066
498.486 .0477180
499.337 .0479807
500.187 .0482992
501.036 .0486727
501.884 .0490892
502.731 .0495413
503.578 .0500235
504.424 .0505200
505.268 .0510181
506.113 .0515429
506.956 .0520892
507.798 .0526739
508.640 .0533274
509.480 .0540593
510.320 .0548714
511.160 .0557892
511.998 .0567895
512.836 .0578597
513.672 .0590163
514.508 .0602569
515.344 .0615693
516.178 .0630023
517.012 .0645876
517.845 .0663577
518.677 .0683763
519.508 .0706843
520.339 .0732911
521.169 .0762860
521.998 .0796432
522.826 .0833597
523.654 .0874653
524.481 .0919672
525.307 .0968789
526.133 .1021980
526.958 .1079259
527.782 .1140473
528.605 .1204195
529.428 .1269594
530.250 .1331473
531.072 .1387684
531.892 .1434758
532.712 .1470231
533.532 .1492414
534.350 .1499591
535.168 .1491313
535.986 .1468850
536.802 .1432828
537.618 .1385971
538.434 .1329574
539.249 .1267408
540.063 .1201242
540.876 .1133804
541.689 .1067090
542.501 .1003759
543.313 .0945750
544.124 .0894149
544.934 .0848215
545.744 .0807942
546.553 .0772111
547.361 .0740527
548.169 .0712714
548.976 .0687415
549.783 .0664190
550.589 .0643075
551.395 .0623439
552.200 .0605486
553.004 .0589127
553.808 .0574364
554.611 .0561330
555.414 .0550029
556.216 .0539936
557.018 .0530891
557.819 .0522627
558.619 .0514885
559.419 .0507492
560.218 .0500488
561.017 .0493632
561.815 .0486859
562.613 .0480312
563.410 .0473927
564.207 .0467658
565.003 .0461634
565.799 .0455780
566.594 .0450056
567.388 .0444462
568.182 .0438818
568.976 .0433113
569.769 .0427399
570.562 .0421685
571.354 .0415936
572.145 .0410224
572.936 .0404604
573.727 .0399105
574.517 .0393805
575.307 .0388782
576.096 .0384037
576.885 .0379643
577.673 .0375600
578.461 .0371903
579.248 .0368518
580.035 .0365440
580.821 .0362585
581.607 .0359909
582.392 .0357357
583.177 .0354914
583.962 .0352596
584.746 .0350461
585.529 .0348470
586.313 .0346641
587.095 .0344988
587.878 .0343505
588.660 .0342153
589.441 .0340937
590.222 .0339792
591.003 .0338719
591.783 .0337690
592.563 .0336701
593.342 .0335754
594.121 .0334866
594.899 .0334051
595.678 .0333294
596.455 .0332594
597.233 .0331936
598.009 .0331300
598.786 .0330695
599.562 .0330105
600.338 .0329525
601.113 .0328970
601.888 .0328436
602.663 .0327929
603.437 .0327453
604.211 .0327008
604.984 .0326599
605.757 .0326224
606.530 .0325868
607.302 .0325538
608.074 .0325226
608.845 .0324941
609.616 .0324673
610.387 .0324422
611.158 .0324185
611.928 .0323952
612.697 .0323723
613.467 .0323495
614.236 .0323264
615.004 .0323034
615.773 .0322801
616.541 .0322577
617.308 .0322357
618.076 .0322145
618.843 .0321938
619.609 .0321741
620.375 .0321547
621.141 .0321357
621.907 .0321160
622.672 .0320962
623.437 .0320766
624.202 .0320571
624.966 .0320381
625.730 .0320200
626.493 .0320027
627.257 .0319861
628.020 .0319697
628.782 .0319529
629.545 .0319349
630.307 .0319154
631.068 .0318938
631.830 .0318697
632.591 .0318432
633.352 .0318145
634.112 .0317837
634.872 .0317525
635.632 .0317206
636.392 .0316881
637.151 .0316559
637.910 .0316235
638.668 .0315912
639.427 .0315584
640.185 .0315250
640.943 .0314916
641.700 .0314587
642.457 .0314267
643.214 .0313956
643.971 .0313660
644.727 .0313383
645.483 .0313119
646.239 .0312865
646.994 .0312619
647.750 .0312379
648.505 .0312148
649.259 .0311922
650.014 .0311700
650.768 .0311484
651.521 .0311273
652.275 .0311065
653.028 .0310858
653.781 .0310647
654.534 .0310431
655.286 .0310209
656.039 .0309982
656.791 .0309745
657.542 .0309498
658.294 .0309246
659.045 .0308988
659.796 .0308720
660.546 .0308447
661.297 .0308164
662.047 .0307884
662.796 .0307605
663.546 .0307338
664.295 .0307078
665.044 .0306833
665.793 .0306604
666.542 .0306383
667.290 .0306161
668.038 .0305939
668.786 .0305701
669.533 .0305455
670.281 .0305194
671.028 .0304927
671.774 .0304659
672.521 .0304409
673.267 .0304174
674.013 .0303957
674.759 .0303760
675.505 .0303571
676.250 .0303385
676.995 .0303199
677.740 .0303007
678.484 .0302804
679.229 .0302598
679.973 .0302398
680.717 .0302201
681.460 .0302022
682.204 .0301852
682.947 .0301698
683.690 .0301557
684.433 .0301415
685.175 .0301264
685.917 .0301104
686.659 .0300939
687.401 .0300764
688.142 .0300584
688.884 .0300404
689.625 .0300220
690.365 .0300044
691.106 .0299867
691.846 .0299692
692.586 .0299514
693.326 .0299337
694.066 .0299159
694.805 .0298986
695.545 .0298816
696.284 .0298646
697.022 .0298487
697.761 .0298335
698.499 .0298182
699.237 .0298029
699.975 .0297875
700.713 .0297722
701.450 .0297568
702.187 .0297414
702.924 .0297259
703.661 .0297107
704.397 .0296961
705.133 .0296816
705.869 .0296677
706.605 .0296539
707.341 .0296402
708.076 .0296263
708.811 .0296129
709.546 .0295992
710.281 .0295854
711.015 .0295714
711.749 .0295569
712.483 .0295420
713.217 .0295263
713.950 .0295099
714.684 .0294934
715.417 .0294768
716.150 .0294597
716.882 .0294426
717.615 .0294258
718.347 .0294085
719.079 .0293908
719.811 .0293727
720.542 .0293538
721.273 .0293342
722.005 .0293143
722.735 .0292941
723.466 .0292744
724.196 .0292556
724.927 .0292369
725.656 .0292184
726.386 .0292003
727.116 .0291817
727.845 .0291626
728.574 .0291430
729.303 .0291232
730.031 .0291033
730.760 .0290843
731.488 .0290664
732.216 .0290498
732.944 .0290350
733.671 .0290216
734.398 .0290089
735.125 .0289969
735.852 .0289849
736.579 .0289727
737.305 .0289607
738.031 .0289487
738.757 .0289367
739.483 .0289247
740.208 .0289132
740.933 .0289022
741.658 .0288913
742.383 .0288806
743.108 .0288693
743.832 .0288573
744.556 .0288446
745.280 .0288306
746.004 .0288152
746.727 .0287984
747.450 .0287804
748.173 .0287609
748.896 .0287404
749.618 .0287192
750.340 .0286982
751.062 .0286777
751.784 .0286581
752.506 .0286394
753.227 .0286213
753.948 .0286035
754.669 .0285854
755.389 .0285668
756.110 .0285472
756.830 .0285267
757.550 .0285058
758.269 .0284853
758.989 .0284657
759.708 .0284477
760.427 .0284314
761.146 .0284165
761.864 .0284027
762.582 .0283888
763.300 .0283747
764.018 .0283602
764.736 .0283450
765.453 .0283291
766.170 .0283133
766.887 .0282979
767.603 .0282833
768.320 .0282698
769.036 .0282574
769.751 .0282456
770.467 .0282342
771.182 .0282230
771.897 .0282114
772.612 .0281995
773.327 .0281869
774.041 .0281735
774.755 .0281595
775.469 .0281454
776.183 .0281310
776.896 .0281167
777.609 .0281028
778.322 .0280893
779.035 .0280758
779.747 .0280630
780.459 .0280510
781.171 .0280397
781.882 .0280294
782.594 .0280199
783.305 .0280114
784.016 .0280038
784.726 .0279973
785.436 .0279918
786.147 .0279871
786.856 .0279832
787.566 .0279797
788.275 .0279767
788.984 .0279740
789.693 .0279711
790.401 .0279680
791.110 .0279644
791.818 .0279601
792.525 .0279546
793.233 .0279480
793.940 .0279405
794.647 .0279321
795.353 .0279229
796.060 .0279134
796.766 .0279037
797.472 .0278939
798.177 .0278844
798.883 .0278751
799.588 .0278661
800.292 .0278572
800.997 .0278485
801.701 .0278399
802.405 .0278317
803.109 .0278242
803.812 .0278172
804.515 .0278106
805.218 .0278046
805.921 .0277980
806.623 .0277909
807.325 .0277832
808.027 .0277751
808.728 .0277665
809.429 .0277576
810.130 .0277485
810.831 .0277394
811.531 .0277303
812.231 .0277207
812.931 .0277103
813.630 .0276991
814.330 .0276869
815.029 .0276738
815.727 .0276603
816.426 .0276469
817.124 .0276340
817.821 .0276220
818.519 .0276111
819.216 .0276011
819.913 .0275917
820.609 .0275829
821.306 .0275745
822.002 .0275666
822.697 .0275592
823.393 .0275525
824.088 .0275472
824.783 .0275432
825.477 .0275404
826.171 .0275386
826.865 .0275377
827.559 .0275374
828.252 .0275372
828.945 .0275372
829.638 .0275372
830.330 .0275371
831.023 .0275369
831.714 .0275361
832.406 .0275345
833.097 .0275319
833.788 .0275277
834.479 .0275221
835.169 .0275153
835.859 .0275078
836.548 .0274997
837.238 .0274922
837.927 .0274850
838.615 .0274781
839.304 .0274716
839.992 .0274653
840.680 .0274592
841.367 .0274531
842.054 .0274472
842.741 .0274413
843.428 .0274354
844.114 .0274297
844.800 .0274238
845.485 .0274175
846.170 .0274102
846.855 .0274020
847.540 .0273925
848.224 .0273816
848.908 .0273697
849.592 .0273567
850.275 .0273432
850.958 .0273290
851.641 .0273144
852.323 .0272989
853.005 .0272830
853.687 .0272662
854.368 .0272487
855.049 .0272311
855.730 .0272134
856.410 .0271962
857.090 .0271804
857.769 .0271656
858.449 .0271514
859.128 .0271376
859.806 .0271241
860.485 .0271097
861.163 .0270944
861.840 .0270777
862.518 .0270598
863.195 .0270408
863.871 .0270210
864.548 .0270007
865.224 .0269805
865.899 .0269608
866.574 .0269411
867.249 .0269219
867.924 .0269028
868.598 .0268834
869.272 .0268643
869.946 .0268459
870.619 .0268280
871.292 .0268109
871.964 .0267946
872.636 .0267797
873.308 .0267662
873.979 .0267539
874.651 .0267426
875.321 .0267322
875.992 .0267221
876.662 .0267120
877.331 .0267019
878.001 .0266921
878.670 .0266827
879.338 .0266737
880.007 .0266655
880.675 .0266576
881.342 .0266498
882.009 .0266419
882.676 .0266337
883.343 .0266250
884.009 .0266159
884.675 .0266059
885.340 .0265955
886.005 .0265847
886.670 .0265735
887.334 .0265623
887.998 .0265509
888.662 .0265392
889.325 .0265272
889.988 .0265150
890.650 .0265023
891.312 .0264892
891.974 .0264764
892.636 .0264644
893.297 .0264534
893.957 .0264432
894.618 .0264335
895.278 .0264247
895.937 .0264169
896.596 .0264094
897.255 .0264020
897.914 .0263953
898.572 .0263885
899.230 .0263823
899.887 .0263760
900.544 .0263702
901.201 .0263646
901.857 .0263590
902.513 .0263528
903.168 .0263453
903.823 .0263359
904.478 .0263248
905.132 .0263118
905.786 .0262975
906.440 .0262811
907.093 .0262634
907.746 .0262444
908.399 .0262244
909.051 .0262032
909.703 .0261812
910.354 .0261586
911.005 .0261359
911.656 .0261128
912.306 .0260901
912.956 .0260684
913.605 .0260482
914.254 .0260294
914.903 .0260123
915.551 .0259965
916.199 .0259821
916.847 .0259686
917.494 .0259560
918.141 .0259443
918.788 .0259332
919.434 .0259229
920.079 .0259127
920.725 .0259031
921.370 .0258932
922.014 .0258829
922.658 .0258721
923.302 .0258604
923.946 .0258476
924.589 .0258333
925.231 .0258177
925.873 .0258012
926.515 .0257839
927.157 .0257660
927.798 .0257479
928.439 .0257297
929.079 .0257114
929.719 .0256934
930.359 .0256755
930.998 .0256580
931.637 .0256410
932.275 .0256246
932.913 .0256085
933.551 .0255927
934.188 .0255775
934.825 .0255628
935.462 .0255493
936.098 .0255371
936.733 .0255259
937.369 .0255160
938.004 .0255073
938.638 .0254995
939.273 .0254924
939.907 .0254858
940.540 .0254797
941.173 .0254745
941.806 .0254703
942.438 .0254669
943.070 .0254644
943.702 .0254630
944.333 .0254622
944.964 .0254617
945.594 .0254609
946.224 .0254599
946.854 .0254584
947.483 .0254570
948.112 .0254560
948.741 .0254551
949.369 .0254549
949.996 .0254549
950.624 .0254545
951.251 .0254538
951.878 .0254518
952.504 .0254488
953.130 .0254449
953.755 .0254403
954.380 .0254354
955.005 .0254299
955.629 .0254242
956.253 .0254185
956.877 .0254122
957.500 .0254053
958.123 .0253970
958.746 .0253874
959.368 .0253764
959.990 .0253646
960.611 .0253528
961.232 .0253416
961.853 .0253316
962.473 .0253240
963.093 .0253177
963.712 .0253133
964.331 .0253099
964.950 .0253071
965.569 .0253050
966.187 .0253035
966.804 .0253022
967.422 .0253018
968.039 .0253025
968.655 .0253046
969.272 .0253073
969.887 .0253112
970.503 .0253151
971.118 .0253186
971.733 .0253219
972.347 .0253239
972.961 .0253248
973.575 .0253256
974.188 .0253251
974.801 .0253241
975.414 .0253227
976.026 .0253205
976.638 .0253175
977.250 .0253140
977.861 .0253098
978.472 .0253050
979.083 .0252997
979.693 .0252940
980.303 .0252876
980.912 .0252811
981.521 .0252740
982.130 .0252663
982.738 .0252584
983.346 .0252497
983.954 .0252399
984.562 .0252298
985.169 .0252190
985.775 .0252080
986.382 .0251975
986.988 .0251878
987.594 .0251786
988.199 .0251703
988.804 .0251631
989.409 .0251564
990.013 .0251506
990.617 .0251453
991.221 .0251399
991.824 .0251355
992.427 .0251318
993.030 .0251290
993.632 .0251275
994.234 .0251279
994.836 .0251293
995.438 .0251317
996.039 .0251351
996.640 .0251389
997.240 .0251422
997.840 .0251458
998.440 .0251490
999.040 .0251513
999.639 .0251531
1000.238 .0251545
1000.836 .0251556
1001.435 .0251566
1002.033 .0251572
1002.630 .0251575
1003.228 .0251580
1003.825 .0251584
1004.422 .0251585
1005.018 .0251585
1005.614 .0251587
1006.210 .0251584
1006.806 .0251584
1007.401 .0251584
1007.996 .0251585
1008.591 .0251594
1009.186 .0251609
1009.780 .0251629
1010.374 .0251651
1010.967 .0251666
1011.561 .0251681
1012.154 .0251690
1012.746 .0251689
1013.339 .0251677
1013.931 .0251659
1014.523 .0251641
1015.115 .0251622
1015.706 .0251603
1016.298 .0251586
1016.888 .0251568
1017.479 .0251551
1018.069 .0251530
1018.660 .0251503
1019.250 .0251482
1019.839 .0251468
1020.429 .0251469
1021.018 .0251495
1021.607 .0251543
1022.195 .0251607
1022.784 .0251688
1023.372 .0251782
1023.960 .0251877
1024.547 .0251976
1025.135 .0252075
1025.722 .0252173
1026.309 .0252272
1026.896 .0252371
1027.483 .0252464
1028.069 .0252557
1028.655 .0252646
1029.241 .0252721
1029.827 .0252780
1030.412 .0252825
1030.997 .0252856
1031.582 .0252885
1032.167 .0252916
1032.752 .0252950
1033.336 .0252991
1033.921 .0253040
1034.505 .0253087
1035.089 .0253130
1035.672 .0253166
1036.256 .0253194
1036.839 .0253216
1037.422 .0253238
1038.005 .0253265
1038.588 .0253301
1039.171 .0253355
1039.753 .0253423
1040.335 .0253503
1040.918 .0253585
1041.500 .0253655
1042.081 .0253703
1042.663 .0253729
1043.244 .0253726
1043.826 .0253701
1044.407 .0253659
1044.988 .0253608
1045.569 .0253554
1046.150 .0253499
1046.730 .0253437
1047.311 .0253373
1047.891 .0253297
1048.471 .0253212
1049.052 .0253112
1049.632 .0253010
1050.211 .0252914
1050.791 .0252834
1051.371 .0252780
1051.950 .0252760
1052.530 .0252768
1053.109 .0252807
1053.688 .0252850
1054.268 .0252897
1054.847 .0252936
1055.426 .0252956
1056.005 .0252959
1056.583 .0252957
1057.162 .0252947
1057.741 .0252934
1058.319 .0252921
1058.898 .0252915
1059.476 .0252902
1060.055 .0252881
1060.633 .0252846
1061.211 .0252791
1061.790 .0252722
1062.368 .0252637
1062.946 .0252533
1063.524 .0252430
1064.102 .0252332
1064.680 .0252238
1065.258 .0252158
1065.836 .0252086
1066.414 .0252024
1066.992 .0251967
1067.570 .0251928
1068.148 .0251888
1068.726 .0251847
1069.304 .0251814
1069.882 .0251781
1070.460 .0251738
1071.038 .0251688
1071.616 .0251621
1072.194 .0251553
1072.772 .0251485
1073.350 .0251416
1073.928 .0251339
1074.506 .0251273
1075.084 .0251214
1075.662 .0251154
1076.240 .0251112
1076.819 .0251088
1077.397 .0251073
1077.976 .0251068
1078.554 .0251069
1079.133 .0251080
1079.711 .0251090
1080.290 .0251107
1080.869 .0251121
1081.448 .0251131
1082.027 .0251138
1082.606 .0251132
1083.185 .0251139
1083.764 .0251160
1084.343 .0251187
1084.923 .0251215
1085.502 .0251248
1086.082 .0251269
1086.662 .0251268
1087.242 .0251245
1087.822 .0251199
1088.402 .0251132
1088.983 .0251044
1089.563 .0250940
1090.144 .0250825
1090.725 .0250724
1091.306 .0250641
1091.887 .0250583
1092.469 .0250582
1093.050 .0250637
1093.632 .0250743
1094.214 .0250920
1094.796 .0251154
1095.379 .0251437
1095.961 .0251746
1096.544 .0252086
1097.127 .0252410
1097.710 .0252739
1098.294 .0253053
1098.877 .0253348
1099.461 .0253624
1100.046 .0253909
1100.630 .0254181
1101.215 .0254453
1101.800 .0254712
1102.385 .0254958
1102.970 .0255171
1103.556 .0255379
1104.142 .0255571
1104.728 .0255774
1105.315 .0255974
1105.902 .0256177
1106.489 .0256360
1107.077 .0256545
1107.664 .0256710
1108.253 .0256863
1108.841 .0256996
1109.430 .0257134
1110.019 .0257260
1110.609 .0257383
1111.198 .0257522
1111.789 .0257710
1112.379 .0257906
1112.970 .0258099
1113.561 .0258272
1114.153 .0258397
1114.745 .0258469
1115.338 .0258530
1115.931 .0258590
1116.524 .0258685
1117.117 .0258849
1117.712 .0259116
1118.306 .0259487
1118.901 .0259954
1119.496 .0260471
1120.092 .0261023
1120.689 .0261571
1121.285 .0262080
1121.882 .0262518
1122.480 .0262930
1123.078 .0263383
1123.677 .0263877
1124.276 .0264428
1124.875 .0265062
1125.476 .0265780
1126.076 .0266543
1126.677 .0267296
1127.279 .0268028
1127.881 .0268675
1128.484 .0269263
1129.087 .0269802
1129.691 .0270290
1130.295 .0270794
1130.900 .0271335
1131.505 .0271911
1132.111 .0272534
1132.718 .0273207
1133.325 .0273861
1133.933 .0274488
1134.541 .0275129
1135.150 .0275760
1135.760 .0276402
1136.370 .0277117
1136.981 .0277956
1137.592 .0278915
1138.204 .0279986
1138.817 .0281191
1139.431 .0282510
1140.045 .0284010
1140.660 .0285710
1141.275 .0287707
1141.891 .0289937
1142.508 .0290729
1143.126 .0293893
1143.744 .0297854
1144.363 .0303613
1144.983 .0304449
