Measurement Sequence started on: 15-12-46-377
Integration time: 28
Scans to Average: 2 
>>>>>Begin Spectral Data<<<<<
432.689 .0000100
433.621 .0000100
434.552 .0000100
435.482 .0000100
436.410 .0000100
437.337 .0000100
438.262 .0273831
439.187 .0581978
440.110 .0965735
441.031 .1399441
441.952 .1822079
442.871 .2157114
443.789 .2344108
444.705 .2362164
445.621 .2235272
446.535 .2017740
447.447 .1769160
448.359 .1385890
449.269 .1194190
450.178 .1072179
451.086 .0985269
451.993 .0917938
452.898 .0864057
453.803 .0819798
454.706 .0782562
455.608 .0750749
456.508 .0723078
457.408 .0698869
458.306 .0677273
459.204 .0657937
460.100 .0640430
460.995 .0624658
461.888 .0610501
462.781 .0597514
463.673 .0585651
464.563 .0575031
465.452 .0565355
466.340 .0556402
467.228 .0548248
468.114 .0540800
468.999 .0534000
469.882 .0527747
470.765 .0521944
471.647 .0516682
472.528 .0511955
473.407 .0507718
474.286 .0504028
475.163 .0500867
476.040 .0498193
476.915 .0495792
477.790 .0493734
478.663 .0491895
479.535 .0490165
480.407 .0488556
481.277 .0487052
482.147 .0485651
483.015 .0484425
483.883 .0483327
484.749 .0482426
485.615 .0481805
486.479 .0481448
487.343 .0481358
488.206 .0481470
489.067 .0481734
489.928 .0482147
490.788 .0482657
491.647 .0483380
492.505 .0484244
493.362 .0485359
494.218 .0486717
495.073 .0488257
495.928 .0490074
496.781 .0492046
497.634 .0494235
498.486 .0496682
499.337 .0499369
500.187 .0502190
501.036 .0505194
501.884 .0508390
502.731 .0511813
503.578 .0515375
504.424 .0519056
505.268 .0522847
506.113 .0526851
506.956 .0531127
507.798 .0535664
508.640 .0540755
509.480 .0546749
510.320 .0553622
511.160 .0561682
511.998 .0570726
512.836 .0580895
513.672 .0592163
514.508 .0604679
515.344 .0618340
516.178 .0633423
517.012 .0650411
517.845 .0669739
518.677 .0691912
519.508 .0717315
520.339 .0746215
521.169 .0779346
521.998 .0816716
522.826 .0858520
523.654 .0904890
524.481 .0955908
525.307 .1011969
526.133 .1073333
526.958 .1139218
527.782 .1208842
528.605 .1280980
529.428 .1354568
530.250 .1424311
531.072 .1487593
531.892 .1541115
532.712 .1581953
533.532 .1608115
534.350 .1617280
535.168 .1608369
535.986 .1583215
536.802 .1542646
537.618 .1488601
538.434 .1423492
539.249 .1352445
540.063 .1277549
540.876 .1201882
541.689 .1128260
542.501 .1058959
543.313 .0995453
544.124 .0938390
544.934 .0887037
545.744 .0841146
546.553 .0800211
547.361 .0763572
548.169 .0730908
548.976 .0701835
549.783 .0675981
550.589 .0653038
551.395 .0632498
552.200 .0614169
553.004 .0597550
553.808 .0582311
554.611 .0568738
555.414 .0556539
556.216 .0545518
557.018 .0535808
557.819 .0527226
558.619 .0519456
559.419 .0512432
560.218 .0505911
561.017 .0499708
561.815 .0493651
562.613 .0487556
563.410 .0481292
564.207 .0474953
565.003 .0468773
565.799 .0462664
566.594 .0456668
567.388 .0450972
568.182 .0445336
568.976 .0439851
569.769 .0434514
570.562 .0429258
571.354 .0424005
572.145 .0418858
572.936 .0413766
573.727 .0408669
574.517 .0403701
575.307 .0398882
576.096 .0394198
576.885 .0389751
577.673 .0385563
578.461 .0381555
579.248 .0377796
580.035 .0374329
580.821 .0371059
581.607 .0367992
582.392 .0365093
583.177 .0362327
583.962 .0359706
584.746 .0357269
585.529 .0354997
586.313 .0352903
587.095 .0351040
587.878 .0349387
588.660 .0347930
589.441 .0346665
590.222 .0345533
591.003 .0344514
591.783 .0343563
592.563 .0342670
593.342 .0341796
594.121 .0340948
594.899 .0340143
595.678 .0339401
596.455 .0338718
597.233 .0338104
598.009 .0337537
598.786 .0337017
599.562 .0336523
600.338 .0336040
601.113 .0335549
601.888 .0335056
602.663 .0334564
603.437 .0334081
604.211 .0333605
604.984 .0333165
605.757 .0332767
606.530 .0332412
607.302 .0332096
608.074 .0331815
608.845 .0331557
609.616 .0331313
610.387 .0331075
611.158 .0330849
611.928 .0330624
612.697 .0330412
613.467 .0330207
614.236 .0330017
615.004 .0329846
615.773 .0329686
616.541 .0329530
617.308 .0329374
618.076 .0329216
618.843 .0329034
619.609 .0328836
620.375 .0328624
621.141 .0328397
621.907 .0328161
622.672 .0327921
623.437 .0327678
624.202 .0327438
624.966 .0327200
625.730 .0326959
626.493 .0326706
627.257 .0326440
628.020 .0326149
628.782 .0325829
629.545 .0325488
630.307 .0325125
631.068 .0324744
631.830 .0324360
632.591 .0323968
633.352 .0323575
634.112 .0323180
634.872 .0322778
635.632 .0322374
636.392 .0321953
637.151 .0321520
637.910 .0321070
638.668 .0320612
639.427 .0320146
640.185 .0319682
640.943 .0319220
641.700 .0318772
642.457 .0318341
643.214 .0317938
643.971 .0317546
644.727 .0317180
645.483 .0316836
646.239 .0316510
646.994 .0316194
647.750 .0315894
648.505 .0315603
649.259 .0315338
650.014 .0315080
650.768 .0314840
651.521 .0314613
652.275 .0314406
653.028 .0314207
653.781 .0314006
654.534 .0313806
655.286 .0313598
656.039 .0313375
656.791 .0313143
657.542 .0312891
658.294 .0312635
659.045 .0312372
659.796 .0312116
660.546 .0311857
661.297 .0311598
662.047 .0311336
662.796 .0311071
663.546 .0310798
664.295 .0310518
665.044 .0310233
665.793 .0309951
666.542 .0309684
667.290 .0309427
668.038 .0309183
668.786 .0308959
669.533 .0308742
670.281 .0308537
671.028 .0308328
671.774 .0308116
672.521 .0307902
673.267 .0307689
674.013 .0307484
674.759 .0307290
675.505 .0307113
676.250 .0306959
676.995 .0306825
677.740 .0306710
678.484 .0306606
679.229 .0306508
679.973 .0306422
680.717 .0306333
681.460 .0306241
682.204 .0306149
682.947 .0306054
683.690 .0305960
684.433 .0305862
685.175 .0305756
685.917 .0305636
686.659 .0305504
687.401 .0305354
688.142 .0305185
688.884 .0305002
689.625 .0304807
690.365 .0304599
691.106 .0304388
691.846 .0304173
692.586 .0303953
693.326 .0303741
694.066 .0303534
694.805 .0303325
695.545 .0303122
696.284 .0302918
697.022 .0302719
697.761 .0302522
698.499 .0302331
699.237 .0302140
699.975 .0301957
700.713 .0301777
701.450 .0301600
702.187 .0301427
702.924 .0301255
703.661 .0301080
704.397 .0300900
705.133 .0300715
705.869 .0300524
706.605 .0300326
707.341 .0300125
708.076 .0299917
708.811 .0299704
709.546 .0299480
710.281 .0299248
711.015 .0299012
711.749 .0298768
712.483 .0298512
713.217 .0298255
713.950 .0297994
714.684 .0297727
715.417 .0297458
716.150 .0297188
716.882 .0296919
717.615 .0296645
718.347 .0296362
719.079 .0296074
719.811 .0295778
720.542 .0295478
721.273 .0295173
722.005 .0294864
722.735 .0294563
723.466 .0294265
724.196 .0293971
724.927 .0293679
725.656 .0293391
726.386 .0293101
727.116 .0292811
727.845 .0292519
728.574 .0292225
729.303 .0291930
730.031 .0291644
730.760 .0291367
731.488 .0291100
732.216 .0290851
732.944 .0290618
733.671 .0290403
734.398 .0290205
735.125 .0290015
735.852 .0289835
736.579 .0289668
737.305 .0289510
738.031 .0289356
738.757 .0289205
739.483 .0289055
740.208 .0288907
740.933 .0288765
741.658 .0288627
742.383 .0288492
743.108 .0288365
743.832 .0288246
744.556 .0288133
745.280 .0288027
746.004 .0287922
746.727 .0287820
747.450 .0287723
748.173 .0287618
748.896 .0287511
749.618 .0287408
750.340 .0287309
751.062 .0287216
751.784 .0287132
752.506 .0287056
753.227 .0286986
753.948 .0286922
754.669 .0286858
755.389 .0286789
756.110 .0286717
756.830 .0286635
757.550 .0286543
758.269 .0286447
758.989 .0286346
759.708 .0286235
760.427 .0286125
761.146 .0286011
761.864 .0285892
762.582 .0285766
763.300 .0285635
764.018 .0285499
764.736 .0285363
765.453 .0285225
766.170 .0285094
766.887 .0284972
767.603 .0284868
768.320 .0284774
769.036 .0284699
769.751 .0284642
770.467 .0284597
771.182 .0284559
771.897 .0284530
772.612 .0284503
773.327 .0284480
774.041 .0284459
774.755 .0284442
775.469 .0284432
776.183 .0284434
776.896 .0284441
777.609 .0284456
778.322 .0284474
779.035 .0284493
779.747 .0284507
780.459 .0284516
781.171 .0284516
781.882 .0284509
782.594 .0284505
783.305 .0284508
784.016 .0284520
784.726 .0284544
785.436 .0284577
786.147 .0284618
786.856 .0284659
787.566 .0284694
788.275 .0284718
788.984 .0284731
789.693 .0284730
790.401 .0284713
791.110 .0284680
791.818 .0284633
792.525 .0284576
793.233 .0284507
793.940 .0284424
794.647 .0284324
795.353 .0284208
796.060 .0284078
796.766 .0283935
797.472 .0283778
798.177 .0283606
798.883 .0283426
799.588 .0283236
800.292 .0283032
800.997 .0282818
801.701 .0282595
802.405 .0282368
803.109 .0282139
803.812 .0281911
804.515 .0281681
805.218 .0281450
805.921 .0281217
806.623 .0280981
807.325 .0280743
808.027 .0280502
808.728 .0280257
809.429 .0280013
810.130 .0279769
810.831 .0279523
811.531 .0279275
812.231 .0279026
812.931 .0278771
813.630 .0278506
814.330 .0278229
815.029 .0277939
815.727 .0277641
816.426 .0277340
817.124 .0277042
817.821 .0276745
818.519 .0276455
819.216 .0276171
819.913 .0275899
820.609 .0275636
821.306 .0275385
822.002 .0275149
822.697 .0274925
823.393 .0274717
824.088 .0274516
824.783 .0274324
825.477 .0274139
826.171 .0273958
826.865 .0273786
827.559 .0273620
828.252 .0273466
828.945 .0273325
829.638 .0273197
830.330 .0273092
831.023 .0272997
831.714 .0272907
832.406 .0272816
833.097 .0272717
833.788 .0272602
834.479 .0272477
835.169 .0272343
835.859 .0272215
836.548 .0272096
837.238 .0271991
837.927 .0271904
838.615 .0271828
839.304 .0271762
839.992 .0271692
840.680 .0271618
841.367 .0271530
842.054 .0271421
842.741 .0271301
843.428 .0271171
844.114 .0271043
844.800 .0270916
845.485 .0270791
846.170 .0270672
846.855 .0270555
847.540 .0270438
848.224 .0270318
848.908 .0270201
849.592 .0270084
850.275 .0269974
850.958 .0269865
851.641 .0269760
852.323 .0269661
853.005 .0269566
853.687 .0269469
854.368 .0269368
855.049 .0269261
855.730 .0269147
856.410 .0269028
857.090 .0268910
857.769 .0268789
858.449 .0268673
859.128 .0268560
859.806 .0268454
860.485 .0268352
861.163 .0268254
861.840 .0268155
862.518 .0268059
863.195 .0267964
863.871 .0267867
864.548 .0267771
865.224 .0267678
865.899 .0267589
866.574 .0267506
867.249 .0267427
867.924 .0267356
868.598 .0267294
869.272 .0267242
869.946 .0267197
870.619 .0267162
871.292 .0267135
871.964 .0267112
872.636 .0267091
873.308 .0267075
873.979 .0267058
874.651 .0267042
875.321 .0267025
875.992 .0267012
876.662 .0267008
877.331 .0267016
878.001 .0267037
878.670 .0267073
879.338 .0267121
880.007 .0267182
880.675 .0267247
881.342 .0267315
882.009 .0267382
882.676 .0267447
883.343 .0267508
884.009 .0267570
884.675 .0267634
885.340 .0267702
886.005 .0267780
886.670 .0267872
887.334 .0267974
887.998 .0268083
888.662 .0268196
889.325 .0268310
889.988 .0268422
890.650 .0268529
891.312 .0268630
891.974 .0268730
892.636 .0268829
893.297 .0268928
893.957 .0269031
894.618 .0269141
895.278 .0269257
895.937 .0269379
896.596 .0269507
897.255 .0269633
897.914 .0269752
898.572 .0269860
899.230 .0269957
899.887 .0270041
900.544 .0270108
901.201 .0270159
901.857 .0270202
902.513 .0270237
903.168 .0270257
903.823 .0270262
904.478 .0270250
905.132 .0270212
905.786 .0270145
906.440 .0270040
907.093 .0269898
907.746 .0269723
908.399 .0269520
909.051 .0269295
909.703 .0269060
910.354 .0268817
911.005 .0268568
911.656 .0268317
912.306 .0268065
912.956 .0267806
913.605 .0267541
914.254 .0267272
914.903 .0266998
915.551 .0266723
916.199 .0266454
916.847 .0266193
917.494 .0265947
918.141 .0265717
918.788 .0265502
919.434 .0265299
920.079 .0265102
920.725 .0264909
921.370 .0264719
922.014 .0264532
922.658 .0264341
923.302 .0264143
923.946 .0263942
924.589 .0263735
925.231 .0263520
925.873 .0263299
926.515 .0263069
927.157 .0262832
927.798 .0262581
928.439 .0262313
929.079 .0262030
929.719 .0261728
930.359 .0261411
930.998 .0261081
931.637 .0260742
932.275 .0260393
932.913 .0260041
933.551 .0259689
934.188 .0259345
934.825 .0259004
935.462 .0258670
936.098 .0258345
936.733 .0258031
937.369 .0257730
938.004 .0257444
938.638 .0257168
939.273 .0256910
939.907 .0256664
940.540 .0256433
941.173 .0256213
941.806 .0256008
942.438 .0255814
943.070 .0255633
943.702 .0255460
944.333 .0255290
944.964 .0255119
945.594 .0254951
946.224 .0254780
946.854 .0254609
947.483 .0254438
948.112 .0254268
948.741 .0254100
949.369 .0253939
949.996 .0253777
950.624 .0253616
951.251 .0253453
951.878 .0253287
952.504 .0253112
953.130 .0252929
953.755 .0252738
954.380 .0252538
955.005 .0252337
955.629 .0252135
956.253 .0251927
956.877 .0251719
957.500 .0251514
958.123 .0251311
958.746 .0251103
959.368 .0250893
959.990 .0250679
960.611 .0250466
961.232 .0250252
961.853 .0250036
962.473 .0249819
963.093 .0249607
963.712 .0249394
964.331 .0249177
964.950 .0248964
965.569 .0248757
966.187 .0248554
966.804 .0248362
967.422 .0248184
968.039 .0248018
968.655 .0247865
969.272 .0247726
969.887 .0247600
970.503 .0247485
971.118 .0247378
971.733 .0247276
972.347 .0247181
972.961 .0247087
973.575 .0246990
974.188 .0246889
974.801 .0246782
975.414 .0246670
976.026 .0246552
976.638 .0246429
977.250 .0246304
977.861 .0246181
978.472 .0246055
979.083 .0245923
979.693 .0245784
980.303 .0245633
980.912 .0245474
981.521 .0245307
982.130 .0245137
982.738 .0244971
983.346 .0244817
983.954 .0244677
984.562 .0244552
985.169 .0244441
985.775 .0244336
986.382 .0244232
986.988 .0244130
987.594 .0244026
988.199 .0243920
988.804 .0243820
989.409 .0243731
990.013 .0243658
990.617 .0243606
991.221 .0243566
991.824 .0243542
992.427 .0243530
993.030 .0243523
993.632 .0243521
994.234 .0243527
994.836 .0243544
995.438 .0243576
996.039 .0243628
996.640 .0243698
997.240 .0243788
997.840 .0243902
998.440 .0244028
999.040 .0244159
999.639 .0244290
1000.238 .0244415
1000.836 .0244530
1001.435 .0244640
1002.033 .0244741
1002.630 .0244841
1003.228 .0244944
1003.825 .0245049
1004.422 .0245159
1005.018 .0245274
1005.614 .0245390
1006.210 .0245501
1006.806 .0245600
1007.401 .0245689
1007.996 .0245761
1008.591 .0245824
1009.186 .0245889
1009.780 .0245967
1010.374 .0246061
1010.967 .0246176
1011.561 .0246314
1012.154 .0246469
1012.746 .0246628
1013.339 .0246789
1013.931 .0246944
1014.523 .0247093
1015.115 .0247236
1015.706 .0247379
1016.298 .0247528
1016.888 .0247696
1017.479 .0247872
1018.069 .0248056
1018.660 .0248240
1019.250 .0248422
1019.839 .0248589
1020.429 .0248742
1021.018 .0248879
1021.607 .0249002
1022.195 .0249125
1022.784 .0249252
1023.372 .0249391
1023.960 .0249551
1024.547 .0249733
1025.135 .0249935
1025.722 .0250155
1026.309 .0250384
1026.896 .0250616
1027.483 .0250857
1028.069 .0251101
1028.655 .0251341
1029.241 .0251581
1029.827 .0251821
1030.412 .0252060
1030.997 .0252300
1031.582 .0252543
1032.167 .0252782
1032.752 .0253019
1033.336 .0253252
1033.921 .0253471
1034.505 .0253677
1035.089 .0253870
1035.672 .0254051
1036.256 .0254218
1036.839 .0254380
1037.422 .0254536
1038.005 .0254693
1038.588 .0254860
1039.171 .0255035
1039.753 .0255215
1040.335 .0255403
1040.918 .0255592
1041.500 .0255768
1042.081 .0255928
1042.663 .0256079
1043.244 .0256217
1043.826 .0256347
1044.407 .0256466
1044.988 .0256577
1045.569 .0256674
1046.150 .0256765
1046.730 .0256842
1047.311 .0256905
1047.891 .0256958
1048.471 .0257001
1049.052 .0257027
1049.632 .0257041
1050.211 .0257049
1050.791 .0257058
1051.371 .0257080
1051.950 .0257127
1052.530 .0257183
1053.109 .0257256
1053.688 .0257339
1054.268 .0257429
1054.847 .0257511
1055.426 .0257588
1056.005 .0257655
1056.583 .0257716
1057.162 .0257767
1057.741 .0257809
1058.319 .0257849
1058.898 .0257902
1059.476 .0257957
1060.055 .0258009
1060.633 .0258038
1061.211 .0258046
1061.790 .0258025
1062.368 .0257987
1062.946 .0257933
1063.524 .0257884
1064.102 .0257844
1064.680 .0257828
1065.258 .0257830
1065.836 .0257853
1066.414 .0257882
1066.992 .0257932
1067.570 .0257986
1068.148 .0258030
1068.726 .0258057
1069.304 .0258078
1069.882 .0258094
1070.460 .0258110
1071.038 .0258115
1071.616 .0258118
1072.194 .0258098
1072.772 .0258058
1073.350 .0257978
1073.928 .0257873
1074.506 .0257740
1075.084 .0257589
1075.662 .0257422
1076.240 .0257252
1076.819 .0257077
1077.397 .0256925
1077.976 .0256783
1078.554 .0256668
1079.133 .0256572
1079.711 .0256501
1080.290 .0256451
1080.869 .0256432
1081.448 .0256429
1082.027 .0256442
1082.606 .0256459
1083.185 .0256495
1083.764 .0256529
1084.343 .0256577
1084.923 .0256623
1085.502 .0256669
1086.082 .0256714
1086.662 .0256758
1087.242 .0256772
1087.822 .0256756
1088.402 .0256703
1088.983 .0256635
1089.563 .0256519
1090.144 .0256384
1090.725 .0256247
1091.306 .0256114
1091.887 .0256002
1092.469 .0255904
1093.050 .0255818
1093.632 .0255748
1094.214 .0255692
1094.796 .0255637
1095.379 .0255574
1095.961 .0255541
1096.544 .0255516
1097.127 .0255517
1097.710 .0255565
1098.294 .0255653
1098.877 .0255775
1099.461 .0255946
1100.046 .0256160
1100.630 .0256388
1101.215 .0256630
1101.800 .0256865
1102.385 .0257082
1102.970 .0257292
1103.556 .0257476
1104.142 .0257620
1104.728 .0257754
1105.315 .0257889
1105.902 .0257994
1106.489 .0258097
1107.077 .0258212
1107.664 .0258339
1108.253 .0258481
1108.841 .0258627
1109.430 .0258765
1110.019 .0258893
1110.609 .0258999
1111.198 .0259067
1111.789 .0259136
1112.379 .0259224
1112.970 .0259301
1113.561 .0259421
1114.153 .0259605
1114.745 .0259854
1115.338 .0260160
1115.931 .0260504
1116.524 .0260859
1117.117 .0261211
1117.712 .0261550
1118.306 .0261858
1118.901 .0262142
1119.496 .0262437
1120.092 .0262730
1120.689 .0263055
1121.285 .0263437
1121.882 .0263856
1122.480 .0264333
1123.078 .0264864
1123.677 .0265432
1124.276 .0266002
1124.875 .0266571
1125.476 .0267110
1126.076 .0267651
1126.677 .0268191
1127.279 .0268691
1127.881 .0269153
1128.484 .0269570
1129.087 .0269949
1129.691 .0270323
1130.295 .0270689
1130.900 .0271079
1131.505 .0271502
1132.111 .0271975
1132.718 .0272458
1133.325 .0273006
1133.933 .0273627
1134.541 .0274286
1135.150 .0275007
1135.760 .0275757
1136.370 .0276517
1136.981 .0277325
1137.592 .0278167
1138.204 .0279112
1138.817 .0280063
1139.431 .0281024
1140.045 .0282059
1140.660 .0283104
1141.275 .0284153
1141.891 .0285213
1142.508 .0285418
1143.126 .0289030
1143.744 .0288238
1144.363 .0288455
1144.983 .0290290
