Measurement Sequence started on: 15-12-46-377
Integration time: 28
Scans to Average: 2 
>>>>>Begin Spectral Data<<<<<
432.689 .0000100
433.621 .0000100
434.552 .0000100
435.482 .0000100
436.410 .0000100
437.337 .0000100
438.262 .0293634
439.187 .0621486
440.110 .1029319
441.031 .1487591
441.952 .1931315
442.871 .2278516
443.789 .2465319
444.705 .2470129
445.621 .2320604
446.535 .2075901
447.447 .1800644
448.359 .1383627
449.269 .1176188
450.178 .1044655
451.086 .0952872
451.993 .0882960
452.898 .0828254
453.803 .0784147
454.706 .0748256
455.608 .0718101
456.508 .0692576
457.408 .0670601
458.306 .0651356
459.204 .0634029
460.100 .0618316
460.995 .0604236
461.888 .0591400
462.781 .0579678
463.673 .0569126
464.563 .0559570
465.452 .0550811
466.340 .0542549
467.228 .0534788
468.114 .0527324
468.999 .0520254
469.882 .0513473
470.765 .0507072
471.647 .0501267
472.528 .0495970
473.407 .0491250
474.286 .0487104
475.163 .0483514
476.040 .0480355
476.915 .0477555
477.790 .0475070
478.663 .0472776
479.535 .0470694
480.407 .0468792
481.277 .0467139
482.147 .0465766
483.015 .0464647
483.883 .0463768
484.749 .0463117
485.615 .0462686
486.479 .0462421
487.343 .0462342
488.206 .0462372
489.067 .0462507
489.928 .0462679
490.788 .0462857
491.647 .0463073
492.505 .0463314
493.362 .0463624
494.218 .0464041
495.073 .0464635
495.928 .0465470
496.781 .0466510
497.634 .0467932
498.486 .0469660
499.337 .0471702
500.187 .0474055
501.036 .0476672
501.884 .0479553
502.731 .0482778
503.578 .0486293
504.424 .0490228
505.268 .0494532
506.113 .0499342
506.956 .0504616
507.798 .0510424
508.640 .0516797
509.480 .0523807
510.320 .0531455
511.160 .0539801
511.998 .0548649
512.836 .0558154
513.672 .0568305
514.508 .0579259
515.344 .0590977
516.178 .0603984
517.012 .0618614
517.845 .0635319
518.677 .0654480
519.508 .0676394
520.339 .0701364
521.169 .0729771
521.998 .0761457
522.826 .0796870
523.654 .0836128
524.481 .0879701
525.307 .0928204
526.133 .0982316
526.958 .1041716
527.782 .1106127
528.605 .1173495
529.428 .1242965
530.250 .1308444
531.072 .1367628
531.892 .1416635
532.712 .1452338
533.532 .1473479
534.350 .1478532
535.168 .1467508
535.986 .1442080
536.802 .1403308
537.618 .1353973
538.434 .1295531
539.249 .1232419
540.063 .1165573
540.876 .1097860
541.689 .1031889
542.501 .0969122
543.313 .0911240
544.124 .0859335
544.934 .0813033
545.744 .0772072
546.553 .0735888
547.361 .0703897
548.169 .0676162
548.976 .0651781
549.783 .0630280
550.589 .0611299
551.395 .0594212
552.200 .0578881
553.004 .0564856
553.808 .0552207
554.611 .0540906
555.414 .0530771
556.216 .0521660
557.018 .0513632
557.819 .0506487
558.619 .0499982
559.419 .0494012
560.218 .0488443
561.017 .0483071
561.815 .0477704
562.613 .0472341
563.410 .0466974
564.207 .0461545
565.003 .0456197
565.799 .0450863
566.594 .0445562
567.388 .0440294
568.182 .0435006
568.976 .0429687
569.769 .0424401
570.562 .0419079
571.354 .0413731
572.145 .0408405
572.936 .0403113
573.727 .0397873
574.517 .0392815
575.307 .0387975
576.096 .0383390
576.885 .0379069
577.673 .0375085
578.461 .0371372
579.248 .0367946
580.035 .0364753
580.821 .0361759
581.607 .0358955
582.392 .0356321
583.177 .0353819
583.962 .0351474
584.746 .0349333
585.529 .0347361
586.313 .0345565
587.095 .0343955
587.878 .0342465
588.660 .0341108
589.441 .0339861
590.222 .0338685
591.003 .0337594
591.783 .0336575
592.563 .0335616
593.342 .0334699
594.121 .0333834
594.899 .0333007
595.678 .0332220
596.455 .0331482
597.233 .0330777
598.009 .0330087
598.786 .0329440
599.562 .0328815
600.338 .0328209
601.113 .0327631
601.888 .0327055
602.663 .0326478
603.437 .0325915
604.211 .0325355
604.984 .0324807
605.757 .0324276
606.530 .0323773
607.302 .0323297
608.074 .0322845
608.845 .0322427
609.616 .0322024
610.387 .0321654
611.158 .0321309
611.928 .0320974
612.697 .0320654
613.467 .0320356
614.236 .0320075
615.004 .0319820
615.773 .0319585
616.541 .0319367
617.308 .0319160
618.076 .0318970
618.843 .0318791
619.609 .0318627
620.375 .0318474
621.141 .0318335
621.907 .0318190
622.672 .0318045
623.437 .0317883
624.202 .0317706
624.966 .0317513
625.730 .0317309
626.493 .0317086
627.257 .0316855
628.020 .0316621
628.782 .0316385
629.545 .0316152
630.307 .0315923
631.068 .0315686
631.830 .0315444
632.591 .0315188
633.352 .0314926
634.112 .0314654
634.872 .0314385
635.632 .0314123
636.392 .0313871
637.151 .0313642
637.910 .0313427
638.668 .0313225
639.427 .0313041
640.185 .0312858
640.943 .0312666
641.700 .0312471
642.457 .0312269
643.214 .0312061
643.971 .0311851
644.727 .0311647
645.483 .0311450
646.239 .0311264
646.994 .0311086
647.750 .0310918
648.505 .0310757
649.259 .0310606
650.014 .0310449
650.768 .0310299
651.521 .0310150
652.275 .0310000
653.028 .0309850
653.781 .0309710
654.534 .0309574
655.286 .0309434
656.039 .0309288
656.791 .0309140
657.542 .0308970
658.294 .0308779
659.045 .0308562
659.796 .0308322
660.546 .0308056
661.297 .0307771
662.047 .0307466
662.796 .0307152
663.546 .0306835
664.295 .0306513
665.044 .0306184
665.793 .0305863
666.542 .0305540
667.290 .0305217
668.038 .0304898
668.786 .0304582
669.533 .0304268
670.281 .0303966
671.028 .0303670
671.774 .0303386
672.521 .0303122
673.267 .0302874
674.013 .0302643
674.759 .0302427
675.505 .0302220
676.250 .0302015
676.995 .0301813
677.740 .0301612
678.484 .0301403
679.229 .0301193
679.973 .0300981
680.717 .0300763
681.460 .0300544
682.204 .0300320
682.947 .0300094
683.690 .0299866
684.433 .0299634
685.175 .0299395
685.917 .0299152
686.659 .0298911
687.401 .0298677
688.142 .0298453
688.884 .0298244
689.625 .0298052
690.365 .0297870
691.106 .0297698
691.846 .0297528
692.586 .0297356
693.326 .0297180
694.066 .0297002
694.805 .0296825
695.545 .0296649
696.284 .0296481
697.022 .0296321
697.761 .0296168
698.499 .0296016
699.237 .0295859
699.975 .0295690
700.713 .0295506
701.450 .0295308
702.187 .0295097
702.924 .0294883
703.661 .0294669
704.397 .0294462
705.133 .0294267
705.869 .0294088
706.605 .0293923
707.341 .0293769
708.076 .0293624
708.811 .0293485
709.546 .0293350
710.281 .0293216
711.015 .0293082
711.749 .0292950
712.483 .0292815
713.217 .0292679
713.950 .0292538
714.684 .0292393
715.417 .0292241
716.150 .0292088
716.882 .0291929
717.615 .0291772
718.347 .0291617
719.079 .0291461
719.811 .0291307
720.542 .0291154
721.273 .0291000
722.005 .0290841
722.735 .0290683
723.466 .0290532
724.196 .0290385
724.927 .0290247
725.656 .0290119
726.386 .0290001
727.116 .0289897
727.845 .0289801
728.574 .0289709
729.303 .0289621
730.031 .0289538
730.760 .0289456
731.488 .0289378
732.216 .0289303
732.944 .0289241
733.671 .0289183
734.398 .0289135
735.125 .0289095
735.852 .0289062
736.579 .0289035
737.305 .0289013
738.031 .0288994
738.757 .0288976
739.483 .0288954
740.208 .0288930
740.933 .0288900
741.658 .0288866
742.383 .0288823
743.108 .0288769
743.832 .0288707
744.556 .0288636
745.280 .0288555
746.004 .0288468
746.727 .0288376
747.450 .0288279
748.173 .0288174
748.896 .0288063
749.618 .0287944
750.340 .0287812
751.062 .0287671
751.784 .0287524
752.506 .0287373
753.227 .0287223
753.948 .0287077
754.669 .0286939
755.389 .0286810
756.110 .0286688
756.830 .0286568
757.550 .0286447
758.269 .0286318
758.989 .0286178
759.708 .0286022
760.427 .0285855
761.146 .0285682
761.864 .0285503
762.582 .0285326
763.300 .0285152
764.018 .0284981
764.736 .0284811
765.453 .0284641
766.170 .0284467
766.887 .0284283
767.603 .0284092
768.320 .0283890
769.036 .0283681
769.751 .0283468
770.467 .0283256
771.182 .0283054
771.897 .0282861
772.612 .0282679
773.327 .0282506
774.041 .0282346
774.755 .0282191
775.469 .0282040
776.183 .0281894
776.896 .0281750
777.609 .0281609
778.322 .0281470
779.035 .0281336
779.747 .0281207
780.459 .0281083
781.171 .0280968
781.882 .0280854
782.594 .0280747
783.305 .0280642
784.016 .0280540
784.726 .0280441
785.436 .0280341
786.147 .0280236
786.856 .0280131
787.566 .0280019
788.275 .0279902
788.984 .0279778
789.693 .0279649
790.401 .0279511
791.110 .0279362
791.818 .0279204
792.525 .0279038
793.233 .0278864
793.940 .0278688
794.647 .0278508
795.353 .0278330
796.060 .0278153
796.766 .0277976
797.472 .0277801
798.177 .0277628
798.883 .0277452
799.588 .0277274
800.292 .0277094
800.997 .0276913
801.701 .0276730
802.405 .0276551
803.109 .0276379
803.812 .0276211
804.515 .0276051
805.218 .0275891
805.921 .0275729
806.623 .0275560
807.325 .0275379
808.027 .0275184
808.728 .0274978
809.429 .0274762
810.130 .0274537
810.831 .0274316
811.531 .0274104
812.231 .0273899
812.931 .0273705
813.630 .0273519
814.330 .0273340
815.029 .0273161
815.727 .0272986
816.426 .0272813
817.124 .0272648
817.821 .0272492
818.519 .0272345
819.216 .0272215
819.913 .0272099
820.609 .0271996
821.306 .0271905
822.002 .0271827
822.697 .0271758
823.393 .0271698
824.088 .0271643
824.783 .0271596
825.477 .0271555
826.171 .0271518
826.865 .0271487
827.559 .0271464
828.252 .0271447
828.945 .0271438
829.638 .0271435
830.330 .0271444
831.023 .0271459
831.714 .0271481
832.406 .0271511
833.097 .0271547
833.788 .0271582
834.479 .0271615
835.169 .0271644
835.859 .0271674
836.548 .0271706
837.238 .0271741
837.927 .0271781
838.615 .0271827
839.304 .0271879
839.992 .0271930
840.680 .0271977
841.367 .0272022
842.054 .0272058
842.741 .0272093
843.428 .0272126
844.114 .0272159
844.800 .0272199
845.485 .0272248
846.170 .0272299
846.855 .0272347
847.540 .0272384
848.224 .0272403
848.908 .0272400
849.592 .0272373
850.275 .0272323
850.958 .0272262
851.641 .0272198
852.323 .0272138
853.005 .0272080
853.687 .0272028
854.368 .0271974
855.049 .0271915
855.730 .0271844
856.410 .0271753
857.090 .0271646
857.769 .0271530
858.449 .0271415
859.128 .0271309
859.806 .0271218
860.485 .0271154
861.163 .0271112
861.840 .0271088
862.518 .0271072
863.195 .0271057
863.871 .0271035
864.548 .0271008
865.224 .0270974
865.899 .0270935
866.574 .0270896
867.249 .0270863
867.924 .0270840
868.598 .0270819
869.272 .0270802
869.946 .0270785
870.619 .0270762
871.292 .0270731
871.964 .0270683
872.636 .0270628
873.308 .0270568
873.979 .0270504
874.651 .0270442
875.321 .0270388
875.992 .0270341
876.662 .0270302
877.331 .0270271
878.001 .0270246
878.670 .0270221
879.338 .0270196
880.007 .0270169
880.675 .0270137
881.342 .0270101
882.009 .0270058
882.676 .0270011
883.343 .0269965
884.009 .0269915
884.675 .0269861
885.340 .0269806
886.005 .0269747
886.670 .0269683
887.334 .0269614
887.998 .0269543
888.662 .0269474
889.325 .0269406
889.988 .0269343
890.650 .0269288
891.312 .0269243
891.974 .0269209
892.636 .0269186
893.297 .0269174
893.957 .0269165
894.618 .0269157
895.278 .0269153
895.937 .0269145
896.596 .0269134
897.255 .0269119
897.914 .0269100
898.572 .0269073
899.230 .0269038
899.887 .0268989
900.544 .0268926
901.201 .0268848
901.857 .0268748
902.513 .0268624
903.168 .0268478
903.823 .0268311
904.478 .0268124
905.132 .0267922
905.786 .0267705
906.440 .0267476
907.093 .0267240
907.746 .0266990
908.399 .0266728
909.051 .0266454
909.703 .0266167
910.354 .0265866
911.005 .0265557
911.656 .0265240
912.306 .0264920
912.956 .0264607
913.605 .0264298
914.254 .0263995
914.903 .0263700
915.551 .0263413
916.199 .0263130
916.847 .0262860
917.494 .0262593
918.141 .0262335
918.788 .0262088
919.434 .0261853
920.079 .0261628
920.725 .0261416
921.370 .0261215
922.014 .0261020
922.658 .0260823
923.302 .0260622
923.946 .0260407
924.589 .0260182
925.231 .0259941
925.873 .0259681
926.515 .0259406
927.157 .0259121
927.798 .0258822
928.439 .0258516
929.079 .0258201
929.719 .0257879
930.359 .0257549
930.998 .0257214
931.637 .0256872
932.275 .0256529
932.913 .0256189
933.551 .0255856
934.188 .0255533
934.825 .0255226
935.462 .0254939
936.098 .0254673
936.733 .0254433
937.369 .0254216
938.004 .0254021
938.638 .0253841
939.273 .0253672
939.907 .0253509
940.540 .0253350
941.173 .0253195
941.806 .0253042
942.438 .0252892
943.070 .0252751
943.702 .0252610
944.333 .0252474
944.964 .0252336
945.594 .0252202
946.224 .0252064
946.854 .0251929
947.483 .0251794
948.112 .0251659
948.741 .0251526
949.369 .0251395
949.996 .0251262
950.624 .0251131
951.251 .0250999
951.878 .0250868
952.504 .0250739
953.130 .0250612
953.755 .0250480
954.380 .0250351
955.005 .0250222
955.629 .0250094
956.253 .0249962
956.877 .0249832
957.500 .0249698
958.123 .0249563
958.746 .0249430
959.368 .0249295
959.990 .0249160
960.611 .0249032
961.232 .0248908
961.853 .0248792
962.473 .0248683
963.093 .0248581
963.712 .0248486
964.331 .0248399
964.950 .0248315
965.569 .0248231
966.187 .0248152
966.804 .0248081
967.422 .0248016
968.039 .0247961
968.655 .0247913
969.272 .0247871
969.887 .0247830
970.503 .0247788
971.118 .0247744
971.733 .0247695
972.347 .0247644
972.961 .0247591
973.575 .0247538
974.188 .0247478
974.801 .0247415
975.414 .0247351
976.026 .0247286
976.638 .0247221
977.250 .0247151
977.861 .0247080
978.472 .0247007
979.083 .0246932
979.693 .0246850
980.303 .0246764
980.912 .0246681
981.521 .0246593
982.130 .0246505
982.738 .0246420
983.346 .0246341
983.954 .0246264
984.562 .0246196
985.169 .0246133
985.775 .0246067
986.382 .0246001
986.988 .0245930
987.594 .0245854
988.199 .0245778
988.804 .0245702
989.409 .0245627
990.013 .0245563
990.617 .0245512
991.221 .0245466
991.824 .0245441
992.427 .0245433
993.030 .0245440
993.632 .0245463
994.234 .0245502
994.836 .0245558
995.438 .0245631
996.039 .0245722
996.640 .0245827
997.240 .0245950
997.840 .0246089
998.440 .0246231
999.040 .0246377
999.639 .0246523
1000.238 .0246668
1000.836 .0246805
1001.435 .0246940
1002.033 .0247067
1002.630 .0247191
1003.228 .0247316
1003.825 .0247440
1004.422 .0247568
1005.018 .0247704
1005.614 .0247848
1006.210 .0248001
1006.806 .0248156
1007.401 .0248312
1007.996 .0248467
1008.591 .0248626
1009.186 .0248781
1009.780 .0248936
1010.374 .0249085
1010.967 .0249235
1011.561 .0249381
1012.154 .0249519
1012.746 .0249648
1013.339 .0249774
1013.931 .0249897
1014.523 .0250009
1015.115 .0250114
1015.706 .0250210
1016.298 .0250301
1016.888 .0250392
1017.479 .0250479
1018.069 .0250568
1018.660 .0250660
1019.250 .0250766
1019.839 .0250887
1020.429 .0251030
1021.018 .0251201
1021.607 .0251400
1022.195 .0251621
1022.784 .0251853
1023.372 .0252089
1023.960 .0252320
1024.547 .0252551
1025.135 .0252774
1025.722 .0252996
1026.309 .0253216
1026.896 .0253446
1027.483 .0253685
1028.069 .0253931
1028.655 .0254188
1029.241 .0254444
1029.827 .0254694
1030.412 .0254941
1030.997 .0255171
1031.582 .0255386
1032.167 .0255597
1032.752 .0255805
1033.336 .0256012
1033.921 .0256219
1034.505 .0256418
1035.089 .0256608
1035.672 .0256780
1036.256 .0256930
1036.839 .0257056
1037.422 .0257167
1038.005 .0257266
1038.588 .0257354
1039.171 .0257437
1039.753 .0257523
1040.335 .0257615
1040.918 .0257709
1041.500 .0257803
1042.081 .0257896
1042.663 .0257983
1043.244 .0258055
1043.826 .0258118
1044.407 .0258173
1044.988 .0258215
1045.569 .0258253
1046.150 .0258279
1046.730 .0258301
1047.311 .0258316
1047.891 .0258327
1048.471 .0258337
1049.052 .0258350
1049.632 .0258362
1050.211 .0258381
1050.791 .0258408
1051.371 .0258455
1051.950 .0258518
1052.530 .0258600
1053.109 .0258697
1053.688 .0258814
1054.268 .0258938
1054.847 .0259059
1055.426 .0259180
1056.005 .0259305
1056.583 .0259421
1057.162 .0259535
1057.741 .0259636
1058.319 .0259724
1058.898 .0259800
1059.476 .0259855
1060.055 .0259866
1060.633 .0259844
1061.211 .0259776
1061.790 .0259672
1062.368 .0259543
1062.946 .0259403
1063.524 .0259255
1064.102 .0259121
1064.680 .0259017
1065.258 .0258934
1065.836 .0258873
1066.414 .0258845
1066.992 .0258838
1067.570 .0258852
1068.148 .0258866
1068.726 .0258878
1069.304 .0258898
1069.882 .0258929
1070.460 .0258966
1071.038 .0259012
1071.616 .0259064
1072.194 .0259127
1072.772 .0259183
1073.350 .0259234
1073.928 .0259275
1074.506 .0259294
1075.084 .0259289
1075.662 .0259253
1076.240 .0259195
1076.819 .0259129
1077.397 .0259064
1077.976 .0259019
1078.554 .0258998
1079.133 .0259006
1079.711 .0259029
1080.290 .0259073
1080.869 .0259120
1081.448 .0259157
1082.027 .0259168
1082.606 .0259159
1083.185 .0259126
1083.764 .0259077
1084.343 .0259040
1084.923 .0259009
1085.502 .0259004
1086.082 .0259025
1086.662 .0259055
1087.242 .0259092
1087.822 .0259128
1088.402 .0259148
1088.983 .0259146
1089.563 .0259134
1090.144 .0259112
1090.725 .0259096
1091.306 .0259111
1091.887 .0259160
1092.469 .0259266
1093.050 .0259432
1093.632 .0259662
1094.214 .0259912
1094.796 .0260203
1095.379 .0260492
1095.961 .0260757
1096.544 .0260982
1097.127 .0261158
1097.710 .0261291
1098.294 .0261389
1098.877 .0261456
1099.461 .0261518
1100.046 .0261586
1100.630 .0261677
1101.215 .0261768
1101.800 .0261877
1102.385 .0261972
1102.970 .0262050
1103.556 .0262082
1104.142 .0262106
1104.728 .0262093
1105.315 .0262059
1105.902 .0262013
1106.489 .0261967
1107.077 .0261924
1107.664 .0261887
1108.253 .0261851
1108.841 .0261837
1109.430 .0261833
1110.019 .0261845
1110.609 .0261854
1111.198 .0261894
1111.789 .0261950
1112.379 .0262017
1112.970 .0262095
1113.561 .0262207
1114.153 .0262337
1114.745 .0262514
1115.338 .0262745
1115.931 .0263016
1116.524 .0263338
1117.117 .0263729
1117.712 .0264186
1118.306 .0264724
1118.901 .0265306
1119.496 .0265927
1120.092 .0266585
1120.689 .0267291
1121.285 .0268008
1121.882 .0268709
1122.480 .0269450
1123.078 .0270201
1123.677 .0270951
1124.276 .0271713
1124.875 .0272477
1125.476 .0273246
1126.076 .0274004
1126.677 .0274695
1127.279 .0275304
1127.881 .0275821
1128.484 .0276254
1129.087 .0276615
1129.691 .0276942
1130.295 .0277208
1130.900 .0277462
1131.505 .0277739
1132.111 .0278062
1132.718 .0278407
1133.325 .0278797
1133.933 .0279229
1134.541 .0279728
1135.150 .0280309
1135.760 .0280955
1136.370 .0281726
1136.981 .0282724
1137.592 .0283850
1138.204 .0285114
1138.817 .0286521
1139.431 .0288087
1140.045 .0289762
1140.660 .0291515
1141.275 .0293383
1141.891 .0295346
1142.508 .0297351
1143.126 .0299118
1143.744 .0300962
1144.363 .0304651
1144.983 .0306840
