Measurement Sequence started on: 15-12-46-377
Integration time: 28
Scans to Average: 2 
>>>>>Begin Spectral Data<<<<<
432.689 .0000100
433.621 .0000100
434.552 .0000100
435.482 .0000100
436.410 .0000100
437.337 .0000100
438.262 .0258914
439.187 .0550186
440.110 .0912582
441.031 .1322434
441.952 .1721793
442.871 .2037878
443.789 .2213656
444.705 .2229584
445.621 .2108953
446.535 .1902978
447.447 .1668115
448.359 .1306608
449.269 .1127042
450.178 .1014242
451.086 .0934671
451.993 .0873935
452.898 .0826343
453.803 .0787452
454.706 .0754734
455.608 .0726388
456.508 .0701650
457.408 .0679684
458.306 .0659729
459.204 .0641639
460.100 .0624992
460.995 .0609757
461.888 .0595922
462.781 .0583067
463.673 .0571271
464.563 .0560391
465.452 .0550193
466.340 .0540520
467.228 .0531674
468.114 .0523418
468.999 .0515853
469.882 .0509071
470.765 .0503106
471.647 .0497849
472.528 .0493292
473.407 .0489448
474.286 .0486132
475.163 .0483387
476.040 .0481177
476.915 .0479222
477.790 .0477633
478.663 .0476308
479.535 .0475176
480.407 .0474241
481.277 .0473470
482.147 .0472854
483.015 .0472387
483.883 .0472071
484.749 .0471807
485.615 .0471542
486.479 .0471237
487.343 .0470938
488.206 .0470577
489.067 .0470194
489.928 .0469838
490.788 .0469555
491.647 .0469499
492.505 .0469656
493.362 .0470072
494.218 .0470738
495.073 .0471640
495.928 .0472864
496.781 .0474164
497.634 .0475698
498.486 .0477502
499.337 .0479614
500.187 .0482192
501.036 .0485161
501.884 .0488539
502.731 .0492316
503.578 .0496424
504.424 .0500783
505.268 .0505259
506.113 .0509943
506.956 .0514831
507.798 .0520182
508.640 .0526115
509.480 .0532785
510.320 .0540365
511.160 .0549042
511.998 .0558548
512.836 .0569011
513.672 .0580339
514.508 .0592388
515.344 .0605436
516.178 .0619831
517.012 .0635892
517.845 .0654274
518.677 .0675277
519.508 .0699277
520.339 .0726710
521.169 .0758180
521.998 .0792863
522.826 .0831741
523.654 .0874849
524.481 .0922016
525.307 .0973530
526.133 .1029925
526.958 .1090626
527.782 .1155396
528.605 .1222915
529.428 .1291356
530.250 .1356046
531.072 .1414890
531.892 .1463128
532.712 .1498079
533.532 .1518337
534.350 .1521637
535.168 .1507530
535.986 .1478127
536.802 .1434546
537.618 .1379688
538.434 .1316658
539.249 .1249538
540.063 .1180194
540.876 .1111637
541.689 .1045781
542.501 .0983962
543.313 .0927893
544.124 .0877549
544.934 .0832187
545.744 .0791899
546.553 .0755960
547.361 .0723860
548.169 .0695746
548.976 .0671009
549.783 .0649214
550.589 .0629856
551.395 .0612169
552.200 .0596031
553.004 .0581153
553.808 .0567259
554.611 .0554390
555.414 .0542487
556.216 .0531540
557.018 .0521633
557.819 .0512720
558.619 .0504555
559.419 .0497115
560.218 .0490275
561.017 .0483806
561.815 .0477598
562.613 .0471560
563.410 .0465588
564.207 .0459725
565.003 .0453986
565.799 .0448227
566.594 .0442545
567.388 .0437079
568.182 .0431708
568.976 .0426443
569.769 .0421284
570.562 .0416224
571.354 .0411207
572.145 .0406311
572.936 .0401470
573.727 .0396717
574.517 .0392081
575.307 .0387539
576.096 .0383159
576.885 .0378979
577.673 .0375028
578.461 .0371359
579.248 .0367935
580.035 .0364800
580.821 .0361899
581.607 .0359231
582.392 .0356748
583.177 .0354463
583.962 .0352364
584.746 .0350447
585.529 .0348690
586.313 .0347103
587.095 .0345663
587.878 .0344379
588.660 .0343205
589.441 .0342109
590.222 .0341099
591.003 .0340166
591.783 .0339272
592.563 .0338417
593.342 .0337583
594.121 .0336768
594.899 .0335958
595.678 .0335171
596.455 .0334392
597.233 .0333641
598.009 .0332924
598.786 .0332236
599.562 .0331582
600.338 .0330952
601.113 .0330346
601.888 .0329752
602.663 .0329158
603.437 .0328560
604.211 .0327943
604.984 .0327324
605.757 .0326708
606.530 .0326111
607.302 .0325548
608.074 .0325030
608.845 .0324562
609.616 .0324137
610.387 .0323750
611.158 .0323392
611.928 .0323050
612.697 .0322713
613.467 .0322380
614.236 .0322049
615.004 .0321729
615.773 .0321425
616.541 .0321139
617.308 .0320888
618.076 .0320666
618.843 .0320461
619.609 .0320274
620.375 .0320088
621.141 .0319895
621.907 .0319687
622.672 .0319465
623.437 .0319219
624.202 .0318958
624.966 .0318695
625.730 .0318433
626.493 .0318180
627.257 .0317942
628.020 .0317714
628.782 .0317499
629.545 .0317289
630.307 .0317073
631.068 .0316852
631.830 .0316636
632.591 .0316409
633.352 .0316174
634.112 .0315939
634.872 .0315704
635.632 .0315466
636.392 .0315224
637.151 .0314986
637.910 .0314743
638.668 .0314497
639.427 .0314248
640.185 .0313993
640.943 .0313736
641.700 .0313472
642.457 .0313202
643.214 .0312926
643.971 .0312638
644.727 .0312342
645.483 .0312035
646.239 .0311731
646.994 .0311430
647.750 .0311137
648.505 .0310861
649.259 .0310610
650.014 .0310371
650.768 .0310140
651.521 .0309917
652.275 .0309690
653.028 .0309451
653.781 .0309196
654.534 .0308931
655.286 .0308662
656.039 .0308399
656.791 .0308152
657.542 .0307915
658.294 .0307696
659.045 .0307487
659.796 .0307273
660.546 .0307051
661.297 .0306812
662.047 .0306557
662.796 .0306284
663.546 .0306001
664.295 .0305711
665.044 .0305429
665.793 .0305162
666.542 .0304912
667.290 .0304675
668.038 .0304450
668.786 .0304226
669.533 .0303998
670.281 .0303766
671.028 .0303528
671.774 .0303281
672.521 .0303038
673.267 .0302804
674.013 .0302584
674.759 .0302375
675.505 .0302178
676.250 .0301987
676.995 .0301800
677.740 .0301609
678.484 .0301406
679.229 .0301201
679.973 .0300997
680.717 .0300793
681.460 .0300590
682.204 .0300392
682.947 .0300197
683.690 .0300001
684.433 .0299802
685.175 .0299591
685.917 .0299375
686.659 .0299154
687.401 .0298931
688.142 .0298706
688.884 .0298483
689.625 .0298262
690.365 .0298042
691.106 .0297823
691.846 .0297602
692.586 .0297376
693.326 .0297149
694.066 .0296923
694.805 .0296700
695.545 .0296476
696.284 .0296255
697.022 .0296034
697.761 .0295817
698.499 .0295597
699.237 .0295374
699.975 .0295151
700.713 .0294929
701.450 .0294711
702.187 .0294495
702.924 .0294284
703.661 .0294082
704.397 .0293886
705.133 .0293701
705.869 .0293518
706.605 .0293340
707.341 .0293164
708.076 .0292990
708.811 .0292817
709.546 .0292647
710.281 .0292473
711.015 .0292304
711.749 .0292137
712.483 .0291976
713.217 .0291820
713.950 .0291672
714.684 .0291527
715.417 .0291383
716.150 .0291236
716.882 .0291082
717.615 .0290916
718.347 .0290748
719.079 .0290570
719.811 .0290390
720.542 .0290212
721.273 .0290043
722.005 .0289878
722.735 .0289723
723.466 .0289565
724.196 .0289403
724.927 .0289229
725.656 .0289045
726.386 .0288849
727.116 .0288648
727.845 .0288449
728.574 .0288253
729.303 .0288069
730.031 .0287902
730.760 .0287742
731.488 .0287593
732.216 .0287448
732.944 .0287312
733.671 .0287179
734.398 .0287054
735.125 .0286941
735.852 .0286844
736.579 .0286763
737.305 .0286698
738.031 .0286647
738.757 .0286609
739.483 .0286575
740.208 .0286541
740.933 .0286503
741.658 .0286461
742.383 .0286408
743.108 .0286350
743.832 .0286283
744.556 .0286210
745.280 .0286125
746.004 .0286027
746.727 .0285921
747.450 .0285802
748.173 .0285670
748.896 .0285526
749.618 .0285368
750.340 .0285204
751.062 .0285034
751.784 .0284860
752.506 .0284683
753.227 .0284505
753.948 .0284319
754.669 .0284132
755.389 .0283942
756.110 .0283752
756.830 .0283566
757.550 .0283392
758.269 .0283231
758.989 .0283078
759.708 .0282936
760.427 .0282806
761.146 .0282681
761.864 .0282559
762.582 .0282427
763.300 .0282290
764.018 .0282149
764.736 .0282003
765.453 .0281857
766.170 .0281713
766.887 .0281571
767.603 .0281432
768.320 .0281291
769.036 .0281149
769.751 .0281003
770.467 .0280852
771.182 .0280697
771.897 .0280536
772.612 .0280373
773.327 .0280212
774.041 .0280058
774.755 .0279917
775.469 .0279784
776.183 .0279660
776.896 .0279542
777.609 .0279430
778.322 .0279324
779.035 .0279219
779.747 .0279114
780.459 .0279010
781.171 .0278903
781.882 .0278791
782.594 .0278675
783.305 .0278558
784.016 .0278444
784.726 .0278331
785.436 .0278221
786.147 .0278114
786.856 .0278009
787.566 .0277909
788.275 .0277811
788.984 .0277716
789.693 .0277619
790.401 .0277517
791.110 .0277409
791.818 .0277295
792.525 .0277179
793.233 .0277060
793.940 .0276941
794.647 .0276818
795.353 .0276692
796.060 .0276563
796.766 .0276425
797.472 .0276280
798.177 .0276125
798.883 .0275959
799.588 .0275780
800.292 .0275596
800.997 .0275412
801.701 .0275231
802.405 .0275061
803.109 .0274906
803.812 .0274762
804.515 .0274632
805.218 .0274508
805.921 .0274387
806.623 .0274268
807.325 .0274150
808.027 .0274030
808.728 .0273914
809.429 .0273797
810.130 .0273683
810.831 .0273572
811.531 .0273464
812.231 .0273351
812.931 .0273229
813.630 .0273096
814.330 .0272948
815.029 .0272789
815.727 .0272625
816.426 .0272452
817.124 .0272283
817.821 .0272119
818.519 .0271959
819.216 .0271807
819.913 .0271663
820.609 .0271524
821.306 .0271391
822.002 .0271264
822.697 .0271145
823.393 .0271031
824.088 .0270931
824.783 .0270843
825.477 .0270762
826.171 .0270688
826.865 .0270620
827.559 .0270552
828.252 .0270487
828.945 .0270423
829.638 .0270360
830.330 .0270302
831.023 .0270252
831.714 .0270204
832.406 .0270161
833.097 .0270123
833.788 .0270089
834.479 .0270052
835.169 .0270018
835.859 .0269986
836.548 .0269956
837.238 .0269932
837.927 .0269916
838.615 .0269900
839.304 .0269888
839.992 .0269877
840.680 .0269863
841.367 .0269843
842.054 .0269822
842.741 .0269796
843.428 .0269769
844.114 .0269743
844.800 .0269717
845.485 .0269688
846.170 .0269659
846.855 .0269622
847.540 .0269575
848.224 .0269517
848.908 .0269452
849.592 .0269380
850.275 .0269302
850.958 .0269220
851.641 .0269138
852.323 .0269058
853.005 .0268976
853.687 .0268892
854.368 .0268804
855.049 .0268713
855.730 .0268615
856.410 .0268511
857.090 .0268401
857.769 .0268290
858.449 .0268174
859.128 .0268059
859.806 .0267945
860.485 .0267831
861.163 .0267718
861.840 .0267612
862.518 .0267507
863.195 .0267403
863.871 .0267296
864.548 .0267192
865.224 .0267086
865.899 .0266980
866.574 .0266874
867.249 .0266770
867.924 .0266672
868.598 .0266580
869.272 .0266492
869.946 .0266417
870.619 .0266351
871.292 .0266293
871.964 .0266238
872.636 .0266189
873.308 .0266140
873.979 .0266093
874.651 .0266045
875.321 .0266000
875.992 .0265955
876.662 .0265914
877.331 .0265874
878.001 .0265833
878.670 .0265794
879.338 .0265751
880.007 .0265707
880.675 .0265659
881.342 .0265603
882.009 .0265540
882.676 .0265469
883.343 .0265389
884.009 .0265298
884.675 .0265201
885.340 .0265099
886.005 .0264992
886.670 .0264887
887.334 .0264784
887.998 .0264687
888.662 .0264595
889.325 .0264511
889.988 .0264428
890.650 .0264350
891.312 .0264281
891.974 .0264216
892.636 .0264160
893.297 .0264118
893.957 .0264085
894.618 .0264064
895.278 .0264055
895.937 .0264053
896.596 .0264057
897.255 .0264066
897.914 .0264072
898.572 .0264072
899.230 .0264063
899.887 .0264045
900.544 .0264015
901.201 .0263979
901.857 .0263936
902.513 .0263881
903.168 .0263815
903.823 .0263737
904.478 .0263642
905.132 .0263529
905.786 .0263401
906.440 .0263258
907.093 .0263099
907.746 .0262927
908.399 .0262743
909.051 .0262548
909.703 .0262349
910.354 .0262146
911.005 .0261934
911.656 .0261720
912.306 .0261503
912.956 .0261274
913.605 .0261042
914.254 .0260808
914.903 .0260573
915.551 .0260340
916.199 .0260121
916.847 .0259912
917.494 .0259720
918.141 .0259550
918.788 .0259396
919.434 .0259254
920.079 .0259123
920.725 .0258992
921.370 .0258858
922.014 .0258723
922.658 .0258583
923.302 .0258437
923.946 .0258291
924.589 .0258138
925.231 .0257976
925.873 .0257804
926.515 .0257620
927.157 .0257416
927.798 .0257194
928.439 .0256952
929.079 .0256691
929.719 .0256415
930.359 .0256131
930.998 .0255840
931.637 .0255549
932.275 .0255263
932.913 .0254982
933.551 .0254707
934.188 .0254437
934.825 .0254170
935.462 .0253911
936.098 .0253661
936.733 .0253422
937.369 .0253194
938.004 .0252984
938.638 .0252786
939.273 .0252606
939.907 .0252439
940.540 .0252285
941.173 .0252142
941.806 .0252006
942.438 .0251873
943.070 .0251736
943.702 .0251594
944.333 .0251446
944.964 .0251296
945.594 .0251149
946.224 .0251004
946.854 .0250872
947.483 .0250751
948.112 .0250642
948.741 .0250537
949.369 .0250438
949.996 .0250337
950.624 .0250228
951.251 .0250108
951.878 .0249982
952.504 .0249854
953.130 .0249729
953.755 .0249611
954.380 .0249502
955.005 .0249401
955.629 .0249300
956.253 .0249193
956.877 .0249081
957.500 .0248959
958.123 .0248828
958.746 .0248688
959.368 .0248545
959.990 .0248399
960.611 .0248254
961.232 .0248119
961.853 .0247990
962.473 .0247869
963.093 .0247757
963.712 .0247646
964.331 .0247534
964.950 .0247426
965.569 .0247316
966.187 .0247210
966.804 .0247109
967.422 .0247008
968.039 .0246910
968.655 .0246818
969.272 .0246729
969.887 .0246640
970.503 .0246558
971.118 .0246479
971.733 .0246398
972.347 .0246322
972.961 .0246253
973.575 .0246190
974.188 .0246133
974.801 .0246081
975.414 .0246030
976.026 .0245980
976.638 .0245927
977.250 .0245872
977.861 .0245815
978.472 .0245758
979.083 .0245696
979.693 .0245629
980.303 .0245559
980.912 .0245481
981.521 .0245394
982.130 .0245296
982.738 .0245191
983.346 .0245074
983.954 .0244947
984.562 .0244821
985.169 .0244695
985.775 .0244577
986.382 .0244466
986.988 .0244366
987.594 .0244276
988.199 .0244193
988.804 .0244117
989.409 .0244044
990.013 .0243978
990.617 .0243915
991.221 .0243849
991.824 .0243786
992.427 .0243733
993.030 .0243689
993.632 .0243659
994.234 .0243642
994.836 .0243642
995.438 .0243660
996.039 .0243689
996.640 .0243727
997.240 .0243774
997.840 .0243828
998.440 .0243887
999.040 .0243943
999.639 .0244003
1000.238 .0244060
1000.836 .0244125
1001.435 .0244192
1002.033 .0244256
1002.630 .0244321
1003.228 .0244381
1003.825 .0244439
1004.422 .0244499
1005.018 .0244554
1005.614 .0244612
1006.210 .0244672
1006.806 .0244740
1007.401 .0244806
1007.996 .0244873
1008.591 .0244943
1009.186 .0245017
1009.780 .0245092
1010.374 .0245160
1010.967 .0245226
1011.561 .0245297
1012.154 .0245374
1012.746 .0245452
1013.339 .0245530
1013.931 .0245610
1014.523 .0245690
1015.115 .0245761
1015.706 .0245825
1016.298 .0245883
1016.888 .0245938
1017.479 .0245993
1018.069 .0246051
1018.660 .0246113
1019.250 .0246189
1019.839 .0246280
1020.429 .0246392
1021.018 .0246519
1021.607 .0246668
1022.195 .0246831
1022.784 .0247010
1023.372 .0247202
1023.960 .0247400
1024.547 .0247597
1025.135 .0247795
1025.722 .0247983
1026.309 .0248166
1026.896 .0248345
1027.483 .0248518
1028.069 .0248684
1028.655 .0248852
1029.241 .0249007
1029.827 .0249152
1030.412 .0249287
1030.997 .0249412
1031.582 .0249517
1032.167 .0249613
1032.752 .0249701
1033.336 .0249788
1033.921 .0249884
1034.505 .0249986
1035.089 .0250094
1035.672 .0250213
1036.256 .0250330
1036.839 .0250438
1037.422 .0250541
1038.005 .0250644
1038.588 .0250740
1039.171 .0250838
1039.753 .0250943
1040.335 .0251058
1040.918 .0251186
1041.500 .0251325
1042.081 .0251471
1042.663 .0251609
1043.244 .0251741
1043.826 .0251854
1044.407 .0251949
1044.988 .0252030
1045.569 .0252097
1046.150 .0252148
1046.730 .0252197
1047.311 .0252250
1047.891 .0252305
1048.471 .0252365
1049.052 .0252437
1049.632 .0252512
1050.211 .0252588
1050.791 .0252662
1051.371 .0252732
1051.950 .0252797
1052.530 .0252859
1053.109 .0252910
1053.688 .0252953
1054.268 .0252996
1054.847 .0253038
1055.426 .0253075
1056.005 .0253122
1056.583 .0253178
1057.162 .0253238
1057.741 .0253298
1058.319 .0253353
1058.898 .0253400
1059.476 .0253430
1060.055 .0253446
1060.633 .0253448
1061.211 .0253442
1061.790 .0253432
1062.368 .0253426
1062.946 .0253421
1063.524 .0253424
1064.102 .0253433
1064.680 .0253444
1065.258 .0253456
1065.836 .0253462
1066.414 .0253462
1066.992 .0253451
1067.570 .0253436
1068.148 .0253420
1068.726 .0253392
1069.304 .0253377
1069.882 .0253358
1070.460 .0253350
1071.038 .0253355
1071.616 .0253371
1072.194 .0253400
1072.772 .0253449
1073.350 .0253504
1073.928 .0253555
1074.506 .0253597
1075.084 .0253631
1075.662 .0253660
1076.240 .0253684
1076.819 .0253689
1077.397 .0253685
1077.976 .0253672
1078.554 .0253656
1079.133 .0253622
1079.711 .0253591
1080.290 .0253547
1080.869 .0253485
1081.448 .0253414
1082.027 .0253330
1082.606 .0253235
1083.185 .0253141
1083.764 .0253053
1084.343 .0252969
1084.923 .0252887
1085.502 .0252807
1086.082 .0252726
1086.662 .0252656
1087.242 .0252592
1087.822 .0252538
1088.402 .0252509
1088.983 .0252515
1089.563 .0252555
1090.144 .0252627
1090.725 .0252740
1091.306 .0252871
1091.887 .0253011
1092.469 .0253155
1093.050 .0253291
1093.632 .0253418
1094.214 .0253534
1094.796 .0253653
1095.379 .0253782
1095.961 .0253908
1096.544 .0254058
1097.127 .0254232
1097.710 .0254416
1098.294 .0254612
1098.877 .0254793
1099.461 .0254963
1100.046 .0255105
1100.630 .0255224
1101.215 .0255319
1101.800 .0255398
1102.385 .0255472
1102.970 .0255545
1103.556 .0255639
1104.142 .0255787
1104.728 .0255959
1105.315 .0256161
1105.902 .0256381
1106.489 .0256601
1107.077 .0256804
1107.664 .0256995
1108.253 .0257188
1108.841 .0257385
1109.430 .0257587
1110.019 .0257803
1110.609 .0258030
1111.198 .0258288
1111.789 .0258547
1112.379 .0258801
1112.970 .0259038
1113.561 .0259241
1114.153 .0259417
1114.745 .0259585
1115.338 .0259783
1115.931 .0260040
1116.524 .0260366
1117.117 .0260755
1117.712 .0261195
1118.306 .0261659
1118.901 .0262134
1119.496 .0262574
1120.092 .0262978
1120.689 .0263353
1121.285 .0263692
1121.882 .0264018
1122.480 .0264356
1123.078 .0264727
1123.677 .0265128
1124.276 .0265544
1124.875 .0265987
1125.476 .0266387
1126.076 .0266767
1126.677 .0267133
1127.279 .0267475
1127.881 .0267858
1128.484 .0268259
1129.087 .0268704
1129.691 .0269240
1130.295 .0269876
1130.900 .0270598
1131.505 .0271415
1132.111 .0272367
1132.718 .0273452
1133.325 .0274672
1133.933 .0275982
1134.541 .0277371
1135.150 .0278822
1135.760 .0280303
1136.370 .0281765
1136.981 .0283180
1137.592 .0284549
1138.204 .0285877
1138.817 .0287179
1139.431 .0288465
1140.045 .0289739
1140.660 .0290859
1141.275 .0291943
1141.891 .0292966
1142.508 .0295220
1143.126 .0296385
1143.744 .0292018
1144.363 .0295896
1144.983 .0297918
