Measurement Sequence started on: 15-12-46-377
Integration time: 28
Scans to Average: 2 
>>>>>Begin Spectral Data<<<<<
432.689 .0000100
433.621 .0000100
434.552 .0000100
435.482 .0000100
436.410 .0000100
437.337 .0000100
438.262 .0251434
439.187 .0532604
440.110 .0882423
441.031 .1276797
441.952 .1659828
442.871 .1961074
443.789 .2126062
444.705 .2136457
445.621 .2015466
446.535 .1813261
447.447 .1584670
448.359 .1234245
449.269 .1062059
450.178 .0953807
451.086 .0877720
451.993 .0819093
452.898 .0772374
453.803 .0733580
454.706 .0700641
455.608 .0672170
456.508 .0647542
457.408 .0626087
458.306 .0607010
459.204 .0589821
460.100 .0574118
460.995 .0559749
461.888 .0546579
462.781 .0534454
463.673 .0523315
464.563 .0513362
465.452 .0504477
466.340 .0496488
467.228 .0489520
468.114 .0483457
468.999 .0478217
469.882 .0473648
470.765 .0469576
471.647 .0465982
472.528 .0462776
473.407 .0459962
474.286 .0457495
475.163 .0455323
476.040 .0453493
476.915 .0451912
477.790 .0450541
478.663 .0449310
479.535 .0448142
480.407 .0447044
481.277 .0445995
482.147 .0444954
483.015 .0443973
483.883 .0443066
484.749 .0442293
485.615 .0441666
486.479 .0441152
487.343 .0440753
488.206 .0440520
489.067 .0440380
489.928 .0440344
490.788 .0440388
491.647 .0440512
492.505 .0440724
493.362 .0441102
494.218 .0441625
495.073 .0442278
495.928 .0443141
496.781 .0444197
497.634 .0445427
498.486 .0446955
499.337 .0448747
500.187 .0450856
501.036 .0453290
501.884 .0456060
502.731 .0459060
503.578 .0462368
504.424 .0465958
505.268 .0469743
506.113 .0473821
506.956 .0478163
507.798 .0482835
508.640 .0488006
509.480 .0493837
510.320 .0500403
511.160 .0507679
511.998 .0515728
512.836 .0524514
513.672 .0534118
514.508 .0544466
515.344 .0555635
516.178 .0568108
517.012 .0582135
517.845 .0598154
518.677 .0616517
519.508 .0637398
520.339 .0661322
521.169 .0688836
521.998 .0719803
522.826 .0754650
523.654 .0793374
524.481 .0835827
525.307 .0882920
526.133 .0934518
526.958 .0990410
527.782 .1050587
528.605 .1114186
529.428 .1180431
530.250 .1243792
531.072 .1302773
531.892 .1353722
532.712 .1394545
533.532 .1422728
534.350 .1435704
535.168 .1432978
535.986 .1415359
536.802 .1383600
537.618 .1339928
538.434 .1286108
539.249 .1226814
540.063 .1163191
540.876 .1098230
541.689 .1033823
542.501 .0972567
543.313 .0915567
544.124 .0863678
544.934 .0816231
545.744 .0772920
546.553 .0733372
547.361 .0697852
548.169 .0666569
548.976 .0638764
549.783 .0614167
550.589 .0592688
551.395 .0573536
552.200 .0556679
553.004 .0541580
553.808 .0527996
554.611 .0515891
555.414 .0505138
556.216 .0495267
557.018 .0486426
557.819 .0478581
558.619 .0471481
559.419 .0464901
560.218 .0458873
561.017 .0453132
561.815 .0447523
562.613 .0441984
563.410 .0436460
564.207 .0430810
565.003 .0425200
565.799 .0419525
566.594 .0413882
567.388 .0408377
568.182 .0402882
568.976 .0397417
569.769 .0392116
570.562 .0386924
571.354 .0381905
572.145 .0377075
572.936 .0372493
573.727 .0368131
574.517 .0363974
575.307 .0360010
576.096 .0356299
576.885 .0352845
577.673 .0349599
578.461 .0346538
579.248 .0343719
580.035 .0341104
580.821 .0338735
581.607 .0336584
582.392 .0334609
583.177 .0332797
583.962 .0331141
584.746 .0329615
585.529 .0328218
586.313 .0326939
587.095 .0325767
587.878 .0324711
588.660 .0323757
589.441 .0322874
590.222 .0322063
591.003 .0321341
591.783 .0320672
592.563 .0320014
593.342 .0319380
594.121 .0318732
594.899 .0318096
595.678 .0317473
596.455 .0316879
597.233 .0316315
598.009 .0315782
598.786 .0315285
599.562 .0314804
600.338 .0314331
601.113 .0313860
601.888 .0313387
602.663 .0312930
603.437 .0312487
604.211 .0312067
604.984 .0311685
605.757 .0311364
606.530 .0311085
607.302 .0310842
608.074 .0310624
608.845 .0310422
609.616 .0310211
610.387 .0309991
611.158 .0309756
611.928 .0309508
612.697 .0309256
613.467 .0309013
614.236 .0308778
615.004 .0308559
615.773 .0308347
616.541 .0308146
617.308 .0307946
618.076 .0307745
618.843 .0307517
619.609 .0307281
620.375 .0307033
621.141 .0306770
621.907 .0306495
622.672 .0306225
623.437 .0305959
624.202 .0305704
624.966 .0305465
625.730 .0305250
626.493 .0305054
627.257 .0304885
628.020 .0304726
628.782 .0304573
629.545 .0304420
630.307 .0304256
631.068 .0304072
631.830 .0303886
632.591 .0303690
633.352 .0303486
634.112 .0303292
634.872 .0303108
635.632 .0302937
636.392 .0302770
637.151 .0302607
637.910 .0302432
638.668 .0302242
639.427 .0302031
640.185 .0301791
640.943 .0301533
641.700 .0301266
642.457 .0300993
643.214 .0300724
643.971 .0300465
644.727 .0300217
645.483 .0299974
646.239 .0299743
646.994 .0299513
647.750 .0299289
648.505 .0299068
649.259 .0298855
650.014 .0298648
650.768 .0298449
651.521 .0298261
652.275 .0298075
653.028 .0297894
653.781 .0297717
654.534 .0297534
655.286 .0297352
656.039 .0297169
656.791 .0296988
657.542 .0296810
658.294 .0296641
659.045 .0296484
659.796 .0296341
660.546 .0296205
661.297 .0296071
662.047 .0295937
662.796 .0295793
663.546 .0295636
664.295 .0295464
665.044 .0295279
665.793 .0295084
666.542 .0294882
667.290 .0294678
668.038 .0294477
668.786 .0294285
669.533 .0294099
670.281 .0293914
671.028 .0293735
671.774 .0293550
672.521 .0293360
673.267 .0293165
674.013 .0292966
674.759 .0292767
675.505 .0292571
676.250 .0292383
676.995 .0292206
677.740 .0292043
678.484 .0291894
679.229 .0291754
679.973 .0291623
680.717 .0291492
681.460 .0291356
682.204 .0291219
682.947 .0291079
683.690 .0290943
684.433 .0290817
685.175 .0290698
685.917 .0290592
686.659 .0290500
687.401 .0290419
688.142 .0290348
688.884 .0290283
689.625 .0290216
690.365 .0290143
691.106 .0290059
691.846 .0289965
692.586 .0289859
693.326 .0289745
694.066 .0289626
694.805 .0289497
695.545 .0289368
696.284 .0289231
697.022 .0289084
697.761 .0288935
698.499 .0288779
699.237 .0288613
699.975 .0288440
700.713 .0288262
701.450 .0288084
702.187 .0287904
702.924 .0287733
703.661 .0287570
704.397 .0287420
705.133 .0287282
705.869 .0287156
706.605 .0287039
707.341 .0286935
708.076 .0286831
708.811 .0286726
709.546 .0286615
710.281 .0286494
711.015 .0286357
711.749 .0286208
712.483 .0286048
713.217 .0285876
713.950 .0285692
714.684 .0285501
715.417 .0285300
716.150 .0285097
716.882 .0284891
717.615 .0284681
718.347 .0284466
719.079 .0284246
719.811 .0284021
720.542 .0283794
721.273 .0283569
722.005 .0283347
722.735 .0283131
723.466 .0282929
724.196 .0282738
724.927 .0282555
725.656 .0282382
726.386 .0282219
727.116 .0282056
727.845 .0281890
728.574 .0281715
729.303 .0281528
730.031 .0281334
730.760 .0281137
731.488 .0280932
732.216 .0280729
732.944 .0280528
733.671 .0280330
734.398 .0280135
735.125 .0279945
735.852 .0279753
736.579 .0279562
737.305 .0279375
738.031 .0279191
738.757 .0279008
739.483 .0278838
740.208 .0278678
740.933 .0278525
741.658 .0278379
742.383 .0278229
743.108 .0278074
743.832 .0277916
744.556 .0277752
745.280 .0277580
746.004 .0277401
746.727 .0277221
747.450 .0277040
748.173 .0276858
748.896 .0276681
749.618 .0276506
750.340 .0276338
751.062 .0276176
751.784 .0276022
752.506 .0275879
753.227 .0275752
753.948 .0275641
754.669 .0275550
755.389 .0275473
756.110 .0275411
756.830 .0275355
757.550 .0275308
758.269 .0275266
758.989 .0275223
759.708 .0275175
760.427 .0275124
761.146 .0275068
761.864 .0275001
762.582 .0274924
763.300 .0274844
764.018 .0274754
764.736 .0274658
765.453 .0274556
766.170 .0274453
766.887 .0274355
767.603 .0274263
768.320 .0274175
769.036 .0274096
769.751 .0274025
770.467 .0273962
771.182 .0273908
771.897 .0273865
772.612 .0273833
773.327 .0273807
774.041 .0273792
774.755 .0273781
775.469 .0273768
776.183 .0273752
776.896 .0273727
777.609 .0273691
778.322 .0273638
779.035 .0273567
779.747 .0273483
780.459 .0273386
781.171 .0273278
781.882 .0273157
782.594 .0273027
783.305 .0272890
784.016 .0272749
784.726 .0272608
785.436 .0272471
786.147 .0272338
786.856 .0272212
787.566 .0272092
788.275 .0271977
788.984 .0271865
789.693 .0271753
790.401 .0271634
791.110 .0271508
791.818 .0271368
792.525 .0271217
793.233 .0271059
793.940 .0270895
794.647 .0270722
795.353 .0270543
796.060 .0270349
796.766 .0270139
797.472 .0269908
798.177 .0269660
798.883 .0269393
799.588 .0269113
800.292 .0268829
800.997 .0268547
801.701 .0268280
802.405 .0268036
803.109 .0267814
803.812 .0267621
804.515 .0267450
805.218 .0267293
805.921 .0267145
806.623 .0267006
807.325 .0266871
808.027 .0266742
808.728 .0266620
809.429 .0266501
810.130 .0266388
810.831 .0266281
811.531 .0266173
812.231 .0266061
812.931 .0265940
813.630 .0265800
814.330 .0265641
815.029 .0265463
815.727 .0265264
816.426 .0265047
817.124 .0264818
817.821 .0264578
818.519 .0264331
819.216 .0264079
819.913 .0263827
820.609 .0263577
821.306 .0263337
822.002 .0263103
822.697 .0262879
823.393 .0262666
824.088 .0262464
824.783 .0262265
825.477 .0262072
826.171 .0261882
826.865 .0261695
827.559 .0261519
828.252 .0261351
828.945 .0261196
829.638 .0261062
830.330 .0260942
831.023 .0260835
831.714 .0260734
832.406 .0260634
833.097 .0260520
833.788 .0260393
834.479 .0260254
835.169 .0260102
835.859 .0259949
836.548 .0259801
837.238 .0259661
837.927 .0259535
838.615 .0259425
839.304 .0259327
839.992 .0259242
840.680 .0259163
841.367 .0259088
842.054 .0259017
842.741 .0258955
843.428 .0258902
844.114 .0258862
844.800 .0258840
845.485 .0258832
846.170 .0258830
846.855 .0258832
847.540 .0258830
848.224 .0258828
848.908 .0258824
849.592 .0258820
850.275 .0258816
850.958 .0258818
851.641 .0258826
852.323 .0258837
853.005 .0258851
853.687 .0258862
854.368 .0258865
855.049 .0258862
855.730 .0258850
856.410 .0258830
857.090 .0258806
857.769 .0258785
858.449 .0258771
859.128 .0258760
859.806 .0258758
860.485 .0258760
861.163 .0258768
861.840 .0258778
862.518 .0258785
863.195 .0258789
863.871 .0258793
864.548 .0258791
865.224 .0258789
865.899 .0258785
866.574 .0258785
867.249 .0258787
867.924 .0258794
868.598 .0258805
869.272 .0258817
869.946 .0258830
870.619 .0258846
871.292 .0258857
871.964 .0258865
872.636 .0258864
873.308 .0258853
873.979 .0258827
874.651 .0258790
875.321 .0258736
875.992 .0258673
876.662 .0258600
877.331 .0258523
878.001 .0258435
878.670 .0258348
879.338 .0258256
880.007 .0258161
880.675 .0258066
881.342 .0257971
882.009 .0257873
882.676 .0257775
883.343 .0257673
884.009 .0257570
884.675 .0257463
885.340 .0257354
886.005 .0257239
886.670 .0257121
887.334 .0256999
887.998 .0256872
888.662 .0256743
889.325 .0256612
889.988 .0256479
890.650 .0256343
891.312 .0256205
891.974 .0256064
892.636 .0255922
893.297 .0255778
893.957 .0255634
894.618 .0255489
895.278 .0255341
895.937 .0255193
896.596 .0255049
897.255 .0254907
897.914 .0254767
898.572 .0254626
899.230 .0254488
899.887 .0254345
900.544 .0254196
901.201 .0254039
901.857 .0253875
902.513 .0253703
903.168 .0253521
903.823 .0253329
904.478 .0253123
905.132 .0252902
905.786 .0252664
906.440 .0252408
907.093 .0252136
907.746 .0251848
908.399 .0251548
909.051 .0251242
909.703 .0250939
910.354 .0250641
911.005 .0250355
911.656 .0250079
912.306 .0249805
912.956 .0249537
913.605 .0249268
914.254 .0248997
914.903 .0248724
915.551 .0248456
916.199 .0248193
916.847 .0247937
917.494 .0247695
918.141 .0247467
918.788 .0247252
919.434 .0247050
920.079 .0246850
920.725 .0246652
921.370 .0246452
922.014 .0246246
922.658 .0246033
923.302 .0245821
923.946 .0245608
924.589 .0245391
925.231 .0245175
925.873 .0244960
926.515 .0244743
927.157 .0244526
927.798 .0244308
928.439 .0244090
929.079 .0243870
929.719 .0243649
930.359 .0243423
930.998 .0243199
931.637 .0242972
932.275 .0242745
932.913 .0242518
933.551 .0242290
934.188 .0242060
934.825 .0241834
935.462 .0241613
936.098 .0241398
936.733 .0241190
937.369 .0240991
938.004 .0240802
938.638 .0240620
939.273 .0240442
939.907 .0240272
940.540 .0240104
941.173 .0239941
941.806 .0239782
942.438 .0239627
943.070 .0239473
943.702 .0239324
944.333 .0239182
944.964 .0239046
945.594 .0238916
946.224 .0238785
946.854 .0238660
947.483 .0238538
948.112 .0238419
948.741 .0238301
949.369 .0238191
949.996 .0238088
950.624 .0237988
951.251 .0237897
951.878 .0237811
952.504 .0237734
953.130 .0237665
953.755 .0237598
954.380 .0237539
955.005 .0237483
955.629 .0237433
956.253 .0237391
956.877 .0237360
957.500 .0237341
958.123 .0237329
958.746 .0237326
959.368 .0237328
959.990 .0237336
960.611 .0237344
961.232 .0237353
961.853 .0237362
962.473 .0237371
963.093 .0237380
963.712 .0237391
964.331 .0237409
964.950 .0237430
965.569 .0237465
966.187 .0237505
966.804 .0237553
967.422 .0237609
968.039 .0237671
968.655 .0237740
969.272 .0237815
969.887 .0237891
970.503 .0237968
971.118 .0238050
971.733 .0238131
972.347 .0238213
972.961 .0238303
973.575 .0238392
974.188 .0238485
974.801 .0238580
975.414 .0238671
976.026 .0238754
976.638 .0238832
977.250 .0238899
977.861 .0238959
978.472 .0239011
979.083 .0239057
979.693 .0239094
980.303 .0239135
980.912 .0239175
981.521 .0239218
982.130 .0239270
982.738 .0239326
983.346 .0239387
983.954 .0239458
984.562 .0239530
985.169 .0239606
985.775 .0239686
986.382 .0239768
986.988 .0239853
987.594 .0239938
988.199 .0240026
988.804 .0240115
989.409 .0240210
990.013 .0240309
990.617 .0240404
991.221 .0240501
991.824 .0240602
992.427 .0240701
993.030 .0240801
993.632 .0240902
994.234 .0241006
994.836 .0241111
995.438 .0241212
996.039 .0241305
996.640 .0241386
997.240 .0241456
997.840 .0241521
998.440 .0241572
999.040 .0241617
999.639 .0241654
1000.238 .0241685
1000.836 .0241718
1001.435 .0241749
1002.033 .0241778
1002.630 .0241806
1003.228 .0241835
1003.825 .0241860
1004.422 .0241878
1005.018 .0241896
1005.614 .0241909
1006.210 .0241924
1006.806 .0241940
1007.401 .0241958
1007.996 .0241972
1008.591 .0241993
1009.186 .0242014
1009.780 .0242033
1010.374 .0242050
1010.967 .0242056
1011.561 .0242051
1012.154 .0242028
1012.746 .0241988
1013.339 .0241932
1013.931 .0241870
1014.523 .0241798
1015.115 .0241720
1015.706 .0241645
1016.298 .0241575
1016.888 .0241508
1017.479 .0241448
1018.069 .0241395
1018.660 .0241353
1019.250 .0241315
1019.839 .0241284
1020.429 .0241260
1021.018 .0241246
1021.607 .0241236
1022.195 .0241226
1022.784 .0241218
1023.372 .0241208
1023.960 .0241191
1024.547 .0241166
1025.135 .0241133
1025.722 .0241093
1026.309 .0241042
1026.896 .0240978
1027.483 .0240902
1028.069 .0240815
1028.655 .0240713
1029.241 .0240596
1029.827 .0240472
1030.412 .0240338
1030.997 .0240196
1031.582 .0240050
1032.167 .0239905
1032.752 .0239760
1033.336 .0239620
1033.921 .0239483
1034.505 .0239355
1035.089 .0239242
1035.672 .0239135
1036.256 .0239039
1036.839 .0238951
1037.422 .0238861
1038.005 .0238765
1038.588 .0238663
1039.171 .0238550
1039.753 .0238417
1040.335 .0238274
1040.918 .0238123
1041.500 .0237970
1042.081 .0237822
1042.663 .0237676
1043.244 .0237536
1043.826 .0237402
1044.407 .0237268
1044.988 .0237125
1045.569 .0236980
1046.150 .0236826
1046.730 .0236672
1047.311 .0236521
1047.891 .0236377
1048.471 .0236240
1049.052 .0236118
1049.632 .0236009
1050.211 .0235910
1050.791 .0235811
1051.371 .0235717
1051.950 .0235620
1052.530 .0235532
1053.109 .0235440
1053.688 .0235353
1054.268 .0235268
1054.847 .0235187
1055.426 .0235106
1056.005 .0235027
1056.583 .0234940
1057.162 .0234858
1057.741 .0234767
1058.319 .0234684
1058.898 .0234594
1059.476 .0234512
1060.055 .0234432
1060.633 .0234375
1061.211 .0234322
1061.790 .0234281
1062.368 .0234236
1062.946 .0234195
1063.524 .0234145
1064.102 .0234096
1064.680 .0234034
1065.258 .0233969
1065.836 .0233898
1066.414 .0233824
1066.992 .0233739
1067.570 .0233671
1068.148 .0233590
1068.726 .0233518
1069.304 .0233447
1069.882 .0233380
1070.460 .0233302
1071.038 .0233223
1071.616 .0233136
1072.194 .0233049
1072.772 .0232956
1073.350 .0232851
1073.928 .0232727
1074.506 .0232603
1075.084 .0232454
1075.662 .0232300
1076.240 .0232147
1076.819 .0231996
1077.397 .0231850
1077.976 .0231729
1078.554 .0231628
1079.133 .0231560
1079.711 .0231517
1080.290 .0231497
1080.869 .0231499
1081.448 .0231522
1082.027 .0231547
1082.606 .0231576
1083.185 .0231636
1083.764 .0231715
1084.343 .0231811
1084.923 .0231948
1085.502 .0232104
1086.082 .0232276
1086.662 .0232468
1087.242 .0232662
1087.822 .0232860
1088.402 .0233057
1088.983 .0233254
1089.563 .0233441
1090.144 .0233632
1090.725 .0233810
1091.306 .0233949
1091.887 .0234069
1092.469 .0234171
1093.050 .0234229
1093.632 .0234259
1094.214 .0234275
1094.796 .0234281
1095.379 .0234292
1095.961 .0234328
1096.544 .0234365
1097.127 .0234420
1097.710 .0234483
1098.294 .0234549
1098.877 .0234603
1099.461 .0234669
1100.046 .0234742
1100.630 .0234824
1101.215 .0234967
1101.800 .0235159
1102.385 .0235407
1102.970 .0235721
1103.556 .0236079
1104.142 .0236464
1104.728 .0236836
1105.315 .0237192
1105.902 .0237493
1106.489 .0237778
1107.077 .0238048
1107.664 .0238297
1108.253 .0238561
1108.841 .0238843
1109.430 .0239162
1110.019 .0239482
1110.609 .0239816
1111.198 .0240130
1111.789 .0240411
1112.379 .0240655
1112.970 .0240853
1113.561 .0241044
1114.153 .0241251
1114.745 .0241505
1115.338 .0241828
1115.931 .0242245
1116.524 .0242763
1117.117 .0243348
1117.712 .0244020
1118.306 .0244726
1118.901 .0245458
1119.496 .0246148
1120.092 .0246811
1120.689 .0247420
1121.285 .0247993
1121.882 .0248541
1122.480 .0249076
1123.078 .0249643
1123.677 .0250274
1124.276 .0250945
1124.875 .0251676
1125.476 .0252447
1126.076 .0253251
1126.677 .0254039
1127.279 .0254805
1127.881 .0255498
1128.484 .0256154
1129.087 .0256756
1129.691 .0257341
1130.295 .0257933
1130.900 .0258579
1131.505 .0259281
1132.111 .0260036
1132.718 .0260835
1133.325 .0261664
1133.933 .0262470
1134.541 .0263271
1135.150 .0264058
1135.760 .0264828
1136.370 .0265583
1136.981 .0266370
1137.592 .0267190
1138.204 .0268058
1138.817 .0268990
1139.431 .0270013
1140.045 .0271133
1140.660 .0272325
1141.275 .0273561
1141.891 .0274754
1142.508 .0276440
1143.126 .0278650
1143.744 .0278676
1144.363 .0279840
1144.983 .0279116
