Measurement Sequence started on: 15-12-46-377
Integration time: 28
Scans to Average: 2 
>>>>>Begin Spectral Data<<<<<
432.689 .0000100
433.621 .0000100
434.552 .0000100
435.482 .0000100
436.410 .0000100
437.337 .0000100
438.262 .0286959
439.187 .0608361
440.110 .1007032
441.031 .1457611
441.952 .1895004
442.871 .2239227
443.789 .2427924
444.705 .2439460
445.621 .2300135
446.535 .2067339
447.447 .1803051
448.359 .1398925
449.269 .1197466
450.178 .1070068
451.086 .0978982
451.993 .0909653
452.898 .0855165
453.803 .0810953
454.706 .0774448
455.608 .0743366
456.508 .0716247
457.408 .0692693
458.306 .0671323
459.204 .0652109
460.100 .0634735
460.995 .0619186
461.888 .0605356
462.781 .0593096
463.673 .0582069
464.563 .0572220
465.452 .0562921
466.340 .0554031
467.228 .0545541
468.114 .0537364
468.999 .0529568
469.882 .0522297
470.765 .0515684
471.647 .0509781
472.528 .0504526
473.407 .0499954
474.286 .0495935
475.163 .0492483
476.040 .0489433
476.915 .0486672
477.790 .0484263
478.663 .0482111
479.535 .0480169
480.407 .0478567
481.277 .0477226
482.147 .0476159
483.015 .0475356
483.883 .0474758
484.749 .0474272
485.615 .0473917
486.479 .0473698
487.343 .0473569
488.206 .0473510
489.067 .0473478
489.928 .0473363
490.788 .0473338
491.647 .0473411
492.505 .0473673
493.362 .0474250
494.218 .0475243
495.073 .0476630
495.928 .0478572
496.781 .0480842
497.634 .0483474
498.486 .0486410
499.337 .0489658
500.187 .0493094
501.036 .0496681
501.884 .0500539
502.731 .0504752
503.578 .0509312
504.424 .0514190
505.268 .0519078
506.113 .0524170
506.956 .0529242
507.798 .0534276
508.640 .0539355
509.480 .0544733
510.320 .0550463
511.160 .0556954
511.998 .0564385
512.836 .0572945
513.672 .0582776
514.508 .0593888
515.344 .0606287
516.178 .0620220
517.012 .0635884
517.845 .0653742
518.677 .0674387
519.508 .0698812
520.339 .0727186
521.169 .0760521
521.998 .0799054
522.826 .0843498
523.654 .0893531
524.481 .0949332
525.307 .1010924
526.133 .1077372
526.958 .1148398
527.782 .1223217
528.605 .1300612
529.428 .1379808
530.250 .1455269
531.072 .1524840
531.892 .1584157
532.712 .1630278
533.532 .1659929
534.350 .1670672
535.168 .1661488
535.986 .1633039
536.802 .1587044
537.618 .1526684
538.434 .1454812
539.249 .1377257
540.063 .1296777
540.876 .1216620
541.689 .1139271
542.501 .1066979
543.313 .1001188
544.124 .0942533
544.934 .0889935
545.744 .0843001
546.553 .0801134
547.361 .0764229
548.169 .0731746
548.976 .0702615
549.783 .0676902
550.589 .0654108
551.395 .0633444
552.200 .0614726
553.004 .0597746
553.808 .0582207
554.611 .0568267
555.414 .0555716
556.216 .0544441
557.018 .0534350
557.819 .0525307
558.619 .0517066
559.419 .0509412
560.218 .0502233
561.017 .0495313
561.815 .0488540
562.613 .0481979
563.410 .0475434
564.207 .0468953
565.003 .0462679
565.799 .0456495
566.594 .0450362
567.388 .0444457
568.182 .0438696
568.976 .0433141
569.769 .0427789
570.562 .0422577
571.354 .0417463
572.145 .0412528
572.936 .0407750
573.727 .0403101
574.517 .0398607
575.307 .0394311
576.096 .0390159
576.885 .0386211
577.673 .0382461
578.461 .0378886
579.248 .0375544
580.035 .0372378
580.821 .0369355
581.607 .0366488
582.392 .0363752
583.177 .0361177
583.962 .0358755
584.746 .0356519
585.529 .0354448
586.313 .0352537
587.095 .0350819
587.878 .0349237
588.660 .0347808
589.441 .0346506
590.222 .0345303
591.003 .0344212
591.783 .0343213
592.563 .0342288
593.342 .0341456
594.121 .0340692
594.899 .0339978
595.678 .0339304
596.455 .0338666
597.233 .0338058
598.009 .0337476
598.786 .0336921
599.562 .0336383
600.338 .0335863
601.113 .0335367
601.888 .0334873
602.663 .0334378
603.437 .0333879
604.211 .0333346
604.984 .0332796
605.757 .0332238
606.530 .0331662
607.302 .0331077
608.074 .0330497
608.845 .0329929
609.616 .0329373
610.387 .0328836
611.158 .0328324
611.928 .0327830
612.697 .0327365
613.467 .0326915
614.236 .0326489
615.004 .0326092
615.773 .0325729
616.541 .0325403
617.308 .0325124
618.076 .0324887
618.843 .0324691
619.609 .0324536
620.375 .0324419
621.141 .0324329
621.907 .0324253
622.672 .0324182
623.437 .0324109
624.202 .0324019
624.966 .0323910
625.730 .0323781
626.493 .0323636
627.257 .0323472
628.020 .0323292
628.782 .0323097
629.545 .0322882
630.307 .0322650
631.068 .0322398
631.830 .0322122
632.591 .0321818
633.352 .0321491
634.112 .0321139
634.872 .0320771
635.632 .0320392
636.392 .0320004
637.151 .0319615
637.910 .0319236
638.668 .0318859
639.427 .0318491
640.185 .0318132
640.943 .0317781
641.700 .0317436
642.457 .0317102
643.214 .0316773
643.971 .0316445
644.727 .0316125
645.483 .0315817
646.239 .0315518
646.994 .0315228
647.750 .0314955
648.505 .0314697
649.259 .0314461
650.014 .0314248
650.768 .0314047
651.521 .0313864
652.275 .0313689
653.028 .0313516
653.781 .0313339
654.534 .0313153
655.286 .0312960
656.039 .0312760
656.791 .0312561
657.542 .0312357
658.294 .0312153
659.045 .0311957
659.796 .0311762
660.546 .0311571
661.297 .0311377
662.047 .0311166
662.796 .0310947
663.546 .0310712
664.295 .0310461
665.044 .0310197
665.793 .0309931
666.542 .0309669
667.290 .0309410
668.038 .0309160
668.786 .0308917
669.533 .0308678
670.281 .0308445
671.028 .0308210
671.774 .0307972
672.521 .0307740
673.267 .0307515
674.013 .0307304
674.759 .0307111
675.505 .0306934
676.250 .0306768
676.995 .0306607
677.740 .0306448
678.484 .0306281
679.229 .0306101
679.973 .0305917
680.717 .0305724
681.460 .0305529
682.204 .0305334
682.947 .0305143
683.690 .0304959
684.433 .0304779
685.175 .0304592
685.917 .0304394
686.659 .0304181
687.401 .0303955
688.142 .0303713
688.884 .0303463
689.625 .0303210
690.365 .0302955
691.106 .0302703
691.846 .0302458
692.586 .0302215
693.326 .0301975
694.066 .0301734
694.805 .0301491
695.545 .0301244
696.284 .0300991
697.022 .0300736
697.761 .0300487
698.499 .0300245
699.237 .0300012
699.975 .0299794
700.713 .0299593
701.450 .0299410
702.187 .0299240
702.924 .0299082
703.661 .0298932
704.397 .0298783
705.133 .0298635
705.869 .0298487
706.605 .0298337
707.341 .0298186
708.076 .0298034
708.811 .0297882
709.546 .0297725
710.281 .0297563
711.015 .0297391
711.749 .0297209
712.483 .0297017
713.217 .0296811
713.950 .0296597
714.684 .0296375
715.417 .0296148
716.150 .0295918
716.882 .0295689
717.615 .0295460
718.347 .0295230
719.079 .0295005
719.811 .0294783
720.542 .0294567
721.273 .0294356
722.005 .0294156
722.735 .0293966
723.466 .0293789
724.196 .0293622
724.927 .0293458
725.656 .0293294
726.386 .0293128
727.116 .0292956
727.845 .0292780
728.574 .0292602
729.303 .0292424
730.031 .0292255
730.760 .0292102
731.488 .0291959
732.216 .0291826
732.944 .0291705
733.671 .0291590
734.398 .0291468
735.125 .0291338
735.852 .0291201
736.579 .0291062
737.305 .0290924
738.031 .0290792
738.757 .0290672
739.483 .0290569
740.208 .0290480
740.933 .0290401
741.658 .0290330
742.383 .0290260
743.108 .0290182
743.832 .0290097
744.556 .0290004
745.280 .0289903
746.004 .0289797
746.727 .0289694
747.450 .0289600
748.173 .0289508
748.896 .0289423
749.618 .0289343
750.340 .0289265
751.062 .0289189
751.784 .0289107
752.506 .0289021
753.227 .0288930
753.948 .0288829
754.669 .0288717
755.389 .0288594
756.110 .0288459
756.830 .0288317
757.550 .0288166
758.269 .0288011
758.989 .0287850
759.708 .0287678
760.427 .0287501
761.146 .0287310
761.864 .0287105
762.582 .0286889
763.300 .0286662
764.018 .0286433
764.736 .0286203
765.453 .0285980
766.170 .0285769
766.887 .0285571
767.603 .0285389
768.320 .0285220
769.036 .0285059
769.751 .0284908
770.467 .0284759
771.182 .0284617
771.897 .0284483
772.612 .0284354
773.327 .0284234
774.041 .0284124
774.755 .0284023
775.469 .0283930
776.183 .0283845
776.896 .0283768
777.609 .0283695
778.322 .0283624
779.035 .0283552
779.747 .0283476
780.459 .0283402
781.171 .0283324
781.882 .0283242
782.594 .0283161
783.305 .0283080
784.016 .0282998
784.726 .0282922
785.436 .0282846
786.147 .0282774
786.856 .0282703
787.566 .0282631
788.275 .0282551
788.984 .0282465
789.693 .0282373
790.401 .0282277
791.110 .0282180
791.818 .0282085
792.525 .0281987
793.233 .0281897
793.940 .0281807
794.647 .0281715
795.353 .0281623
796.060 .0281532
796.766 .0281434
797.472 .0281326
798.177 .0281207
798.883 .0281082
799.588 .0280948
800.292 .0280808
800.997 .0280662
801.701 .0280510
802.405 .0280353
803.109 .0280196
803.812 .0280041
804.515 .0279883
805.218 .0279723
805.921 .0279555
806.623 .0279379
807.325 .0279194
808.027 .0278999
808.728 .0278797
809.429 .0278598
810.130 .0278400
810.831 .0278203
811.531 .0278010
812.231 .0277823
812.931 .0277633
813.630 .0277439
814.330 .0277242
815.029 .0277041
815.727 .0276838
816.426 .0276640
817.124 .0276450
817.821 .0276276
818.519 .0276121
819.216 .0275982
819.913 .0275856
820.609 .0275743
821.306 .0275638
822.002 .0275540
822.697 .0275453
823.393 .0275379
824.088 .0275320
824.783 .0275278
825.477 .0275254
826.171 .0275242
826.865 .0275242
827.559 .0275250
828.252 .0275259
828.945 .0275265
829.638 .0275267
830.330 .0275266
831.023 .0275266
831.714 .0275267
832.406 .0275273
833.097 .0275278
833.788 .0275284
834.479 .0275282
835.169 .0275270
835.859 .0275250
836.548 .0275221
837.238 .0275181
837.927 .0275132
838.615 .0275074
839.304 .0275009
839.992 .0274942
840.680 .0274873
841.367 .0274800
842.054 .0274728
842.741 .0274653
843.428 .0274578
844.114 .0274503
844.800 .0274433
845.485 .0274362
846.170 .0274292
846.855 .0274224
847.540 .0274154
848.224 .0274088
848.908 .0274031
849.592 .0273975
850.275 .0273922
850.958 .0273865
851.641 .0273800
852.323 .0273722
853.005 .0273632
853.687 .0273520
854.368 .0273393
855.049 .0273256
855.730 .0273103
856.410 .0272940
857.090 .0272774
857.769 .0272603
858.449 .0272424
859.128 .0272238
859.806 .0272039
860.485 .0271828
861.163 .0271614
861.840 .0271398
862.518 .0271186
863.195 .0270985
863.871 .0270796
864.548 .0270620
865.224 .0270458
865.899 .0270309
866.574 .0270167
867.249 .0270037
867.924 .0269915
868.598 .0269799
869.272 .0269695
869.946 .0269609
870.619 .0269540
871.292 .0269489
871.964 .0269449
872.636 .0269415
873.308 .0269386
873.979 .0269358
874.651 .0269328
875.321 .0269296
875.992 .0269265
876.662 .0269235
877.331 .0269205
878.001 .0269179
878.670 .0269158
879.338 .0269134
880.007 .0269112
880.675 .0269082
881.342 .0269043
882.009 .0268998
882.676 .0268951
883.343 .0268900
884.009 .0268851
884.675 .0268800
885.340 .0268745
886.005 .0268689
886.670 .0268635
887.334 .0268578
887.998 .0268519
888.662 .0268460
889.325 .0268398
889.988 .0268335
890.650 .0268279
891.312 .0268225
891.974 .0268182
892.636 .0268150
893.297 .0268125
893.957 .0268106
894.618 .0268095
895.278 .0268090
895.937 .0268090
896.596 .0268099
897.255 .0268106
897.914 .0268113
898.572 .0268120
899.230 .0268128
899.887 .0268134
900.544 .0268134
901.201 .0268122
901.857 .0268097
902.513 .0268055
903.168 .0267995
903.823 .0267914
904.478 .0267815
905.132 .0267699
905.786 .0267569
906.440 .0267419
907.093 .0267252
907.746 .0267073
908.399 .0266877
909.051 .0266670
909.703 .0266453
910.354 .0266225
911.005 .0265992
911.656 .0265763
912.306 .0265535
912.956 .0265310
913.605 .0265091
914.254 .0264877
914.903 .0264664
915.551 .0264449
916.199 .0264230
916.847 .0264009
917.494 .0263792
918.141 .0263581
918.788 .0263376
919.434 .0263184
920.079 .0263004
920.725 .0262837
921.370 .0262685
922.014 .0262540
922.658 .0262397
923.302 .0262249
923.946 .0262095
924.589 .0261928
925.231 .0261741
925.873 .0261541
926.515 .0261327
927.157 .0261102
927.798 .0260868
928.439 .0260628
929.079 .0260386
929.719 .0260144
930.359 .0259904
930.998 .0259661
931.637 .0259418
932.275 .0259174
932.913 .0258929
933.551 .0258686
934.188 .0258450
934.825 .0258222
935.462 .0258004
936.098 .0257803
936.733 .0257618
937.369 .0257451
938.004 .0257300
938.638 .0257159
939.273 .0257027
939.907 .0256896
940.540 .0256764
941.173 .0256634
941.806 .0256511
942.438 .0256397
943.070 .0256291
943.702 .0256196
944.333 .0256112
944.964 .0256038
945.594 .0255971
946.224 .0255904
946.854 .0255838
947.483 .0255768
948.112 .0255697
948.741 .0255623
949.369 .0255555
949.996 .0255491
950.624 .0255432
951.251 .0255375
951.878 .0255316
952.504 .0255253
953.130 .0255176
953.755 .0255084
954.380 .0254977
955.005 .0254852
955.629 .0254713
956.253 .0254558
956.877 .0254399
957.500 .0254242
958.123 .0254092
958.746 .0253945
959.368 .0253810
959.990 .0253684
960.611 .0253566
961.232 .0253458
961.853 .0253358
962.473 .0253265
963.093 .0253178
963.712 .0253095
964.331 .0253022
964.950 .0252950
965.569 .0252887
966.187 .0252832
966.804 .0252792
967.422 .0252763
968.039 .0252742
968.655 .0252730
969.272 .0252719
969.887 .0252698
970.503 .0252664
971.118 .0252607
971.733 .0252539
972.347 .0252456
972.961 .0252362
973.575 .0252261
974.188 .0252160
974.801 .0252055
975.414 .0251955
976.026 .0251853
976.638 .0251750
977.250 .0251638
977.861 .0251526
978.472 .0251412
979.083 .0251296
979.693 .0251183
980.303 .0251071
980.912 .0250957
981.521 .0250849
982.130 .0250734
982.738 .0250617
983.346 .0250504
983.954 .0250395
984.562 .0250286
985.169 .0250178
985.775 .0250072
986.382 .0249964
986.988 .0249850
987.594 .0249738
988.199 .0249618
988.804 .0249497
989.409 .0249377
990.013 .0249263
990.617 .0249159
991.221 .0249069
991.824 .0248997
992.427 .0248941
993.030 .0248900
993.632 .0248867
994.234 .0248834
994.836 .0248807
995.438 .0248776
996.039 .0248741
996.640 .0248700
997.240 .0248664
997.840 .0248634
998.440 .0248617
999.040 .0248613
999.639 .0248624
1000.238 .0248650
1000.836 .0248686
1001.435 .0248732
1002.033 .0248785
1002.630 .0248845
1003.228 .0248913
1003.825 .0248993
1004.422 .0249088
1005.018 .0249194
1005.614 .0249315
1006.210 .0249450
1006.806 .0249592
1007.401 .0249731
1007.996 .0249863
1008.591 .0249982
1009.186 .0250085
1009.780 .0250172
1010.374 .0250237
1010.967 .0250291
1011.561 .0250331
1012.154 .0250356
1012.746 .0250368
1013.339 .0250370
1013.931 .0250365
1014.523 .0250348
1015.115 .0250324
1015.706 .0250298
1016.298 .0250269
1016.888 .0250252
1017.479 .0250250
1018.069 .0250266
1018.660 .0250302
1019.250 .0250354
1019.839 .0250421
1020.429 .0250498
1021.018 .0250580
1021.607 .0250674
1022.195 .0250772
1022.784 .0250878
1023.372 .0250993
1023.960 .0251116
1024.547 .0251254
1025.135 .0251401
1025.722 .0251556
1026.309 .0251717
1026.896 .0251881
1027.483 .0252042
1028.069 .0252195
1028.655 .0252348
1029.241 .0252507
1029.827 .0252664
1030.412 .0252828
1030.997 .0252995
1031.582 .0253161
1032.167 .0253334
1032.752 .0253504
1033.336 .0253668
1033.921 .0253822
1034.505 .0253967
1035.089 .0254093
1035.672 .0254203
1036.256 .0254307
1036.839 .0254397
1037.422 .0254479
1038.005 .0254556
1038.588 .0254621
1039.171 .0254678
1039.753 .0254738
1040.335 .0254792
1040.918 .0254840
1041.500 .0254888
1042.081 .0254927
1042.663 .0254953
1043.244 .0254976
1043.826 .0254996
1044.407 .0255010
1044.988 .0255029
1045.569 .0255051
1046.150 .0255063
1046.730 .0255082
1047.311 .0255099
1047.891 .0255110
1048.471 .0255113
1049.052 .0255109
1049.632 .0255094
1050.211 .0255080
1050.791 .0255071
1051.371 .0255066
1051.950 .0255069
1052.530 .0255093
1053.109 .0255122
1053.688 .0255150
1054.268 .0255187
1054.847 .0255235
1055.426 .0255291
1056.005 .0255361
1056.583 .0255439
1057.162 .0255532
1057.741 .0255640
1058.319 .0255776
1058.898 .0255923
1059.476 .0256071
1060.055 .0256218
1060.633 .0256352
1061.211 .0256457
1061.790 .0256535
1062.368 .0256585
1062.946 .0256610
1063.524 .0256629
1064.102 .0256631
1064.680 .0256625
1065.258 .0256613
1065.836 .0256601
1066.414 .0256582
1066.992 .0256557
1067.570 .0256526
1068.148 .0256479
1068.726 .0256421
1069.304 .0256365
1069.882 .0256306
1070.460 .0256251
1071.038 .0256198
1071.616 .0256159
1072.194 .0256131
1072.772 .0256111
1073.350 .0256098
1073.928 .0256099
1074.506 .0256107
1075.084 .0256126
1075.662 .0256151
1076.240 .0256181
1076.819 .0256219
1077.397 .0256269
1077.976 .0256312
1078.554 .0256349
1079.133 .0256380
1079.711 .0256398
1080.290 .0256419
1080.869 .0256442
1081.448 .0256471
1082.027 .0256510
1082.606 .0256577
1083.185 .0256663
1083.764 .0256770
1084.343 .0256891
1084.923 .0257003
1085.502 .0257092
1086.082 .0257162
1086.662 .0257202
1087.242 .0257219
1087.822 .0257219
1088.402 .0257222
1088.983 .0257219
1089.563 .0257224
1090.144 .0257217
1090.725 .0257215
1091.306 .0257206
1091.887 .0257190
1092.469 .0257146
1093.050 .0257095
1093.632 .0257042
1094.214 .0257007
1094.796 .0256993
1095.379 .0257036
1095.961 .0257129
1096.544 .0257251
1097.127 .0257399
1097.710 .0257567
1098.294 .0257731
1098.877 .0257900
1099.461 .0258068
1100.046 .0258240
1100.630 .0258431
1101.215 .0258639
1101.800 .0258851
1102.385 .0259084
1102.970 .0259327
1103.556 .0259535
1104.142 .0259720
1104.728 .0259881
1105.315 .0260007
1105.902 .0260100
1106.489 .0260190
1107.077 .0260257
1107.664 .0260336
1108.253 .0260431
1108.841 .0260544
1109.430 .0260665
1110.019 .0260833
1110.609 .0261012
1111.198 .0261228
1111.789 .0261484
1112.379 .0261776
1112.970 .0262077
1113.561 .0262415
1114.153 .0262757
1114.745 .0263132
1115.338 .0263520
1115.931 .0263932
1116.524 .0264361
1117.117 .0264830
1117.712 .0265303
1118.306 .0265783
1118.901 .0266240
1119.496 .0266684
1120.092 .0267074
1120.689 .0267445
1121.285 .0267748
1121.882 .0268044
1122.480 .0268317
1123.078 .0268609
1123.677 .0268943
1124.276 .0269330
1124.875 .0269770
1125.476 .0270269
1126.076 .0270821
1126.677 .0271405
1127.279 .0271979
1127.881 .0272589
1128.484 .0273207
1129.087 .0273865
1129.691 .0274549
1130.295 .0275267
1130.900 .0276034
1131.505 .0276861
1132.111 .0277725
1132.718 .0278602
1133.325 .0279475
1133.933 .0280324
1134.541 .0281108
1135.150 .0281840
1135.760 .0282532
1136.370 .0283225
1136.981 .0284010
1137.592 .0284899
1138.204 .0285880
1138.817 .0286977
1139.431 .0288241
1140.045 .0289611
1140.660 .0291190
1141.275 .0293053
1141.891 .0295312
1142.508 .0296092
1143.126 .0297169
1143.744 .0302218
1144.363 .0308199
1144.983 .0314581
