Measurement Sequence started on: 15-12-46-377
Integration time: 28
Scans to Average: 2 
>>>>>Begin Spectral Data<<<<<
432.689 .0000100
433.621 .0000100
434.552 .0000100
435.482 .0000100
436.410 .0000100
437.337 .0000100
438.262 .0259712
439.187 .0549485
440.110 .0908753
441.031 .1313875
441.952 .1706914
442.871 .2016157
443.789 .2185416
444.705 .2196262
445.621 .2072600
446.535 .1866017
447.447 .1632697
448.359 .1273400
449.269 .1097996
450.178 .0988314
451.086 .0910395
451.993 .0850171
452.898 .0801937
453.803 .0762344
454.706 .0729095
455.608 .0700807
456.508 .0676441
457.408 .0655087
458.306 .0635952
459.204 .0618675
460.100 .0602740
460.995 .0588000
461.888 .0574421
462.781 .0561814
463.673 .0550157
464.563 .0539565
465.452 .0529821
466.340 .0520901
467.228 .0512800
468.114 .0505355
468.999 .0498385
469.882 .0491944
470.765 .0485990
471.647 .0480421
472.528 .0475294
473.407 .0470726
474.286 .0466659
475.163 .0463115
476.040 .0460064
476.915 .0457409
477.790 .0455094
478.663 .0453093
479.535 .0451312
480.407 .0449766
481.277 .0448475
482.147 .0447399
483.015 .0446523
483.883 .0445949
484.749 .0445607
485.615 .0445409
486.479 .0445363
487.343 .0445493
488.206 .0445666
489.067 .0445867
489.928 .0445992
490.788 .0446146
491.647 .0446388
492.505 .0446785
493.362 .0447343
494.218 .0448127
495.073 .0449199
495.928 .0450527
496.781 .0452030
497.634 .0453765
498.486 .0455689
499.337 .0457870
500.187 .0460315
501.036 .0463102
501.884 .0466196
502.731 .0469706
503.578 .0473587
504.424 .0477913
505.268 .0482554
506.113 .0487398
506.956 .0492397
507.798 .0497578
508.640 .0502985
509.480 .0508685
510.320 .0514877
511.160 .0521850
511.998 .0529724
512.836 .0538535
513.672 .0548300
514.508 .0559113
515.344 .0571023
516.178 .0584207
517.012 .0598729
517.845 .0615077
518.677 .0633497
519.508 .0654092
520.339 .0677663
521.169 .0704717
521.998 .0735785
522.826 .0771378
523.654 .0811501
524.481 .0855910
525.307 .0904888
526.133 .0958115
526.958 .1015143
527.782 .1075457
528.605 .1138158
529.428 .1202232
530.250 .1263352
531.072 .1319809
531.892 .1367632
532.712 .1405404
533.532 .1430732
534.350 .1440755
535.168 .1434910
535.986 .1413621
536.802 .1378392
537.618 .1331605
538.434 .1275253
539.249 .1213964
540.063 .1149468
540.876 .1085394
541.689 .1023165
542.501 .0965097
543.313 .0912620
544.124 .0865930
544.934 .0824272
545.744 .0787028
546.553 .0753159
547.361 .0722625
548.169 .0695204
548.976 .0670343
549.783 .0647684
550.589 .0626938
551.395 .0607921
552.200 .0590579
553.004 .0574539
553.808 .0559815
554.611 .0546210
555.414 .0533908
556.216 .0522647
557.018 .0512325
557.819 .0502799
558.619 .0493966
559.419 .0485752
560.218 .0478053
561.017 .0470686
561.815 .0463518
562.613 .0456546
563.410 .0449770
564.207 .0443245
565.003 .0436964
565.799 .0430886
566.594 .0424990
567.388 .0419331
568.182 .0413884
568.976 .0408548
569.769 .0403322
570.562 .0398227
571.354 .0393266
572.145 .0388507
572.936 .0383902
573.727 .0379471
574.517 .0375317
575.307 .0371436
576.096 .0367778
576.885 .0364320
577.673 .0361098
578.461 .0358056
579.248 .0355193
580.035 .0352502
580.821 .0349965
581.607 .0347553
582.392 .0345257
583.177 .0343087
583.962 .0341031
584.746 .0339108
585.529 .0337290
586.313 .0335591
587.095 .0334022
587.878 .0332582
588.660 .0331280
589.441 .0330111
590.222 .0329080
591.003 .0328168
591.783 .0327330
592.563 .0326569
593.342 .0325865
594.121 .0325186
594.899 .0324542
595.678 .0323917
596.455 .0323306
597.233 .0322715
598.009 .0322141
598.786 .0321585
599.562 .0321050
600.338 .0320529
601.113 .0320019
601.888 .0319522
602.663 .0319038
603.437 .0318545
604.211 .0318045
604.984 .0317547
605.757 .0317035
606.530 .0316516
607.302 .0316001
608.074 .0315484
608.845 .0314984
609.616 .0314507
610.387 .0314057
611.158 .0313646
611.928 .0313280
612.697 .0312942
613.467 .0312629
614.236 .0312341
615.004 .0312061
615.773 .0311782
616.541 .0311514
617.308 .0311252
618.076 .0311003
618.843 .0310782
619.609 .0310589
620.375 .0310421
621.141 .0310286
621.907 .0310163
622.672 .0310043
623.437 .0309908
624.202 .0309752
624.966 .0309566
625.730 .0309359
626.493 .0309136
627.257 .0308905
628.020 .0308678
628.782 .0308465
629.545 .0308263
630.307 .0308075
631.068 .0307891
631.830 .0307710
632.591 .0307518
633.352 .0307315
634.112 .0307096
634.872 .0306865
635.632 .0306629
636.392 .0306397
637.151 .0306172
637.910 .0305957
638.668 .0305749
639.427 .0305552
640.185 .0305365
640.943 .0305184
641.700 .0305006
642.457 .0304835
643.214 .0304667
643.971 .0304497
644.727 .0304323
645.483 .0304150
646.239 .0303978
646.994 .0303808
647.750 .0303643
648.505 .0303479
649.259 .0303330
650.014 .0303195
650.768 .0303071
651.521 .0302963
652.275 .0302862
653.028 .0302761
653.781 .0302650
654.534 .0302526
655.286 .0302384
656.039 .0302223
656.791 .0302050
657.542 .0301857
658.294 .0301652
659.045 .0301439
659.796 .0301210
660.546 .0300972
661.297 .0300725
662.047 .0300457
662.796 .0300164
663.546 .0299855
664.295 .0299526
665.044 .0299182
665.793 .0298833
666.542 .0298480
667.290 .0298135
668.038 .0297798
668.786 .0297471
669.533 .0297158
670.281 .0296863
671.028 .0296582
671.774 .0296308
672.521 .0296051
673.267 .0295807
674.013 .0295576
674.759 .0295360
675.505 .0295158
676.250 .0294965
676.995 .0294780
677.740 .0294601
678.484 .0294421
679.229 .0294245
679.973 .0294067
680.717 .0293889
681.460 .0293714
682.204 .0293536
682.947 .0293360
683.690 .0293183
684.433 .0293009
685.175 .0292831
685.917 .0292650
686.659 .0292470
687.401 .0292285
688.142 .0292104
688.884 .0291925
689.625 .0291747
690.365 .0291572
691.106 .0291399
691.846 .0291229
692.586 .0291059
693.326 .0290892
694.066 .0290722
694.805 .0290556
695.545 .0290395
696.284 .0290236
697.022 .0290083
697.761 .0289940
698.499 .0289805
699.237 .0289682
699.975 .0289569
700.713 .0289466
701.450 .0289370
702.187 .0289285
702.924 .0289206
703.661 .0289131
704.397 .0289058
705.133 .0288993
705.869 .0288931
706.605 .0288874
707.341 .0288814
708.076 .0288753
708.811 .0288696
709.546 .0288638
710.281 .0288579
711.015 .0288516
711.749 .0288448
712.483 .0288377
713.217 .0288292
713.950 .0288199
714.684 .0288095
715.417 .0287984
716.150 .0287866
716.882 .0287747
717.615 .0287624
718.347 .0287504
719.079 .0287389
719.811 .0287280
720.542 .0287168
721.273 .0287053
722.005 .0286929
722.735 .0286796
723.466 .0286656
724.196 .0286507
724.927 .0286346
725.656 .0286187
726.386 .0286023
727.116 .0285857
727.845 .0285695
728.574 .0285535
729.303 .0285374
730.031 .0285212
730.760 .0285047
731.488 .0284875
732.216 .0284701
732.944 .0284531
733.671 .0284364
734.398 .0284205
735.125 .0284053
735.852 .0283907
736.579 .0283771
737.305 .0283646
738.031 .0283524
738.757 .0283406
739.483 .0283290
740.208 .0283169
740.933 .0283041
741.658 .0282907
742.383 .0282764
743.108 .0282614
743.832 .0282453
744.556 .0282285
745.280 .0282111
746.004 .0281932
746.727 .0281751
747.450 .0281567
748.173 .0281385
748.896 .0281196
749.618 .0281002
750.340 .0280808
751.062 .0280613
751.784 .0280414
752.506 .0280210
753.227 .0280002
753.948 .0279790
754.669 .0279573
755.389 .0279352
756.110 .0279126
756.830 .0278900
757.550 .0278670
758.269 .0278439
758.989 .0278208
759.708 .0277980
760.427 .0277755
761.146 .0277534
761.864 .0277317
762.582 .0277098
763.300 .0276877
764.018 .0276658
764.736 .0276445
765.453 .0276230
766.170 .0276020
766.887 .0275818
767.603 .0275627
768.320 .0275450
769.036 .0275283
769.751 .0275130
770.467 .0274987
771.182 .0274852
771.897 .0274717
772.612 .0274578
773.327 .0274442
774.041 .0274304
774.755 .0274168
775.469 .0274036
776.183 .0273913
776.896 .0273803
777.609 .0273713
778.322 .0273640
779.035 .0273581
779.747 .0273537
780.459 .0273507
781.171 .0273484
781.882 .0273465
782.594 .0273450
783.305 .0273446
784.016 .0273454
784.726 .0273474
785.436 .0273504
786.147 .0273545
786.856 .0273595
787.566 .0273651
788.275 .0273708
788.984 .0273765
789.693 .0273823
790.401 .0273879
791.110 .0273928
791.818 .0273971
792.525 .0274008
793.233 .0274043
793.940 .0274071
794.647 .0274094
795.353 .0274106
796.060 .0274108
796.766 .0274101
797.472 .0274083
798.177 .0274056
798.883 .0274022
799.588 .0273984
800.292 .0273944
800.997 .0273901
801.701 .0273860
802.405 .0273821
803.109 .0273790
803.812 .0273763
804.515 .0273737
805.218 .0273709
805.921 .0273680
806.623 .0273646
807.325 .0273604
808.027 .0273556
808.728 .0273494
809.429 .0273426
810.130 .0273349
810.831 .0273268
811.531 .0273182
812.231 .0273094
812.931 .0273000
813.630 .0272900
814.330 .0272789
815.029 .0272670
815.727 .0272539
816.426 .0272406
817.124 .0272267
817.821 .0272129
818.519 .0271997
819.216 .0271875
819.913 .0271764
820.609 .0271666
821.306 .0271576
822.002 .0271495
822.697 .0271420
823.393 .0271353
824.088 .0271291
824.783 .0271234
825.477 .0271175
826.171 .0271118
826.865 .0271062
827.559 .0271008
828.252 .0270952
828.945 .0270901
829.638 .0270853
830.330 .0270805
831.023 .0270760
831.714 .0270714
832.406 .0270667
833.097 .0270618
833.788 .0270556
834.479 .0270481
835.169 .0270394
835.859 .0270296
836.548 .0270191
837.238 .0270079
837.927 .0269962
838.615 .0269839
839.304 .0269709
839.992 .0269573
840.680 .0269428
841.367 .0269275
842.054 .0269112
842.741 .0268942
843.428 .0268767
844.114 .0268591
844.800 .0268416
845.485 .0268244
846.170 .0268071
846.855 .0267895
847.540 .0267712
848.224 .0267521
848.908 .0267324
849.592 .0267122
850.275 .0266914
850.958 .0266702
851.641 .0266486
852.323 .0266269
853.005 .0266044
853.687 .0265814
854.368 .0265574
855.049 .0265329
855.730 .0265075
856.410 .0264810
857.090 .0264546
857.769 .0264278
858.449 .0264009
859.128 .0263739
859.806 .0263467
860.485 .0263199
861.163 .0262931
861.840 .0262672
862.518 .0262419
863.195 .0262178
863.871 .0261947
864.548 .0261727
865.224 .0261520
865.899 .0261325
866.574 .0261137
867.249 .0260958
867.924 .0260788
868.598 .0260623
869.272 .0260467
869.946 .0260322
870.619 .0260186
871.292 .0260059
871.964 .0259932
872.636 .0259810
873.308 .0259685
873.979 .0259561
874.651 .0259434
875.321 .0259302
875.992 .0259171
876.662 .0259037
877.331 .0258902
878.001 .0258768
878.670 .0258638
879.338 .0258511
880.007 .0258391
880.675 .0258279
881.342 .0258180
882.009 .0258099
882.676 .0258038
883.343 .0257996
884.009 .0257972
884.675 .0257961
885.340 .0257959
886.005 .0257958
886.670 .0257961
887.334 .0257966
887.998 .0257976
888.662 .0257994
889.325 .0258025
889.988 .0258071
890.650 .0258132
891.312 .0258207
891.974 .0258295
892.636 .0258384
893.297 .0258472
893.957 .0258553
894.618 .0258628
895.278 .0258696
895.937 .0258762
896.596 .0258829
897.255 .0258902
897.914 .0258981
898.572 .0259058
899.230 .0259136
899.887 .0259210
900.544 .0259273
901.201 .0259324
901.857 .0259361
902.513 .0259383
903.168 .0259389
903.823 .0259383
904.478 .0259364
905.132 .0259333
905.786 .0259298
906.440 .0259257
907.093 .0259213
907.746 .0259169
908.399 .0259123
909.051 .0259073
909.703 .0259022
910.354 .0258967
911.005 .0258906
911.656 .0258843
912.306 .0258777
912.956 .0258712
913.605 .0258654
914.254 .0258607
914.903 .0258569
915.551 .0258547
916.199 .0258540
916.847 .0258537
917.494 .0258539
918.141 .0258544
918.788 .0258544
919.434 .0258539
920.079 .0258528
920.725 .0258510
921.370 .0258487
922.014 .0258461
922.658 .0258423
923.302 .0258378
923.946 .0258325
924.589 .0258251
925.231 .0258154
925.873 .0258043
926.515 .0257908
927.157 .0257753
927.798 .0257585
928.439 .0257410
929.079 .0257233
929.719 .0257057
930.359 .0256886
930.998 .0256720
931.637 .0256568
932.275 .0256425
932.913 .0256287
933.551 .0256166
934.188 .0256056
934.825 .0255955
935.462 .0255868
936.098 .0255795
936.733 .0255736
937.369 .0255690
938.004 .0255656
938.638 .0255623
939.273 .0255589
939.907 .0255552
940.540 .0255512
941.173 .0255471
941.806 .0255435
942.438 .0255398
943.070 .0255367
943.702 .0255343
944.333 .0255316
944.964 .0255288
945.594 .0255256
946.224 .0255214
946.854 .0255164
947.483 .0255108
948.112 .0255045
948.741 .0254975
949.369 .0254908
949.996 .0254835
950.624 .0254756
951.251 .0254672
951.878 .0254577
952.504 .0254474
953.130 .0254363
953.755 .0254241
954.380 .0254110
955.005 .0253976
955.629 .0253835
956.253 .0253689
956.877 .0253544
957.500 .0253392
958.123 .0253232
958.746 .0253069
959.368 .0252900
959.990 .0252724
960.611 .0252545
961.232 .0252362
961.853 .0252180
962.473 .0252000
963.093 .0251815
963.712 .0251629
964.331 .0251438
964.950 .0251240
965.569 .0251032
966.187 .0250820
966.804 .0250610
967.422 .0250407
968.039 .0250218
968.655 .0250049
969.272 .0249895
969.887 .0249759
970.503 .0249636
971.118 .0249525
971.733 .0249414
972.347 .0249301
972.961 .0249179
973.575 .0249053
974.188 .0248919
974.801 .0248780
975.414 .0248638
976.026 .0248496
976.638 .0248350
977.250 .0248197
977.861 .0248035
978.472 .0247863
979.083 .0247676
979.693 .0247475
980.303 .0247255
980.912 .0247023
981.521 .0246779
982.130 .0246525
982.738 .0246260
983.346 .0245988
983.954 .0245708
984.562 .0245422
985.169 .0245133
985.775 .0244848
986.382 .0244567
986.988 .0244295
987.594 .0244032
988.199 .0243780
988.804 .0243541
989.409 .0243317
990.013 .0243104
990.617 .0242907
991.221 .0242720
991.824 .0242547
992.427 .0242388
993.030 .0242247
993.632 .0242124
994.234 .0242019
994.836 .0241933
995.438 .0241866
996.039 .0241814
996.640 .0241770
997.240 .0241730
997.840 .0241692
998.440 .0241652
999.040 .0241601
999.639 .0241539
1000.238 .0241469
1000.836 .0241394
1001.435 .0241324
1002.033 .0241252
1002.630 .0241188
1003.228 .0241130
1003.825 .0241076
1004.422 .0241025
1005.018 .0240974
1005.614 .0240923
1006.210 .0240872
1006.806 .0240823
1007.401 .0240775
1007.996 .0240726
1008.591 .0240684
1009.186 .0240649
1009.780 .0240622
1010.374 .0240596
1010.967 .0240573
1011.561 .0240547
1012.154 .0240523
1012.746 .0240502
1013.339 .0240480
1013.931 .0240466
1014.523 .0240463
1015.115 .0240473
1015.706 .0240488
1016.298 .0240515
1016.888 .0240558
1017.479 .0240611
1018.069 .0240678
1018.660 .0240750
1019.250 .0240829
1019.839 .0240911
1020.429 .0240997
1021.018 .0241086
1021.607 .0241177
1022.195 .0241272
1022.784 .0241368
1023.372 .0241470
1023.960 .0241579
1024.547 .0241687
1025.135 .0241798
1025.722 .0241907
1026.309 .0242008
1026.896 .0242093
1027.483 .0242168
1028.069 .0242238
1028.655 .0242305
1029.241 .0242375
1029.827 .0242448
1030.412 .0242536
1030.997 .0242641
1031.582 .0242763
1032.167 .0242899
1032.752 .0243049
1033.336 .0243210
1033.921 .0243372
1034.505 .0243537
1035.089 .0243695
1035.672 .0243856
1036.256 .0244019
1036.839 .0244184
1037.422 .0244356
1038.005 .0244544
1038.588 .0244748
1039.171 .0244965
1039.753 .0245188
1040.335 .0245410
1040.918 .0245617
1041.500 .0245810
1042.081 .0245975
1042.663 .0246122
1043.244 .0246251
1043.826 .0246378
1044.407 .0246495
1044.988 .0246621
1045.569 .0246745
1046.150 .0246859
1046.730 .0246962
1047.311 .0247052
1047.891 .0247113
1048.471 .0247151
1049.052 .0247177
1049.632 .0247204
1050.211 .0247240
1050.791 .0247294
1051.371 .0247372
1051.950 .0247483
1052.530 .0247612
1053.109 .0247752
1053.688 .0247882
1054.268 .0248016
1054.847 .0248141
1055.426 .0248256
1056.005 .0248377
1056.583 .0248501
1057.162 .0248633
1057.741 .0248765
1058.319 .0248899
1058.898 .0249035
1059.476 .0249152
1060.055 .0249255
1060.633 .0249336
1061.211 .0249396
1061.790 .0249448
1062.368 .0249485
1062.946 .0249523
1063.524 .0249572
1064.102 .0249622
1064.680 .0249670
1065.258 .0249722
1065.836 .0249782
1066.414 .0249853
1066.992 .0249921
1067.570 .0250005
1068.148 .0250102
1068.726 .0250212
1069.304 .0250346
1069.882 .0250492
1070.460 .0250658
1071.038 .0250828
1071.616 .0250987
1072.194 .0251149
1072.772 .0251299
1073.350 .0251447
1073.928 .0251594
1074.506 .0251744
1075.084 .0251910
1075.662 .0252077
1076.240 .0252255
1076.819 .0252444
1077.397 .0252645
1077.976 .0252842
1078.554 .0253029
1079.133 .0253211
1079.711 .0253380
1080.290 .0253527
1080.869 .0253666
1081.448 .0253790
1082.027 .0253901
1082.606 .0254004
1083.185 .0254101
1083.764 .0254202
1084.343 .0254311
1084.923 .0254420
1085.502 .0254544
1086.082 .0254670
1086.662 .0254806
1087.242 .0254928
1087.822 .0255043
1088.402 .0255140
1088.983 .0255218
1089.563 .0255265
1090.144 .0255290
1090.725 .0255301
1091.306 .0255301
1091.887 .0255294
1092.469 .0255319
1093.050 .0255352
1093.632 .0255407
1094.214 .0255487
1094.796 .0255590
1095.379 .0255689
1095.961 .0255794
1096.544 .0255897
1097.127 .0256000
1097.710 .0256107
1098.294 .0256222
1098.877 .0256359
1099.461 .0256548
1100.046 .0256778
1100.630 .0257056
1101.215 .0257393
1101.800 .0257785
1102.385 .0258184
1102.970 .0258590
1103.556 .0258984
1104.142 .0259363
1104.728 .0259726
1105.315 .0260053
1105.902 .0260371
1106.489 .0260679
1107.077 .0260971
1107.664 .0261243
1108.253 .0261511
1108.841 .0261760
1109.430 .0261971
1110.019 .0262160
1110.609 .0262297
1111.198 .0262392
1111.789 .0262457
1112.379 .0262497
1112.970 .0262545
1113.561 .0262602
1114.153 .0262703
1114.745 .0262838
1115.338 .0263054
1115.931 .0263324
1116.524 .0263634
1117.117 .0264012
1117.712 .0264444
1118.306 .0264895
1118.901 .0265386
1119.496 .0265914
1120.092 .0266480
1120.689 .0267089
1121.285 .0267752
1121.882 .0268446
1122.480 .0269171
1123.078 .0269915
1123.677 .0270660
1124.276 .0271374
1124.875 .0272091
1125.476 .0272759
1126.076 .0273373
1126.677 .0273950
1127.279 .0274473
1127.881 .0274952
1128.484 .0275433
1129.087 .0275878
1129.691 .0276318
1130.295 .0276748
1130.900 .0277189
1131.505 .0277603
1132.111 .0278034
1132.718 .0278507
1133.325 .0279028
1133.933 .0279590
1134.541 .0280177
1135.150 .0280762
1135.760 .0281388
1136.370 .0281998
1136.981 .0282633
1137.592 .0283258
1138.204 .0283901
1138.817 .0284590
1139.431 .0285367
1140.045 .0286239
1140.660 .0287066
1141.275 .0288057
1141.891 .0288842
1142.508 .0291054
1143.126 .0292462
1143.744 .0288948
1144.363 .0294300
1144.983 .0288349
