Measurement Sequence started on: 15-12-46-377
Integration time: 28
Scans to Average: 2 
>>>>>Begin Spectral Data<<<<<
432.689 .0000100
433.621 .0000100
434.552 .0000100
435.482 .0000100
436.410 .0000100
437.337 .0000100
438.262 .0272553
439.187 .0575702
440.110 .0953276
441.031 .1378903
441.952 .1791476
442.871 .2115143
443.789 .2291208
444.705 .2299899
445.621 .2165999
446.535 .1944316
447.447 .1694126
448.359 .1311975
449.269 .1124228
450.178 .1005433
451.086 .0922094
451.993 .0859094
452.898 .0809795
453.803 .0769745
454.706 .0736717
455.608 .0709025
456.508 .0685153
457.408 .0664590
458.306 .0646551
459.204 .0630413
460.100 .0615674
460.995 .0602363
461.888 .0590142
462.781 .0578975
463.673 .0568585
464.563 .0558954
465.452 .0549931
466.340 .0541315
467.228 .0533011
468.114 .0524952
468.999 .0517275
469.882 .0510021
470.765 .0503252
471.647 .0497147
472.528 .0491673
473.407 .0486963
474.286 .0483020
475.163 .0479813
476.040 .0477180
476.915 .0475018
477.790 .0473132
478.663 .0471445
479.535 .0469876
480.407 .0468486
481.277 .0467250
482.147 .0466234
483.015 .0465492
483.883 .0465040
484.749 .0464863
485.615 .0464963
486.479 .0465217
487.343 .0465651
488.206 .0466182
489.067 .0466713
489.928 .0467271
490.788 .0467927
491.647 .0468615
492.505 .0469489
493.362 .0470593
494.218 .0471964
495.073 .0473604
495.928 .0475597
496.781 .0477819
497.634 .0480352
498.486 .0483138
499.337 .0486106
500.187 .0489262
501.036 .0492666
501.884 .0496177
502.731 .0499814
503.578 .0503655
504.424 .0507587
505.268 .0511592
506.113 .0515864
506.956 .0520183
507.798 .0524811
508.640 .0529783
509.480 .0535162
510.320 .0541250
511.160 .0548293
511.998 .0556273
512.836 .0565355
513.672 .0575672
514.508 .0587263
515.344 .0600038
516.178 .0614491
517.012 .0630771
517.845 .0649255
518.677 .0670669
519.508 .0695262
520.339 .0723630
521.169 .0756772
521.998 .0794521
522.826 .0837544
523.654 .0885879
524.481 .0939305
525.307 .0997821
526.133 .1060913
526.958 .1127979
527.782 .1198682
528.605 .1271459
529.428 .1345541
530.250 .1415566
531.072 .1479261
531.892 .1532434
532.712 .1571376
533.532 .1594423
534.350 .1599221
535.168 .1585279
535.986 .1554254
536.802 .1507499
537.618 .1448931
538.434 .1380912
539.249 .1308492
540.063 .1233700
540.876 .1159293
541.689 .1087418
542.501 .1019472
543.313 .0957059
544.124 .0901063
544.934 .0851051
545.744 .0806837
546.553 .0767832
547.361 .0733632
548.169 .0703955
548.976 .0677800
549.783 .0654698
550.589 .0634281
551.395 .0615577
552.200 .0598455
553.004 .0582678
553.808 .0567925
554.611 .0554573
555.414 .0542471
556.216 .0531539
557.018 .0521717
557.819 .0512726
558.619 .0504328
559.419 .0496441
560.218 .0488956
561.017 .0481834
561.815 .0474924
562.613 .0468282
563.410 .0461760
564.207 .0455514
565.003 .0449673
565.799 .0443999
566.594 .0438563
567.388 .0433441
568.182 .0428417
568.976 .0423492
569.769 .0418654
570.562 .0413827
571.354 .0409027
572.145 .0404280
572.936 .0399486
573.727 .0394706
574.517 .0390016
575.307 .0385420
576.096 .0380930
576.885 .0376652
577.673 .0372589
578.461 .0368761
579.248 .0365274
580.035 .0362107
580.821 .0359183
581.607 .0356499
582.392 .0354027
583.177 .0351720
583.962 .0349569
584.746 .0347605
585.529 .0345826
586.313 .0344233
587.095 .0342814
587.878 .0341529
588.660 .0340386
589.441 .0339368
590.222 .0338424
591.003 .0337550
591.783 .0336736
592.563 .0335960
593.342 .0335216
594.121 .0334508
594.899 .0333838
595.678 .0333195
596.455 .0332575
597.233 .0331969
598.009 .0331358
598.786 .0330749
599.562 .0330142
600.338 .0329544
601.113 .0328960
601.888 .0328377
602.663 .0327802
603.437 .0327231
604.211 .0326661
604.984 .0326100
605.757 .0325545
606.530 .0325009
607.302 .0324493
608.074 .0324002
608.845 .0323543
609.616 .0323122
610.387 .0322744
611.158 .0322402
611.928 .0322085
612.697 .0321789
613.467 .0321504
614.236 .0321229
615.004 .0320966
615.773 .0320713
616.541 .0320477
617.308 .0320247
618.076 .0320018
618.843 .0319787
619.609 .0319556
620.375 .0319319
621.141 .0319074
621.907 .0318815
622.672 .0318549
623.437 .0318272
624.202 .0317994
624.966 .0317713
625.730 .0317441
626.493 .0317183
627.257 .0316937
628.020 .0316701
628.782 .0316478
629.545 .0316262
630.307 .0316058
631.068 .0315850
631.830 .0315637
632.591 .0315402
633.352 .0315153
634.112 .0314881
634.872 .0314587
635.632 .0314278
636.392 .0313962
637.151 .0313641
637.910 .0313327
638.668 .0313015
639.427 .0312712
640.185 .0312418
640.943 .0312134
641.700 .0311850
642.457 .0311570
643.214 .0311288
643.971 .0311014
644.727 .0310751
645.483 .0310505
646.239 .0310274
646.994 .0310067
647.750 .0309889
648.505 .0309729
649.259 .0309586
650.014 .0309451
650.768 .0309315
651.521 .0309177
652.275 .0309020
653.028 .0308851
653.781 .0308668
654.534 .0308480
655.286 .0308286
656.039 .0308095
656.791 .0307904
657.542 .0307716
658.294 .0307533
659.045 .0307354
659.796 .0307172
660.546 .0306986
661.297 .0306785
662.047 .0306568
662.796 .0306327
663.546 .0306074
664.295 .0305801
665.044 .0305523
665.793 .0305241
666.542 .0304963
667.290 .0304692
668.038 .0304431
668.786 .0304177
669.533 .0303931
670.281 .0303687
671.028 .0303440
671.774 .0303185
672.521 .0302932
673.267 .0302684
674.013 .0302452
674.759 .0302233
675.505 .0302037
676.250 .0301862
676.995 .0301704
677.740 .0301553
678.484 .0301403
679.229 .0301247
679.973 .0301080
680.717 .0300902
681.460 .0300712
682.204 .0300516
682.947 .0300324
683.690 .0300143
684.433 .0299974
685.175 .0299815
685.917 .0299659
686.659 .0299504
687.401 .0299346
688.142 .0299183
688.884 .0299009
689.625 .0298828
690.365 .0298650
691.106 .0298472
691.846 .0298292
692.586 .0298107
693.326 .0297918
694.066 .0297726
694.805 .0297524
695.545 .0297308
696.284 .0297077
697.022 .0296842
697.761 .0296602
698.499 .0296355
699.237 .0296108
699.975 .0295861
700.713 .0295617
701.450 .0295369
702.187 .0295119
702.924 .0294865
703.661 .0294612
704.397 .0294368
705.133 .0294135
705.869 .0293914
706.605 .0293706
707.341 .0293510
708.076 .0293323
708.811 .0293142
709.546 .0292954
710.281 .0292757
711.015 .0292555
711.749 .0292344
712.483 .0292128
713.217 .0291907
713.950 .0291692
714.684 .0291488
715.417 .0291292
716.150 .0291103
716.882 .0290918
717.615 .0290737
718.347 .0290555
719.079 .0290376
719.811 .0290196
720.542 .0290015
721.273 .0289837
722.005 .0289662
722.735 .0289491
723.466 .0289325
724.196 .0289165
724.927 .0289007
725.656 .0288847
726.386 .0288684
727.116 .0288506
727.845 .0288323
728.574 .0288130
729.303 .0287933
730.031 .0287739
730.760 .0287555
731.488 .0287380
732.216 .0287225
732.944 .0287095
733.671 .0286982
734.398 .0286887
735.125 .0286810
735.852 .0286744
736.579 .0286684
737.305 .0286631
738.031 .0286583
738.757 .0286537
739.483 .0286495
740.208 .0286447
740.933 .0286394
741.658 .0286338
742.383 .0286272
743.108 .0286196
743.832 .0286114
744.556 .0286022
745.280 .0285917
746.004 .0285803
746.727 .0285681
747.450 .0285550
748.173 .0285410
748.896 .0285265
749.618 .0285114
750.340 .0284959
751.062 .0284803
751.784 .0284649
752.506 .0284500
753.227 .0284357
753.948 .0284215
754.669 .0284077
755.389 .0283944
756.110 .0283812
756.830 .0283681
757.550 .0283550
758.269 .0283421
758.989 .0283291
759.708 .0283164
760.427 .0283042
761.146 .0282923
761.864 .0282809
762.582 .0282695
763.300 .0282582
764.018 .0282469
764.736 .0282356
765.453 .0282242
766.170 .0282128
766.887 .0282014
767.603 .0281896
768.320 .0281778
769.036 .0281656
769.751 .0281531
770.467 .0281403
771.182 .0281270
771.897 .0281130
772.612 .0280988
773.327 .0280846
774.041 .0280705
774.755 .0280569
775.469 .0280446
776.183 .0280332
776.896 .0280229
777.609 .0280134
778.322 .0280048
779.035 .0279965
779.747 .0279885
780.459 .0279800
781.171 .0279719
781.882 .0279637
782.594 .0279560
783.305 .0279488
784.016 .0279428
784.726 .0279376
785.436 .0279327
786.147 .0279279
786.856 .0279233
787.566 .0279183
788.275 .0279131
788.984 .0279072
789.693 .0279011
790.401 .0278943
791.110 .0278865
791.818 .0278779
792.525 .0278685
793.233 .0278577
793.940 .0278458
794.647 .0278328
795.353 .0278187
796.060 .0278038
796.766 .0277880
797.472 .0277716
798.177 .0277549
798.883 .0277382
799.588 .0277212
800.292 .0277043
800.997 .0276881
801.701 .0276722
802.405 .0276570
803.109 .0276427
803.812 .0276290
804.515 .0276158
805.218 .0276029
805.921 .0275901
806.623 .0275771
807.325 .0275638
808.027 .0275501
808.728 .0275357
809.429 .0275206
810.130 .0275044
810.831 .0274870
811.531 .0274685
812.231 .0274489
812.931 .0274281
813.630 .0274062
814.330 .0273841
815.029 .0273619
815.727 .0273399
816.426 .0273188
817.124 .0272985
817.821 .0272791
818.519 .0272610
819.216 .0272437
819.913 .0272269
820.609 .0272112
821.306 .0271963
822.002 .0271828
822.697 .0271707
823.393 .0271603
824.088 .0271511
824.783 .0271430
825.477 .0271355
826.171 .0271276
826.865 .0271196
827.559 .0271110
828.252 .0271020
828.945 .0270930
829.638 .0270838
830.330 .0270750
831.023 .0270664
831.714 .0270586
832.406 .0270510
833.097 .0270433
833.788 .0270353
834.479 .0270268
835.169 .0270179
835.859 .0270089
836.548 .0269998
837.238 .0269918
837.927 .0269844
838.615 .0269776
839.304 .0269715
839.992 .0269655
840.680 .0269593
841.367 .0269525
842.054 .0269445
842.741 .0269356
843.428 .0269257
844.114 .0269155
844.800 .0269048
845.485 .0268941
846.170 .0268831
846.855 .0268718
847.540 .0268602
848.224 .0268484
848.908 .0268361
849.592 .0268236
850.275 .0268108
850.958 .0267980
851.641 .0267853
852.323 .0267728
853.005 .0267606
853.687 .0267486
854.368 .0267365
855.049 .0267239
855.730 .0267109
856.410 .0266977
857.090 .0266840
857.769 .0266702
858.449 .0266566
859.128 .0266434
859.806 .0266309
860.485 .0266196
861.163 .0266095
861.840 .0266005
862.518 .0265923
863.195 .0265844
863.871 .0265764
864.548 .0265684
865.224 .0265602
865.899 .0265522
866.574 .0265448
867.249 .0265384
867.924 .0265330
868.598 .0265290
869.272 .0265267
869.946 .0265256
870.619 .0265246
871.292 .0265235
871.964 .0265215
872.636 .0265186
873.308 .0265143
873.979 .0265087
874.651 .0265025
875.321 .0264959
875.992 .0264898
876.662 .0264837
877.331 .0264782
878.001 .0264731
878.670 .0264679
879.338 .0264625
880.007 .0264565
880.675 .0264499
881.342 .0264429
882.009 .0264360
882.676 .0264292
883.343 .0264221
884.009 .0264149
884.675 .0264080
885.340 .0264010
886.005 .0263941
886.670 .0263878
887.334 .0263821
887.998 .0263778
888.662 .0263744
889.325 .0263722
889.988 .0263714
890.650 .0263718
891.312 .0263734
891.974 .0263754
892.636 .0263780
893.297 .0263811
893.957 .0263846
894.618 .0263890
895.278 .0263937
895.937 .0263993
896.596 .0264056
897.255 .0264126
897.914 .0264196
898.572 .0264262
899.230 .0264321
899.887 .0264370
900.544 .0264400
901.201 .0264408
901.857 .0264391
902.513 .0264355
903.168 .0264297
903.823 .0264216
904.478 .0264117
905.132 .0264006
905.786 .0263881
906.440 .0263748
907.093 .0263602
907.746 .0263445
908.399 .0263277
909.051 .0263101
909.703 .0262914
910.354 .0262723
911.005 .0262534
911.656 .0262353
912.306 .0262182
912.956 .0262024
913.605 .0261877
914.254 .0261744
914.903 .0261617
915.551 .0261492
916.199 .0261366
916.847 .0261241
917.494 .0261115
918.141 .0260990
918.788 .0260871
919.434 .0260759
920.079 .0260652
920.725 .0260553
921.370 .0260460
922.014 .0260369
922.658 .0260274
923.302 .0260172
923.946 .0260064
924.589 .0259939
925.231 .0259798
925.873 .0259639
926.515 .0259468
927.157 .0259282
927.798 .0259080
928.439 .0258866
929.079 .0258646
929.719 .0258414
930.359 .0258173
930.998 .0257924
931.637 .0257672
932.275 .0257411
932.913 .0257151
933.551 .0256888
934.188 .0256628
934.825 .0256371
935.462 .0256124
936.098 .0255888
936.733 .0255670
937.369 .0255466
938.004 .0255276
938.638 .0255103
939.273 .0254944
939.907 .0254797
940.540 .0254665
941.173 .0254545
941.806 .0254437
942.438 .0254331
943.070 .0254234
943.702 .0254138
944.333 .0254044
944.964 .0253949
945.594 .0253854
946.224 .0253757
946.854 .0253660
947.483 .0253565
948.112 .0253471
948.741 .0253375
949.369 .0253278
949.996 .0253172
950.624 .0253059
951.251 .0252938
951.878 .0252809
952.504 .0252671
953.130 .0252529
953.755 .0252373
954.380 .0252211
955.005 .0252040
955.629 .0251868
956.253 .0251691
956.877 .0251517
957.500 .0251347
958.123 .0251181
958.746 .0251021
959.368 .0250870
959.990 .0250722
960.611 .0250586
961.232 .0250453
961.853 .0250330
962.473 .0250210
963.093 .0250099
963.712 .0249993
964.331 .0249896
964.950 .0249799
965.569 .0249706
966.187 .0249613
966.804 .0249525
967.422 .0249438
968.039 .0249354
968.655 .0249267
969.272 .0249174
969.887 .0249073
970.503 .0248963
971.118 .0248837
971.733 .0248703
972.347 .0248550
972.961 .0248389
973.575 .0248222
974.188 .0248051
974.801 .0247877
975.414 .0247706
976.026 .0247533
976.638 .0247356
977.250 .0247173
977.861 .0246982
978.472 .0246781
979.083 .0246581
979.693 .0246381
980.303 .0246180
980.912 .0245982
981.521 .0245787
982.130 .0245596
982.738 .0245413
983.346 .0245228
983.954 .0245043
984.562 .0244865
985.169 .0244688
985.775 .0244513
986.382 .0244345
986.988 .0244186
987.594 .0244034
988.199 .0243887
988.804 .0243744
989.409 .0243601
990.013 .0243465
990.617 .0243337
991.221 .0243214
991.824 .0243104
992.427 .0243008
993.030 .0242929
993.632 .0242871
994.234 .0242831
994.836 .0242801
995.438 .0242785
996.039 .0242774
996.640 .0242764
997.240 .0242755
997.840 .0242747
998.440 .0242742
999.040 .0242742
999.639 .0242751
1000.238 .0242765
1000.836 .0242783
1001.435 .0242804
1002.033 .0242819
1002.630 .0242831
1003.228 .0242832
1003.825 .0242823
1004.422 .0242808
1005.018 .0242788
1005.614 .0242763
1006.210 .0242739
1006.806 .0242722
1007.401 .0242715
1007.996 .0242711
1008.591 .0242717
1009.186 .0242731
1009.780 .0242746
1010.374 .0242762
1010.967 .0242777
1011.561 .0242796
1012.154 .0242820
1012.746 .0242845
1013.339 .0242873
1013.931 .0242904
1014.523 .0242935
1015.115 .0242957
1015.706 .0242975
1016.298 .0242990
1016.888 .0242997
1017.479 .0242998
1018.069 .0242996
1018.660 .0242991
1019.250 .0242988
1019.839 .0242988
1020.429 .0242992
1021.018 .0243004
1021.607 .0243027
1022.195 .0243050
1022.784 .0243082
1023.372 .0243125
1023.960 .0243175
1024.547 .0243239
1025.135 .0243320
1025.722 .0243414
1026.309 .0243524
1026.896 .0243652
1027.483 .0243798
1028.069 .0243959
1028.655 .0244136
1029.241 .0244317
1029.827 .0244502
1030.412 .0244689
1030.997 .0244875
1031.582 .0245053
1032.167 .0245229
1032.752 .0245399
1033.336 .0245556
1033.921 .0245712
1034.505 .0245861
1035.089 .0246006
1035.672 .0246151
1036.256 .0246291
1036.839 .0246418
1037.422 .0246527
1038.005 .0246621
1038.588 .0246691
1039.171 .0246748
1039.753 .0246799
1040.335 .0246846
1040.918 .0246897
1041.500 .0246958
1042.081 .0247027
1042.663 .0247102
1043.244 .0247193
1043.826 .0247290
1044.407 .0247388
1044.988 .0247494
1045.569 .0247598
1046.150 .0247702
1046.730 .0247806
1047.311 .0247918
1047.891 .0248040
1048.471 .0248167
1049.052 .0248298
1049.632 .0248427
1050.211 .0248555
1050.791 .0248681
1051.371 .0248790
1051.950 .0248893
1052.530 .0248991
1053.109 .0249073
1053.688 .0249146
1054.268 .0249206
1054.847 .0249259
1055.426 .0249313
1056.005 .0249371
1056.583 .0249432
1057.162 .0249496
1057.741 .0249569
1058.319 .0249661
1058.898 .0249768
1059.476 .0249882
1060.055 .0249999
1060.633 .0250120
1061.211 .0250244
1061.790 .0250360
1062.368 .0250470
1062.946 .0250589
1063.524 .0250703
1064.102 .0250820
1064.680 .0250925
1065.258 .0251020
1065.836 .0251105
1066.414 .0251172
1066.992 .0251221
1067.570 .0251248
1068.148 .0251257
1068.726 .0251243
1069.304 .0251225
1069.882 .0251205
1070.460 .0251174
1071.038 .0251145
1071.616 .0251121
1072.194 .0251097
1072.772 .0251063
1073.350 .0251029
1073.928 .0250988
1074.506 .0250955
1075.084 .0250934
1075.662 .0250936
1076.240 .0250977
1076.819 .0251048
1077.397 .0251142
1077.976 .0251256
1078.554 .0251383
1079.133 .0251512
1079.711 .0251638
1080.290 .0251777
1080.869 .0251921
1081.448 .0252083
1082.027 .0252246
1082.606 .0252426
1083.185 .0252627
1083.764 .0252827
1084.343 .0253002
1084.923 .0253158
1085.502 .0253273
1086.082 .0253362
1086.662 .0253442
1087.242 .0253519
1087.822 .0253592
1088.402 .0253681
1088.983 .0253769
1089.563 .0253861
1090.144 .0253961
1090.725 .0254069
1091.306 .0254173
1091.887 .0254304
1092.469 .0254449
1093.050 .0254599
1093.632 .0254798
1094.214 .0255048
1094.796 .0255329
1095.379 .0255636
1095.961 .0255934
1096.544 .0256215
1097.127 .0256470
1097.710 .0256697
1098.294 .0256896
1098.877 .0257075
1099.461 .0257253
1100.046 .0257417
1100.630 .0257584
1101.215 .0257790
1101.800 .0258016
1102.385 .0258258
1102.970 .0258503
1103.556 .0258736
1104.142 .0258958
1104.728 .0259147
1105.315 .0259325
1105.902 .0259499
1106.489 .0259687
1107.077 .0259913
1107.664 .0260177
1108.253 .0260497
1108.841 .0260871
1109.430 .0261264
1110.019 .0261643
1110.609 .0261993
1111.198 .0262292
1111.789 .0262530
1112.379 .0262723
1112.970 .0262886
1113.561 .0263041
1114.153 .0263202
1114.745 .0263422
1115.338 .0263683
1115.931 .0263982
1116.524 .0264281
1117.117 .0264573
1117.712 .0264850
1118.306 .0265107
1118.901 .0265347
1119.496 .0265573
1120.092 .0265823
1120.689 .0266097
1121.285 .0266361
1121.882 .0266648
1122.480 .0266945
1123.078 .0267288
1123.677 .0267649
1124.276 .0268052
1124.875 .0268489
1125.476 .0268997
1126.076 .0269570
1126.677 .0270209
1127.279 .0270875
1127.881 .0271557
1128.484 .0272228
1129.087 .0272904
1129.691 .0273594
1130.295 .0274337
1130.900 .0275139
1131.505 .0276034
1132.111 .0277023
1132.718 .0278128
1133.325 .0279320
1133.933 .0280607
1134.541 .0281951
1135.150 .0283349
1135.760 .0284749
1136.370 .0286112
1136.981 .0287461
1137.592 .0288785
1138.204 .0290089
1138.817 .0291399
1139.431 .0292738
1140.045 .0294076
1140.660 .0295281
1141.275 .0296414
1141.891 .0297013
1142.508 .0300664
1143.126 .0300607
1143.744 .0297120
1144.363 .0299000
1144.983 .0289604
