Measurement Sequence started on: 15-12-46-377
Integration time: 28
Scans to Average: 2 
>>>>>Begin Spectral Data<<<<<
432.689 .0000100
433.621 .0000100
434.552 .0000100
435.482 .0000100
436.410 .0000100
437.337 .0000100
438.262 .0261014
439.187 .0552727
440.110 .0916082
441.031 .1326872
441.952 .1727010
442.871 .2043786
443.789 .2220351
444.705 .2237524
445.621 .2118479
446.535 .1914393
447.447 .1681633
448.359 .1320833
449.269 .1143645
450.178 .1031360
451.086 .0951053
451.993 .0888899
452.898 .0839220
453.803 .0798107
454.706 .0763169
455.608 .0733127
456.508 .0707054
457.408 .0684093
458.306 .0663462
459.204 .0644848
460.100 .0627908
460.995 .0612694
461.888 .0598783
462.781 .0586021
463.673 .0574328
464.563 .0563717
465.452 .0553867
466.340 .0544755
467.228 .0536289
468.114 .0528364
468.999 .0521029
469.882 .0514271
470.765 .0508057
471.647 .0502360
472.528 .0497244
473.407 .0492674
474.286 .0488519
475.163 .0484819
476.040 .0481487
476.915 .0478519
477.790 .0475913
478.663 .0473664
479.535 .0471705
480.407 .0470045
481.277 .0468721
482.147 .0467625
483.015 .0466722
483.883 .0465974
484.749 .0465330
485.615 .0464755
486.479 .0464239
487.343 .0463797
488.206 .0463406
489.067 .0463165
489.928 .0463049
490.788 .0462972
491.647 .0463051
492.505 .0463355
493.362 .0463808
494.218 .0464476
495.073 .0465478
495.928 .0466762
496.781 .0468368
497.634 .0470325
498.486 .0472624
499.337 .0475217
500.187 .0478158
501.036 .0481458
501.884 .0485130
502.731 .0489213
503.578 .0493734
504.424 .0498590
505.268 .0503921
506.113 .0509629
506.956 .0515697
507.798 .0522200
508.640 .0529274
509.480 .0536857
510.320 .0545114
511.160 .0554167
511.998 .0564222
512.836 .0575186
513.672 .0587299
514.508 .0600589
515.344 .0615076
516.178 .0630735
517.012 .0648113
517.845 .0667326
518.677 .0688964
519.508 .0713173
520.339 .0740576
521.169 .0771819
521.998 .0807187
522.826 .0846781
523.654 .0890780
524.481 .0938847
525.307 .0991665
526.133 .1048121
526.958 .1108117
527.782 .1171203
528.605 .1235714
529.428 .1300700
530.250 .1361499
531.072 .1415903
531.892 .1460682
532.712 .1493080
533.532 .1511198
534.350 .1512687
535.168 .1497254
535.986 .1466114
536.802 .1420981
537.618 .1365033
538.434 .1300660
539.249 .1232420
540.063 .1162838
540.876 .1094636
541.689 .1029633
542.501 .0969591
543.313 .0915090
544.124 .0866497
544.934 .0822621
545.744 .0782880
546.553 .0747014
547.361 .0714848
548.169 .0686558
548.976 .0661194
549.783 .0638775
550.589 .0619212
551.395 .0601829
552.200 .0586665
553.004 .0573102
553.808 .0560828
554.611 .0549653
555.414 .0539503
556.216 .0529957
557.018 .0521031
557.819 .0512766
558.619 .0504965
559.419 .0497583
560.218 .0490712
561.017 .0484173
561.815 .0477893
562.613 .0471830
563.410 .0465885
564.207 .0459814
565.003 .0453793
565.799 .0447710
566.594 .0441548
567.388 .0435459
568.182 .0429468
568.976 .0423511
569.769 .0417799
570.562 .0412362
571.354 .0407103
572.145 .0402112
572.936 .0397393
573.727 .0392848
574.517 .0388475
575.307 .0384295
576.096 .0380267
576.885 .0376403
577.673 .0372787
578.461 .0369352
579.248 .0366074
580.035 .0363008
580.821 .0360109
581.607 .0357361
582.392 .0354802
583.177 .0352406
583.962 .0350155
584.746 .0348099
585.529 .0346185
586.313 .0344376
587.095 .0342663
587.878 .0341073
588.660 .0339569
589.441 .0338158
590.222 .0336862
591.003 .0335677
591.783 .0334610
592.563 .0333659
593.342 .0332783
594.121 .0331966
594.899 .0331209
595.678 .0330468
596.455 .0329748
597.233 .0329049
598.009 .0328387
598.786 .0327766
599.562 .0327205
600.338 .0326707
601.113 .0326260
601.888 .0325863
602.663 .0325491
603.437 .0325122
604.211 .0324747
604.984 .0324346
605.757 .0323927
606.530 .0323497
607.302 .0323075
608.074 .0322659
608.845 .0322272
609.616 .0321915
610.387 .0321598
611.158 .0321304
611.928 .0321033
612.697 .0320778
613.467 .0320536
614.236 .0320306
615.004 .0320090
615.773 .0319894
616.541 .0319724
617.308 .0319582
618.076 .0319479
618.843 .0319412
619.609 .0319392
620.375 .0319401
621.141 .0319434
621.907 .0319471
622.672 .0319503
623.437 .0319507
624.202 .0319485
624.966 .0319432
625.730 .0319343
626.493 .0319224
627.257 .0319079
628.020 .0318906
628.782 .0318717
629.545 .0318506
630.307 .0318272
631.068 .0318004
631.830 .0317701
632.591 .0317349
633.352 .0316969
634.112 .0316557
634.872 .0316134
635.632 .0315710
636.392 .0315297
637.151 .0314893
637.910 .0314504
638.668 .0314128
639.427 .0313757
640.185 .0313380
640.943 .0313001
641.700 .0312609
642.457 .0312218
643.214 .0311826
643.971 .0311447
644.727 .0311096
645.483 .0310773
646.239 .0310471
646.994 .0310197
647.750 .0309936
648.505 .0309684
649.259 .0309440
650.014 .0309198
650.768 .0308955
651.521 .0308712
652.275 .0308470
653.028 .0308226
653.781 .0307982
654.534 .0307742
655.286 .0307498
656.039 .0307259
656.791 .0307017
657.542 .0306756
658.294 .0306486
659.045 .0306204
659.796 .0305904
660.546 .0305595
661.297 .0305277
662.047 .0304953
662.796 .0304629
663.546 .0304315
664.295 .0304020
665.044 .0303743
665.793 .0303490
666.542 .0303258
667.290 .0303045
668.038 .0302847
668.786 .0302660
669.533 .0302491
670.281 .0302346
671.028 .0302220
671.774 .0302112
672.521 .0302026
673.267 .0301959
674.013 .0301911
674.759 .0301876
675.505 .0301855
676.250 .0301840
676.995 .0301828
677.740 .0301815
678.484 .0301801
679.229 .0301785
679.973 .0301759
680.717 .0301726
681.460 .0301685
682.204 .0301636
682.947 .0301583
683.690 .0301532
684.433 .0301488
685.175 .0301446
685.917 .0301405
686.659 .0301360
687.401 .0301303
688.142 .0301233
688.884 .0301145
689.625 .0301043
690.365 .0300923
691.106 .0300792
691.846 .0300650
692.586 .0300509
693.326 .0300370
694.066 .0300228
694.805 .0300084
695.545 .0299933
696.284 .0299770
697.022 .0299587
697.761 .0299395
698.499 .0299192
699.237 .0298979
699.975 .0298764
700.713 .0298549
701.450 .0298338
702.187 .0298130
702.924 .0297927
703.661 .0297723
704.397 .0297519
705.133 .0297311
705.869 .0297093
706.605 .0296868
707.341 .0296632
708.076 .0296384
708.811 .0296123
709.546 .0295851
710.281 .0295568
711.015 .0295273
711.749 .0294976
712.483 .0294677
713.217 .0294375
713.950 .0294074
714.684 .0293774
715.417 .0293475
716.150 .0293175
716.882 .0292875
717.615 .0292573
718.347 .0292271
719.079 .0291969
719.811 .0291664
720.542 .0291361
721.273 .0291062
722.005 .0290767
722.735 .0290477
723.466 .0290191
724.196 .0289906
724.927 .0289621
725.656 .0289333
726.386 .0289043
727.116 .0288752
727.845 .0288463
728.574 .0288180
729.303 .0287910
730.031 .0287658
730.760 .0287427
731.488 .0287218
732.216 .0287032
732.944 .0286865
733.671 .0286715
734.398 .0286582
735.125 .0286461
735.852 .0286354
736.579 .0286259
737.305 .0286182
738.031 .0286118
738.757 .0286062
739.483 .0286011
740.208 .0285966
740.933 .0285922
741.658 .0285876
742.383 .0285822
743.108 .0285767
743.832 .0285711
744.556 .0285659
745.280 .0285612
746.004 .0285573
746.727 .0285547
747.450 .0285532
748.173 .0285525
748.896 .0285529
749.618 .0285539
750.340 .0285556
751.062 .0285579
751.784 .0285610
752.506 .0285642
753.227 .0285676
753.948 .0285714
754.669 .0285751
755.389 .0285786
756.110 .0285816
756.830 .0285837
757.550 .0285855
758.269 .0285868
758.989 .0285872
759.708 .0285869
760.427 .0285861
761.146 .0285850
761.864 .0285832
762.582 .0285809
763.300 .0285779
764.018 .0285740
764.736 .0285692
765.453 .0285636
766.170 .0285571
766.887 .0285503
767.603 .0285430
768.320 .0285357
769.036 .0285284
769.751 .0285213
770.467 .0285141
771.182 .0285070
771.897 .0284996
772.612 .0284916
773.327 .0284825
774.041 .0284729
774.755 .0284626
775.469 .0284522
776.183 .0284420
776.896 .0284324
777.609 .0284233
778.322 .0284146
779.035 .0284056
779.747 .0283962
780.459 .0283859
781.171 .0283746
781.882 .0283613
782.594 .0283469
783.305 .0283317
784.016 .0283160
784.726 .0283002
785.436 .0282846
786.147 .0282689
786.856 .0282531
787.566 .0282367
788.275 .0282192
788.984 .0282004
789.693 .0281806
790.401 .0281596
791.110 .0281380
791.818 .0281159
792.525 .0280935
793.233 .0280711
793.940 .0280484
794.647 .0280249
795.353 .0280004
796.060 .0279748
796.766 .0279478
797.472 .0279197
798.177 .0278905
798.883 .0278605
799.588 .0278302
800.292 .0277999
800.997 .0277696
801.701 .0277391
802.405 .0277090
803.109 .0276790
803.812 .0276492
804.515 .0276191
805.218 .0275890
805.921 .0275588
806.623 .0275281
807.325 .0274970
808.027 .0274655
808.728 .0274337
809.429 .0274016
810.130 .0273695
810.831 .0273381
811.531 .0273073
812.231 .0272778
812.931 .0272494
813.630 .0272224
814.330 .0271961
815.029 .0271708
815.727 .0271459
816.426 .0271215
817.124 .0270976
817.821 .0270740
818.519 .0270511
819.216 .0270297
819.913 .0270097
820.609 .0269913
821.306 .0269747
822.002 .0269600
822.697 .0269464
823.393 .0269342
824.088 .0269228
824.783 .0269124
825.477 .0269027
826.171 .0268939
826.865 .0268863
827.559 .0268805
828.252 .0268769
828.945 .0268753
829.638 .0268763
830.330 .0268798
831.023 .0268852
831.714 .0268920
832.406 .0268997
833.097 .0269078
833.788 .0269158
834.479 .0269234
835.169 .0269307
835.859 .0269379
836.548 .0269451
837.238 .0269522
837.927 .0269598
838.615 .0269677
839.304 .0269763
839.992 .0269853
840.680 .0269949
841.367 .0270049
842.054 .0270150
842.741 .0270251
843.428 .0270355
844.114 .0270460
844.800 .0270568
845.485 .0270669
846.170 .0270766
846.855 .0270857
847.540 .0270941
848.224 .0271020
848.908 .0271095
849.592 .0271165
850.275 .0271231
850.958 .0271289
851.641 .0271340
852.323 .0271382
853.005 .0271418
853.687 .0271444
854.368 .0271458
855.049 .0271461
855.730 .0271457
856.410 .0271447
857.090 .0271441
857.769 .0271436
858.449 .0271436
859.128 .0271438
859.806 .0271438
860.485 .0271440
861.163 .0271437
861.840 .0271427
862.518 .0271406
863.195 .0271370
863.871 .0271322
864.548 .0271258
865.224 .0271188
865.899 .0271110
866.574 .0271036
867.249 .0270964
867.924 .0270894
868.598 .0270830
869.272 .0270773
869.946 .0270720
870.619 .0270669
871.292 .0270622
871.964 .0270572
872.636 .0270518
873.308 .0270465
873.979 .0270407
874.651 .0270347
875.321 .0270281
875.992 .0270212
876.662 .0270139
877.331 .0270066
878.001 .0269986
878.670 .0269901
879.338 .0269812
880.007 .0269716
880.675 .0269606
881.342 .0269488
882.009 .0269360
882.676 .0269220
883.343 .0269069
884.009 .0268911
884.675 .0268743
885.340 .0268570
886.005 .0268394
886.670 .0268217
887.334 .0268037
887.998 .0267855
888.662 .0267672
889.325 .0267491
889.988 .0267313
890.650 .0267137
891.312 .0266963
891.974 .0266797
892.636 .0266637
893.297 .0266480
893.957 .0266329
894.618 .0266181
895.278 .0266030
895.937 .0265870
896.596 .0265704
897.255 .0265526
897.914 .0265334
898.572 .0265134
899.230 .0264923
899.887 .0264702
900.544 .0264471
901.201 .0264226
901.857 .0263971
902.513 .0263701
903.168 .0263413
903.823 .0263106
904.478 .0262782
905.132 .0262443
905.786 .0262091
906.440 .0261734
907.093 .0261373
907.746 .0261007
908.399 .0260642
909.051 .0260274
909.703 .0259904
910.354 .0259534
911.005 .0259164
911.656 .0258792
912.306 .0258420
912.956 .0258048
913.605 .0257677
914.254 .0257311
914.903 .0256948
915.551 .0256584
916.199 .0256226
916.847 .0255875
917.494 .0255530
918.141 .0255195
918.788 .0254875
919.434 .0254569
920.079 .0254273
920.725 .0253988
921.370 .0253706
922.014 .0253426
922.658 .0253146
923.302 .0252863
923.946 .0252575
924.589 .0252288
925.231 .0251999
925.873 .0251717
926.515 .0251442
927.157 .0251177
927.798 .0250919
928.439 .0250669
929.079 .0250424
929.719 .0250181
930.359 .0249941
930.998 .0249714
931.637 .0249497
932.275 .0249297
932.913 .0249114
933.551 .0248950
934.188 .0248808
934.825 .0248689
935.462 .0248589
936.098 .0248508
936.733 .0248443
937.369 .0248396
938.004 .0248360
938.638 .0248341
939.273 .0248338
939.907 .0248347
940.540 .0248370
941.173 .0248402
941.806 .0248441
942.438 .0248485
943.070 .0248529
943.702 .0248575
944.333 .0248617
944.964 .0248653
945.594 .0248683
946.224 .0248707
946.854 .0248728
947.483 .0248750
948.112 .0248770
948.741 .0248786
949.369 .0248799
949.996 .0248813
950.624 .0248827
951.251 .0248843
951.878 .0248867
952.504 .0248896
953.130 .0248935
953.755 .0248982
954.380 .0249031
955.005 .0249086
955.629 .0249147
956.253 .0249210
956.877 .0249272
957.500 .0249336
958.123 .0249400
958.746 .0249468
959.368 .0249547
959.990 .0249632
960.611 .0249722
961.232 .0249820
961.853 .0249923
962.473 .0250031
963.093 .0250141
963.712 .0250253
964.331 .0250362
964.950 .0250477
965.569 .0250596
966.187 .0250724
966.804 .0250871
967.422 .0251040
968.039 .0251229
968.655 .0251430
969.272 .0251639
969.887 .0251848
970.503 .0252054
971.118 .0252254
971.733 .0252444
972.347 .0252629
972.961 .0252813
973.575 .0252995
974.188 .0253177
974.801 .0253363
975.414 .0253540
976.026 .0253702
976.638 .0253843
977.250 .0253959
977.861 .0254053
978.472 .0254127
979.083 .0254190
979.693 .0254243
980.303 .0254291
980.912 .0254331
981.521 .0254362
982.130 .0254385
982.738 .0254393
983.346 .0254381
983.954 .0254350
984.562 .0254298
985.169 .0254230
985.775 .0254152
986.382 .0254070
986.988 .0253992
987.594 .0253921
988.199 .0253854
988.804 .0253793
989.409 .0253740
990.013 .0253696
990.617 .0253661
991.221 .0253641
991.824 .0253635
992.427 .0253649
993.030 .0253691
993.632 .0253756
994.234 .0253845
994.836 .0253963
995.438 .0254103
996.039 .0254260
996.640 .0254420
997.240 .0254581
997.840 .0254735
998.440 .0254877
999.040 .0255004
999.639 .0255107
1000.238 .0255185
1000.836 .0255239
1001.435 .0255262
1002.033 .0255262
1002.630 .0255236
1003.228 .0255188
1003.825 .0255118
1004.422 .0255038
1005.018 .0254936
1005.614 .0254822
1006.210 .0254700
1006.806 .0254574
1007.401 .0254446
1007.996 .0254316
1008.591 .0254182
1009.186 .0254052
1009.780 .0253927
1010.374 .0253811
1010.967 .0253698
1011.561 .0253604
1012.154 .0253513
1012.746 .0253426
1013.339 .0253340
1013.931 .0253249
1014.523 .0253153
1015.115 .0253056
1015.706 .0252954
1016.298 .0252852
1016.888 .0252750
1017.479 .0252654
1018.069 .0252563
1018.660 .0252493
1019.250 .0252443
1019.839 .0252412
1020.429 .0252397
1021.018 .0252400
1021.607 .0252406
1022.195 .0252411
1022.784 .0252412
1023.372 .0252395
1023.960 .0252369
1024.547 .0252327
1025.135 .0252278
1025.722 .0252222
1026.309 .0252171
1026.896 .0252129
1027.483 .0252084
1028.069 .0252041
1028.655 .0251992
1029.241 .0251926
1029.827 .0251848
1030.412 .0251751
1030.997 .0251638
1031.582 .0251509
1032.167 .0251381
1032.752 .0251245
1033.336 .0251114
1033.921 .0250991
1034.505 .0250874
1035.089 .0250756
1035.672 .0250636
1036.256 .0250507
1036.839 .0250355
1037.422 .0250185
1038.005 .0249997
1038.588 .0249788
1039.171 .0249567
1039.753 .0249332
1040.335 .0249089
1040.918 .0248847
1041.500 .0248608
1042.081 .0248369
1042.663 .0248128
1043.244 .0247898
1043.826 .0247670
1044.407 .0247434
1044.988 .0247194
1045.569 .0246955
1046.150 .0246709
1046.730 .0246469
1047.311 .0246236
1047.891 .0246010
1048.471 .0245794
1049.052 .0245587
1049.632 .0245377
1050.211 .0245167
1050.791 .0244955
1051.371 .0244745
1051.950 .0244538
1052.530 .0244346
1053.109 .0244169
1053.688 .0244005
1054.268 .0243864
1054.847 .0243740
1055.426 .0243624
1056.005 .0243512
1056.583 .0243398
1057.162 .0243279
1057.741 .0243150
1058.319 .0243024
1058.898 .0242902
1059.476 .0242783
1060.055 .0242688
1060.633 .0242594
1061.211 .0242493
1061.790 .0242387
1062.368 .0242271
1062.946 .0242142
1063.524 .0241997
1064.102 .0241844
1064.680 .0241689
1065.258 .0241533
1065.836 .0241392
1066.414 .0241254
1066.992 .0241130
1067.570 .0241016
1068.148 .0240887
1068.726 .0240738
1069.304 .0240595
1069.882 .0240445
1070.460 .0240300
1071.038 .0240169
1071.616 .0240056
1072.194 .0239961
1072.772 .0239882
1073.350 .0239813
1073.928 .0239755
1074.506 .0239698
1075.084 .0239646
1075.662 .0239573
1076.240 .0239511
1076.819 .0239459
1077.397 .0239425
1077.976 .0239412
1078.554 .0239417
1079.133 .0239429
1079.711 .0239442
1080.290 .0239451
1080.869 .0239452
1081.448 .0239435
1082.027 .0239406
1082.606 .0239364
1083.185 .0239336
1083.764 .0239318
1084.343 .0239344
1084.923 .0239411
1085.502 .0239530
1086.082 .0239689
1086.662 .0239880
1087.242 .0240093
1087.822 .0240331
1088.402 .0240592
1088.983 .0240872
1089.563 .0241151
1090.144 .0241438
1090.725 .0241727
1091.306 .0242024
1091.887 .0242325
1092.469 .0242617
1093.050 .0242888
1093.632 .0243168
1094.214 .0243425
1094.796 .0243681
1095.379 .0243940
1095.961 .0244212
1096.544 .0244488
1097.127 .0244758
1097.710 .0245009
1098.294 .0245231
1098.877 .0245429
1099.461 .0245615
1100.046 .0245788
1100.630 .0245974
1101.215 .0246185
1101.800 .0246440
1102.385 .0246746
1102.970 .0247106
1103.556 .0247470
1104.142 .0247838
1104.728 .0248189
1105.315 .0248499
1105.902 .0248754
1106.489 .0248981
1107.077 .0249209
1107.664 .0249457
1108.253 .0249743
1108.841 .0250069
1109.430 .0250438
1110.019 .0250840
1110.609 .0251248
1111.198 .0251649
1111.789 .0252047
1112.379 .0252440
1112.970 .0252843
1113.561 .0253284
1114.153 .0253768
1114.745 .0254298
1115.338 .0254883
1115.931 .0255505
1116.524 .0256141
1117.117 .0256780
1117.712 .0257403
1118.306 .0258027
1118.901 .0258650
1119.496 .0259263
1120.092 .0259896
1120.689 .0260580
1121.285 .0261287
1121.882 .0261991
1122.480 .0262701
1123.078 .0263399
1123.677 .0264078
1124.276 .0264750
1124.875 .0265389
1125.476 .0266040
1126.076 .0266738
1126.677 .0267484
1127.279 .0268247
1127.881 .0269075
1128.484 .0269934
1129.087 .0270805
1129.691 .0271698
1130.295 .0272574
1130.900 .0273419
1131.505 .0274281
1132.111 .0275159
1132.718 .0276036
1133.325 .0276961
1133.933 .0277931
1134.541 .0278964
1135.150 .0280083
1135.760 .0281233
1136.370 .0282425
1136.981 .0283658
1137.592 .0284925
1138.204 .0286176
1138.817 .0287415
1139.431 .0288737
1140.045 .0290129
1140.660 .0291601
1141.275 .0293067
1141.891 .0294808
1142.508 .0297127
1143.126 .0299229
1143.744 .0299812
1144.363 .0299354
1144.983 .0307964
