Measurement Sequence started on: 15-12-46-377
Integration time: 28
Scans to Average: 2 
>>>>>Begin Spectral Data<<<<<
432.689 .0000100
433.621 .0000100
434.552 .0000100
435.482 .0000100
436.410 .0000100
437.337 .0000100
438.262 .0293441
439.187 .0620255
440.110 .1026814
441.031 .1485187
441.952 .1929829
442.871 .2278839
443.789 .2469009
444.705 .2478713
445.621 .2335026
446.535 .2096708
447.447 .1827810
448.359 .1416810
449.269 .1214749
450.178 .1087251
451.086 .0997515
451.993 .0929256
452.898 .0875607
453.803 .0831516
454.706 .0794798
455.608 .0763437
456.508 .0736260
457.408 .0712553
458.306 .0691779
459.204 .0673289
460.100 .0656551
460.995 .0641413
461.888 .0627506
462.781 .0614683
463.673 .0602789
464.563 .0591819
465.452 .0581494
466.340 .0571764
467.228 .0562651
468.114 .0554034
468.999 .0546140
469.882 .0538763
470.765 .0531993
471.647 .0525846
472.528 .0520288
473.407 .0515362
474.286 .0510984
475.163 .0507270
476.040 .0504100
476.915 .0501360
477.790 .0498976
478.663 .0496817
479.535 .0494808
480.407 .0492932
481.277 .0491118
482.147 .0489398
483.015 .0487808
483.883 .0486386
484.749 .0485216
485.615 .0484313
486.479 .0483684
487.343 .0483321
488.206 .0483118
489.067 .0483057
489.928 .0482978
490.788 .0482912
491.647 .0482927
492.505 .0483040
493.362 .0483392
494.218 .0484072
495.073 .0485210
495.928 .0486855
496.781 .0488965
497.634 .0491587
498.486 .0494544
499.337 .0497746
500.187 .0501134
501.036 .0504591
501.884 .0508182
502.731 .0511898
503.578 .0515833
504.424 .0520114
505.268 .0524724
506.113 .0529682
506.956 .0535010
507.798 .0540778
508.640 .0546949
509.480 .0553506
510.320 .0560675
511.160 .0568466
511.998 .0577118
512.836 .0586752
513.672 .0597664
514.508 .0609941
515.344 .0623796
516.178 .0639405
517.012 .0657181
517.845 .0677444
518.677 .0700433
519.508 .0726578
520.339 .0756326
521.169 .0790485
521.998 .0829219
522.826 .0873080
523.654 .0922622
524.481 .0977725
525.307 .1039002
526.133 .1105577
526.958 .1177193
527.782 .1252794
528.605 .1330910
529.428 .1410242
530.250 .1485777
531.072 .1554995
531.892 .1613595
532.712 .1658585
533.532 .1687628
534.350 .1698353
535.168 .1689646
535.986 .1661915
536.802 .1617159
537.618 .1558182
538.434 .1487889
539.249 .1411375
540.063 .1331497
540.876 .1251795
541.689 .1174628
542.501 .1101941
543.313 .1035005
544.124 .0974768
544.934 .0920304
545.744 .0870823
546.553 .0825889
547.361 .0785610
548.169 .0749805
548.976 .0718018
549.783 .0690088
550.589 .0665467
551.395 .0643632
552.200 .0624232
553.004 .0606844
553.808 .0591025
554.611 .0576733
555.414 .0563700
556.216 .0551835
557.018 .0541287
557.819 .0531858
558.619 .0523308
559.419 .0515618
560.218 .0508602
561.017 .0501985
561.815 .0495599
562.613 .0489325
563.410 .0482955
564.207 .0476611
565.003 .0470256
565.799 .0463884
566.594 .0457513
567.388 .0451271
568.182 .0445151
568.976 .0439206
569.769 .0433434
570.562 .0427832
571.354 .0422407
572.145 .0417207
572.936 .0412203
573.727 .0407372
574.517 .0402707
575.307 .0398268
576.096 .0394007
576.885 .0389957
577.673 .0386125
578.461 .0382548
579.248 .0379205
580.035 .0376128
580.821 .0373254
581.607 .0370573
582.392 .0368092
583.177 .0365790
583.962 .0363602
584.746 .0361585
585.529 .0359680
586.313 .0357911
587.095 .0356283
587.878 .0354801
588.660 .0353439
589.441 .0352215
590.222 .0351102
591.003 .0350093
591.783 .0349157
592.563 .0348279
593.342 .0347422
594.121 .0346597
594.899 .0345796
595.678 .0345020
596.455 .0344300
597.233 .0343652
598.009 .0343054
598.786 .0342524
599.562 .0342048
600.338 .0341621
601.113 .0341215
601.888 .0340822
602.663 .0340417
603.437 .0340003
604.211 .0339579
604.984 .0339133
605.757 .0338689
606.530 .0338246
607.302 .0337813
608.074 .0337393
608.845 .0336985
609.616 .0336588
610.387 .0336203
611.158 .0335837
611.928 .0335472
612.697 .0335104
613.467 .0334730
614.236 .0334358
615.004 .0333988
615.773 .0333628
616.541 .0333282
617.308 .0332954
618.076 .0332659
618.843 .0332383
619.609 .0332136
620.375 .0331907
621.141 .0331695
621.907 .0331495
622.672 .0331288
623.437 .0331066
624.202 .0330820
624.966 .0330557
625.730 .0330281
626.493 .0329988
627.257 .0329687
628.020 .0329379
628.782 .0329072
629.545 .0328758
630.307 .0328442
631.068 .0328126
631.830 .0327813
632.591 .0327492
633.352 .0327171
634.112 .0326841
634.872 .0326506
635.632 .0326168
636.392 .0325828
637.151 .0325491
637.910 .0325161
638.668 .0324844
639.427 .0324543
640.185 .0324260
640.943 .0323999
641.700 .0323753
642.457 .0323525
643.214 .0323298
643.971 .0323066
644.727 .0322825
645.483 .0322577
646.239 .0322320
646.994 .0322056
647.750 .0321795
648.505 .0321543
649.259 .0321303
650.014 .0321072
650.768 .0320847
651.521 .0320631
652.275 .0320420
653.028 .0320210
653.781 .0319997
654.534 .0319782
655.286 .0319559
656.039 .0319330
656.791 .0319090
657.542 .0318836
658.294 .0318573
659.045 .0318302
659.796 .0318026
660.546 .0317740
661.297 .0317448
662.047 .0317158
662.796 .0316867
663.546 .0316579
664.295 .0316282
665.044 .0315979
665.793 .0315671
666.542 .0315359
667.290 .0315044
668.038 .0314732
668.786 .0314431
669.533 .0314146
670.281 .0313880
671.028 .0313636
671.774 .0313406
672.521 .0313194
673.267 .0312988
674.013 .0312784
674.759 .0312571
675.505 .0312351
676.250 .0312116
676.995 .0311879
677.740 .0311641
678.484 .0311408
679.229 .0311188
679.973 .0310982
680.717 .0310792
681.460 .0310612
682.204 .0310436
682.947 .0310262
683.690 .0310088
684.433 .0309912
685.175 .0309723
685.917 .0309536
686.659 .0309351
687.401 .0309174
688.142 .0309010
688.884 .0308857
689.625 .0308711
690.365 .0308571
691.106 .0308426
691.846 .0308269
692.586 .0308099
693.326 .0307917
694.066 .0307722
694.805 .0307523
695.545 .0307321
696.284 .0307115
697.022 .0306910
697.761 .0306709
698.499 .0306502
699.237 .0306294
699.975 .0306085
700.713 .0305872
701.450 .0305661
702.187 .0305452
702.924 .0305247
703.661 .0305048
704.397 .0304857
705.133 .0304668
705.869 .0304477
706.605 .0304286
707.341 .0304093
708.076 .0303899
708.811 .0303707
709.546 .0303515
710.281 .0303324
711.015 .0303141
711.749 .0302960
712.483 .0302779
713.217 .0302598
713.950 .0302420
714.684 .0302238
715.417 .0302050
716.150 .0301860
716.882 .0301672
717.615 .0301488
718.347 .0301306
719.079 .0301126
719.811 .0300951
720.542 .0300774
721.273 .0300595
722.005 .0300411
722.735 .0300225
723.466 .0300035
724.196 .0299837
724.927 .0299629
725.656 .0299415
726.386 .0299193
727.116 .0298957
727.845 .0298715
728.574 .0298468
729.303 .0298218
730.031 .0297972
730.760 .0297736
731.488 .0297513
732.216 .0297309
732.944 .0297123
733.671 .0296956
734.398 .0296809
735.125 .0296680
735.852 .0296560
736.579 .0296452
737.305 .0296353
738.031 .0296262
738.757 .0296170
739.483 .0296081
740.208 .0295992
740.933 .0295900
741.658 .0295802
742.383 .0295693
743.108 .0295575
743.832 .0295450
744.556 .0295310
745.280 .0295161
746.004 .0295001
746.727 .0294836
747.450 .0294665
748.173 .0294492
748.896 .0294323
749.618 .0294162
750.340 .0294009
751.062 .0293872
751.784 .0293750
752.506 .0293643
753.227 .0293549
753.948 .0293464
754.669 .0293385
755.389 .0293307
756.110 .0293226
756.830 .0293143
757.550 .0293056
758.269 .0292965
758.989 .0292864
759.708 .0292754
760.427 .0292638
761.146 .0292509
761.864 .0292369
762.582 .0292220
763.300 .0292066
764.018 .0291910
764.736 .0291758
765.453 .0291615
766.170 .0291482
766.887 .0291359
767.603 .0291245
768.320 .0291134
769.036 .0291029
769.751 .0290924
770.467 .0290816
771.182 .0290708
771.897 .0290600
772.612 .0290491
773.327 .0290388
774.041 .0290289
774.755 .0290196
775.469 .0290104
776.183 .0290014
776.896 .0289917
777.609 .0289814
778.322 .0289699
779.035 .0289577
779.747 .0289449
780.459 .0289322
781.171 .0289193
781.882 .0289072
782.594 .0288964
783.305 .0288869
784.016 .0288787
784.726 .0288717
785.436 .0288656
786.147 .0288601
786.856 .0288547
787.566 .0288496
788.275 .0288442
788.984 .0288391
789.693 .0288342
790.401 .0288297
791.110 .0288255
791.818 .0288219
792.525 .0288183
793.233 .0288147
793.940 .0288105
794.647 .0288054
795.353 .0287992
796.060 .0287922
796.766 .0287844
797.472 .0287759
798.177 .0287668
798.883 .0287575
799.588 .0287476
800.292 .0287378
800.997 .0287272
801.701 .0287155
802.405 .0287032
803.109 .0286903
803.812 .0286770
804.515 .0286630
805.218 .0286487
805.921 .0286344
806.623 .0286195
807.325 .0286037
808.027 .0285874
808.728 .0285699
809.429 .0285514
810.130 .0285319
810.831 .0285117
811.531 .0284907
812.231 .0284692
812.931 .0284478
813.630 .0284263
814.330 .0284047
815.029 .0283830
815.727 .0283610
816.426 .0283399
817.124 .0283192
817.821 .0282988
818.519 .0282799
819.216 .0282628
819.913 .0282472
820.609 .0282334
821.306 .0282212
822.002 .0282108
822.697 .0282017
823.393 .0281940
824.088 .0281871
824.783 .0281808
825.477 .0281745
826.171 .0281684
826.865 .0281620
827.559 .0281553
828.252 .0281476
828.945 .0281393
829.638 .0281303
830.330 .0281204
831.023 .0281096
831.714 .0280978
832.406 .0280856
833.097 .0280726
833.788 .0280585
834.479 .0280439
835.169 .0280295
835.859 .0280151
836.548 .0280013
837.238 .0279884
837.927 .0279763
838.615 .0279648
839.304 .0279542
839.992 .0279440
840.680 .0279345
841.367 .0279255
842.054 .0279171
842.741 .0279091
843.428 .0279022
844.114 .0278956
844.800 .0278893
845.485 .0278829
846.170 .0278760
846.855 .0278681
847.540 .0278592
848.224 .0278491
848.908 .0278385
849.592 .0278269
850.275 .0278149
850.958 .0278021
851.641 .0277894
852.323 .0277762
853.005 .0277624
853.687 .0277480
854.368 .0277332
855.049 .0277180
855.730 .0277027
856.410 .0276874
857.090 .0276728
857.769 .0276583
858.449 .0276442
859.128 .0276303
859.806 .0276173
860.485 .0276050
861.163 .0275939
861.840 .0275837
862.518 .0275745
863.195 .0275661
863.871 .0275579
864.548 .0275500
865.224 .0275424
865.899 .0275344
866.574 .0275260
867.249 .0275172
867.924 .0275089
868.598 .0275008
869.272 .0274936
869.946 .0274875
870.619 .0274819
871.292 .0274767
871.964 .0274711
872.636 .0274645
873.308 .0274575
873.979 .0274502
874.651 .0274426
875.321 .0274353
875.992 .0274290
876.662 .0274237
877.331 .0274197
878.001 .0274169
878.670 .0274153
879.338 .0274138
880.007 .0274126
880.675 .0274108
881.342 .0274088
882.009 .0274069
882.676 .0274048
883.343 .0274028
884.009 .0274011
884.675 .0273990
885.340 .0273969
886.005 .0273939
886.670 .0273908
887.334 .0273874
887.998 .0273834
888.662 .0273790
889.325 .0273745
889.988 .0273701
890.650 .0273659
891.312 .0273622
891.974 .0273592
892.636 .0273568
893.297 .0273555
893.957 .0273553
894.618 .0273561
895.278 .0273584
895.937 .0273618
896.596 .0273659
897.255 .0273704
897.914 .0273748
898.572 .0273784
899.230 .0273816
899.887 .0273838
900.544 .0273852
901.201 .0273852
901.857 .0273842
902.513 .0273819
903.168 .0273781
903.823 .0273725
904.478 .0273650
905.132 .0273549
905.786 .0273424
906.440 .0273274
907.093 .0273105
907.746 .0272921
908.399 .0272732
909.051 .0272535
909.703 .0272338
910.354 .0272143
911.005 .0271954
911.656 .0271767
912.306 .0271586
912.956 .0271406
913.605 .0271223
914.254 .0271042
914.903 .0270862
915.551 .0270682
916.199 .0270509
916.847 .0270343
917.494 .0270181
918.141 .0270024
918.788 .0269876
919.434 .0269734
920.079 .0269596
920.725 .0269460
921.370 .0269323
922.014 .0269180
922.658 .0269032
923.302 .0268874
923.946 .0268704
924.589 .0268523
925.231 .0268323
925.873 .0268104
926.515 .0267870
927.157 .0267625
927.798 .0267370
928.439 .0267106
929.079 .0266842
929.719 .0266572
930.359 .0266299
930.998 .0266020
931.637 .0265737
932.275 .0265451
932.913 .0265163
933.551 .0264875
934.188 .0264593
934.825 .0264325
935.462 .0264078
936.098 .0263854
936.733 .0263656
937.369 .0263476
938.004 .0263313
938.638 .0263160
939.273 .0263014
939.907 .0262862
940.540 .0262711
941.173 .0262563
941.806 .0262419
942.438 .0262283
943.070 .0262155
943.702 .0262034
944.333 .0261922
944.964 .0261810
945.594 .0261692
946.224 .0261566
946.854 .0261438
947.483 .0261304
948.112 .0261169
948.741 .0261033
949.369 .0260902
949.996 .0260777
950.624 .0260656
951.251 .0260533
951.878 .0260405
952.504 .0260273
953.130 .0260132
953.755 .0259981
954.380 .0259819
955.005 .0259647
955.629 .0259471
956.253 .0259285
956.877 .0259093
957.500 .0258898
958.123 .0258701
958.746 .0258508
959.368 .0258316
959.990 .0258126
960.611 .0257938
961.232 .0257754
961.853 .0257573
962.473 .0257395
963.093 .0257221
963.712 .0257049
964.331 .0256882
964.950 .0256723
965.569 .0256572
966.187 .0256431
966.804 .0256309
967.422 .0256205
968.039 .0256118
968.655 .0256042
969.272 .0255974
969.887 .0255913
970.503 .0255851
971.118 .0255791
971.733 .0255729
972.347 .0255669
972.961 .0255612
973.575 .0255557
974.188 .0255503
974.801 .0255447
975.414 .0255388
976.026 .0255321
976.638 .0255243
977.250 .0255156
977.861 .0255056
978.472 .0254950
979.083 .0254844
979.693 .0254734
980.303 .0254623
980.912 .0254516
981.521 .0254404
982.130 .0254294
982.738 .0254184
983.346 .0254071
983.954 .0253956
984.562 .0253843
985.169 .0253729
985.775 .0253612
986.382 .0253498
986.988 .0253391
987.594 .0253287
988.199 .0253193
988.804 .0253099
989.409 .0253007
990.013 .0252919
990.617 .0252830
991.221 .0252740
991.824 .0252659
992.427 .0252590
993.030 .0252535
993.632 .0252497
994.234 .0252483
994.836 .0252487
995.438 .0252509
996.039 .0252542
996.640 .0252580
997.240 .0252622
997.840 .0252672
998.440 .0252725
999.040 .0252783
999.639 .0252852
1000.238 .0252930
1000.836 .0253018
1001.435 .0253114
1002.033 .0253214
1002.630 .0253310
1003.228 .0253401
1003.825 .0253486
1004.422 .0253561
1005.018 .0253634
1005.614 .0253709
1006.210 .0253791
1006.806 .0253885
1007.401 .0253987
1007.996 .0254097
1008.591 .0254209
1009.186 .0254324
1009.780 .0254428
1010.374 .0254517
1010.967 .0254588
1011.561 .0254643
1012.154 .0254686
1012.746 .0254720
1013.339 .0254751
1013.931 .0254786
1014.523 .0254830
1015.115 .0254883
1015.706 .0254942
1016.298 .0255005
1016.888 .0255072
1017.479 .0255141
1018.069 .0255203
1018.660 .0255256
1019.250 .0255309
1019.839 .0255374
1020.429 .0255453
1021.018 .0255551
1021.607 .0255674
1022.195 .0255823
1022.784 .0255993
1023.372 .0256180
1023.960 .0256378
1024.547 .0256579
1025.135 .0256785
1025.722 .0256985
1026.309 .0257178
1026.896 .0257371
1027.483 .0257557
1028.069 .0257741
1028.655 .0257924
1029.241 .0258101
1029.827 .0258269
1030.412 .0258430
1030.997 .0258593
1031.582 .0258745
1032.167 .0258887
1032.752 .0259018
1033.336 .0259137
1033.921 .0259242
1034.505 .0259331
1035.089 .0259400
1035.672 .0259457
1036.256 .0259507
1036.839 .0259553
1037.422 .0259600
1038.005 .0259658
1038.588 .0259732
1039.171 .0259816
1039.753 .0259902
1040.335 .0259989
1040.918 .0260061
1041.500 .0260127
1042.081 .0260177
1042.663 .0260218
1043.244 .0260247
1043.826 .0260271
1044.407 .0260292
1044.988 .0260316
1045.569 .0260336
1046.150 .0260358
1046.730 .0260366
1047.311 .0260372
1047.891 .0260370
1048.471 .0260357
1049.052 .0260334
1049.632 .0260314
1050.211 .0260304
1050.791 .0260301
1051.371 .0260310
1051.950 .0260349
1052.530 .0260405
1053.109 .0260494
1053.688 .0260594
1054.268 .0260705
1054.847 .0260820
1055.426 .0260939
1056.005 .0261051
1056.583 .0261153
1057.162 .0261255
1057.741 .0261349
1058.319 .0261441
1058.898 .0261544
1059.476 .0261633
1060.055 .0261715
1060.633 .0261791
1061.211 .0261850
1061.790 .0261875
1062.368 .0261880
1062.946 .0261862
1063.524 .0261827
1064.102 .0261787
1064.680 .0261742
1065.258 .0261695
1065.836 .0261659
1066.414 .0261623
1066.992 .0261575
1067.570 .0261528
1068.148 .0261479
1068.726 .0261413
1069.304 .0261356
1069.882 .0261304
1070.460 .0261261
1071.038 .0261232
1071.616 .0261210
1072.194 .0261187
1072.772 .0261159
1073.350 .0261135
1073.928 .0261096
1074.506 .0261058
1075.084 .0261027
1075.662 .0260997
1076.240 .0260993
1076.819 .0260989
1077.397 .0260982
1077.976 .0260975
1078.554 .0260961
1079.133 .0260931
1079.711 .0260873
1080.290 .0260805
1080.869 .0260727
1081.448 .0260658
1082.027 .0260598
1082.606 .0260547
1083.185 .0260527
1083.764 .0260537
1084.343 .0260566
1084.923 .0260600
1085.502 .0260628
1086.082 .0260656
1086.662 .0260686
1087.242 .0260711
1087.822 .0260734
1088.402 .0260771
1088.983 .0260826
1089.563 .0260897
1090.144 .0260972
1090.725 .0261053
1091.306 .0261124
1091.887 .0261177
1092.469 .0261197
1093.050 .0261185
1093.632 .0261149
1094.214 .0261082
1094.796 .0261012
1095.379 .0260946
1095.961 .0260880
1096.544 .0260842
1097.127 .0260825
1097.710 .0260840
1098.294 .0260879
1098.877 .0260943
1099.461 .0261036
1100.046 .0261161
1100.630 .0261313
1101.215 .0261480
1101.800 .0261664
1102.385 .0261874
1102.970 .0262070
1103.556 .0262242
1104.142 .0262409
1104.728 .0262561
1105.315 .0262712
1105.902 .0262853
1106.489 .0263008
1107.077 .0263169
1107.664 .0263319
1108.253 .0263464
1108.841 .0263568
1109.430 .0263637
1110.019 .0263678
1110.609 .0263662
1111.198 .0263639
1111.789 .0263611
1112.379 .0263612
1112.970 .0263655
1113.561 .0263782
1114.153 .0263978
1114.745 .0264233
1115.338 .0264544
1115.931 .0264902
1116.524 .0265256
1117.117 .0265618
1117.712 .0265987
1118.306 .0266349
1118.901 .0266724
1119.496 .0267088
1120.092 .0267449
1120.689 .0267836
1121.285 .0268194
1121.882 .0268559
1122.480 .0268914
1123.078 .0269278
1123.677 .0269624
1124.276 .0269939
1124.875 .0270281
1125.476 .0270621
1126.076 .0270964
1126.677 .0271295
1127.279 .0271631
1127.881 .0272010
1128.484 .0272415
1129.087 .0272858
1129.691 .0273382
1130.295 .0273950
1130.900 .0274561
1131.505 .0275212
1132.111 .0275867
1132.718 .0276536
1133.325 .0277209
1133.933 .0277870
1134.541 .0278548
1135.150 .0279264
1135.760 .0280027
1136.370 .0280846
1136.981 .0281803
1137.592 .0282834
1138.204 .0283911
1138.817 .0285080
1139.431 .0286308
1140.045 .0287598
1140.660 .0288984
1141.275 .0290674
1141.891 .0292658
1142.508 .0292960
1143.126 .0295121
1143.744 .0297767
1144.363 .0305798
1144.983 .0309195
