Measurement Sequence started on: 15-12-46-377
Integration time: 28
Scans to Average: 2 
>>>>>Begin Spectral Data<<<<<
432.689 .0000100
433.621 .0000100
434.552 .0000100
435.482 .0000100
436.410 .0000100
437.337 .0000100
438.262 .0267400
439.187 .0566757
440.110 .0938662
441.031 .1357829
441.952 .1764851
442.871 .2084954
443.789 .2259511
444.705 .2268798
445.621 .2137534
446.535 .1919122
447.447 .1672020
448.359 .1294975
449.269 .1107390
450.178 .0988681
451.086 .0904763
451.993 .0840441
452.898 .0789681
453.803 .0748453
454.706 .0714251
455.608 .0685035
456.508 .0659907
457.408 .0638140
458.306 .0618889
459.204 .0601754
460.100 .0586362
460.995 .0572510
461.888 .0559849
462.781 .0548360
463.673 .0537981
464.563 .0528507
465.452 .0519893
466.340 .0511903
467.228 .0504464
468.114 .0497619
468.999 .0491296
469.882 .0485529
470.765 .0480203
471.647 .0475384
472.528 .0471045
473.407 .0467207
474.286 .0463853
475.163 .0460879
476.040 .0458375
476.915 .0456289
477.790 .0454420
478.663 .0452719
479.535 .0451217
480.407 .0449895
481.277 .0448745
482.147 .0447735
483.015 .0446890
483.883 .0446243
484.749 .0445721
485.615 .0445365
486.479 .0445111
487.343 .0444974
488.206 .0444893
489.067 .0444794
489.928 .0444768
490.788 .0444733
491.647 .0444752
492.505 .0444899
493.362 .0445232
494.218 .0445761
495.073 .0446441
495.928 .0447406
496.781 .0448608
497.634 .0450088
498.486 .0451831
499.337 .0453882
500.187 .0456217
501.036 .0458871
501.884 .0461786
502.731 .0465015
503.578 .0468586
504.424 .0472457
505.268 .0476542
506.113 .0480928
506.956 .0485678
507.798 .0490784
508.640 .0496336
509.480 .0502505
510.320 .0509253
511.160 .0516870
511.998 .0525311
512.836 .0534706
513.672 .0545065
514.508 .0556583
515.344 .0569226
516.178 .0583282
517.012 .0598998
517.845 .0616663
518.677 .0636621
519.508 .0659137
520.339 .0684273
521.169 .0712468
521.998 .0743821
522.826 .0778408
523.654 .0816340
524.481 .0857816
525.307 .0903084
526.133 .0952254
526.958 .1005393
527.782 .1062050
528.605 .1120943
529.428 .1181278
530.250 .1238378
531.072 .1290425
531.892 .1334160
532.712 .1367409
533.532 .1389058
534.350 .1397754
535.168 .1392687
535.986 .1374778
536.802 .1345285
537.618 .1305951
538.434 .1257765
539.249 .1204377
540.063 .1146600
540.876 .1087170
541.689 .1027805
542.501 .0970466
543.313 .0916899
544.124 .0868416
544.934 .0824342
545.744 .0784472
546.553 .0748554
547.361 .0716335
548.169 .0687536
548.976 .0661508
549.783 .0637902
550.589 .0616466
551.395 .0596727
552.200 .0578716
553.004 .0562195
553.808 .0547183
554.611 .0533573
555.414 .0521264
556.216 .0510031
557.018 .0499883
557.819 .0490796
558.619 .0482579
559.419 .0475172
560.218 .0468448
561.017 .0462234
561.815 .0456308
562.613 .0450565
563.410 .0444917
564.207 .0439349
565.003 .0433975
565.799 .0428696
566.594 .0423575
567.388 .0418690
568.182 .0413948
568.976 .0409314
569.769 .0404779
570.562 .0400238
571.354 .0395573
572.145 .0390861
572.936 .0386134
573.727 .0381411
574.517 .0376727
575.307 .0372185
576.096 .0367819
576.885 .0363669
577.673 .0359779
578.461 .0356111
579.248 .0352713
580.035 .0349549
580.821 .0346584
581.607 .0343770
582.392 .0341137
583.177 .0338710
583.962 .0336447
584.746 .0334374
585.529 .0332460
586.313 .0330710
587.095 .0329130
587.878 .0327692
588.660 .0326402
589.441 .0325247
590.222 .0324189
591.003 .0323225
591.783 .0322331
592.563 .0321498
593.342 .0320721
594.121 .0319982
594.899 .0319278
595.678 .0318603
596.455 .0317960
597.233 .0317361
598.009 .0316791
598.786 .0316254
599.562 .0315747
600.338 .0315259
601.113 .0314803
601.888 .0314368
602.663 .0313957
603.437 .0313571
604.211 .0313196
604.984 .0312838
605.757 .0312492
606.530 .0312147
607.302 .0311809
608.074 .0311479
608.845 .0311170
609.616 .0310870
610.387 .0310590
611.158 .0310346
611.928 .0310134
612.697 .0309953
613.467 .0309804
614.236 .0309676
615.004 .0309565
615.773 .0309461
616.541 .0309363
617.308 .0309275
618.076 .0309197
618.843 .0309123
619.609 .0309058
620.375 .0308990
621.141 .0308922
621.907 .0308831
622.672 .0308721
623.437 .0308586
624.202 .0308428
624.966 .0308255
625.730 .0308068
626.493 .0307875
627.257 .0307677
628.020 .0307470
628.782 .0307261
629.545 .0307033
630.307 .0306785
631.068 .0306519
631.830 .0306241
632.591 .0305948
633.352 .0305663
634.112 .0305389
634.872 .0305133
635.632 .0304901
636.392 .0304683
637.151 .0304466
637.910 .0304243
638.668 .0304013
639.427 .0303762
640.185 .0303493
640.943 .0303213
641.700 .0302914
642.457 .0302616
643.214 .0302322
643.971 .0302028
644.727 .0301735
645.483 .0301454
646.239 .0301176
646.994 .0300893
647.750 .0300607
648.505 .0300318
649.259 .0300032
650.014 .0299748
650.768 .0299460
651.521 .0299177
652.275 .0298904
653.028 .0298642
653.781 .0298392
654.534 .0298151
655.286 .0297918
656.039 .0297682
656.791 .0297447
657.542 .0297205
658.294 .0296960
659.045 .0296714
659.796 .0296475
660.546 .0296249
661.297 .0296035
662.047 .0295827
662.796 .0295628
663.546 .0295435
664.295 .0295234
665.044 .0295024
665.793 .0294804
666.542 .0294572
667.290 .0294336
668.038 .0294097
668.786 .0293864
669.533 .0293639
670.281 .0293424
671.028 .0293219
671.774 .0293017
672.521 .0292819
673.267 .0292621
674.013 .0292425
674.759 .0292238
675.505 .0292059
676.250 .0291891
676.995 .0291740
677.740 .0291609
678.484 .0291495
679.229 .0291399
679.973 .0291317
680.717 .0291245
681.460 .0291181
682.204 .0291122
682.947 .0291068
683.690 .0291018
684.433 .0290978
685.175 .0290947
685.917 .0290925
686.659 .0290909
687.401 .0290896
688.142 .0290884
688.884 .0290871
689.625 .0290848
690.365 .0290811
691.106 .0290757
691.846 .0290682
692.586 .0290597
693.326 .0290502
694.066 .0290402
694.805 .0290300
695.545 .0290203
696.284 .0290108
697.022 .0290015
697.761 .0289919
698.499 .0289815
699.237 .0289705
699.975 .0289584
700.713 .0289445
701.450 .0289298
702.187 .0289142
702.924 .0288981
703.661 .0288818
704.397 .0288659
705.133 .0288502
705.869 .0288354
706.605 .0288211
707.341 .0288067
708.076 .0287924
708.811 .0287775
709.546 .0287613
710.281 .0287442
711.015 .0287258
711.749 .0287060
712.483 .0286857
713.217 .0286652
713.950 .0286444
714.684 .0286238
715.417 .0286038
716.150 .0285840
716.882 .0285645
717.615 .0285445
718.347 .0285235
719.079 .0285017
719.811 .0284790
720.542 .0284552
721.273 .0284305
722.005 .0284055
722.735 .0283803
723.466 .0283556
724.196 .0283308
724.927 .0283058
725.656 .0282804
726.386 .0282545
727.116 .0282279
727.845 .0282003
728.574 .0281722
729.303 .0281443
730.031 .0281173
730.760 .0280918
731.488 .0280680
732.216 .0280466
732.944 .0280272
733.671 .0280098
734.398 .0279932
735.125 .0279774
735.852 .0279624
736.579 .0279479
737.305 .0279341
738.031 .0279215
738.757 .0279100
739.483 .0278997
740.208 .0278906
740.933 .0278825
741.658 .0278743
742.383 .0278659
743.108 .0278565
743.832 .0278460
744.556 .0278341
745.280 .0278213
746.004 .0278076
746.727 .0277937
747.450 .0277791
748.173 .0277638
748.896 .0277479
749.618 .0277319
750.340 .0277156
751.062 .0276995
751.784 .0276843
752.506 .0276696
753.227 .0276556
753.948 .0276428
754.669 .0276310
755.389 .0276204
756.110 .0276102
756.830 .0276003
757.550 .0275906
758.269 .0275810
758.989 .0275713
759.708 .0275620
760.427 .0275533
761.146 .0275449
761.864 .0275367
762.582 .0275285
763.300 .0275204
764.018 .0275124
764.736 .0275046
765.453 .0274969
766.170 .0274894
766.887 .0274817
767.603 .0274736
768.320 .0274658
769.036 .0274586
769.751 .0274514
770.467 .0274446
771.182 .0274381
771.897 .0274320
772.612 .0274266
773.327 .0274223
774.041 .0274189
774.755 .0274165
775.469 .0274150
776.183 .0274140
776.896 .0274132
777.609 .0274130
778.322 .0274130
779.035 .0274130
779.747 .0274130
780.459 .0274131
781.171 .0274129
781.882 .0274130
782.594 .0274133
783.305 .0274142
784.016 .0274159
784.726 .0274182
785.436 .0274206
786.147 .0274230
786.856 .0274254
787.566 .0274270
788.275 .0274272
788.984 .0274265
789.693 .0274243
790.401 .0274208
791.110 .0274163
791.818 .0274112
792.525 .0274060
793.233 .0274005
793.940 .0273950
794.647 .0273890
795.353 .0273831
796.060 .0273769
796.766 .0273700
797.472 .0273622
798.177 .0273540
798.883 .0273450
799.588 .0273347
800.292 .0273239
800.997 .0273124
801.701 .0273000
802.405 .0272873
803.109 .0272743
803.812 .0272610
804.515 .0272472
805.218 .0272327
805.921 .0272170
806.623 .0272002
807.325 .0271820
808.027 .0271624
808.728 .0271417
809.429 .0271203
810.130 .0270979
810.831 .0270751
811.531 .0270529
812.231 .0270310
812.931 .0270096
813.630 .0269886
814.330 .0269677
815.029 .0269467
815.727 .0269255
816.426 .0269040
817.124 .0268825
817.821 .0268613
818.519 .0268406
819.216 .0268203
819.913 .0268006
820.609 .0267815
821.306 .0267631
822.002 .0267455
822.697 .0267279
823.393 .0267105
824.088 .0266933
824.783 .0266758
825.477 .0266587
826.171 .0266420
826.865 .0266260
827.559 .0266107
828.252 .0265964
828.945 .0265827
829.638 .0265699
830.330 .0265584
831.023 .0265471
831.714 .0265363
832.406 .0265258
833.097 .0265148
833.788 .0265033
834.479 .0264916
835.169 .0264797
835.859 .0264678
836.548 .0264566
837.238 .0264453
837.927 .0264344
838.615 .0264237
839.304 .0264132
839.992 .0264023
840.680 .0263914
841.367 .0263799
842.054 .0263677
842.741 .0263554
843.428 .0263433
844.114 .0263312
844.800 .0263197
845.485 .0263081
846.170 .0262967
846.855 .0262844
847.540 .0262714
848.224 .0262573
848.908 .0262431
849.592 .0262286
850.275 .0262140
850.958 .0261992
851.641 .0261849
852.323 .0261706
853.005 .0261562
853.687 .0261413
854.368 .0261259
855.049 .0261098
855.730 .0260936
856.410 .0260772
857.090 .0260617
857.769 .0260474
858.449 .0260347
859.128 .0260231
859.806 .0260126
860.485 .0260028
861.163 .0259932
861.840 .0259835
862.518 .0259736
863.195 .0259630
863.871 .0259525
864.548 .0259427
865.224 .0259336
865.899 .0259255
866.574 .0259188
867.249 .0259131
867.924 .0259083
868.598 .0259039
869.272 .0258997
869.946 .0258961
870.619 .0258929
871.292 .0258899
871.964 .0258873
872.636 .0258860
873.308 .0258859
873.979 .0258873
874.651 .0258895
875.321 .0258924
875.992 .0258956
876.662 .0258991
877.331 .0259020
878.001 .0259046
878.670 .0259066
879.338 .0259080
880.007 .0259093
880.675 .0259108
881.342 .0259124
882.009 .0259145
882.676 .0259170
883.343 .0259196
884.009 .0259219
884.675 .0259237
885.340 .0259249
886.005 .0259262
886.670 .0259278
887.334 .0259297
887.998 .0259325
888.662 .0259373
889.325 .0259440
889.988 .0259526
890.650 .0259633
891.312 .0259753
891.974 .0259885
892.636 .0260021
893.297 .0260158
893.957 .0260297
894.618 .0260434
895.278 .0260568
895.937 .0260697
896.596 .0260828
897.255 .0260953
897.914 .0261070
898.572 .0261178
899.230 .0261271
899.887 .0261341
900.544 .0261387
901.201 .0261405
901.857 .0261399
902.513 .0261375
903.168 .0261326
903.823 .0261259
904.478 .0261182
905.132 .0261089
905.786 .0260983
906.440 .0260869
907.093 .0260744
907.746 .0260604
908.399 .0260460
909.051 .0260311
909.703 .0260158
910.354 .0260010
911.005 .0259866
911.656 .0259722
912.306 .0259580
912.956 .0259438
913.605 .0259288
914.254 .0259136
914.903 .0258982
915.551 .0258821
916.199 .0258665
916.847 .0258514
917.494 .0258365
918.141 .0258221
918.788 .0258079
919.434 .0257936
920.079 .0257782
920.725 .0257622
921.370 .0257448
922.014 .0257262
922.658 .0257068
923.302 .0256866
923.946 .0256656
924.589 .0256445
925.231 .0256228
925.873 .0256008
926.515 .0255783
927.157 .0255549
927.798 .0255302
928.439 .0255048
929.079 .0254784
929.719 .0254512
930.359 .0254235
930.998 .0253959
931.637 .0253682
932.275 .0253412
932.913 .0253144
933.551 .0252880
934.188 .0252624
934.825 .0252376
935.462 .0252139
936.098 .0251919
936.733 .0251715
937.369 .0251529
938.004 .0251363
938.638 .0251213
939.273 .0251073
939.907 .0250945
940.540 .0250826
941.173 .0250710
941.806 .0250600
942.438 .0250497
943.070 .0250394
943.702 .0250302
944.333 .0250214
944.964 .0250128
945.594 .0250040
946.224 .0249948
946.854 .0249845
947.483 .0249730
948.112 .0249601
948.741 .0249457
949.369 .0249299
949.996 .0249133
950.624 .0248957
951.251 .0248781
951.878 .0248608
952.504 .0248435
953.130 .0248261
953.755 .0248088
954.380 .0247910
955.005 .0247726
955.629 .0247537
956.253 .0247338
956.877 .0247128
957.500 .0246911
958.123 .0246690
958.746 .0246464
959.368 .0246239
959.990 .0246022
960.611 .0245811
961.232 .0245613
961.853 .0245426
962.473 .0245250
963.093 .0245084
963.712 .0244928
964.331 .0244772
964.950 .0244614
965.569 .0244457
966.187 .0244306
966.804 .0244162
967.422 .0244034
968.039 .0243921
968.655 .0243823
969.272 .0243745
969.887 .0243678
970.503 .0243614
971.118 .0243554
971.733 .0243488
972.347 .0243417
972.961 .0243333
973.575 .0243242
974.188 .0243144
974.801 .0243046
975.414 .0242946
976.026 .0242839
976.638 .0242728
977.250 .0242608
977.861 .0242474
978.472 .0242330
979.083 .0242174
979.693 .0242004
980.303 .0241828
980.912 .0241645
981.521 .0241453
982.130 .0241263
982.738 .0241071
983.346 .0240879
983.954 .0240693
984.562 .0240510
985.169 .0240334
985.775 .0240169
986.382 .0240019
986.988 .0239879
987.594 .0239759
988.199 .0239656
988.804 .0239568
989.409 .0239503
990.013 .0239458
990.617 .0239431
991.221 .0239423
991.824 .0239434
992.427 .0239461
993.030 .0239499
993.632 .0239546
994.234 .0239593
994.836 .0239637
995.438 .0239674
996.039 .0239701
996.640 .0239725
997.240 .0239752
997.840 .0239784
998.440 .0239824
999.040 .0239877
999.639 .0239940
1000.238 .0240009
1000.836 .0240076
1001.435 .0240141
1002.033 .0240196
1002.630 .0240241
1003.228 .0240277
1003.825 .0240312
1004.422 .0240356
1005.018 .0240414
1005.614 .0240490
1006.210 .0240585
1006.806 .0240696
1007.401 .0240814
1007.996 .0240931
1008.591 .0241037
1009.186 .0241129
1009.780 .0241206
1010.374 .0241266
1010.967 .0241313
1011.561 .0241354
1012.154 .0241392
1012.746 .0241429
1013.339 .0241469
1013.931 .0241514
1014.523 .0241559
1015.115 .0241608
1015.706 .0241660
1016.298 .0241716
1016.888 .0241779
1017.479 .0241855
1018.069 .0241942
1018.660 .0242042
1019.250 .0242160
1019.839 .0242289
1020.429 .0242432
1021.018 .0242594
1021.607 .0242772
1022.195 .0242964
1022.784 .0243169
1023.372 .0243390
1023.960 .0243625
1024.547 .0243872
1025.135 .0244130
1025.722 .0244392
1026.309 .0244652
1026.896 .0244901
1027.483 .0245133
1028.069 .0245348
1028.655 .0245550
1029.241 .0245735
1029.827 .0245906
1030.412 .0246076
1030.997 .0246246
1031.582 .0246413
1032.167 .0246582
1032.752 .0246753
1033.336 .0246919
1033.921 .0247077
1034.505 .0247228
1035.089 .0247362
1035.672 .0247484
1036.256 .0247602
1036.839 .0247713
1037.422 .0247829
1038.005 .0247958
1038.588 .0248098
1039.171 .0248255
1039.753 .0248431
1040.335 .0248604
1040.918 .0248775
1041.500 .0248936
1042.081 .0249075
1042.663 .0249188
1043.244 .0249284
1043.826 .0249363
1044.407 .0249429
1044.988 .0249500
1045.569 .0249572
1046.150 .0249646
1046.730 .0249730
1047.311 .0249804
1047.891 .0249869
1048.471 .0249923
1049.052 .0249961
1049.632 .0249985
1050.211 .0250011
1050.791 .0250035
1051.371 .0250070
1051.950 .0250120
1052.530 .0250181
1053.109 .0250247
1053.688 .0250307
1054.268 .0250351
1054.847 .0250368
1055.426 .0250360
1056.005 .0250331
1056.583 .0250293
1057.162 .0250260
1057.741 .0250232
1058.319 .0250218
1058.898 .0250214
1059.476 .0250207
1060.055 .0250195
1060.633 .0250169
1061.211 .0250121
1061.790 .0250069
1062.368 .0250025
1062.946 .0249986
1063.524 .0249980
1064.102 .0250007
1064.680 .0250068
1065.258 .0250163
1065.836 .0250280
1066.414 .0250396
1066.992 .0250513
1067.570 .0250626
1068.148 .0250722
1068.726 .0250812
1069.304 .0250908
1069.882 .0251006
1070.460 .0251106
1071.038 .0251212
1071.616 .0251308
1072.194 .0251387
1072.772 .0251454
1073.350 .0251492
1073.928 .0251519
1074.506 .0251531
1075.084 .0251528
1075.662 .0251517
1076.240 .0251506
1076.819 .0251489
1077.397 .0251466
1077.976 .0251444
1078.554 .0251413
1079.133 .0251383
1079.711 .0251352
1080.290 .0251339
1080.869 .0251351
1081.448 .0251387
1082.027 .0251448
1082.606 .0251518
1083.185 .0251601
1083.764 .0251683
1084.343 .0251760
1084.923 .0251858
1085.502 .0251967
1086.082 .0252080
1086.662 .0252198
1087.242 .0252318
1087.822 .0252439
1088.402 .0252550
1088.983 .0252645
1089.563 .0252708
1090.144 .0252751
1090.725 .0252781
1091.306 .0252785
1091.887 .0252774
1092.469 .0252770
1093.050 .0252751
1093.632 .0252716
1094.214 .0252663
1094.796 .0252575
1095.379 .0252461
1095.961 .0252345
1096.544 .0252228
1097.127 .0252120
1097.710 .0252026
1098.294 .0251978
1098.877 .0251962
1099.461 .0251976
1100.046 .0252004
1100.630 .0252036
1101.215 .0252096
1101.800 .0252179
1102.385 .0252274
1102.970 .0252420
1103.556 .0252614
1104.142 .0252875
1104.728 .0253172
1105.315 .0253511
1105.902 .0253877
1106.489 .0254238
1107.077 .0254576
1107.664 .0254876
1108.253 .0255127
1108.841 .0255348
1109.430 .0255526
1110.019 .0255706
1110.609 .0255865
1111.198 .0256012
1111.789 .0256165
1112.379 .0256322
1112.970 .0256464
1113.561 .0256606
1114.153 .0256738
1114.745 .0256861
1115.338 .0256963
1115.931 .0257066
1116.524 .0257195
1117.117 .0257381
1117.712 .0257637
1118.306 .0257944
1118.901 .0258324
1119.496 .0258787
1120.092 .0259250
1120.689 .0259713
1121.285 .0260179
1121.882 .0260623
1122.480 .0261066
1123.078 .0261491
1123.677 .0261914
1124.276 .0262357
1124.875 .0262818
1125.476 .0263270
1126.076 .0263708
1126.677 .0264121
1127.279 .0264494
1127.881 .0264828
1128.484 .0265158
1129.087 .0265471
1129.691 .0265836
1130.295 .0266276
1130.900 .0266789
1131.505 .0267376
1132.111 .0268023
1132.718 .0268677
1133.325 .0269369
1133.933 .0270079
1134.541 .0270783
1135.150 .0271535
1135.760 .0272377
1136.370 .0273294
1136.981 .0274347
1137.592 .0275501
1138.204 .0276747
1138.817 .0278063
1139.431 .0279450
1140.045 .0280873
1140.660 .0282454
1141.275 .0284207
1141.891 .0286161
1142.508 .0286864
1143.126 .0289223
1143.744 .0294091
1144.363 .0296478
1144.983 .0299288
