Measurement Sequence started on: 15-12-46-377
Integration time: 28
Scans to Average: 2 
>>>>>Begin Spectral Data<<<<<
432.689 .0000100
433.621 .0000100
434.552 .0000100
435.482 .0000100
436.410 .0000100
437.337 .0000100
438.262 .0272919
439.187 .0579133
440.110 .0960902
441.031 .1392086
441.952 .1811921
442.871 .2144296
443.789 .2328875
444.705 .2344976
445.621 .2216750
446.535 .1998350
447.447 .1749595
448.359 .1367332
449.269 .1177383
450.178 .1057401
451.086 .0973555
451.993 .0910277
452.898 .0860781
453.803 .0820870
454.706 .0787484
455.608 .0758641
456.508 .0733017
457.408 .0709643
458.306 .0688196
459.204 .0668729
460.100 .0650900
460.995 .0634952
461.888 .0620709
462.781 .0607984
463.673 .0596524
464.563 .0586239
465.452 .0576631
466.340 .0567581
467.228 .0559162
468.114 .0551242
468.999 .0543915
469.882 .0537238
470.765 .0531229
471.647 .0525957
472.528 .0521392
473.407 .0517417
474.286 .0513902
475.163 .0510875
476.040 .0508165
476.915 .0505660
477.790 .0503412
478.663 .0501417
479.535 .0499628
480.407 .0498113
481.277 .0496769
482.147 .0495618
483.015 .0494702
483.883 .0493951
484.749 .0493363
485.615 .0492929
486.479 .0492613
487.343 .0492443
488.206 .0492405
489.067 .0492477
489.928 .0492625
490.788 .0492959
491.647 .0493543
492.505 .0494376
493.362 .0495455
494.218 .0496861
495.073 .0498547
495.928 .0500569
496.781 .0502718
497.634 .0505074
498.486 .0507663
499.337 .0510499
500.187 .0513576
501.036 .0517022
501.884 .0520863
502.731 .0525160
503.578 .0529872
504.424 .0535062
505.268 .0540503
506.113 .0546192
506.956 .0551982
507.798 .0558057
508.640 .0564460
509.480 .0571397
510.320 .0578972
511.160 .0587623
511.998 .0597359
512.836 .0608200
513.672 .0620213
514.508 .0633506
515.344 .0647953
516.178 .0663724
517.012 .0680954
517.845 .0700176
518.677 .0721812
519.508 .0746516
520.339 .0774955
521.169 .0807903
521.998 .0845826
522.826 .0888810
523.654 .0936893
524.481 .0990203
525.307 .1048644
526.133 .1111722
526.958 .1179049
527.782 .1249826
528.605 .1322445
529.428 .1396077
530.250 .1465530
531.072 .1528590
531.892 .1581840
532.712 .1622014
533.532 .1646354
534.350 .1653108
535.168 .1641592
535.986 .1612359
536.802 .1567461
537.618 .1510215
538.434 .1442957
539.249 .1370861
540.063 .1296061
540.876 .1221505
541.689 .1149803
542.501 .1082731
543.313 .1020898
544.124 .0964865
544.934 .0914412
545.744 .0868846
546.553 .0827607
547.361 .0790937
548.169 .0758790
548.976 .0730248
549.783 .0704894
550.589 .0682197
551.395 .0661531
552.200 .0642880
553.004 .0625792
553.808 .0609803
554.611 .0595152
555.414 .0581766
556.216 .0569403
557.018 .0558173
557.819 .0547906
558.619 .0538476
559.419 .0529566
560.218 .0521096
561.017 .0512966
561.815 .0505045
562.613 .0497371
563.410 .0489826
564.207 .0482493
565.003 .0475519
565.799 .0468769
566.594 .0462188
567.388 .0455931
568.182 .0449842
568.976 .0443888
569.769 .0438043
570.562 .0432381
571.354 .0426943
572.145 .0421707
572.936 .0416669
573.727 .0411884
574.517 .0407318
575.307 .0402956
576.096 .0398790
576.885 .0394868
577.673 .0391191
578.461 .0387669
579.248 .0384381
580.035 .0381305
580.821 .0378422
581.607 .0375736
582.392 .0373167
583.177 .0370783
583.962 .0368557
584.746 .0366461
585.529 .0364530
586.313 .0362793
587.095 .0361213
587.878 .0359761
588.660 .0358432
589.441 .0357191
590.222 .0356000
591.003 .0354883
591.783 .0353796
592.563 .0352741
593.342 .0351746
594.121 .0350798
594.899 .0349915
595.678 .0349116
596.455 .0348381
597.233 .0347710
598.009 .0347090
598.786 .0346499
599.562 .0345919
600.338 .0345349
601.113 .0344779
601.888 .0344216
602.663 .0343648
603.437 .0343088
604.211 .0342532
604.984 .0342005
605.757 .0341491
606.530 .0341001
607.302 .0340535
608.074 .0340084
608.845 .0339653
609.616 .0339234
610.387 .0338823
611.158 .0338427
611.928 .0338043
612.697 .0337674
613.467 .0337311
614.236 .0336975
615.004 .0336649
615.773 .0336354
616.541 .0336083
617.308 .0335836
618.076 .0335610
618.843 .0335399
619.609 .0335205
620.375 .0335018
621.141 .0334827
621.907 .0334629
622.672 .0334414
623.437 .0334187
624.202 .0333934
624.966 .0333667
625.730 .0333382
626.493 .0333099
627.257 .0332810
628.020 .0332525
628.782 .0332239
629.545 .0331961
630.307 .0331676
631.068 .0331379
631.830 .0331073
632.591 .0330747
633.352 .0330408
634.112 .0330069
634.872 .0329724
635.632 .0329390
636.392 .0329061
637.151 .0328755
637.910 .0328457
638.668 .0328174
639.427 .0327897
640.185 .0327624
640.943 .0327350
641.700 .0327065
642.457 .0326764
643.214 .0326460
643.971 .0326144
644.727 .0325824
645.483 .0325503
646.239 .0325188
646.994 .0324878
647.750 .0324590
648.505 .0324321
649.259 .0324082
650.014 .0323868
650.768 .0323671
651.521 .0323481
652.275 .0323298
653.028 .0323106
653.781 .0322897
654.534 .0322679
655.286 .0322450
656.039 .0322202
656.791 .0321962
657.542 .0321723
658.294 .0321491
659.045 .0321266
659.796 .0321039
660.546 .0320802
661.297 .0320550
662.047 .0320282
662.796 .0319986
663.546 .0319675
664.295 .0319355
665.044 .0319019
665.793 .0318683
666.542 .0318357
667.290 .0318039
668.038 .0317730
668.786 .0317434
669.533 .0317137
670.281 .0316839
671.028 .0316538
671.774 .0316228
672.521 .0315915
673.267 .0315603
674.013 .0315297
674.759 .0314998
675.505 .0314713
676.250 .0314445
676.995 .0314187
677.740 .0313948
678.484 .0313716
679.229 .0313488
679.973 .0313260
680.717 .0313035
681.460 .0312810
682.204 .0312591
682.947 .0312379
683.690 .0312178
684.433 .0311988
685.175 .0311807
685.917 .0311631
686.659 .0311459
687.401 .0311286
688.142 .0311107
688.884 .0310917
689.625 .0310717
690.365 .0310504
691.106 .0310286
691.846 .0310067
692.586 .0309853
693.326 .0309644
694.066 .0309446
694.805 .0309252
695.545 .0309062
696.284 .0308870
697.022 .0308682
697.761 .0308495
698.499 .0308309
699.237 .0308121
699.975 .0307933
700.713 .0307753
701.450 .0307580
702.187 .0307411
702.924 .0307254
703.661 .0307099
704.397 .0306946
705.133 .0306792
705.869 .0306639
706.605 .0306485
707.341 .0306337
708.076 .0306188
708.811 .0306039
709.546 .0305887
710.281 .0305732
711.015 .0305572
711.749 .0305410
712.483 .0305241
713.217 .0305059
713.950 .0304870
714.684 .0304677
715.417 .0304473
716.150 .0304272
716.882 .0304072
717.615 .0303877
718.347 .0303687
719.079 .0303497
719.811 .0303307
720.542 .0303119
721.273 .0302927
722.005 .0302728
722.735 .0302523
723.466 .0302312
724.196 .0302096
724.927 .0301878
725.656 .0301663
726.386 .0301451
727.116 .0301244
727.845 .0301046
728.574 .0300846
729.303 .0300646
730.031 .0300444
730.760 .0300240
731.488 .0300033
732.216 .0299824
732.944 .0299621
733.671 .0299432
734.398 .0299259
735.125 .0299108
735.852 .0298976
736.579 .0298862
737.305 .0298763
738.031 .0298669
738.757 .0298576
739.483 .0298477
740.208 .0298365
740.933 .0298246
741.658 .0298115
742.383 .0297977
743.108 .0297831
743.832 .0297681
744.556 .0297528
745.280 .0297367
746.004 .0297196
746.727 .0297016
747.450 .0296824
748.173 .0296622
748.896 .0296412
749.618 .0296196
750.340 .0295985
751.062 .0295783
751.784 .0295593
752.506 .0295414
753.227 .0295242
753.948 .0295079
754.669 .0294918
755.389 .0294755
756.110 .0294592
756.830 .0294429
757.550 .0294271
758.269 .0294111
758.989 .0293952
759.708 .0293793
760.427 .0293631
761.146 .0293464
761.864 .0293289
762.582 .0293108
763.300 .0292920
764.018 .0292729
764.736 .0292541
765.453 .0292366
766.170 .0292207
766.887 .0292063
767.603 .0291933
768.320 .0291814
769.036 .0291699
769.751 .0291583
770.467 .0291468
771.182 .0291351
771.897 .0291235
772.612 .0291119
773.327 .0291006
774.041 .0290900
774.755 .0290797
775.469 .0290697
776.183 .0290600
776.896 .0290504
777.609 .0290408
778.322 .0290315
779.035 .0290228
779.747 .0290152
780.459 .0290089
781.171 .0290038
781.882 .0289997
782.594 .0289965
783.305 .0289939
784.016 .0289917
784.726 .0289905
785.436 .0289904
786.147 .0289912
786.856 .0289929
787.566 .0289955
788.275 .0289989
788.984 .0290027
789.693 .0290065
790.401 .0290095
791.110 .0290114
791.818 .0290121
792.525 .0290113
793.233 .0290095
793.940 .0290073
794.647 .0290047
795.353 .0290017
796.060 .0289983
796.766 .0289940
797.472 .0289885
798.177 .0289823
798.883 .0289753
799.588 .0289672
800.292 .0289587
800.997 .0289508
801.701 .0289434
802.405 .0289372
803.109 .0289321
803.812 .0289279
804.515 .0289242
805.218 .0289205
805.921 .0289158
806.623 .0289098
807.325 .0289028
808.027 .0288949
808.728 .0288857
809.429 .0288756
810.130 .0288644
810.831 .0288528
811.531 .0288408
812.231 .0288281
812.931 .0288141
813.630 .0287988
814.330 .0287824
815.029 .0287645
815.727 .0287453
816.426 .0287255
817.124 .0287054
817.821 .0286852
818.519 .0286652
819.216 .0286460
819.913 .0286278
820.609 .0286112
821.306 .0285963
822.002 .0285829
822.697 .0285707
823.393 .0285596
824.088 .0285490
824.783 .0285385
825.477 .0285275
826.171 .0285155
826.865 .0285028
827.559 .0284899
828.252 .0284772
828.945 .0284647
829.638 .0284530
830.330 .0284427
831.023 .0284327
831.714 .0284229
832.406 .0284130
833.097 .0284021
833.788 .0283897
834.479 .0283759
835.169 .0283610
835.859 .0283455
836.548 .0283300
837.238 .0283151
837.927 .0283006
838.615 .0282870
839.304 .0282740
839.992 .0282607
840.680 .0282473
841.367 .0282334
842.054 .0282186
842.741 .0282035
843.428 .0281883
844.114 .0281732
844.800 .0281582
845.485 .0281436
846.170 .0281287
846.855 .0281129
847.540 .0280963
848.224 .0280788
848.908 .0280604
849.592 .0280412
850.275 .0280217
850.958 .0280017
851.641 .0279818
852.323 .0279621
853.005 .0279425
853.687 .0279223
854.368 .0279018
855.049 .0278808
855.730 .0278587
856.410 .0278364
857.090 .0278142
857.769 .0277922
858.449 .0277712
859.128 .0277515
859.806 .0277330
860.485 .0277159
861.163 .0277007
861.840 .0276864
862.518 .0276730
863.195 .0276603
863.871 .0276480
864.548 .0276365
865.224 .0276263
865.899 .0276169
866.574 .0276084
867.249 .0276014
867.924 .0275954
868.598 .0275899
869.272 .0275851
869.946 .0275805
870.619 .0275758
871.292 .0275704
871.964 .0275641
872.636 .0275567
873.308 .0275483
873.979 .0275395
874.651 .0275298
875.321 .0275199
875.992 .0275097
876.662 .0274997
877.331 .0274898
878.001 .0274804
878.670 .0274710
879.338 .0274615
880.007 .0274520
880.675 .0274427
881.342 .0274334
882.009 .0274246
882.676 .0274168
883.343 .0274099
884.009 .0274039
884.675 .0273993
885.340 .0273955
886.005 .0273927
886.670 .0273910
887.334 .0273903
887.998 .0273898
888.662 .0273901
889.325 .0273911
889.988 .0273925
890.650 .0273948
891.312 .0273977
891.974 .0274011
892.636 .0274054
893.297 .0274102
893.957 .0274153
894.618 .0274209
895.278 .0274272
895.937 .0274335
896.596 .0274401
897.255 .0274468
897.914 .0274532
898.572 .0274591
899.230 .0274650
899.887 .0274703
900.544 .0274754
901.201 .0274804
901.857 .0274853
902.513 .0274902
903.168 .0274949
903.823 .0274986
904.478 .0275007
905.132 .0275011
905.786 .0274993
906.440 .0274948
907.093 .0274882
907.746 .0274800
908.399 .0274703
909.051 .0274601
909.703 .0274496
910.354 .0274387
911.005 .0274283
911.656 .0274177
912.306 .0274066
912.956 .0273948
913.605 .0273823
914.254 .0273693
914.903 .0273561
915.551 .0273434
916.199 .0273315
916.847 .0273215
917.494 .0273133
918.141 .0273067
918.788 .0273013
919.434 .0272972
920.079 .0272930
920.725 .0272887
921.370 .0272836
922.014 .0272772
922.658 .0272696
923.302 .0272608
923.946 .0272507
924.589 .0272396
925.231 .0272271
925.873 .0272136
926.515 .0271989
927.157 .0271833
927.798 .0271660
928.439 .0271473
929.079 .0271274
929.719 .0271064
930.359 .0270840
930.998 .0270611
931.637 .0270375
932.275 .0270142
932.913 .0269915
933.551 .0269690
934.188 .0269472
934.825 .0269265
935.462 .0269061
936.098 .0268867
936.733 .0268682
937.369 .0268511
938.004 .0268350
938.638 .0268202
939.273 .0268065
939.907 .0267940
940.540 .0267823
941.173 .0267713
941.806 .0267609
942.438 .0267513
943.070 .0267416
943.702 .0267317
944.333 .0267218
944.964 .0267117
945.594 .0267008
946.224 .0266897
946.854 .0266783
947.483 .0266672
948.112 .0266560
948.741 .0266445
949.369 .0266326
949.996 .0266206
950.624 .0266078
951.251 .0265941
951.878 .0265794
952.504 .0265639
953.130 .0265473
953.755 .0265303
954.380 .0265132
955.005 .0264961
955.629 .0264790
956.253 .0264619
956.877 .0264444
957.500 .0264261
958.123 .0264068
958.746 .0263861
959.368 .0263645
959.990 .0263418
960.611 .0263188
961.232 .0262958
961.853 .0262740
962.473 .0262538
963.093 .0262347
963.712 .0262171
964.331 .0262000
964.950 .0261832
965.569 .0261664
966.187 .0261494
966.804 .0261332
967.422 .0261175
968.039 .0261034
968.655 .0260902
969.272 .0260780
969.887 .0260665
970.503 .0260551
971.118 .0260425
971.733 .0260284
972.347 .0260124
972.961 .0259945
973.575 .0259750
974.188 .0259539
974.801 .0259322
975.414 .0259098
976.026 .0258870
976.638 .0258639
977.250 .0258400
977.861 .0258160
978.472 .0257914
979.083 .0257664
979.693 .0257411
980.303 .0257156
980.912 .0256908
981.521 .0256662
982.130 .0256428
982.738 .0256205
983.346 .0255987
983.954 .0255779
984.562 .0255577
985.169 .0255377
985.775 .0255178
986.382 .0254981
986.988 .0254784
987.594 .0254586
988.199 .0254394
988.804 .0254208
989.409 .0254034
990.013 .0253879
990.617 .0253745
991.221 .0253626
991.824 .0253529
992.427 .0253445
993.030 .0253368
993.632 .0253302
994.234 .0253239
994.836 .0253174
995.438 .0253112
996.039 .0253050
996.640 .0252994
997.240 .0252954
997.840 .0252935
998.440 .0252931
999.040 .0252940
999.639 .0252954
1000.238 .0252960
1000.836 .0252957
1001.435 .0252939
1002.033 .0252902
1002.630 .0252854
1003.228 .0252797
1003.825 .0252735
1004.422 .0252682
1005.018 .0252645
1005.614 .0252617
1006.210 .0252600
1006.806 .0252584
1007.401 .0252560
1007.996 .0252523
1008.591 .0252475
1009.186 .0252419
1009.780 .0252359
1010.374 .0252304
1010.967 .0252250
1011.561 .0252206
1012.154 .0252180
1012.746 .0252164
1013.339 .0252163
1013.931 .0252176
1014.523 .0252195
1015.115 .0252213
1015.706 .0252237
1016.298 .0252260
1016.888 .0252289
1017.479 .0252329
1018.069 .0252378
1018.660 .0252440
1019.250 .0252520
1019.839 .0252616
1020.429 .0252732
1021.018 .0252868
1021.607 .0253010
1022.195 .0253154
1022.784 .0253304
1023.372 .0253442
1023.960 .0253579
1024.547 .0253711
1025.135 .0253850
1025.722 .0253992
1026.309 .0254150
1026.896 .0254320
1027.483 .0254508
1028.069 .0254714
1028.655 .0254929
1029.241 .0255143
1029.827 .0255355
1030.412 .0255555
1030.997 .0255749
1031.582 .0255937
1032.167 .0256129
1032.752 .0256323
1033.336 .0256533
1033.921 .0256748
1034.505 .0256973
1035.089 .0257192
1035.672 .0257405
1036.256 .0257600
1036.839 .0257765
1037.422 .0257895
1038.005 .0258000
1038.588 .0258089
1039.171 .0258171
1039.753 .0258251
1040.335 .0258336
1040.918 .0258433
1041.500 .0258540
1042.081 .0258654
1042.663 .0258763
1043.244 .0258875
1043.826 .0258983
1044.407 .0259075
1044.988 .0259161
1045.569 .0259243
1046.150 .0259324
1046.730 .0259416
1047.311 .0259516
1047.891 .0259621
1048.471 .0259731
1049.052 .0259853
1049.632 .0259975
1050.211 .0260106
1050.791 .0260230
1051.371 .0260353
1051.950 .0260470
1052.530 .0260587
1053.109 .0260692
1053.688 .0260792
1054.268 .0260898
1054.847 .0261005
1055.426 .0261122
1056.005 .0261247
1056.583 .0261383
1057.162 .0261537
1057.741 .0261697
1058.319 .0261860
1058.898 .0262022
1059.476 .0262180
1060.055 .0262329
1060.633 .0262470
1061.211 .0262597
1061.790 .0262723
1062.368 .0262844
1062.946 .0262969
1063.524 .0263106
1064.102 .0263258
1064.680 .0263433
1065.258 .0263622
1065.836 .0263821
1066.414 .0264014
1066.992 .0264189
1067.570 .0264343
1068.148 .0264458
1068.726 .0264550
1069.304 .0264619
1069.882 .0264676
1070.460 .0264740
1071.038 .0264818
1071.616 .0264909
1072.194 .0265013
1072.772 .0265117
1073.350 .0265211
1073.928 .0265281
1074.506 .0265329
1075.084 .0265343
1075.662 .0265346
1076.240 .0265354
1076.819 .0265365
1077.397 .0265404
1077.976 .0265476
1078.554 .0265563
1079.133 .0265673
1079.711 .0265785
1080.290 .0265887
1080.869 .0265976
1081.448 .0266053
1082.027 .0266120
1082.606 .0266179
1083.185 .0266252
1083.764 .0266332
1084.343 .0266425
1084.923 .0266550
1085.502 .0266673
1086.082 .0266803
1086.662 .0266943
1087.242 .0267064
1087.822 .0267186
1088.402 .0267307
1088.983 .0267421
1089.563 .0267523
1090.144 .0267616
1090.725 .0267700
1091.306 .0267754
1091.887 .0267798
1092.469 .0267827
1093.050 .0267835
1093.632 .0267840
1094.214 .0267839
1094.796 .0267820
1095.379 .0267820
1095.961 .0267839
1096.544 .0267879
1097.127 .0267955
1097.710 .0268063
1098.294 .0268186
1098.877 .0268321
1099.461 .0268475
1100.046 .0268627
1100.630 .0268773
1101.215 .0268935
1101.800 .0269096
1102.385 .0269276
1102.970 .0269469
1103.556 .0269676
1104.142 .0269898
1104.728 .0270124
1105.315 .0270331
1105.902 .0270486
1106.489 .0270599
1107.077 .0270662
1107.664 .0270682
1108.253 .0270695
1108.841 .0270717
1109.430 .0270764
1110.019 .0270829
1110.609 .0270937
1111.198 .0271089
1111.789 .0271276
1112.379 .0271491
1112.970 .0271731
1113.561 .0271996
1114.153 .0272292
1114.745 .0272625
1115.338 .0272983
1115.931 .0273361
1116.524 .0273744
1117.117 .0274096
1117.712 .0274417
1118.306 .0274694
1118.901 .0274934
1119.496 .0275138
1120.092 .0275366
1120.689 .0275603
1121.285 .0275851
1121.882 .0276133
1122.480 .0276464
1123.078 .0276821
1123.677 .0277193
1124.276 .0277547
1124.875 .0277890
1125.476 .0278232
1126.076 .0278587
1126.677 .0278951
1127.279 .0279370
1127.881 .0279842
1128.484 .0280394
1129.087 .0281042
1129.691 .0281802
1130.295 .0282666
1130.900 .0283587
1131.505 .0284558
1132.111 .0285519
1132.718 .0286430
1133.325 .0287275
1133.933 .0288056
1134.541 .0288804
1135.150 .0289545
1135.760 .0290319
1136.370 .0291197
1136.981 .0292233
1137.592 .0293438
1138.204 .0294758
1138.817 .0296114
1139.431 .0297524
1140.045 .0298946
1140.660 .0300375
1141.275 .0301905
1141.891 .0303610
1142.508 .0304128
1143.126 .0306162
1143.744 .0308143
1144.363 .0312658
1144.983 .0316841
