Measurement Sequence started on: 15-12-46-377
Integration time: 28
Scans to Average: 2 
>>>>>Begin Spectral Data<<<<<
432.689 .0000100
433.621 .0000100
434.552 .0000100
435.482 .0000100
436.410 .0000100
437.337 .0000100
438.262 .0283553
439.187 .0599022
440.110 .0990629
441.031 .1431795
441.952 .1859109
442.871 .2194259
443.789 .2376002
444.705 .2384078
445.621 .2245091
446.535 .2015749
447.447 .1757258
448.359 .1361615
449.269 .1167902
450.178 .1045778
451.086 .0959005
451.993 .0892121
452.898 .0838305
453.803 .0793800
454.706 .0756295
455.608 .0723971
456.508 .0695994
457.408 .0671943
458.306 .0650846
459.204 .0632202
460.100 .0615699
460.995 .0601068
461.888 .0587925
462.781 .0576167
463.673 .0565383
464.563 .0555529
465.452 .0546345
466.340 .0537608
467.228 .0529401
468.114 .0521683
468.999 .0514486
469.882 .0507809
470.765 .0501662
471.647 .0496089
472.528 .0490970
473.407 .0486339
474.286 .0482095
475.163 .0478159
476.040 .0474547
476.915 .0471130
477.790 .0467950
478.663 .0465091
479.535 .0462593
480.407 .0460506
481.277 .0458861
482.147 .0457623
483.015 .0456729
483.883 .0456100
484.749 .0455704
485.615 .0455507
486.479 .0455440
487.343 .0455553
488.206 .0455794
489.067 .0456171
489.928 .0456740
490.788 .0457439
491.647 .0458339
492.505 .0459381
493.362 .0460490
494.218 .0461567
495.073 .0462621
495.928 .0463703
496.781 .0464695
497.634 .0465791
498.486 .0467059
499.337 .0468483
500.187 .0470178
501.036 .0472221
501.884 .0474581
502.731 .0477325
503.578 .0480476
504.424 .0483881
505.268 .0487452
506.113 .0491284
506.956 .0495276
507.798 .0499622
508.640 .0504476
509.480 .0509911
510.320 .0516089
511.160 .0523386
511.998 .0531692
512.836 .0541165
513.672 .0551808
514.508 .0563695
515.344 .0576671
516.178 .0590844
517.012 .0606394
517.845 .0623602
518.677 .0643018
519.508 .0665027
520.339 .0689950
521.169 .0718836
521.998 .0751483
522.826 .0788496
523.654 .0830289
524.481 .0876790
525.307 .0928362
526.133 .0984490
526.958 .1044650
527.782 .1109061
528.605 .1175529
529.428 .1243604
530.250 .1309268
531.072 .1370170
531.892 .1422929
532.712 .1464318
533.532 .1493215
534.350 .1506893
535.168 .1503922
535.986 .1485100
536.802 .1450745
537.618 .1403951
538.434 .1346268
539.249 .1281865
540.063 .1213658
540.876 .1144449
541.689 .1076610
542.501 .1011871
543.313 .0952148
544.124 .0898334
544.934 .0849695
545.744 .0805790
546.553 .0766553
547.361 .0731540
548.169 .0700691
548.976 .0673453
549.783 .0649485
550.589 .0628536
551.395 .0609706
552.200 .0593019
553.004 .0578051
553.808 .0564326
554.611 .0551974
555.414 .0540637
556.216 .0530219
557.018 .0520729
557.819 .0512027
558.619 .0503939
559.419 .0496451
560.218 .0489542
561.017 .0483021
561.815 .0476678
562.613 .0470442
563.410 .0464205
564.207 .0457926
565.003 .0451673
565.799 .0445346
566.594 .0439054
567.388 .0432975
568.182 .0426996
568.976 .0421147
569.769 .0415475
570.562 .0409986
571.354 .0404596
572.145 .0399320
572.936 .0394148
573.727 .0389058
574.517 .0384090
575.307 .0379324
576.096 .0374800
576.885 .0370603
577.673 .0366722
578.461 .0363154
579.248 .0359867
580.035 .0356842
580.821 .0354020
581.607 .0351342
582.392 .0348774
583.177 .0346330
583.962 .0344007
584.746 .0341848
585.529 .0339863
586.313 .0338078
587.095 .0336482
587.878 .0335066
588.660 .0333786
589.441 .0332640
590.222 .0331568
591.003 .0330579
591.783 .0329647
592.563 .0328766
593.342 .0327937
594.121 .0327155
594.899 .0326449
595.678 .0325824
596.455 .0325278
597.233 .0324790
598.009 .0324340
598.786 .0323922
599.562 .0323512
600.338 .0323100
601.113 .0322693
601.888 .0322291
602.663 .0321886
603.437 .0321485
604.211 .0321098
604.984 .0320723
605.757 .0320369
606.530 .0320030
607.302 .0319705
608.074 .0319397
608.845 .0319119
609.616 .0318855
610.387 .0318619
611.158 .0318412
611.928 .0318227
612.697 .0318057
613.467 .0317899
614.236 .0317740
615.004 .0317576
615.773 .0317408
616.541 .0317236
617.308 .0317058
618.076 .0316887
618.843 .0316716
619.609 .0316554
620.375 .0316399
621.141 .0316236
621.907 .0316056
622.672 .0315870
623.437 .0315660
624.202 .0315422
624.966 .0315161
625.730 .0314888
626.493 .0314604
627.257 .0314319
628.020 .0314032
628.782 .0313752
629.545 .0313478
630.307 .0313204
631.068 .0312917
631.830 .0312629
632.591 .0312329
633.352 .0312019
634.112 .0311708
634.872 .0311399
635.632 .0311095
636.392 .0310807
637.151 .0310545
637.910 .0310303
638.668 .0310080
639.427 .0309874
640.185 .0309670
640.943 .0309470
641.700 .0309257
642.457 .0309035
643.214 .0308807
643.971 .0308571
644.727 .0308323
645.483 .0308073
646.239 .0307825
646.994 .0307570
647.750 .0307307
648.505 .0307041
649.259 .0306768
650.014 .0306487
650.768 .0306201
651.521 .0305917
652.275 .0305636
653.028 .0305371
653.781 .0305120
654.534 .0304889
655.286 .0304677
656.039 .0304480
656.791 .0304298
657.542 .0304126
658.294 .0303959
659.045 .0303791
659.796 .0303620
660.546 .0303453
661.297 .0303276
662.047 .0303088
662.796 .0302895
663.546 .0302693
664.295 .0302474
665.044 .0302240
665.793 .0301993
666.542 .0301737
667.290 .0301471
668.038 .0301205
668.786 .0300939
669.533 .0300683
670.281 .0300440
671.028 .0300211
671.774 .0300001
672.521 .0299813
673.267 .0299647
674.013 .0299506
674.759 .0299392
675.505 .0299301
676.250 .0299224
676.995 .0299159
677.740 .0299103
678.484 .0299044
679.229 .0298980
679.973 .0298914
680.717 .0298837
681.460 .0298752
682.204 .0298661
682.947 .0298566
683.690 .0298468
684.433 .0298364
685.175 .0298260
685.917 .0298149
686.659 .0298032
687.401 .0297907
688.142 .0297770
688.884 .0297631
689.625 .0297486
690.365 .0297335
691.106 .0297184
691.846 .0297035
692.586 .0296888
693.326 .0296744
694.066 .0296603
694.805 .0296463
695.545 .0296316
696.284 .0296163
697.022 .0295999
697.761 .0295817
698.499 .0295617
699.237 .0295399
699.975 .0295164
700.713 .0294918
701.450 .0294659
702.187 .0294398
702.924 .0294138
703.661 .0293884
704.397 .0293636
705.133 .0293394
705.869 .0293158
706.605 .0292924
707.341 .0292684
708.076 .0292447
708.811 .0292202
709.546 .0291954
710.281 .0291703
711.015 .0291450
711.749 .0291195
712.483 .0290941
713.217 .0290685
713.950 .0290430
714.684 .0290175
715.417 .0289921
716.150 .0289666
716.882 .0289413
717.615 .0289163
718.347 .0288915
719.079 .0288670
719.811 .0288429
720.542 .0288190
721.273 .0287957
722.005 .0287728
722.735 .0287503
723.466 .0287291
724.196 .0287087
724.927 .0286888
725.656 .0286695
726.386 .0286508
727.116 .0286323
727.845 .0286136
728.574 .0285947
729.303 .0285755
730.031 .0285560
730.760 .0285363
731.488 .0285169
732.216 .0284981
732.944 .0284801
733.671 .0284630
734.398 .0284472
735.125 .0284329
735.852 .0284196
736.579 .0284077
737.305 .0283973
738.031 .0283885
738.757 .0283805
739.483 .0283729
740.208 .0283661
740.933 .0283598
741.658 .0283538
742.383 .0283477
743.108 .0283416
743.832 .0283356
744.556 .0283298
745.280 .0283240
746.004 .0283183
746.727 .0283128
747.450 .0283074
748.173 .0283017
748.896 .0282961
749.618 .0282910
750.340 .0282864
751.062 .0282833
751.784 .0282822
752.506 .0282826
753.227 .0282846
753.948 .0282878
754.669 .0282919
755.389 .0282961
756.110 .0283004
756.830 .0283036
757.550 .0283064
758.269 .0283088
758.989 .0283108
759.708 .0283117
760.427 .0283122
761.146 .0283115
761.864 .0283092
762.582 .0283050
763.300 .0282984
764.018 .0282896
764.736 .0282790
765.453 .0282670
766.170 .0282544
766.887 .0282411
767.603 .0282280
768.320 .0282145
769.036 .0282011
769.751 .0281871
770.467 .0281724
771.182 .0281572
771.897 .0281416
772.612 .0281261
773.327 .0281105
774.041 .0280955
774.755 .0280814
775.469 .0280683
776.183 .0280557
776.896 .0280431
777.609 .0280300
778.322 .0280162
779.035 .0280016
779.747 .0279863
780.459 .0279707
781.171 .0279555
781.882 .0279403
782.594 .0279258
783.305 .0279114
784.016 .0278972
784.726 .0278824
785.436 .0278670
786.147 .0278500
786.856 .0278312
787.566 .0278107
788.275 .0277888
788.984 .0277661
789.693 .0277433
790.401 .0277198
791.110 .0276968
791.818 .0276741
792.525 .0276516
793.233 .0276285
793.940 .0276052
794.647 .0275810
795.353 .0275560
796.060 .0275300
796.766 .0275034
797.472 .0274763
798.177 .0274498
798.883 .0274235
799.588 .0273975
800.292 .0273725
800.997 .0273479
801.701 .0273233
802.405 .0272991
803.109 .0272748
803.812 .0272505
804.515 .0272263
805.218 .0272024
805.921 .0271788
806.623 .0271557
807.325 .0271335
808.027 .0271120
808.728 .0270914
809.429 .0270711
810.130 .0270506
810.831 .0270303
811.531 .0270099
812.231 .0269887
812.931 .0269672
813.630 .0269452
814.330 .0269233
815.029 .0269016
815.727 .0268805
816.426 .0268600
817.124 .0268407
817.821 .0268224
818.519 .0268053
819.216 .0267892
819.913 .0267744
820.609 .0267605
821.306 .0267483
822.002 .0267376
822.697 .0267284
823.393 .0267210
824.088 .0267158
824.783 .0267121
825.477 .0267096
826.171 .0267078
826.865 .0267063
827.559 .0267048
828.252 .0267032
828.945 .0267011
829.638 .0266989
830.330 .0266967
831.023 .0266944
831.714 .0266920
832.406 .0266899
833.097 .0266874
833.788 .0266847
834.479 .0266817
835.169 .0266785
835.859 .0266755
836.548 .0266731
837.238 .0266718
837.927 .0266719
838.615 .0266736
839.304 .0266767
839.992 .0266811
840.680 .0266865
841.367 .0266929
842.054 .0266997
842.741 .0267068
843.428 .0267146
844.114 .0267228
844.800 .0267313
845.485 .0267404
846.170 .0267497
846.855 .0267592
847.540 .0267682
848.224 .0267772
848.908 .0267855
849.592 .0267935
850.275 .0268009
850.958 .0268075
851.641 .0268136
852.323 .0268194
853.005 .0268245
853.687 .0268294
854.368 .0268339
855.049 .0268378
855.730 .0268412
856.410 .0268442
857.090 .0268463
857.769 .0268479
858.449 .0268489
859.128 .0268498
859.806 .0268502
860.485 .0268509
861.163 .0268518
861.840 .0268529
862.518 .0268540
863.195 .0268543
863.871 .0268536
864.548 .0268520
865.224 .0268489
865.899 .0268447
866.574 .0268397
867.249 .0268344
867.924 .0268286
868.598 .0268231
869.272 .0268175
869.946 .0268120
870.619 .0268059
871.292 .0267992
871.964 .0267911
872.636 .0267819
873.308 .0267712
873.979 .0267595
874.651 .0267475
875.321 .0267351
875.992 .0267220
876.662 .0267087
877.331 .0266947
878.001 .0266801
878.670 .0266643
879.338 .0266475
880.007 .0266295
880.675 .0266109
881.342 .0265918
882.009 .0265721
882.676 .0265523
883.343 .0265321
884.009 .0265111
884.675 .0264891
885.340 .0264657
886.005 .0264410
886.670 .0264152
887.334 .0263888
887.998 .0263620
888.662 .0263355
889.325 .0263097
889.988 .0262849
890.650 .0262612
891.312 .0262379
891.974 .0262146
892.636 .0261908
893.297 .0261663
893.957 .0261408
894.618 .0261145
895.278 .0260877
895.937 .0260612
896.596 .0260353
897.255 .0260104
897.914 .0259862
898.572 .0259623
899.230 .0259384
899.887 .0259136
900.544 .0258869
901.201 .0258585
901.857 .0258282
902.513 .0257963
903.168 .0257635
903.823 .0257300
904.478 .0256967
905.132 .0256637
905.786 .0256309
906.440 .0255981
907.093 .0255649
907.746 .0255313
908.399 .0254970
909.051 .0254624
909.703 .0254283
910.354 .0253952
911.005 .0253638
911.656 .0253343
912.306 .0253068
912.956 .0252811
913.605 .0252564
914.254 .0252324
914.903 .0252084
915.551 .0251840
916.199 .0251597
916.847 .0251359
917.494 .0251130
918.141 .0250914
918.788 .0250715
919.434 .0250537
920.079 .0250371
920.725 .0250214
921.370 .0250062
922.014 .0249909
922.658 .0249755
923.302 .0249592
923.946 .0249425
924.589 .0249252
925.231 .0249076
925.873 .0248898
926.515 .0248723
927.157 .0248552
927.798 .0248381
928.439 .0248214
929.079 .0248050
929.719 .0247885
930.359 .0247713
930.998 .0247539
931.637 .0247368
932.275 .0247192
932.913 .0247020
933.551 .0246848
934.188 .0246689
934.825 .0246540
935.462 .0246405
936.098 .0246287
936.733 .0246183
937.369 .0246093
938.004 .0246010
938.638 .0245930
939.273 .0245855
939.907 .0245779
940.540 .0245707
941.173 .0245637
941.806 .0245573
942.438 .0245510
943.070 .0245452
943.702 .0245398
944.333 .0245346
944.964 .0245294
945.594 .0245247
946.224 .0245203
946.854 .0245165
947.483 .0245139
948.112 .0245126
948.741 .0245131
949.369 .0245154
949.996 .0245192
950.624 .0245246
951.251 .0245312
951.878 .0245391
952.504 .0245480
953.130 .0245579
953.755 .0245686
954.380 .0245803
955.005 .0245923
955.629 .0246045
956.253 .0246168
956.877 .0246291
957.500 .0246413
958.123 .0246532
958.746 .0246649
959.368 .0246763
959.990 .0246878
960.611 .0246989
961.232 .0247099
961.853 .0247214
962.473 .0247331
963.093 .0247452
963.712 .0247577
964.331 .0247705
964.950 .0247835
965.569 .0247973
966.187 .0248122
966.804 .0248279
967.422 .0248448
968.039 .0248623
968.655 .0248808
969.272 .0248993
969.887 .0249175
970.503 .0249347
971.118 .0249513
971.733 .0249669
972.347 .0249807
972.961 .0249934
973.575 .0250052
974.188 .0250159
974.801 .0250262
975.414 .0250356
976.026 .0250446
976.638 .0250525
977.250 .0250603
977.861 .0250673
978.472 .0250741
979.083 .0250807
979.693 .0250868
980.303 .0250930
980.912 .0250993
981.521 .0251049
982.130 .0251104
982.738 .0251160
983.346 .0251214
983.954 .0251257
984.562 .0251294
985.169 .0251319
985.775 .0251335
986.382 .0251336
986.988 .0251326
987.594 .0251306
988.199 .0251283
988.804 .0251255
989.409 .0251228
990.013 .0251207
990.617 .0251188
991.221 .0251173
991.824 .0251164
992.427 .0251158
993.030 .0251155
993.632 .0251151
994.234 .0251154
994.836 .0251165
995.438 .0251181
996.039 .0251197
996.640 .0251217
997.240 .0251248
997.840 .0251274
998.440 .0251297
999.040 .0251317
999.639 .0251328
1000.238 .0251322
1000.836 .0251292
1001.435 .0251237
1002.033 .0251166
1002.630 .0251077
1003.228 .0250974
1003.825 .0250862
1004.422 .0250755
1005.018 .0250652
1005.614 .0250559
1006.210 .0250473
1006.806 .0250396
1007.401 .0250313
1007.996 .0250220
1008.591 .0250111
1009.186 .0249988
1009.780 .0249848
1010.374 .0249694
1010.967 .0249536
1011.561 .0249379
1012.154 .0249219
1012.746 .0249063
1013.339 .0248906
1013.931 .0248754
1014.523 .0248593
1015.115 .0248416
1015.706 .0248221
1016.298 .0248011
1016.888 .0247792
1017.479 .0247567
1018.069 .0247343
1018.660 .0247132
1019.250 .0246937
1019.839 .0246761
1020.429 .0246601
1021.018 .0246454
1021.607 .0246312
1022.195 .0246169
1022.784 .0246018
1023.372 .0245865
1023.960 .0245710
1024.547 .0245555
1025.135 .0245412
1025.722 .0245279
1026.309 .0245156
1026.896 .0245036
1027.483 .0244912
1028.069 .0244780
1028.655 .0244633
1029.241 .0244469
1029.827 .0244288
1030.412 .0244102
1030.997 .0243930
1031.582 .0243772
1032.167 .0243631
1032.752 .0243510
1033.336 .0243401
1033.921 .0243298
1034.505 .0243191
1035.089 .0243068
1035.672 .0242931
1036.256 .0242776
1036.839 .0242605
1037.422 .0242425
1038.005 .0242247
1038.588 .0242078
1039.171 .0241917
1039.753 .0241770
1040.335 .0241623
1040.918 .0241470
1041.500 .0241308
1042.081 .0241125
1042.663 .0240921
1043.244 .0240703
1043.826 .0240458
1044.407 .0240207
1044.988 .0239965
1045.569 .0239739
1046.150 .0239536
1046.730 .0239360
1047.311 .0239204
1047.891 .0239057
1048.471 .0238915
1049.052 .0238772
1049.632 .0238616
1050.211 .0238462
1050.791 .0238299
1051.371 .0238136
1051.950 .0237992
1052.530 .0237864
1053.109 .0237745
1053.688 .0237639
1054.268 .0237538
1054.847 .0237433
1055.426 .0237318
1056.005 .0237198
1056.583 .0237070
1057.162 .0236953
1057.741 .0236847
1058.319 .0236751
1058.898 .0236681
1059.476 .0236631
1060.055 .0236597
1060.633 .0236578
1061.211 .0236562
1061.790 .0236551
1062.368 .0236542
1062.946 .0236539
1063.524 .0236546
1064.102 .0236562
1064.680 .0236591
1065.258 .0236625
1065.836 .0236667
1066.414 .0236722
1066.992 .0236775
1067.570 .0236831
1068.148 .0236879
1068.726 .0236908
1069.304 .0236926
1069.882 .0236919
1070.460 .0236902
1071.038 .0236881
1071.616 .0236861
1072.194 .0236856
1072.772 .0236852
1073.350 .0236856
1073.928 .0236868
1074.506 .0236871
1075.084 .0236862
1075.662 .0236833
1076.240 .0236784
1076.819 .0236718
1077.397 .0236663
1077.976 .0236637
1078.554 .0236644
1079.133 .0236700
1079.711 .0236804
1080.290 .0236935
1080.869 .0237084
1081.448 .0237231
1082.027 .0237360
1082.606 .0237477
1083.185 .0237589
1083.764 .0237677
1084.343 .0237760
1084.923 .0237853
1085.502 .0237961
1086.082 .0238089
1086.662 .0238242
1087.242 .0238404
1087.822 .0238578
1088.402 .0238757
1088.983 .0238936
1089.563 .0239110
1090.144 .0239282
1090.725 .0239452
1091.306 .0239614
1091.887 .0239783
1092.469 .0239973
1093.050 .0240198
1093.632 .0240477
1094.214 .0240810
1094.796 .0241184
1095.379 .0241594
1095.961 .0242012
1096.544 .0242423
1097.127 .0242795
1097.710 .0243119
1098.294 .0243399
1098.877 .0243632
1099.461 .0243837
1100.046 .0244028
1100.630 .0244224
1101.215 .0244428
1101.800 .0244642
1102.385 .0244855
1102.970 .0245078
1103.556 .0245303
1104.142 .0245538
1104.728 .0245801
1105.315 .0246091
1105.902 .0246422
1106.489 .0246800
1107.077 .0247231
1107.664 .0247712
1108.253 .0248211
1108.841 .0248734
1109.430 .0249260
1110.019 .0249824
1110.609 .0250392
1111.198 .0251007
1111.789 .0251657
1112.379 .0252351
1112.970 .0253038
1113.561 .0253717
1114.153 .0254388
1114.745 .0255016
1115.338 .0255591
1115.931 .0256128
1116.524 .0256622
1117.117 .0257131
1117.712 .0257622
1118.306 .0258154
1118.901 .0258709
1119.496 .0259301
1120.092 .0259869
1120.689 .0260402
1121.285 .0260858
1121.882 .0261235
1122.480 .0261513
1123.078 .0261725
1123.677 .0261885
1124.276 .0262011
1124.875 .0262172
1125.476 .0262400
1126.076 .0262718
1126.677 .0263115
1127.279 .0263581
1127.881 .0264144
1128.484 .0264758
1129.087 .0265406
1129.691 .0266089
1130.295 .0266806
1130.900 .0267587
1131.505 .0268437
1132.111 .0269387
1132.718 .0270491
1133.325 .0271752
1133.933 .0273152
1134.541 .0274653
1135.150 .0276224
1135.760 .0277838
1136.370 .0279413
1136.981 .0280965
1137.592 .0282414
1138.204 .0283758
1138.817 .0285077
1139.431 .0286448
1140.045 .0287848
1140.660 .0289170
1141.275 .0290748
1141.891 .0292205
1142.508 .0295560
1143.126 .0295809
1143.744 .0293319
1144.363 .0302671
1144.983 .0297420
