Measurement Sequence started on: 15-12-46-377
Integration time: 28
Scans to Average: 2 
>>>>>Begin Spectral Data<<<<<
432.689 .0000100
433.621 .0000100
434.552 .0000100
435.482 .0000100
436.410 .0000100
437.337 .0000100
438.262 .0281140
439.187 .0594351
440.110 .0982931
441.031 .1420197
441.952 .1843560
442.871 .2175173
443.789 .2354523
444.705 .2361313
445.621 .2222324
446.535 .1993628
447.447 .1736532
448.359 .1344037
449.269 .1152190
450.178 .1032205
451.086 .0948175
451.993 .0884083
452.898 .0833382
453.803 .0792068
454.706 .0758018
455.608 .0729122
456.508 .0704718
457.408 .0683827
458.306 .0665551
459.204 .0649398
460.100 .0635107
460.995 .0622104
461.888 .0610216
462.781 .0599151
463.673 .0588660
464.563 .0578814
465.452 .0569449
466.340 .0560484
467.228 .0552067
468.114 .0544180
468.999 .0536732
469.882 .0529788
470.765 .0523368
471.647 .0517389
472.528 .0511884
473.407 .0506932
474.286 .0502437
475.163 .0498361
476.040 .0494774
476.915 .0491500
477.790 .0488522
478.663 .0485833
479.535 .0483285
480.407 .0480959
481.277 .0478847
482.147 .0476973
483.015 .0475325
483.883 .0474007
484.749 .0472937
485.615 .0472114
486.479 .0471589
487.343 .0471313
488.206 .0471208
489.067 .0471288
489.928 .0471552
490.788 .0471996
491.647 .0472671
492.505 .0473629
493.362 .0474859
494.218 .0476434
495.073 .0478232
495.928 .0480287
496.781 .0482492
497.634 .0484936
498.486 .0487497
499.337 .0490243
500.187 .0493164
501.036 .0496251
501.884 .0499516
502.731 .0503022
503.578 .0506782
504.424 .0510866
505.268 .0515070
506.113 .0519513
506.956 .0524171
507.798 .0529267
508.640 .0534773
509.480 .0540927
510.320 .0547842
511.160 .0555657
511.998 .0564337
512.836 .0574088
513.672 .0584734
514.508 .0596380
515.344 .0608838
516.178 .0622339
517.012 .0636889
517.845 .0652902
518.677 .0670655
519.508 .0690656
520.339 .0713753
521.169 .0740653
521.998 .0771532
522.826 .0807482
523.654 .0848820
524.481 .0895705
525.307 .0948498
526.133 .1006877
526.958 .1070196
527.782 .1138218
528.605 .1209445
529.428 .1282720
530.250 .1352830
531.072 .1417840
531.892 .1473495
532.712 .1516875
533.532 .1545945
534.350 .1557491
535.168 .1550964
535.986 .1527199
536.802 .1487216
537.618 .1434365
538.434 .1370773
539.249 .1302171
540.063 .1230479
540.876 .1159173
541.689 .1090495
542.501 .1026403
543.313 .0968749
544.124 .0917679
544.934 .0872208
545.744 .0831836
546.553 .0795659
547.361 .0763738
548.169 .0735394
548.976 .0709885
549.783 .0686932
550.589 .0666154
551.395 .0646808
552.200 .0629038
553.004 .0612475
553.808 .0597110
554.611 .0582894
555.414 .0569789
556.216 .0557718
557.018 .0546677
557.819 .0536621
558.619 .0527366
559.419 .0518874
560.218 .0511056
561.017 .0503578
561.815 .0496248
562.613 .0489116
563.410 .0482062
564.207 .0475083
565.003 .0468286
565.799 .0461678
566.594 .0455261
567.388 .0449169
568.182 .0443324
568.976 .0437677
569.769 .0432148
570.562 .0426759
571.354 .0421344
572.145 .0415989
572.936 .0410700
573.727 .0405450
574.517 .0400328
575.307 .0395444
576.096 .0390768
576.885 .0386308
577.673 .0382124
578.461 .0378228
579.248 .0374540
580.035 .0371090
580.821 .0367816
581.607 .0364703
582.392 .0361777
583.177 .0359043
583.962 .0356491
584.746 .0354175
585.529 .0352096
586.313 .0350212
587.095 .0348527
587.878 .0347028
588.660 .0345667
589.441 .0344426
590.222 .0343277
591.003 .0342224
591.783 .0341236
592.563 .0340338
593.342 .0339515
594.121 .0338755
594.899 .0338070
595.678 .0337447
596.455 .0336858
597.233 .0336300
598.009 .0335757
598.786 .0335227
599.562 .0334717
600.338 .0334233
601.113 .0333764
601.888 .0333317
602.663 .0332893
603.437 .0332483
604.211 .0332081
604.984 .0331690
605.757 .0331302
606.530 .0330915
607.302 .0330543
608.074 .0330185
608.845 .0329847
609.616 .0329539
610.387 .0329250
611.158 .0328983
611.928 .0328728
612.697 .0328483
613.467 .0328236
614.236 .0327989
615.004 .0327745
615.773 .0327495
616.541 .0327249
617.308 .0327003
618.076 .0326752
618.843 .0326499
619.609 .0326247
620.375 .0325984
621.141 .0325711
621.907 .0325430
622.672 .0325139
623.437 .0324841
624.202 .0324533
624.966 .0324216
625.730 .0323890
626.493 .0323556
627.257 .0323220
628.020 .0322876
628.782 .0322537
629.545 .0322199
630.307 .0321868
631.068 .0321550
631.830 .0321240
632.591 .0320926
633.352 .0320612
634.112 .0320291
634.872 .0319966
635.632 .0319630
636.392 .0319288
637.151 .0318947
637.910 .0318611
638.668 .0318283
639.427 .0317965
640.185 .0317662
640.943 .0317366
641.700 .0317075
642.457 .0316790
643.214 .0316503
643.971 .0316214
644.727 .0315939
645.483 .0315684
646.239 .0315451
646.994 .0315237
647.750 .0315039
648.505 .0314853
649.259 .0314679
650.014 .0314503
650.768 .0314321
651.521 .0314133
652.275 .0313939
653.028 .0313732
653.781 .0313526
654.534 .0313318
655.286 .0313108
656.039 .0312902
656.791 .0312688
657.542 .0312455
658.294 .0312207
659.045 .0311943
659.796 .0311666
660.546 .0311376
661.297 .0311083
662.047 .0310788
662.796 .0310499
663.546 .0310224
664.295 .0309955
665.044 .0309698
665.793 .0309453
666.542 .0309215
667.290 .0308983
668.038 .0308758
668.786 .0308532
669.533 .0308306
670.281 .0308087
671.028 .0307869
671.774 .0307653
672.521 .0307444
673.267 .0307240
674.013 .0307043
674.759 .0306850
675.505 .0306664
676.250 .0306476
676.995 .0306287
677.740 .0306097
678.484 .0305900
679.229 .0305703
679.973 .0305504
680.717 .0305307
681.460 .0305114
682.204 .0304926
682.947 .0304737
683.690 .0304551
684.433 .0304367
685.175 .0304182
685.917 .0303997
686.659 .0303813
687.401 .0303635
688.142 .0303458
688.884 .0303285
689.625 .0303116
690.365 .0302939
691.106 .0302759
691.846 .0302570
692.586 .0302372
693.326 .0302162
694.066 .0301948
694.805 .0301734
695.545 .0301524
696.284 .0301320
697.022 .0301122
697.761 .0300929
698.499 .0300744
699.237 .0300559
699.975 .0300369
700.713 .0300180
701.450 .0299988
702.187 .0299798
702.924 .0299614
703.661 .0299435
704.397 .0299263
705.133 .0299094
705.869 .0298938
706.605 .0298789
707.341 .0298645
708.076 .0298505
708.811 .0298366
709.546 .0298226
710.281 .0298080
711.015 .0297931
711.749 .0297773
712.483 .0297613
713.217 .0297446
713.950 .0297271
714.684 .0297091
715.417 .0296905
716.150 .0296718
716.882 .0296531
717.615 .0296344
718.347 .0296152
719.079 .0295953
719.811 .0295754
720.542 .0295551
721.273 .0295343
722.005 .0295133
722.735 .0294923
723.466 .0294716
724.196 .0294514
724.927 .0294309
725.656 .0294104
726.386 .0293902
727.116 .0293699
727.845 .0293495
728.574 .0293286
729.303 .0293080
730.031 .0292878
730.760 .0292686
731.488 .0292505
732.216 .0292335
732.944 .0292182
733.671 .0292042
734.398 .0291912
735.125 .0291796
735.852 .0291684
736.579 .0291580
737.305 .0291484
738.031 .0291393
738.757 .0291307
739.483 .0291222
740.208 .0291141
740.933 .0291063
741.658 .0290983
742.383 .0290901
743.108 .0290808
743.832 .0290709
744.556 .0290601
745.280 .0290480
746.004 .0290346
746.727 .0290199
747.450 .0290048
748.173 .0289884
748.896 .0289711
749.618 .0289533
750.340 .0289348
751.062 .0289159
751.784 .0288970
752.506 .0288777
753.227 .0288585
753.948 .0288394
754.669 .0288206
755.389 .0288015
756.110 .0287826
756.830 .0287634
757.550 .0287440
758.269 .0287248
758.989 .0287057
759.708 .0286860
760.427 .0286666
761.146 .0286476
761.864 .0286292
762.582 .0286114
763.300 .0285946
764.018 .0285788
764.736 .0285642
765.453 .0285503
766.170 .0285372
766.887 .0285249
767.603 .0285136
768.320 .0285028
769.036 .0284931
769.751 .0284839
770.467 .0284752
771.182 .0284672
771.897 .0284592
772.612 .0284511
773.327 .0284424
774.041 .0284334
774.755 .0284238
775.469 .0284137
776.183 .0284036
776.896 .0283934
777.609 .0283836
778.322 .0283742
779.035 .0283650
779.747 .0283564
780.459 .0283475
781.171 .0283389
781.882 .0283301
782.594 .0283214
783.305 .0283129
784.016 .0283053
784.726 .0282985
785.436 .0282929
786.147 .0282879
786.856 .0282835
787.566 .0282794
788.275 .0282751
788.984 .0282707
789.693 .0282658
790.401 .0282603
791.110 .0282541
791.818 .0282471
792.525 .0282401
793.233 .0282323
793.940 .0282242
794.647 .0282160
795.353 .0282072
796.060 .0281981
796.766 .0281885
797.472 .0281786
798.177 .0281686
798.883 .0281586
799.588 .0281485
800.292 .0281387
800.997 .0281291
801.701 .0281195
802.405 .0281101
803.109 .0281010
803.812 .0280925
804.515 .0280838
805.218 .0280753
805.921 .0280666
806.623 .0280580
807.325 .0280493
808.027 .0280402
808.728 .0280313
809.429 .0280218
810.130 .0280114
810.831 .0280003
811.531 .0279882
812.231 .0279752
812.931 .0279612
813.630 .0279463
814.330 .0279308
815.029 .0279152
815.727 .0278993
816.426 .0278840
817.124 .0278697
817.821 .0278565
818.519 .0278438
819.216 .0278319
819.913 .0278207
820.609 .0278098
821.306 .0277996
822.002 .0277902
822.697 .0277820
823.393 .0277752
824.088 .0277698
824.783 .0277656
825.477 .0277624
826.171 .0277598
826.865 .0277570
827.559 .0277538
828.252 .0277494
828.945 .0277434
829.638 .0277359
830.330 .0277278
831.023 .0277186
831.714 .0277088
832.406 .0276984
833.097 .0276873
833.788 .0276754
834.479 .0276628
835.169 .0276494
835.859 .0276358
836.548 .0276224
837.238 .0276094
837.927 .0275968
838.615 .0275854
839.304 .0275750
839.992 .0275657
840.680 .0275576
841.367 .0275503
842.054 .0275434
842.741 .0275374
843.428 .0275322
844.114 .0275280
844.800 .0275246
845.485 .0275218
846.170 .0275191
846.855 .0275159
847.540 .0275118
848.224 .0275061
848.908 .0274990
849.592 .0274907
850.275 .0274807
850.958 .0274695
851.641 .0274573
852.323 .0274438
853.005 .0274290
853.687 .0274127
854.368 .0273949
855.049 .0273752
855.730 .0273541
856.410 .0273319
857.090 .0273093
857.769 .0272868
858.449 .0272654
859.128 .0272449
859.806 .0272260
860.485 .0272085
861.163 .0271923
861.840 .0271770
862.518 .0271627
863.195 .0271493
863.871 .0271363
864.548 .0271240
865.224 .0271125
865.899 .0271010
866.574 .0270899
867.249 .0270787
867.924 .0270670
868.598 .0270545
869.272 .0270412
869.946 .0270268
870.619 .0270110
871.292 .0269937
871.964 .0269751
872.636 .0269552
873.308 .0269346
873.979 .0269135
874.651 .0268923
875.321 .0268717
875.992 .0268520
876.662 .0268331
877.331 .0268153
878.001 .0267988
878.670 .0267837
879.338 .0267693
880.007 .0267560
880.675 .0267436
881.342 .0267321
882.009 .0267215
882.676 .0267118
883.343 .0267026
884.009 .0266934
884.675 .0266843
885.340 .0266746
886.005 .0266640
886.670 .0266530
887.334 .0266415
887.998 .0266301
888.662 .0266192
889.325 .0266090
889.988 .0265994
890.650 .0265912
891.312 .0265841
891.974 .0265777
892.636 .0265720
893.297 .0265674
893.957 .0265634
894.618 .0265599
895.278 .0265573
895.937 .0265554
896.596 .0265543
897.255 .0265540
897.914 .0265540
898.572 .0265542
899.230 .0265542
899.887 .0265541
900.544 .0265532
901.201 .0265517
901.857 .0265494
902.513 .0265455
903.168 .0265404
903.823 .0265335
904.478 .0265245
905.132 .0265136
905.786 .0265011
906.440 .0264871
907.093 .0264719
907.746 .0264563
908.399 .0264402
909.051 .0264240
909.703 .0264075
910.354 .0263906
911.005 .0263735
911.656 .0263563
912.306 .0263388
912.956 .0263209
913.605 .0263033
914.254 .0262865
914.903 .0262704
915.551 .0262559
916.199 .0262433
916.847 .0262330
917.494 .0262244
918.141 .0262177
918.788 .0262120
919.434 .0262074
920.079 .0262031
920.725 .0261985
921.370 .0261933
922.014 .0261876
922.658 .0261806
923.302 .0261724
923.946 .0261634
924.589 .0261534
925.231 .0261417
925.873 .0261295
926.515 .0261164
927.157 .0261026
927.798 .0260879
928.439 .0260728
929.079 .0260567
929.719 .0260397
930.359 .0260216
930.998 .0260024
931.637 .0259824
932.275 .0259627
932.913 .0259432
933.551 .0259247
934.188 .0259079
934.825 .0258939
935.462 .0258818
936.098 .0258724
936.733 .0258649
937.369 .0258589
938.004 .0258541
938.638 .0258498
939.273 .0258455
939.907 .0258414
940.540 .0258377
941.173 .0258344
941.806 .0258320
942.438 .0258312
943.070 .0258315
943.702 .0258330
944.333 .0258349
944.964 .0258371
945.594 .0258387
946.224 .0258395
946.854 .0258393
947.483 .0258382
948.112 .0258366
948.741 .0258345
949.369 .0258326
949.996 .0258310
950.624 .0258300
951.251 .0258294
951.878 .0258290
952.504 .0258290
953.130 .0258286
953.755 .0258277
954.380 .0258260
955.005 .0258237
955.629 .0258202
956.253 .0258155
956.877 .0258101
957.500 .0258042
958.123 .0257976
958.746 .0257904
959.368 .0257823
959.990 .0257734
960.611 .0257638
961.232 .0257539
961.853 .0257438
962.473 .0257343
963.093 .0257249
963.712 .0257160
964.331 .0257079
964.950 .0257003
965.569 .0256936
966.187 .0256880
966.804 .0256832
967.422 .0256795
968.039 .0256766
968.655 .0256748
969.272 .0256734
969.887 .0256725
970.503 .0256716
971.118 .0256706
971.733 .0256696
972.347 .0256681
972.961 .0256666
973.575 .0256653
974.188 .0256638
974.801 .0256617
975.414 .0256588
976.026 .0256550
976.638 .0256501
977.250 .0256443
977.861 .0256375
978.472 .0256308
979.083 .0256237
979.693 .0256162
980.303 .0256081
980.912 .0255990
981.521 .0255887
982.130 .0255767
982.738 .0255624
983.346 .0255460
983.954 .0255278
984.562 .0255082
985.169 .0254875
985.775 .0254666
986.382 .0254453
986.988 .0254237
987.594 .0254025
988.199 .0253815
988.804 .0253607
989.409 .0253410
990.013 .0253223
990.617 .0253053
991.221 .0252903
991.824 .0252775
992.427 .0252668
993.030 .0252588
993.632 .0252531
994.234 .0252488
994.836 .0252458
995.438 .0252441
996.039 .0252428
996.640 .0252418
997.240 .0252412
997.840 .0252403
998.440 .0252395
999.040 .0252382
999.639 .0252364
1000.238 .0252342
1000.836 .0252310
1001.435 .0252270
1002.033 .0252218
1002.630 .0252155
1003.228 .0252081
1003.825 .0251993
1004.422 .0251906
1005.018 .0251817
1005.614 .0251729
1006.210 .0251650
1006.806 .0251580
1007.401 .0251516
1007.996 .0251455
1008.591 .0251391
1009.186 .0251326
1009.780 .0251257
1010.374 .0251180
1010.967 .0251096
1011.561 .0251012
1012.154 .0250931
1012.746 .0250855
1013.339 .0250785
1013.931 .0250721
1014.523 .0250656
1015.115 .0250588
1015.706 .0250517
1016.298 .0250435
1016.888 .0250347
1017.479 .0250254
1018.069 .0250164
1018.660 .0250079
1019.250 .0249999
1019.839 .0249925
1020.429 .0249867
1021.018 .0249819
1021.607 .0249776
1022.195 .0249735
1022.784 .0249701
1023.372 .0249671
1023.960 .0249646
1024.547 .0249630
1025.135 .0249625
1025.722 .0249635
1026.309 .0249658
1026.896 .0249688
1027.483 .0249724
1028.069 .0249757
1028.655 .0249788
1029.241 .0249817
1029.827 .0249841
1030.412 .0249860
1030.997 .0249881
1031.582 .0249906
1032.167 .0249933
1032.752 .0249961
1033.336 .0249988
1033.921 .0250020
1034.505 .0250050
1035.089 .0250073
1035.672 .0250085
1036.256 .0250090
1036.839 .0250091
1037.422 .0250085
1038.005 .0250079
1038.588 .0250072
1039.171 .0250066
1039.753 .0250053
1040.335 .0250031
1040.918 .0250003
1041.500 .0249959
1042.081 .0249905
1042.663 .0249841
1043.244 .0249763
1043.826 .0249678
1044.407 .0249584
1044.988 .0249485
1045.569 .0249383
1046.150 .0249282
1046.730 .0249172
1047.311 .0249064
1047.891 .0248957
1048.471 .0248849
1049.052 .0248740
1049.632 .0248645
1050.211 .0248554
1050.791 .0248472
1051.371 .0248402
1051.950 .0248342
1052.530 .0248293
1053.109 .0248268
1053.688 .0248252
1054.268 .0248255
1054.847 .0248267
1055.426 .0248287
1056.005 .0248308
1056.583 .0248345
1057.162 .0248389
1057.741 .0248435
1058.319 .0248490
1058.898 .0248551
1059.476 .0248608
1060.055 .0248664
1060.633 .0248708
1061.211 .0248741
1061.790 .0248754
1062.368 .0248754
1062.946 .0248723
1063.524 .0248679
1064.102 .0248622
1064.680 .0248557
1065.258 .0248492
1065.836 .0248431
1066.414 .0248372
1066.992 .0248315
1067.570 .0248262
1068.148 .0248203
1068.726 .0248139
1069.304 .0248080
1069.882 .0248023
1070.460 .0247974
1071.038 .0247932
1071.616 .0247911
1072.194 .0247916
1072.772 .0247948
1073.350 .0248006
1073.928 .0248086
1074.506 .0248190
1075.084 .0248295
1075.662 .0248402
1076.240 .0248501
1076.819 .0248590
1077.397 .0248675
1077.976 .0248755
1078.554 .0248832
1079.133 .0248920
1079.711 .0249013
1080.290 .0249115
1080.869 .0249219
1081.448 .0249314
1082.027 .0249393
1082.606 .0249443
1083.185 .0249462
1083.764 .0249458
1084.343 .0249433
1084.923 .0249406
1085.502 .0249385
1086.082 .0249388
1086.662 .0249429
1087.242 .0249504
1087.822 .0249606
1088.402 .0249729
1088.983 .0249864
1089.563 .0250001
1090.144 .0250129
1090.725 .0250268
1091.306 .0250440
1091.887 .0250627
1092.469 .0250870
1093.050 .0251157
1093.632 .0251475
1094.214 .0251825
1094.796 .0252168
1095.379 .0252478
1095.961 .0252750
1096.544 .0252972
1097.127 .0253135
1097.710 .0253273
1098.294 .0253421
1098.877 .0253573
1099.461 .0253761
1100.046 .0254003
1100.630 .0254271
1101.215 .0254555
1101.800 .0254851
1102.385 .0255114
1102.970 .0255348
1103.556 .0255552
1104.142 .0255718
1104.728 .0255901
1105.315 .0256123
1105.902 .0256392
1106.489 .0256720
1107.077 .0257104
1107.664 .0257522
1108.253 .0257934
1108.841 .0258344
1109.430 .0258723
1110.019 .0259070
1110.609 .0259383
1111.198 .0259675
1111.789 .0259972
1112.379 .0260286
1112.970 .0260587
1113.561 .0260914
1114.153 .0261246
1114.745 .0261585
1115.338 .0261932
1115.931 .0262313
1116.524 .0262714
1117.117 .0263172
1117.712 .0263671
1118.306 .0264217
1118.901 .0264803
1119.496 .0265413
1120.092 .0266027
1120.689 .0266664
1121.285 .0267261
1121.882 .0267805
1122.480 .0268335
1123.078 .0268897
1123.677 .0269466
1124.276 .0270102
1124.875 .0270809
1125.476 .0271587
1126.076 .0272414
1126.677 .0273268
1127.279 .0274116
1127.881 .0274954
1128.484 .0275752
1129.087 .0276438
1129.691 .0277103
1130.295 .0277741
1130.900 .0278345
1131.505 .0278991
1132.111 .0279708
1132.718 .0280491
1133.325 .0281304
1133.933 .0282171
1134.541 .0283054
1135.150 .0283958
1135.760 .0284916
1136.370 .0285868
1136.981 .0286895
1137.592 .0287990
1138.204 .0289154
1138.817 .0290429
1139.431 .0291860
1140.045 .0293480
1140.660 .0295336
1141.275 .0297536
1141.891 .0299827
1142.508 .0301052
1143.126 .0304475
1143.744 .0308691
1144.363 .0314132
1144.983 .0311444
