Measurement Sequence started on: 15-12-46-377
Integration time: 28
Scans to Average: 2 
>>>>>Begin Spectral Data<<<<<
432.689 .0000100
433.621 .0000100
434.552 .0000100
435.482 .0000100
436.410 .0000100
437.337 .0000100
438.262 .0272403
439.187 .0576577
440.110 .0954259
441.031 .1380115
441.952 .1793310
442.871 .2118211
443.789 .2296182
444.705 .2306855
445.621 .2175602
446.535 .1956893
447.447 .1709639
448.359 .1330342
449.269 .1144193
450.178 .1027551
451.086 .0945380
451.993 .0882558
452.898 .0832961
453.803 .0792276
454.706 .0758810
455.608 .0730496
456.508 .0706167
457.408 .0685351
458.306 .0667089
459.204 .0650804
460.100 .0636113
460.995 .0622807
461.888 .0610575
462.781 .0599037
463.673 .0588201
464.563 .0577940
465.452 .0568054
466.340 .0558631
467.228 .0549748
468.114 .0541358
468.999 .0533654
469.882 .0526374
470.765 .0519610
471.647 .0513465
472.528 .0507842
473.407 .0502740
474.286 .0498212
475.163 .0494218
476.040 .0490711
476.915 .0487678
477.790 .0485164
478.663 .0483016
479.535 .0481210
480.407 .0479708
481.277 .0478370
482.147 .0477220
483.015 .0476176
483.883 .0475208
484.749 .0474375
485.615 .0473742
486.479 .0473209
487.343 .0472774
488.206 .0472486
489.067 .0472200
489.928 .0471896
490.788 .0471610
491.647 .0471262
492.505 .0470896
493.362 .0470629
494.218 .0470511
495.073 .0470530
495.928 .0470957
496.781 .0471719
497.634 .0472929
498.486 .0474630
499.337 .0476690
500.187 .0479034
501.036 .0481712
501.884 .0484698
502.731 .0487937
503.578 .0491539
504.424 .0495563
505.268 .0499881
506.113 .0504671
506.956 .0509848
507.798 .0515393
508.640 .0521365
509.480 .0527970
510.320 .0535042
511.160 .0542787
511.998 .0551239
512.836 .0560500
513.672 .0570818
514.508 .0582220
515.344 .0594812
516.178 .0608853
517.012 .0624513
517.845 .0642116
518.677 .0661694
519.508 .0684000
520.339 .0709631
521.169 .0739276
521.998 .0773159
522.826 .0812097
523.654 .0856088
524.481 .0905005
525.307 .0959010
526.133 .1017534
526.958 .1080307
527.782 .1147016
528.605 .1215704
529.428 .1285801
530.250 .1352407
531.072 .1413824
531.892 .1465961
532.712 .1506376
533.532 .1532517
534.350 .1541713
535.168 .1533641
535.986 .1509054
536.802 .1469143
537.618 .1417212
538.434 .1355129
539.249 .1287864
540.063 .1217070
540.876 .1146071
541.689 .1076860
542.501 .1011780
543.313 .0952099
544.124 .0898128
544.934 .0849257
545.744 .0805659
546.553 .0766552
547.361 .0731835
548.169 .0701393
548.976 .0674378
549.783 .0650413
550.589 .0629177
551.395 .0609766
552.200 .0592390
553.004 .0576555
553.808 .0562074
554.611 .0548752
555.414 .0536690
556.216 .0525642
557.018 .0515601
557.819 .0506518
558.619 .0498246
559.419 .0490637
560.218 .0483748
561.017 .0477226
561.815 .0471047
562.613 .0465183
563.410 .0459501
564.207 .0453880
565.003 .0448378
565.799 .0442912
566.594 .0437517
567.388 .0432313
568.182 .0427284
568.976 .0422350
569.769 .0417579
570.562 .0412923
571.354 .0408340
572.145 .0403806
572.936 .0399290
573.727 .0394808
574.517 .0390392
575.307 .0386067
576.096 .0381894
576.885 .0377966
577.673 .0374319
578.461 .0370930
579.248 .0367801
580.035 .0364898
580.821 .0362185
581.607 .0359613
582.392 .0357142
583.177 .0354772
583.962 .0352517
584.746 .0350399
585.529 .0348435
586.313 .0346630
587.095 .0345002
587.878 .0343510
588.660 .0342197
589.441 .0340979
590.222 .0339851
591.003 .0338802
591.783 .0337818
592.563 .0336871
593.342 .0335951
594.121 .0335047
594.899 .0334193
595.678 .0333383
596.455 .0332620
597.233 .0331903
598.009 .0331252
598.786 .0330657
599.562 .0330123
600.338 .0329641
601.113 .0329224
601.888 .0328842
602.663 .0328481
603.437 .0328126
604.211 .0327766
604.984 .0327399
605.757 .0327032
606.530 .0326672
607.302 .0326327
608.074 .0325992
608.845 .0325679
609.616 .0325392
610.387 .0325141
611.158 .0324908
611.928 .0324683
612.697 .0324457
613.467 .0324222
614.236 .0323972
615.004 .0323711
615.773 .0323455
616.541 .0323206
617.308 .0322974
618.076 .0322759
618.843 .0322559
619.609 .0322378
620.375 .0322212
621.141 .0322051
621.907 .0321889
622.672 .0321712
623.437 .0321517
624.202 .0321305
624.966 .0321083
625.730 .0320852
626.493 .0320613
627.257 .0320366
628.020 .0320111
628.782 .0319845
629.545 .0319574
630.307 .0319293
631.068 .0319014
631.830 .0318734
632.591 .0318451
633.352 .0318166
634.112 .0317883
634.872 .0317599
635.632 .0317318
636.392 .0317030
637.151 .0316735
637.910 .0316435
638.668 .0316137
639.427 .0315846
640.185 .0315568
640.943 .0315305
641.700 .0315052
642.457 .0314804
643.214 .0314560
643.971 .0314300
644.727 .0314032
645.483 .0313754
646.239 .0313463
646.994 .0313165
647.750 .0312862
648.505 .0312564
649.259 .0312277
650.014 .0312001
650.768 .0311729
651.521 .0311464
652.275 .0311200
653.028 .0310934
653.781 .0310663
654.534 .0310392
655.286 .0310120
656.039 .0309847
656.791 .0309586
657.542 .0309329
658.294 .0309083
659.045 .0308853
659.796 .0308635
660.546 .0308430
661.297 .0308233
662.047 .0308037
662.796 .0307846
663.546 .0307663
664.295 .0307483
665.044 .0307299
665.793 .0307122
666.542 .0306950
667.290 .0306781
668.038 .0306612
668.786 .0306444
669.533 .0306269
670.281 .0306098
671.028 .0305919
671.774 .0305736
672.521 .0305554
673.267 .0305375
674.013 .0305200
674.759 .0305035
675.505 .0304881
676.250 .0304737
676.995 .0304600
677.740 .0304475
678.484 .0304358
679.229 .0304248
679.973 .0304146
680.717 .0304056
681.460 .0303976
682.204 .0303904
682.947 .0303840
683.690 .0303786
684.433 .0303736
685.175 .0303690
685.917 .0303643
686.659 .0303595
687.401 .0303546
688.142 .0303497
688.884 .0303448
689.625 .0303395
690.365 .0303336
691.106 .0303262
691.846 .0303173
692.586 .0303067
693.326 .0302941
694.066 .0302802
694.805 .0302657
695.545 .0302503
696.284 .0302344
697.022 .0302179
697.761 .0302014
698.499 .0301841
699.237 .0301663
699.975 .0301473
700.713 .0301272
701.450 .0301060
702.187 .0300844
702.924 .0300629
703.661 .0300421
704.397 .0300219
705.133 .0300027
705.869 .0299842
706.605 .0299665
707.341 .0299486
708.076 .0299309
708.811 .0299127
709.546 .0298938
710.281 .0298739
711.015 .0298534
711.749 .0298322
712.483 .0298106
713.217 .0297882
713.950 .0297649
714.684 .0297406
715.417 .0297151
716.150 .0296882
716.882 .0296603
717.615 .0296318
718.347 .0296028
719.079 .0295734
719.811 .0295442
720.542 .0295151
721.273 .0294864
722.005 .0294581
722.735 .0294299
723.466 .0294022
724.196 .0293743
724.927 .0293464
725.656 .0293185
726.386 .0292913
727.116 .0292648
727.845 .0292390
728.574 .0292143
729.303 .0291910
730.031 .0291685
730.760 .0291474
731.488 .0291269
732.216 .0291070
732.944 .0290878
733.671 .0290691
734.398 .0290511
735.125 .0290339
735.852 .0290182
736.579 .0290036
737.305 .0289907
738.031 .0289797
738.757 .0289697
739.483 .0289604
740.208 .0289514
740.933 .0289417
741.658 .0289309
742.383 .0289189
743.108 .0289056
743.832 .0288913
744.556 .0288769
745.280 .0288621
746.004 .0288477
746.727 .0288343
747.450 .0288221
748.173 .0288103
748.896 .0287996
749.618 .0287888
750.340 .0287784
751.062 .0287687
751.784 .0287602
752.506 .0287529
753.227 .0287481
753.948 .0287459
754.669 .0287462
755.389 .0287490
756.110 .0287543
756.830 .0287608
757.550 .0287688
758.269 .0287773
758.989 .0287854
759.708 .0287926
760.427 .0287992
761.146 .0288042
761.864 .0288084
762.582 .0288114
763.300 .0288128
764.018 .0288133
764.736 .0288131
765.453 .0288123
766.170 .0288107
766.887 .0288088
767.603 .0288069
768.320 .0288047
769.036 .0288026
769.751 .0288004
770.467 .0287985
771.182 .0287972
771.897 .0287959
772.612 .0287948
773.327 .0287942
774.041 .0287933
774.755 .0287922
775.469 .0287909
776.183 .0287887
776.896 .0287857
777.609 .0287816
778.322 .0287764
779.035 .0287701
779.747 .0287620
780.459 .0287521
781.171 .0287405
781.882 .0287273
782.594 .0287122
783.305 .0286956
784.016 .0286782
784.726 .0286598
785.436 .0286405
786.147 .0286204
786.856 .0285997
787.566 .0285784
788.275 .0285568
788.984 .0285347
789.693 .0285123
790.401 .0284899
791.110 .0284671
791.818 .0284441
792.525 .0284210
793.233 .0283974
793.940 .0283729
794.647 .0283476
795.353 .0283216
796.060 .0282949
796.766 .0282678
797.472 .0282407
798.177 .0282138
798.883 .0281875
799.588 .0281618
800.292 .0281362
800.997 .0281109
801.701 .0280860
802.405 .0280610
803.109 .0280365
803.812 .0280124
804.515 .0279887
805.218 .0279653
805.921 .0279420
806.623 .0279187
807.325 .0278951
808.027 .0278713
808.728 .0278468
809.429 .0278215
810.130 .0277959
810.831 .0277703
811.531 .0277447
812.231 .0277193
812.931 .0276938
813.630 .0276678
814.330 .0276408
815.029 .0276126
815.727 .0275832
816.426 .0275533
817.124 .0275233
817.821 .0274941
818.519 .0274663
819.216 .0274405
819.913 .0274165
820.609 .0273946
821.306 .0273741
822.002 .0273545
822.697 .0273353
823.393 .0273166
824.088 .0272984
824.783 .0272809
825.477 .0272643
826.171 .0272495
826.865 .0272367
827.559 .0272259
828.252 .0272166
828.945 .0272084
829.638 .0272010
830.330 .0271940
831.023 .0271868
831.714 .0271797
832.406 .0271730
833.097 .0271666
833.788 .0271610
834.479 .0271562
835.169 .0271523
835.859 .0271492
836.548 .0271470
837.238 .0271450
837.927 .0271428
838.615 .0271409
839.304 .0271393
839.992 .0271381
840.680 .0271381
841.367 .0271390
842.054 .0271414
842.741 .0271454
843.428 .0271508
844.114 .0271573
844.800 .0271652
845.485 .0271737
846.170 .0271826
846.855 .0271916
847.540 .0272010
848.224 .0272110
848.908 .0272216
849.592 .0272332
850.275 .0272455
850.958 .0272585
851.641 .0272721
852.323 .0272861
853.005 .0273005
853.687 .0273141
854.368 .0273274
855.049 .0273403
855.730 .0273530
856.410 .0273656
857.090 .0273785
857.769 .0273913
858.449 .0274037
859.128 .0274153
859.806 .0274257
860.485 .0274351
861.163 .0274437
861.840 .0274513
862.518 .0274578
863.195 .0274635
863.871 .0274686
864.548 .0274730
865.224 .0274773
865.899 .0274809
866.574 .0274837
867.249 .0274853
867.924 .0274857
868.598 .0274847
869.272 .0274830
869.946 .0274808
870.619 .0274779
871.292 .0274749
871.964 .0274715
872.636 .0274676
873.308 .0274639
873.979 .0274600
874.651 .0274558
875.321 .0274510
875.992 .0274457
876.662 .0274396
877.331 .0274330
878.001 .0274258
878.670 .0274180
879.338 .0274096
880.007 .0274005
880.675 .0273905
881.342 .0273802
882.009 .0273694
882.676 .0273579
883.343 .0273458
884.009 .0273330
884.675 .0273188
885.340 .0273036
886.005 .0272866
886.670 .0272690
887.334 .0272503
887.998 .0272303
888.662 .0272095
889.325 .0271881
889.988 .0271663
890.650 .0271444
891.312 .0271223
891.974 .0271002
892.636 .0270781
893.297 .0270562
893.957 .0270337
894.618 .0270110
895.278 .0269880
895.937 .0269640
896.596 .0269396
897.255 .0269148
897.914 .0268890
898.572 .0268625
899.230 .0268361
899.887 .0268088
900.544 .0267810
901.201 .0267526
901.857 .0267234
902.513 .0266938
903.168 .0266636
903.823 .0266325
904.478 .0266005
905.132 .0265682
905.786 .0265355
906.440 .0265017
907.093 .0264679
907.746 .0264336
908.399 .0263989
909.051 .0263641
909.703 .0263290
910.354 .0262935
911.005 .0262582
911.656 .0262230
912.306 .0261877
912.956 .0261528
913.605 .0261184
914.254 .0260845
914.903 .0260510
915.551 .0260179
916.199 .0259855
916.847 .0259537
917.494 .0259226
918.141 .0258922
918.788 .0258630
919.434 .0258356
920.079 .0258096
920.725 .0257855
921.370 .0257631
922.014 .0257422
922.658 .0257222
923.302 .0257026
923.946 .0256830
924.589 .0256622
925.231 .0256402
925.873 .0256170
926.515 .0255924
927.157 .0255668
927.798 .0255404
928.439 .0255136
929.079 .0254867
929.719 .0254593
930.359 .0254312
930.998 .0254029
931.637 .0253745
932.275 .0253456
932.913 .0253165
933.551 .0252875
934.188 .0252589
934.825 .0252309
935.462 .0252041
936.098 .0251786
936.733 .0251552
937.369 .0251343
938.004 .0251160
938.638 .0251002
939.273 .0250868
939.907 .0250754
940.540 .0250660
941.173 .0250577
941.806 .0250505
942.438 .0250435
943.070 .0250372
943.702 .0250314
944.333 .0250261
944.964 .0250217
945.594 .0250182
946.224 .0250153
946.854 .0250130
947.483 .0250111
948.112 .0250090
948.741 .0250062
949.369 .0250032
949.996 .0249999
950.624 .0249962
951.251 .0249928
951.878 .0249904
952.504 .0249890
953.130 .0249888
953.755 .0249894
954.380 .0249908
955.005 .0249926
955.629 .0249948
956.253 .0249969
956.877 .0249996
957.500 .0250035
958.123 .0250084
958.746 .0250146
959.368 .0250227
959.990 .0250320
960.611 .0250422
961.232 .0250536
961.853 .0250658
962.473 .0250780
963.093 .0250909
963.712 .0251044
964.331 .0251186
964.950 .0251337
965.569 .0251504
966.187 .0251685
966.804 .0251886
967.422 .0252104
968.039 .0252331
968.655 .0252568
969.272 .0252813
969.887 .0253052
970.503 .0253283
971.118 .0253506
971.733 .0253718
972.347 .0253911
972.961 .0254093
973.575 .0254266
974.188 .0254430
974.801 .0254590
975.414 .0254745
976.026 .0254891
976.638 .0255027
977.250 .0255149
977.861 .0255262
978.472 .0255362
979.083 .0255453
979.693 .0255536
980.303 .0255618
980.912 .0255705
981.521 .0255797
982.130 .0255898
982.738 .0256008
983.346 .0256124
983.954 .0256239
984.562 .0256347
985.169 .0256448
985.775 .0256539
986.382 .0256618
986.988 .0256686
987.594 .0256750
988.199 .0256806
988.804 .0256863
989.409 .0256923
990.013 .0256987
990.617 .0257058
991.221 .0257132
991.824 .0257211
992.427 .0257287
993.030 .0257367
993.632 .0257448
994.234 .0257530
994.836 .0257616
995.438 .0257704
996.039 .0257795
996.640 .0257892
997.240 .0257996
997.840 .0258108
998.440 .0258228
999.040 .0258351
999.639 .0258471
1000.238 .0258581
1000.836 .0258676
1001.435 .0258754
1002.033 .0258811
1002.630 .0258855
1003.228 .0258879
1003.825 .0258889
1004.422 .0258896
1005.018 .0258899
1005.614 .0258904
1006.210 .0258908
1006.806 .0258906
1007.401 .0258890
1007.996 .0258856
1008.591 .0258796
1009.186 .0258715
1009.780 .0258618
1010.374 .0258501
1010.967 .0258372
1011.561 .0258241
1012.154 .0258107
1012.746 .0257972
1013.339 .0257846
1013.931 .0257723
1014.523 .0257594
1015.115 .0257454
1015.706 .0257303
1016.298 .0257146
1016.888 .0256986
1017.479 .0256828
1018.069 .0256676
1018.660 .0256546
1019.250 .0256431
1019.839 .0256329
1020.429 .0256242
1021.018 .0256168
1021.607 .0256099
1022.195 .0256025
1022.784 .0255944
1023.372 .0255855
1023.960 .0255758
1024.547 .0255657
1025.135 .0255555
1025.722 .0255449
1026.309 .0255334
1026.896 .0255213
1027.483 .0255089
1028.069 .0254957
1028.655 .0254818
1029.241 .0254672
1029.827 .0254528
1030.412 .0254387
1030.997 .0254253
1031.582 .0254126
1032.167 .0254013
1032.752 .0253906
1033.336 .0253805
1033.921 .0253694
1034.505 .0253574
1035.089 .0253439
1035.672 .0253286
1036.256 .0253110
1036.839 .0252918
1037.422 .0252715
1038.005 .0252510
1038.588 .0252304
1039.171 .0252106
1039.753 .0251906
1040.335 .0251713
1040.918 .0251515
1041.500 .0251303
1042.081 .0251072
1042.663 .0250822
1043.244 .0250554
1043.826 .0250278
1044.407 .0249996
1044.988 .0249725
1045.569 .0249467
1046.150 .0249229
1046.730 .0249012
1047.311 .0248799
1047.891 .0248582
1048.471 .0248352
1049.052 .0248099
1049.632 .0247825
1050.211 .0247537
1050.791 .0247246
1051.371 .0246969
1051.950 .0246724
1052.530 .0246510
1053.109 .0246322
1053.688 .0246173
1054.268 .0246046
1054.847 .0245934
1055.426 .0245835
1056.005 .0245744
1056.583 .0245661
1057.162 .0245591
1057.741 .0245530
1058.319 .0245476
1058.898 .0245433
1059.476 .0245378
1060.055 .0245314
1060.633 .0245228
1061.211 .0245111
1061.790 .0244959
1062.368 .0244791
1062.946 .0244609
1063.524 .0244415
1064.102 .0244220
1064.680 .0244025
1065.258 .0243834
1065.836 .0243654
1066.414 .0243469
1066.992 .0243289
1067.570 .0243119
1068.148 .0242958
1068.726 .0242798
1069.304 .0242672
1069.882 .0242570
1070.460 .0242488
1071.038 .0242439
1071.616 .0242419
1072.194 .0242413
1072.772 .0242419
1073.350 .0242438
1073.928 .0242463
1074.506 .0242494
1075.084 .0242517
1075.662 .0242524
1076.240 .0242536
1076.819 .0242552
1077.397 .0242567
1077.976 .0242588
1078.554 .0242627
1079.133 .0242661
1079.711 .0242682
1080.290 .0242694
1080.869 .0242674
1081.448 .0242633
1082.027 .0242564
1082.606 .0242485
1083.185 .0242387
1083.764 .0242310
1084.343 .0242246
1084.923 .0242211
1085.502 .0242210
1086.082 .0242231
1086.662 .0242271
1087.242 .0242337
1087.822 .0242417
1088.402 .0242510
1088.983 .0242626
1089.563 .0242773
1090.144 .0242941
1090.725 .0243153
1091.306 .0243378
1091.887 .0243641
1092.469 .0243914
1093.050 .0244217
1093.632 .0244527
1094.214 .0244847
1094.796 .0245175
1095.379 .0245495
1095.961 .0245819
1096.544 .0246128
1097.127 .0246411
1097.710 .0246677
1098.294 .0246903
1098.877 .0247098
1099.461 .0247248
1100.046 .0247368
1100.630 .0247480
1101.215 .0247613
1101.800 .0247763
1102.385 .0247957
1102.970 .0248180
1103.556 .0248435
1104.142 .0248697
1104.728 .0248956
1105.315 .0249214
1105.902 .0249435
1106.489 .0249641
1107.077 .0249822
1107.664 .0250006
1108.253 .0250243
1108.841 .0250524
1109.430 .0250887
1110.019 .0251331
1110.609 .0251815
1111.198 .0252320
1111.789 .0252831
1112.379 .0253345
1112.970 .0253831
1113.561 .0254297
1114.153 .0254756
1114.745 .0255205
1115.338 .0255692
1115.931 .0256205
1116.524 .0256754
1117.117 .0257367
1117.712 .0258015
1118.306 .0258658
1118.901 .0259318
1119.496 .0259977
1120.092 .0260621
1120.689 .0261256
1121.285 .0261890
1121.882 .0262462
1122.480 .0263015
1123.078 .0263564
1123.677 .0264097
1124.276 .0264665
1124.875 .0265303
1125.476 .0265955
1126.076 .0266679
1126.677 .0267450
1127.279 .0268240
1127.881 .0269036
1128.484 .0269846
1129.087 .0270615
1129.691 .0271356
1130.295 .0272137
1130.900 .0272966
1131.505 .0273890
1132.111 .0274989
1132.718 .0276201
1133.325 .0277561
1133.933 .0279001
1134.541 .0280455
1135.150 .0281869
1135.760 .0283252
1136.370 .0284581
1136.981 .0285846
1137.592 .0287086
1138.204 .0288385
1138.817 .0289737
1139.431 .0291109
1140.045 .0292482
1140.660 .0293734
1141.275 .0295106
1141.891 .0296505
1142.508 .0297116
1143.126 .0298351
1143.744 .0296267
1144.363 .0304159
1144.983 .0306501
