Measurement Sequence started on: 15-12-46-377
Integration time: 28
Scans to Average: 2 
>>>>>Begin Spectral Data<<<<<
432.689 .0000100
433.621 .0000100
434.552 .0000100
435.482 .0000100
436.410 .0000100
437.337 .0000100
438.262 .0279185
439.187 .0592562
440.110 .0982704
441.031 .1421740
441.952 .1848395
442.871 .2184517
443.789 .2369049
444.705 .2381074
445.621 .2246184
446.535 .2020425
447.447 .1764868
448.359 .1373553
449.269 .1179258
450.178 .1056399
451.086 .0970291
451.993 .0903547
452.898 .0850188
453.803 .0806353
454.706 .0769835
455.608 .0738847
456.508 .0712412
457.408 .0689673
458.306 .0669841
459.204 .0652344
460.100 .0636591
460.995 .0622448
461.888 .0609576
462.781 .0597815
463.673 .0587036
464.563 .0577300
465.452 .0568319
466.340 .0559742
467.228 .0551705
468.114 .0544174
468.999 .0536946
469.882 .0530010
470.765 .0523260
471.647 .0516925
472.528 .0510969
473.407 .0505501
474.286 .0500536
475.163 .0496139
476.040 .0492323
476.915 .0488985
477.790 .0485941
478.663 .0483302
479.535 .0481026
480.407 .0479061
481.277 .0477458
482.147 .0476314
483.015 .0475534
483.883 .0475150
484.749 .0475038
485.615 .0475226
486.479 .0475565
487.343 .0476030
488.206 .0476465
489.067 .0476896
489.928 .0477363
490.788 .0477792
491.647 .0478310
492.505 .0479077
493.362 .0480015
494.218 .0481125
495.073 .0482487
495.928 .0484147
496.781 .0485968
497.634 .0488041
498.486 .0490327
499.337 .0492902
500.187 .0495696
501.036 .0498754
501.884 .0502075
502.731 .0505813
503.578 .0509896
504.424 .0514305
505.268 .0519048
506.113 .0524215
506.956 .0529644
507.798 .0535518
508.640 .0541864
509.480 .0548749
510.320 .0556192
511.160 .0564428
511.998 .0573506
512.836 .0583719
513.672 .0595213
514.508 .0608311
515.344 .0623090
516.178 .0639893
517.012 .0658698
517.845 .0680066
518.677 .0704079
519.508 .0730901
520.339 .0760814
521.169 .0794559
521.998 .0832313
522.826 .0874727
523.654 .0922626
524.481 .0975710
525.307 .1034383
526.133 .1097988
526.958 .1165284
527.782 .1235506
528.605 .1306491
529.428 .1376324
530.250 .1440741
531.072 .1498394
531.892 .1545606
532.712 .1580411
533.532 .1602010
534.350 .1607919
535.168 .1597435
535.986 .1571195
536.802 .1529909
537.618 .1475463
538.434 .1410658
539.249 .1339330
540.063 .1264087
540.876 .1189131
541.689 .1116393
542.501 .1048154
543.313 .0986167
544.124 .0930890
544.934 .0881424
545.744 .0837224
546.553 .0797938
547.361 .0762721
548.169 .0731573
548.976 .0703664
549.783 .0678585
550.589 .0656163
551.395 .0635626
552.200 .0616797
553.004 .0599537
553.808 .0583643
554.611 .0569206
555.414 .0556333
556.216 .0544765
557.018 .0534500
557.819 .0525219
558.619 .0516718
559.419 .0508740
560.218 .0501130
561.017 .0493666
561.815 .0486189
562.613 .0478906
563.410 .0471756
564.207 .0464776
565.003 .0458218
565.799 .0452083
566.594 .0446384
567.388 .0441116
568.182 .0436127
568.976 .0431259
569.769 .0426466
570.562 .0421632
571.354 .0416692
572.145 .0411733
572.936 .0406747
573.727 .0401806
574.517 .0397033
575.307 .0392531
576.096 .0388277
576.885 .0384259
577.673 .0380522
578.461 .0376996
579.248 .0373639
580.035 .0370457
580.821 .0367444
581.607 .0364611
582.392 .0361992
583.177 .0359627
583.962 .0357500
584.746 .0355646
585.529 .0353994
586.313 .0352525
587.095 .0351169
587.878 .0349882
588.660 .0348641
589.441 .0347444
590.222 .0346309
591.003 .0345249
591.783 .0344257
592.563 .0343368
593.342 .0342570
594.121 .0341838
594.899 .0341156
595.678 .0340516
596.455 .0339899
597.233 .0339301
598.009 .0338704
598.786 .0338106
599.562 .0337504
600.338 .0336914
601.113 .0336339
601.888 .0335786
602.663 .0335264
603.437 .0334782
604.211 .0334324
604.984 .0333893
605.757 .0333485
606.530 .0333083
607.302 .0332702
608.074 .0332337
608.845 .0331982
609.616 .0331638
610.387 .0331317
611.158 .0331025
611.928 .0330760
612.697 .0330528
613.467 .0330316
614.236 .0330110
615.004 .0329907
615.773 .0329697
616.541 .0329465
617.308 .0329224
618.076 .0328973
618.843 .0328709
619.609 .0328447
620.375 .0328178
621.141 .0327900
621.907 .0327619
622.672 .0327335
623.437 .0327046
624.202 .0326746
624.966 .0326445
625.730 .0326141
626.493 .0325846
627.257 .0325566
628.020 .0325301
628.782 .0325049
629.545 .0324807
630.307 .0324564
631.068 .0324317
631.830 .0324055
632.591 .0323779
633.352 .0323490
634.112 .0323186
634.872 .0322859
635.632 .0322516
636.392 .0322157
637.151 .0321793
637.910 .0321433
638.668 .0321078
639.427 .0320732
640.185 .0320397
640.943 .0320072
641.700 .0319755
642.457 .0319452
643.214 .0319163
643.971 .0318879
644.727 .0318606
645.483 .0318339
646.239 .0318083
646.994 .0317837
647.750 .0317613
648.505 .0317403
649.259 .0317205
650.014 .0317007
650.768 .0316803
651.521 .0316590
652.275 .0316368
653.028 .0316139
653.781 .0315904
654.534 .0315659
655.286 .0315414
656.039 .0315163
656.791 .0314917
657.542 .0314666
658.294 .0314414
659.045 .0314160
659.796 .0313907
660.546 .0313652
661.297 .0313400
662.047 .0313156
662.796 .0312922
663.546 .0312695
664.295 .0312472
665.044 .0312247
665.793 .0312020
666.542 .0311784
667.290 .0311546
668.038 .0311303
668.786 .0311057
669.533 .0310810
670.281 .0310568
671.028 .0310329
671.774 .0310089
672.521 .0309855
673.267 .0309626
674.013 .0309403
674.759 .0309181
675.505 .0308962
676.250 .0308741
676.995 .0308529
677.740 .0308315
678.484 .0308103
679.229 .0307901
679.973 .0307708
680.717 .0307521
681.460 .0307345
682.204 .0307180
682.947 .0307023
683.690 .0306875
684.433 .0306733
685.175 .0306587
685.917 .0306439
686.659 .0306287
687.401 .0306128
688.142 .0305964
688.884 .0305800
689.625 .0305629
690.365 .0305456
691.106 .0305279
691.846 .0305093
692.586 .0304899
693.326 .0304695
694.066 .0304487
694.805 .0304268
695.545 .0304047
696.284 .0303820
697.022 .0303594
697.761 .0303371
698.499 .0303148
699.237 .0302921
699.975 .0302696
700.713 .0302471
701.450 .0302244
702.187 .0302018
702.924 .0301796
703.661 .0301578
704.397 .0301368
705.133 .0301161
705.869 .0300962
706.605 .0300765
707.341 .0300571
708.076 .0300376
708.811 .0300182
709.546 .0299992
710.281 .0299798
711.015 .0299609
711.749 .0299423
712.483 .0299237
713.217 .0299049
713.950 .0298863
714.684 .0298675
715.417 .0298486
716.150 .0298296
716.882 .0298107
717.615 .0297921
718.347 .0297736
719.079 .0297551
719.811 .0297367
720.542 .0297184
721.273 .0297001
722.005 .0296812
722.735 .0296630
723.466 .0296453
724.196 .0296283
724.927 .0296118
725.656 .0295960
726.386 .0295809
727.116 .0295658
727.845 .0295504
728.574 .0295347
729.303 .0295188
730.031 .0295027
730.760 .0294871
731.488 .0294718
732.216 .0294578
732.944 .0294444
733.671 .0294319
734.398 .0294198
735.125 .0294076
735.852 .0293953
736.579 .0293824
737.305 .0293696
738.031 .0293569
738.757 .0293442
739.483 .0293319
740.208 .0293207
740.933 .0293104
741.658 .0293001
742.383 .0292899
743.108 .0292789
743.832 .0292675
744.556 .0292548
745.280 .0292419
746.004 .0292284
746.727 .0292152
747.450 .0292026
748.173 .0291903
748.896 .0291787
749.618 .0291676
750.340 .0291567
751.062 .0291459
751.784 .0291348
752.506 .0291232
753.227 .0291109
753.948 .0290987
754.669 .0290864
755.389 .0290746
756.110 .0290631
756.830 .0290523
757.550 .0290418
758.269 .0290315
758.989 .0290206
759.708 .0290088
760.427 .0289960
761.146 .0289817
761.864 .0289663
762.582 .0289498
763.300 .0289325
764.018 .0289151
764.736 .0288979
765.453 .0288812
766.170 .0288652
766.887 .0288495
767.603 .0288339
768.320 .0288183
769.036 .0288025
769.751 .0287860
770.467 .0287689
771.182 .0287518
771.897 .0287346
772.612 .0287178
773.327 .0287023
774.041 .0286873
774.755 .0286739
775.469 .0286614
776.183 .0286498
776.896 .0286385
777.609 .0286275
778.322 .0286166
779.035 .0286056
779.747 .0285946
780.459 .0285840
781.171 .0285737
781.882 .0285644
782.594 .0285553
783.305 .0285472
784.016 .0285397
784.726 .0285326
785.436 .0285257
786.147 .0285189
786.856 .0285120
787.566 .0285050
788.275 .0284976
788.984 .0284902
789.693 .0284821
790.401 .0284734
791.110 .0284636
791.818 .0284532
792.525 .0284417
793.233 .0284292
793.940 .0284159
794.647 .0284027
795.353 .0283890
796.060 .0283754
796.766 .0283618
797.472 .0283483
798.177 .0283349
798.883 .0283212
799.588 .0283071
800.292 .0282935
800.997 .0282799
801.701 .0282665
802.405 .0282535
803.109 .0282414
803.812 .0282295
804.515 .0282176
805.218 .0282058
805.921 .0281937
806.623 .0281814
807.325 .0281690
808.027 .0281563
808.728 .0281439
809.429 .0281313
810.130 .0281182
810.831 .0281051
811.531 .0280915
812.231 .0280769
812.931 .0280611
813.630 .0280447
814.330 .0280276
815.029 .0280105
815.727 .0279943
816.426 .0279795
817.124 .0279662
817.821 .0279543
818.519 .0279429
819.216 .0279321
819.913 .0279213
820.609 .0279102
821.306 .0278986
822.002 .0278875
822.697 .0278765
823.393 .0278666
824.088 .0278581
824.783 .0278509
825.477 .0278446
826.171 .0278391
826.865 .0278339
827.559 .0278280
828.252 .0278214
828.945 .0278143
829.638 .0278069
830.330 .0277998
831.023 .0277928
831.714 .0277867
832.406 .0277811
833.097 .0277761
833.788 .0277709
834.479 .0277657
835.169 .0277603
835.859 .0277546
836.548 .0277490
837.238 .0277439
837.927 .0277390
838.615 .0277345
839.304 .0277311
839.992 .0277284
840.680 .0277258
841.367 .0277232
842.054 .0277207
842.741 .0277184
843.428 .0277162
844.114 .0277140
844.800 .0277117
845.485 .0277093
846.170 .0277066
846.855 .0277027
847.540 .0276973
848.224 .0276909
848.908 .0276833
849.592 .0276745
850.275 .0276650
850.958 .0276546
851.641 .0276440
852.323 .0276334
853.005 .0276224
853.687 .0276108
854.368 .0275987
855.049 .0275861
855.730 .0275728
856.410 .0275587
857.090 .0275441
857.769 .0275294
858.449 .0275146
859.128 .0275001
859.806 .0274859
860.485 .0274727
861.163 .0274606
861.840 .0274495
862.518 .0274395
863.195 .0274296
863.871 .0274199
864.548 .0274099
865.224 .0273992
865.899 .0273878
866.574 .0273752
867.249 .0273623
867.924 .0273491
868.598 .0273362
869.272 .0273234
869.946 .0273114
870.619 .0273003
871.292 .0272895
871.964 .0272782
872.636 .0272661
873.308 .0272534
873.979 .0272396
874.651 .0272247
875.321 .0272095
875.992 .0271943
876.662 .0271797
877.331 .0271655
878.001 .0271523
878.670 .0271397
879.338 .0271280
880.007 .0271167
880.675 .0271049
881.342 .0270930
882.009 .0270803
882.676 .0270668
883.343 .0270528
884.009 .0270386
884.675 .0270243
885.340 .0270102
886.005 .0269968
886.670 .0269837
887.334 .0269716
887.998 .0269606
888.662 .0269509
889.325 .0269419
889.988 .0269339
890.650 .0269263
891.312 .0269188
891.974 .0269122
892.636 .0269060
893.297 .0269003
893.957 .0268955
894.618 .0268909
895.278 .0268868
895.937 .0268827
896.596 .0268788
897.255 .0268745
897.914 .0268701
898.572 .0268647
899.230 .0268580
899.887 .0268499
900.544 .0268408
901.201 .0268307
901.857 .0268202
902.513 .0268093
903.168 .0267979
903.823 .0267863
904.478 .0267744
905.132 .0267620
905.786 .0267494
906.440 .0267363
907.093 .0267224
907.746 .0267074
908.399 .0266918
909.051 .0266754
909.703 .0266585
910.354 .0266412
911.005 .0266232
911.656 .0266043
912.306 .0265850
912.956 .0265655
913.605 .0265458
914.254 .0265270
914.903 .0265083
915.551 .0264902
916.199 .0264727
916.847 .0264556
917.494 .0264386
918.141 .0264215
918.788 .0264038
919.434 .0263857
920.079 .0263671
920.725 .0263483
921.370 .0263294
922.014 .0263112
922.658 .0262930
923.302 .0262750
923.946 .0262568
924.589 .0262383
925.231 .0262186
925.873 .0261984
926.515 .0261770
927.157 .0261548
927.798 .0261320
928.439 .0261089
929.079 .0260860
929.719 .0260638
930.359 .0260422
930.998 .0260210
931.637 .0260002
932.275 .0259806
932.913 .0259612
933.551 .0259422
934.188 .0259235
934.825 .0259053
935.462 .0258876
936.098 .0258707
936.733 .0258549
937.369 .0258404
938.004 .0258280
938.638 .0258174
939.273 .0258086
939.907 .0258020
940.540 .0257971
941.173 .0257938
941.806 .0257922
942.438 .0257917
943.070 .0257916
943.702 .0257922
944.333 .0257934
944.964 .0257942
945.594 .0257947
946.224 .0257946
946.854 .0257936
947.483 .0257918
948.112 .0257895
948.741 .0257857
949.369 .0257814
949.996 .0257765
950.624 .0257710
951.251 .0257651
951.878 .0257589
952.504 .0257524
953.130 .0257455
953.755 .0257382
954.380 .0257305
955.005 .0257221
955.629 .0257139
956.253 .0257052
956.877 .0256971
957.500 .0256895
958.123 .0256823
958.746 .0256756
959.368 .0256690
959.990 .0256621
960.611 .0256548
961.232 .0256464
961.853 .0256376
962.473 .0256282
963.093 .0256189
963.712 .0256098
964.331 .0256011
964.950 .0255933
965.569 .0255869
966.187 .0255815
966.804 .0255780
967.422 .0255758
968.039 .0255752
968.655 .0255760
969.272 .0255779
969.887 .0255809
970.503 .0255843
971.118 .0255882
971.733 .0255921
972.347 .0255955
972.961 .0255985
973.575 .0256010
974.188 .0256029
974.801 .0256047
975.414 .0256061
976.026 .0256076
976.638 .0256089
977.250 .0256100
977.861 .0256108
978.472 .0256105
979.083 .0256094
979.693 .0256071
980.303 .0256036
980.912 .0255994
981.521 .0255943
982.130 .0255891
982.738 .0255839
983.346 .0255788
983.954 .0255732
984.562 .0255668
985.169 .0255594
985.775 .0255501
986.382 .0255389
986.988 .0255260
987.594 .0255116
988.199 .0254967
988.804 .0254823
989.409 .0254690
990.013 .0254572
990.617 .0254478
991.221 .0254403
991.824 .0254346
992.427 .0254304
993.030 .0254272
993.632 .0254246
994.234 .0254230
994.836 .0254222
995.438 .0254220
996.039 .0254236
996.640 .0254265
997.240 .0254306
997.840 .0254354
998.440 .0254408
999.040 .0254461
999.639 .0254506
1000.238 .0254539
1000.836 .0254558
1001.435 .0254564
1002.033 .0254557
1002.630 .0254541
1003.228 .0254530
1003.825 .0254525
1004.422 .0254532
1005.018 .0254552
1005.614 .0254587
1006.210 .0254629
1006.806 .0254675
1007.401 .0254719
1007.996 .0254757
1008.591 .0254783
1009.186 .0254802
1009.780 .0254820
1010.374 .0254833
1010.967 .0254847
1011.561 .0254866
1012.154 .0254893
1012.746 .0254923
1013.339 .0254950
1013.931 .0254974
1014.523 .0254994
1015.115 .0255007
1015.706 .0255007
1016.298 .0254993
1016.888 .0254975
1017.479 .0254954
1018.069 .0254932
1018.660 .0254916
1019.250 .0254907
1019.839 .0254900
1020.429 .0254902
1021.018 .0254905
1021.607 .0254910
1022.195 .0254911
1022.784 .0254911
1023.372 .0254909
1023.960 .0254910
1024.547 .0254915
1025.135 .0254928
1025.722 .0254952
1026.309 .0254991
1026.896 .0255043
1027.483 .0255104
1028.069 .0255175
1028.655 .0255251
1029.241 .0255328
1029.827 .0255403
1030.412 .0255470
1030.997 .0255537
1031.582 .0255598
1032.167 .0255667
1032.752 .0255734
1033.336 .0255798
1033.921 .0255865
1034.505 .0255926
1035.089 .0255973
1035.672 .0256009
1036.256 .0256032
1036.839 .0256038
1037.422 .0256031
1038.005 .0256017
1038.588 .0255998
1039.171 .0255978
1039.753 .0255957
1040.335 .0255931
1040.918 .0255897
1041.500 .0255855
1042.081 .0255784
1042.663 .0255691
1043.244 .0255574
1043.826 .0255432
1044.407 .0255266
1044.988 .0255091
1045.569 .0254910
1046.150 .0254730
1046.730 .0254555
1047.311 .0254387
1047.891 .0254226
1048.471 .0254062
1049.052 .0253892
1049.632 .0253722
1050.211 .0253558
1050.791 .0253401
1051.371 .0253253
1051.950 .0253138
1052.530 .0253044
1053.109 .0252974
1053.688 .0252918
1054.268 .0252866
1054.847 .0252824
1055.426 .0252780
1056.005 .0252732
1056.583 .0252681
1057.162 .0252636
1057.741 .0252593
1058.319 .0252567
1058.898 .0252554
1059.476 .0252546
1060.055 .0252541
1060.633 .0252541
1061.211 .0252534
1061.790 .0252514
1062.368 .0252493
1062.946 .0252467
1063.524 .0252452
1064.102 .0252463
1064.680 .0252484
1065.258 .0252518
1065.836 .0252570
1066.414 .0252626
1066.992 .0252677
1067.570 .0252721
1068.148 .0252754
1068.726 .0252775
1069.304 .0252809
1069.882 .0252847
1070.460 .0252888
1071.038 .0252937
1071.616 .0253001
1072.194 .0253053
1072.772 .0253097
1073.350 .0253108
1073.928 .0253078
1074.506 .0253005
1075.084 .0252904
1075.662 .0252765
1076.240 .0252611
1076.819 .0252444
1077.397 .0252292
1077.976 .0252143
1078.554 .0252002
1079.133 .0251846
1079.711 .0251689
1080.290 .0251514
1080.869 .0251317
1081.448 .0251080
1082.027 .0250842
1082.606 .0250611
1083.185 .0250430
1083.764 .0250298
1084.343 .0250228
1084.923 .0250214
1085.502 .0250248
1086.082 .0250307
1086.662 .0250380
1087.242 .0250435
1087.822 .0250471
1088.402 .0250490
1088.983 .0250496
1089.563 .0250484
1090.144 .0250469
1090.725 .0250466
1091.306 .0250477
1091.887 .0250502
1092.469 .0250540
1093.050 .0250588
1093.632 .0250656
1094.214 .0250750
1094.796 .0250858
1095.379 .0250983
1095.961 .0251126
1096.544 .0251295
1097.127 .0251465
1097.710 .0251633
1098.294 .0251789
1098.877 .0251939
1099.461 .0252080
1100.046 .0252223
1100.630 .0252361
1101.215 .0252516
1101.800 .0252678
1102.385 .0252837
1102.970 .0252985
1103.556 .0253134
1104.142 .0253274
1104.728 .0253414
1105.315 .0253554
1105.902 .0253694
1106.489 .0253825
1107.077 .0253970
1107.664 .0254143
1108.253 .0254362
1108.841 .0254612
1109.430 .0254919
1110.019 .0255274
1110.609 .0255683
1111.198 .0256145
1111.789 .0256642
1112.379 .0257170
1112.970 .0257689
1113.561 .0258179
1114.153 .0258618
1114.745 .0259017
1115.338 .0259406
1115.931 .0259782
1116.524 .0260162
1117.117 .0260585
1117.712 .0261018
1118.306 .0261478
1118.901 .0261963
1119.496 .0262450
1120.092 .0262946
1120.689 .0263431
1121.285 .0263896
1121.882 .0264374
1122.480 .0264878
1123.078 .0265454
1123.677 .0266073
1124.276 .0266770
1124.875 .0267511
1125.476 .0268282
1126.076 .0269046
1126.677 .0269797
1127.279 .0270489
1127.881 .0271181
1128.484 .0271815
1129.087 .0272440
1129.691 .0273092
1130.295 .0273743
1130.900 .0274432
1131.505 .0275137
1132.111 .0275823
1132.718 .0276494
1133.325 .0277083
1133.933 .0277700
1134.541 .0278327
1135.150 .0279022
1135.760 .0279782
1136.370 .0280684
1136.981 .0281742
1137.592 .0282895
1138.204 .0284129
1138.817 .0285376
1139.431 .0286659
1140.045 .0287993
1140.660 .0289407
1141.275 .0290723
1141.891 .0292147
1142.508 .0293144
1143.126 .0295771
1143.744 .0299553
1144.363 .0295910
1144.983 .0299550
