Measurement Sequence started on: 15-12-46-377
Integration time: 28
Scans to Average: 2 
>>>>>Begin Spectral Data<<<<<
432.689 .0000100
433.621 .0000100
434.552 .0000100
435.482 .0000100
436.410 .0000100
437.337 .0000100
438.262 .0278439
439.187 .0590445
440.110 .0978774
441.031 .1416725
441.952 .1842599
442.871 .2178647
443.789 .2363602
444.705 .2376565
445.621 .2242985
446.535 .2018059
447.447 .1762476
448.359 .1370632
449.269 .1175292
450.178 .1050727
451.086 .0962270
451.993 .0893762
452.898 .0839057
453.803 .0794246
454.706 .0756837
455.608 .0724745
456.508 .0697247
457.408 .0673521
458.306 .0652843
459.204 .0634495
460.100 .0618452
460.995 .0604174
461.888 .0591529
462.781 .0580016
463.673 .0569554
464.563 .0560088
465.452 .0551493
466.340 .0543596
467.228 .0536509
468.114 .0530049
468.999 .0524225
469.882 .0518822
470.765 .0513813
471.647 .0509072
472.528 .0504645
473.407 .0500471
474.286 .0496521
475.163 .0492818
476.040 .0489472
476.915 .0486401
477.790 .0483699
478.663 .0481226
479.535 .0478936
480.407 .0476891
481.277 .0474960
482.147 .0473183
483.015 .0471559
483.883 .0470111
484.749 .0468829
485.615 .0467810
486.479 .0467038
487.343 .0466559
488.206 .0466350
489.067 .0466377
489.928 .0466577
490.788 .0466948
491.647 .0467454
492.505 .0468077
493.362 .0468926
494.218 .0470004
495.073 .0471187
495.928 .0472700
496.781 .0474410
497.634 .0476491
498.486 .0478873
499.337 .0481642
500.187 .0484723
501.036 .0488062
501.884 .0491579
502.731 .0495241
503.578 .0499122
504.424 .0503164
505.268 .0507278
506.113 .0511617
506.956 .0516208
507.798 .0521284
508.640 .0526800
509.480 .0533048
510.320 .0539989
511.160 .0547877
511.998 .0556488
512.836 .0565939
513.672 .0576254
514.508 .0587372
515.344 .0599473
516.178 .0612805
517.012 .0627636
517.845 .0644651
518.677 .0664288
519.508 .0686991
520.339 .0713236
521.169 .0743682
521.998 .0778130
522.826 .0817461
523.654 .0861792
524.481 .0911049
525.307 .0964909
526.133 .1023510
526.958 .1086900
527.782 .1154223
528.605 .1225110
529.428 .1298204
530.250 .1369534
531.072 .1437013
531.892 .1495737
532.712 .1542636
533.532 .1575512
534.350 .1591092
535.168 .1587843
535.986 .1566026
536.802 .1527524
537.618 .1474748
538.434 .1411379
539.249 .1342185
540.063 .1269628
540.876 .1197404
541.689 .1127676
542.501 .1061730
543.313 .1001533
544.124 .0946861
544.934 .0897184
545.744 .0852216
546.553 .0811319
547.361 .0774277
548.169 .0741269
548.976 .0712040
549.783 .0686194
550.589 .0663158
551.395 .0642435
552.200 .0623666
553.004 .0606442
553.808 .0590410
554.611 .0575534
555.414 .0561917
556.216 .0549317
557.018 .0537927
557.819 .0527651
558.619 .0518345
559.419 .0509845
560.218 .0502106
561.017 .0494906
561.815 .0488094
562.613 .0481531
563.410 .0475092
564.207 .0468738
565.003 .0462569
565.799 .0456391
566.594 .0450289
567.388 .0444444
568.182 .0438767
568.976 .0433176
569.769 .0427836
570.562 .0422616
571.354 .0417495
572.145 .0412478
572.936 .0407453
573.727 .0402448
574.517 .0397509
575.307 .0392657
576.096 .0387919
576.885 .0383424
577.673 .0379240
578.461 .0375315
579.248 .0371699
580.035 .0368392
580.821 .0365291
581.607 .0362408
582.392 .0359707
583.177 .0357167
583.962 .0354786
584.746 .0352608
585.529 .0350585
586.313 .0348753
587.095 .0347084
587.878 .0345555
588.660 .0344146
589.441 .0342841
590.222 .0341620
591.003 .0340475
591.783 .0339408
592.563 .0338419
593.342 .0337498
594.121 .0336657
594.899 .0335882
595.678 .0335168
596.455 .0334514
597.233 .0333900
598.009 .0333320
598.786 .0332780
599.562 .0332254
600.338 .0331736
601.113 .0331230
601.888 .0330728
602.663 .0330237
603.437 .0329755
604.211 .0329286
604.984 .0328828
605.757 .0328390
606.530 .0327963
607.302 .0327535
608.074 .0327121
608.845 .0326719
609.616 .0326316
610.387 .0325921
611.158 .0325538
611.928 .0325169
612.697 .0324821
613.467 .0324501
614.236 .0324200
615.004 .0323924
615.773 .0323668
616.541 .0323423
617.308 .0323177
618.076 .0322942
618.843 .0322704
619.609 .0322468
620.375 .0322238
621.141 .0322003
621.907 .0321761
622.672 .0321519
623.437 .0321266
624.202 .0320994
624.966 .0320704
625.730 .0320405
626.493 .0320085
627.257 .0319758
628.020 .0319422
628.782 .0319075
629.545 .0318729
630.307 .0318383
631.068 .0318031
631.830 .0317683
632.591 .0317338
633.352 .0316997
634.112 .0316665
634.872 .0316346
635.632 .0316037
636.392 .0315737
637.151 .0315462
637.910 .0315201
638.668 .0314949
639.427 .0314715
640.185 .0314493
640.943 .0314279
641.700 .0314075
642.457 .0313871
643.214 .0313673
643.971 .0313472
644.727 .0313270
645.483 .0313055
646.239 .0312831
646.994 .0312593
647.750 .0312341
648.505 .0312079
649.259 .0311823
650.014 .0311568
650.768 .0311322
651.521 .0311085
652.275 .0310858
653.028 .0310639
653.781 .0310415
654.534 .0310183
655.286 .0309933
656.039 .0309665
656.791 .0309390
657.542 .0309099
658.294 .0308804
659.045 .0308525
659.796 .0308260
660.546 .0308013
661.297 .0307776
662.047 .0307551
662.796 .0307326
663.546 .0307096
664.295 .0306854
665.044 .0306596
665.793 .0306331
666.542 .0306072
667.290 .0305814
668.038 .0305580
668.786 .0305365
669.533 .0305172
670.281 .0304999
671.028 .0304839
671.774 .0304676
672.521 .0304510
673.267 .0304335
674.013 .0304147
674.759 .0303945
675.505 .0303735
676.250 .0303515
676.995 .0303300
677.740 .0303090
678.484 .0302884
679.229 .0302687
679.973 .0302508
680.717 .0302338
681.460 .0302176
682.204 .0302017
682.947 .0301856
683.690 .0301693
684.433 .0301529
685.175 .0301361
685.917 .0301192
686.659 .0301035
687.401 .0300887
688.142 .0300743
688.884 .0300612
689.625 .0300491
690.365 .0300370
691.106 .0300250
691.846 .0300124
692.586 .0299994
693.326 .0299852
694.066 .0299711
694.805 .0299560
695.545 .0299404
696.284 .0299240
697.022 .0299066
697.761 .0298878
698.499 .0298683
699.237 .0298474
699.975 .0298258
700.713 .0298038
701.450 .0297821
702.187 .0297601
702.924 .0297391
703.661 .0297185
704.397 .0296981
705.133 .0296771
705.869 .0296561
706.605 .0296341
707.341 .0296116
708.076 .0295892
708.811 .0295667
709.546 .0295445
710.281 .0295231
711.015 .0295023
711.749 .0294818
712.483 .0294612
713.217 .0294401
713.950 .0294179
714.684 .0293942
715.417 .0293687
716.150 .0293416
716.882 .0293136
717.615 .0292852
718.347 .0292568
719.079 .0292290
719.811 .0292023
720.542 .0291767
721.273 .0291525
722.005 .0291290
722.735 .0291064
723.466 .0290842
724.196 .0290626
724.927 .0290410
725.656 .0290193
726.386 .0289983
727.116 .0289784
727.845 .0289600
728.574 .0289427
729.303 .0289261
730.031 .0289105
730.760 .0288952
731.488 .0288799
732.216 .0288641
732.944 .0288481
733.671 .0288321
734.398 .0288164
735.125 .0288013
735.852 .0287869
736.579 .0287734
737.305 .0287606
738.031 .0287487
738.757 .0287369
739.483 .0287245
740.208 .0287115
740.933 .0286984
741.658 .0286859
742.383 .0286736
743.108 .0286617
743.832 .0286509
744.556 .0286410
745.280 .0286316
746.004 .0286219
746.727 .0286119
747.450 .0286015
748.173 .0285901
748.896 .0285772
749.618 .0285635
750.340 .0285494
751.062 .0285357
751.784 .0285224
752.506 .0285099
753.227 .0284979
753.948 .0284863
754.669 .0284749
755.389 .0284635
756.110 .0284516
756.830 .0284392
757.550 .0284263
758.269 .0284133
758.989 .0284006
759.708 .0283875
760.427 .0283742
761.146 .0283613
761.864 .0283481
762.582 .0283345
763.300 .0283195
764.018 .0283046
764.736 .0282889
765.453 .0282731
766.170 .0282570
766.887 .0282407
767.603 .0282245
768.320 .0282086
769.036 .0281925
769.751 .0281762
770.467 .0281597
771.182 .0281437
771.897 .0281277
772.612 .0281129
773.327 .0280991
774.041 .0280874
774.755 .0280770
775.469 .0280688
776.183 .0280616
776.896 .0280555
777.609 .0280498
778.322 .0280442
779.035 .0280387
779.747 .0280336
780.459 .0280289
781.171 .0280254
781.882 .0280235
782.594 .0280232
783.305 .0280237
784.016 .0280254
784.726 .0280273
785.436 .0280290
786.147 .0280298
786.856 .0280298
787.566 .0280285
788.275 .0280260
788.984 .0280227
789.693 .0280190
790.401 .0280152
791.110 .0280111
791.818 .0280066
792.525 .0280019
793.233 .0279966
793.940 .0279902
794.647 .0279828
795.353 .0279745
796.060 .0279656
796.766 .0279560
797.472 .0279458
798.177 .0279355
798.883 .0279253
799.588 .0279148
800.292 .0279041
800.997 .0278931
801.701 .0278814
802.405 .0278690
803.109 .0278560
803.812 .0278425
804.515 .0278280
805.218 .0278124
805.921 .0277965
806.623 .0277794
807.325 .0277616
808.027 .0277427
808.728 .0277234
809.429 .0277038
810.130 .0276837
810.831 .0276635
811.531 .0276437
812.231 .0276241
812.931 .0276048
813.630 .0275854
814.330 .0275662
815.029 .0275470
815.727 .0275277
816.426 .0275084
817.124 .0274895
817.821 .0274707
818.519 .0274528
819.216 .0274358
819.913 .0274202
820.609 .0274054
821.306 .0273918
822.002 .0273794
822.697 .0273680
823.393 .0273578
824.088 .0273486
824.783 .0273403
825.477 .0273333
826.171 .0273264
826.865 .0273202
827.559 .0273143
828.252 .0273085
828.945 .0273024
829.638 .0272958
830.330 .0272889
831.023 .0272819
831.714 .0272745
832.406 .0272673
833.097 .0272600
833.788 .0272526
834.479 .0272449
835.169 .0272364
835.859 .0272279
836.548 .0272185
837.238 .0272081
837.927 .0271970
838.615 .0271849
839.304 .0271723
839.992 .0271591
840.680 .0271458
841.367 .0271324
842.054 .0271191
842.741 .0271059
843.428 .0270926
844.114 .0270795
844.800 .0270665
845.485 .0270535
846.170 .0270403
846.855 .0270272
847.540 .0270133
848.224 .0269993
848.908 .0269852
849.592 .0269711
850.275 .0269570
850.958 .0269430
851.641 .0269292
852.323 .0269156
853.005 .0269016
853.687 .0268869
854.368 .0268709
855.049 .0268536
855.730 .0268343
856.410 .0268130
857.090 .0267900
857.769 .0267657
858.449 .0267410
859.128 .0267162
859.806 .0266919
860.485 .0266688
861.163 .0266470
861.840 .0266260
862.518 .0266060
863.195 .0265865
863.871 .0265674
864.548 .0265490
865.224 .0265314
865.899 .0265143
866.574 .0264986
867.249 .0264844
867.924 .0264718
868.598 .0264606
869.272 .0264508
869.946 .0264416
870.619 .0264327
871.292 .0264241
871.964 .0264150
872.636 .0264059
873.308 .0263968
873.979 .0263874
874.651 .0263780
875.321 .0263686
875.992 .0263595
876.662 .0263507
877.331 .0263431
878.001 .0263362
878.670 .0263303
879.338 .0263259
880.007 .0263228
880.675 .0263211
881.342 .0263205
882.009 .0263206
882.676 .0263210
883.343 .0263217
884.009 .0263225
884.675 .0263232
885.340 .0263240
886.005 .0263251
886.670 .0263266
887.334 .0263283
887.998 .0263304
888.662 .0263328
889.325 .0263354
889.988 .0263382
890.650 .0263409
891.312 .0263434
891.974 .0263462
892.636 .0263495
893.297 .0263532
893.957 .0263577
894.618 .0263629
895.278 .0263684
895.937 .0263745
896.596 .0263813
897.255 .0263882
897.914 .0263948
898.572 .0264015
899.230 .0264079
899.887 .0264138
900.544 .0264189
901.201 .0264229
901.857 .0264258
902.513 .0264271
903.168 .0264264
903.823 .0264236
904.478 .0264191
905.132 .0264129
905.786 .0264048
906.440 .0263950
907.093 .0263839
907.746 .0263714
908.399 .0263581
909.051 .0263439
909.703 .0263297
910.354 .0263153
911.005 .0263012
911.656 .0262875
912.306 .0262744
912.956 .0262617
913.605 .0262494
914.254 .0262370
914.903 .0262246
915.551 .0262121
916.199 .0262002
916.847 .0261891
917.494 .0261791
918.141 .0261702
918.788 .0261628
919.434 .0261564
920.079 .0261507
920.725 .0261451
921.370 .0261392
922.014 .0261328
922.658 .0261257
923.302 .0261174
923.946 .0261081
924.589 .0260978
925.231 .0260863
925.873 .0260736
926.515 .0260602
927.157 .0260455
927.798 .0260300
928.439 .0260136
929.079 .0259968
929.719 .0259792
930.359 .0259610
930.998 .0259426
931.637 .0259239
932.275 .0259053
932.913 .0258867
933.551 .0258684
934.188 .0258515
934.825 .0258356
935.462 .0258211
936.098 .0258081
936.733 .0257968
937.369 .0257868
938.004 .0257778
938.638 .0257694
939.273 .0257619
939.907 .0257545
940.540 .0257476
941.173 .0257414
941.806 .0257363
942.438 .0257318
943.070 .0257276
943.702 .0257235
944.333 .0257192
944.964 .0257137
945.594 .0257077
946.224 .0257009
946.854 .0256942
947.483 .0256877
948.112 .0256817
948.741 .0256761
949.369 .0256712
949.996 .0256660
950.624 .0256600
951.251 .0256528
951.878 .0256449
952.504 .0256352
953.130 .0256248
953.755 .0256144
954.380 .0256040
955.005 .0255939
955.629 .0255842
956.253 .0255746
956.877 .0255651
957.500 .0255548
958.123 .0255435
958.746 .0255307
959.368 .0255170
959.990 .0255024
960.611 .0254867
961.232 .0254713
961.853 .0254561
962.473 .0254412
963.093 .0254268
963.712 .0254126
964.331 .0253981
964.950 .0253829
965.569 .0253672
966.187 .0253511
966.804 .0253345
967.422 .0253182
968.039 .0253027
968.655 .0252882
969.272 .0252749
969.887 .0252622
970.503 .0252499
971.118 .0252379
971.733 .0252253
972.347 .0252119
972.961 .0251970
973.575 .0251811
974.188 .0251641
974.801 .0251460
975.414 .0251274
976.026 .0251083
976.638 .0250888
977.250 .0250688
977.861 .0250481
978.472 .0250267
979.083 .0250046
979.693 .0249822
980.303 .0249592
980.912 .0249356
981.521 .0249118
982.130 .0248880
982.738 .0248648
983.346 .0248422
983.954 .0248201
984.562 .0247990
985.169 .0247786
985.775 .0247588
986.382 .0247394
986.988 .0247203
987.594 .0247016
988.199 .0246826
988.804 .0246633
989.409 .0246435
990.013 .0246240
990.617 .0246048
991.221 .0245857
991.824 .0245673
992.427 .0245498
993.030 .0245333
993.632 .0245186
994.234 .0245059
994.836 .0244947
995.438 .0244854
996.039 .0244768
996.640 .0244686
997.240 .0244611
997.840 .0244541
998.440 .0244476
999.040 .0244415
999.639 .0244359
1000.238 .0244298
1000.836 .0244238
1001.435 .0244183
1002.033 .0244128
1002.630 .0244070
1003.228 .0244006
1003.825 .0243937
1004.422 .0243857
1005.018 .0243768
1005.614 .0243664
1006.210 .0243550
1006.806 .0243431
1007.401 .0243306
1007.996 .0243182
1008.591 .0243067
1009.186 .0242977
1009.780 .0242906
1010.374 .0242855
1010.967 .0242820
1011.561 .0242791
1012.154 .0242763
1012.746 .0242731
1013.339 .0242688
1013.931 .0242635
1014.523 .0242581
1015.115 .0242525
1015.706 .0242475
1016.298 .0242442
1016.888 .0242425
1017.479 .0242427
1018.069 .0242446
1018.660 .0242476
1019.250 .0242511
1019.839 .0242551
1020.429 .0242596
1021.018 .0242644
1021.607 .0242701
1022.195 .0242772
1022.784 .0242859
1023.372 .0242969
1023.960 .0243096
1024.547 .0243237
1025.135 .0243392
1025.722 .0243553
1026.309 .0243718
1026.896 .0243881
1027.483 .0244036
1028.069 .0244178
1028.655 .0244307
1029.241 .0244415
1029.827 .0244507
1030.412 .0244584
1030.997 .0244657
1031.582 .0244725
1032.167 .0244792
1032.752 .0244862
1033.336 .0244935
1033.921 .0245016
1034.505 .0245092
1035.089 .0245156
1035.672 .0245210
1036.256 .0245252
1036.839 .0245282
1037.422 .0245296
1038.005 .0245304
1038.588 .0245309
1039.171 .0245311
1039.753 .0245317
1040.335 .0245324
1040.918 .0245342
1041.500 .0245363
1042.081 .0245392
1042.663 .0245426
1043.244 .0245472
1043.826 .0245528
1044.407 .0245593
1044.988 .0245676
1045.569 .0245771
1046.150 .0245873
1046.730 .0245978
1047.311 .0246090
1047.891 .0246209
1048.471 .0246334
1049.052 .0246454
1049.632 .0246566
1050.211 .0246672
1050.791 .0246761
1051.371 .0246839
1051.950 .0246907
1052.530 .0246967
1053.109 .0247012
1053.688 .0247037
1054.268 .0247053
1054.847 .0247049
1055.426 .0247035
1056.005 .0247008
1056.583 .0246980
1057.162 .0246948
1057.741 .0246914
1058.319 .0246886
1058.898 .0246882
1059.476 .0246889
1060.055 .0246910
1060.633 .0246935
1061.211 .0246963
1061.790 .0246997
1062.368 .0247040
1062.946 .0247086
1063.524 .0247143
1064.102 .0247214
1064.680 .0247305
1065.258 .0247408
1065.836 .0247533
1066.414 .0247664
1066.992 .0247806
1067.570 .0247960
1068.148 .0248113
1068.726 .0248261
1069.304 .0248413
1069.882 .0248563
1070.460 .0248703
1071.038 .0248843
1071.616 .0248977
1072.194 .0249106
1072.772 .0249228
1073.350 .0249346
1073.928 .0249464
1074.506 .0249586
1075.084 .0249709
1075.662 .0249838
1076.240 .0249980
1076.819 .0250133
1077.397 .0250292
1077.976 .0250447
1078.554 .0250597
1079.133 .0250749
1079.711 .0250878
1080.290 .0251005
1080.869 .0251114
1081.448 .0251222
1082.027 .0251321
1082.606 .0251416
1083.185 .0251517
1083.764 .0251629
1084.343 .0251757
1084.923 .0251906
1085.502 .0252058
1086.082 .0252233
1086.662 .0252410
1087.242 .0252604
1087.822 .0252807
1088.402 .0253018
1088.983 .0253251
1089.563 .0253499
1090.144 .0253752
1090.725 .0254025
1091.306 .0254288
1091.887 .0254543
1092.469 .0254796
1093.050 .0255046
1093.632 .0255273
1094.214 .0255502
1094.796 .0255717
1095.379 .0255927
1095.961 .0256134
1096.544 .0256348
1097.127 .0256541
1097.710 .0256739
1098.294 .0256942
1098.877 .0257130
1099.461 .0257317
1100.046 .0257543
1100.630 .0257776
1101.215 .0258048
1101.800 .0258335
1102.385 .0258648
1102.970 .0258971
1103.556 .0259323
1104.142 .0259668
1104.728 .0260018
1105.315 .0260385
1105.902 .0260741
1106.489 .0261071
1107.077 .0261401
1107.664 .0261713
1108.253 .0262007
1108.841 .0262274
1109.430 .0262548
1110.019 .0262775
1110.609 .0262994
1111.198 .0263203
1111.789 .0263425
1112.379 .0263675
1112.970 .0263959
1113.561 .0264267
1114.153 .0264634
1114.745 .0265067
1115.338 .0265536
1115.931 .0266045
1116.524 .0266614
1117.117 .0267191
1117.712 .0267763
1118.306 .0268321
1118.901 .0268881
1119.496 .0269422
1120.092 .0269984
1120.689 .0270545
1121.285 .0271105
1121.882 .0271666
1122.480 .0272211
1123.078 .0272731
1123.677 .0273222
1124.276 .0273638
1124.875 .0273990
1125.476 .0274274
1126.076 .0274518
1126.677 .0274694
1127.279 .0274909
1127.881 .0275174
1128.484 .0275550
1129.087 .0276000
1129.691 .0276585
1130.295 .0277270
1130.900 .0278040
1131.505 .0278829
1132.111 .0279638
1132.718 .0280455
1133.325 .0281290
1133.933 .0282097
1134.541 .0282928
1135.150 .0283795
1135.760 .0284766
1136.370 .0285786
1136.981 .0286944
1137.592 .0288144
1138.204 .0289397
1138.817 .0290659
1139.431 .0291945
1140.045 .0293291
1140.660 .0294585
1141.275 .0296133
1141.891 .0297961
1142.508 .0298463
1143.126 .0301470
1143.744 .0300346
1144.363 .0308949
1144.983 .0314094
