Measurement Sequence started on: 15-12-46-377
Integration time: 28
Scans to Average: 2 
>>>>>Begin Spectral Data<<<<<
432.689 .0000100
433.621 .0000100
434.552 .0000100
435.482 .0000100
436.410 .0000100
437.337 .0000100
438.262 .0255963
439.187 .0541641
440.110 .0896860
441.031 .1297045
441.952 .1685171
442.871 .1990309
443.789 .2156876
444.705 .2166319
445.621 .2042452
446.535 .1836465
447.447 .1604076
448.359 .1248072
449.269 .1074005
450.178 .0965090
451.086 .0889079
451.993 .0831193
452.898 .0785295
453.803 .0747860
454.706 .0716657
455.608 .0690018
456.508 .0667151
457.408 .0647323
458.306 .0629641
459.204 .0613865
460.100 .0599546
460.995 .0586489
461.888 .0574703
462.781 .0563926
463.673 .0554116
464.563 .0545383
465.452 .0537441
466.340 .0530047
467.228 .0523275
468.114 .0517003
468.999 .0511120
469.882 .0505630
470.765 .0500545
471.647 .0495882
472.528 .0491728
473.407 .0488050
474.286 .0484731
475.163 .0481806
476.040 .0479229
476.915 .0476827
477.790 .0474675
478.663 .0472701
479.535 .0470911
480.407 .0469365
481.277 .0468046
482.147 .0466956
483.015 .0466071
483.883 .0465420
484.749 .0464893
485.615 .0464494
486.479 .0464236
487.343 .0464084
488.206 .0464100
489.067 .0464264
489.928 .0464593
490.788 .0465117
491.647 .0465851
492.505 .0466731
493.362 .0467835
494.218 .0469058
495.073 .0470470
495.928 .0472060
496.781 .0473815
497.634 .0475794
498.486 .0477984
499.337 .0480436
500.187 .0483139
501.036 .0486036
501.884 .0489225
502.731 .0492632
503.578 .0496458
504.424 .0500511
505.268 .0504766
506.113 .0509285
506.956 .0513997
507.798 .0518933
508.640 .0524269
509.480 .0529960
510.320 .0536291
511.160 .0543285
511.998 .0551132
512.836 .0559860
513.672 .0569572
514.508 .0580302
515.344 .0591983
516.178 .0604811
517.012 .0619077
517.845 .0634889
518.677 .0653116
519.508 .0674049
520.339 .0698368
521.169 .0726976
521.998 .0760099
522.826 .0798095
523.654 .0841467
524.481 .0890315
525.307 .0944661
526.133 .1004243
526.958 .1068927
527.782 .1138611
528.605 .1212478
529.428 .1289556
530.250 .1364839
531.072 .1436026
531.892 .1499215
532.712 .1550382
533.532 .1586465
534.350 .1604382
535.168 .1602611
535.986 .1581544
536.802 .1542288
537.618 .1487929
538.434 .1421333
539.249 .1348591
540.063 .1272048
540.876 .1195275
541.689 .1120901
542.501 .1051136
543.313 .0987512
544.124 .0930200
544.934 .0878344
545.744 .0831343
546.553 .0788701
547.361 .0750481
548.169 .0716102
548.976 .0685409
549.783 .0657999
550.589 .0633660
551.395 .0611707
552.200 .0591967
553.004 .0574038
553.808 .0557731
554.611 .0543096
555.414 .0530066
556.216 .0518274
557.018 .0507808
557.819 .0498492
558.619 .0490092
559.419 .0482371
560.218 .0475258
561.017 .0468514
561.815 .0462203
562.613 .0456263
563.410 .0450542
564.207 .0445101
565.003 .0440049
565.799 .0435229
566.594 .0430612
567.388 .0426198
568.182 .0421843
568.976 .0417445
569.769 .0413070
570.562 .0408605
571.354 .0404077
572.145 .0399590
572.936 .0395101
573.727 .0390588
574.517 .0386105
575.307 .0381728
576.096 .0377442
576.885 .0373344
577.673 .0369446
578.461 .0365768
579.248 .0362348
580.035 .0359187
580.821 .0356207
581.607 .0353415
582.392 .0350816
583.177 .0348368
583.962 .0346062
584.746 .0343895
585.529 .0341884
586.313 .0340055
587.095 .0338417
587.878 .0336976
588.660 .0335704
589.441 .0334597
590.222 .0333632
591.003 .0332792
591.783 .0332012
592.563 .0331285
593.342 .0330588
594.121 .0329921
594.899 .0329298
595.678 .0328715
596.455 .0328186
597.233 .0327718
598.009 .0327300
598.786 .0326908
599.562 .0326546
600.338 .0326194
601.113 .0325823
601.888 .0325428
602.663 .0325011
603.437 .0324586
604.211 .0324154
604.984 .0323744
605.757 .0323353
606.530 .0323001
607.302 .0322678
608.074 .0322369
608.845 .0322073
609.616 .0321778
610.387 .0321481
611.158 .0321186
611.928 .0320888
612.697 .0320595
613.467 .0320321
614.236 .0320073
615.004 .0319850
615.773 .0319656
616.541 .0319479
617.308 .0319317
618.076 .0319159
618.843 .0319001
619.609 .0318828
620.375 .0318651
621.141 .0318470
621.907 .0318290
622.672 .0318115
623.437 .0317945
624.202 .0317776
624.966 .0317622
625.730 .0317465
626.493 .0317296
627.257 .0317108
628.020 .0316905
628.782 .0316672
629.545 .0316413
630.307 .0316127
631.068 .0315826
631.830 .0315515
632.591 .0315195
633.352 .0314865
634.112 .0314532
634.872 .0314189
635.632 .0313839
636.392 .0313476
637.151 .0313107
637.910 .0312728
638.668 .0312349
639.427 .0311975
640.185 .0311609
640.943 .0311251
641.700 .0310907
642.457 .0310572
643.214 .0310244
643.971 .0309912
644.727 .0309586
645.483 .0309268
646.239 .0308964
646.994 .0308666
647.750 .0308385
648.505 .0308120
649.259 .0307872
650.014 .0307638
650.768 .0307409
651.521 .0307186
652.275 .0306962
653.028 .0306738
653.781 .0306519
654.534 .0306304
655.286 .0306096
656.039 .0305895
656.791 .0305699
657.542 .0305497
658.294 .0305283
659.045 .0305065
659.796 .0304838
660.546 .0304596
661.297 .0304337
662.047 .0304070
662.796 .0303791
663.546 .0303509
664.295 .0303221
665.044 .0302938
665.793 .0302661
666.542 .0302384
667.290 .0302116
668.038 .0301858
668.786 .0301611
669.533 .0301378
670.281 .0301154
671.028 .0300947
671.774 .0300745
672.521 .0300545
673.267 .0300350
674.013 .0300163
674.759 .0299983
675.505 .0299812
676.250 .0299655
676.995 .0299521
677.740 .0299409
678.484 .0299318
679.229 .0299251
679.973 .0299198
680.717 .0299154
681.460 .0299106
682.204 .0299047
682.947 .0298970
683.690 .0298871
684.433 .0298751
685.175 .0298618
685.917 .0298474
686.659 .0298327
687.401 .0298181
688.142 .0298040
688.884 .0297899
689.625 .0297751
690.365 .0297588
691.106 .0297409
691.846 .0297207
692.586 .0296989
693.326 .0296757
694.066 .0296523
694.805 .0296299
695.545 .0296090
696.284 .0295902
697.022 .0295731
697.761 .0295576
698.499 .0295436
699.237 .0295301
699.975 .0295166
700.713 .0295034
701.450 .0294904
702.187 .0294779
702.924 .0294657
703.661 .0294540
704.397 .0294428
705.133 .0294322
705.869 .0294216
706.605 .0294112
707.341 .0294006
708.076 .0293899
708.811 .0293783
709.546 .0293661
710.281 .0293531
711.015 .0293392
711.749 .0293247
712.483 .0293098
713.217 .0292940
713.950 .0292779
714.684 .0292612
715.417 .0292443
716.150 .0292274
716.882 .0292103
717.615 .0291927
718.347 .0291748
719.079 .0291561
719.811 .0291363
720.542 .0291161
721.273 .0290959
722.005 .0290758
722.735 .0290561
723.466 .0290375
724.196 .0290191
724.927 .0290014
725.656 .0289837
726.386 .0289654
727.116 .0289465
727.845 .0289265
728.574 .0289050
729.303 .0288825
730.031 .0288599
730.760 .0288374
731.488 .0288154
732.216 .0287950
732.944 .0287758
733.671 .0287581
734.398 .0287424
735.125 .0287282
735.852 .0287150
736.579 .0287027
737.305 .0286908
738.031 .0286790
738.757 .0286673
739.483 .0286551
740.208 .0286423
740.933 .0286291
741.658 .0286153
742.383 .0286003
743.108 .0285846
743.832 .0285685
744.556 .0285517
745.280 .0285343
746.004 .0285159
746.727 .0284965
747.450 .0284761
748.173 .0284542
748.896 .0284312
749.618 .0284067
750.340 .0283814
751.062 .0283559
751.784 .0283306
752.506 .0283064
753.227 .0282831
753.948 .0282610
754.669 .0282396
755.389 .0282190
756.110 .0281988
756.830 .0281790
757.550 .0281595
758.269 .0281405
758.989 .0281214
759.708 .0281024
760.427 .0280835
761.146 .0280650
761.864 .0280465
762.582 .0280281
763.300 .0280089
764.018 .0279891
764.736 .0279684
765.453 .0279474
766.170 .0279262
766.887 .0279052
767.603 .0278840
768.320 .0278628
769.036 .0278413
769.751 .0278198
770.467 .0277984
771.182 .0277771
771.897 .0277560
772.612 .0277356
773.327 .0277163
774.041 .0276985
774.755 .0276824
775.469 .0276689
776.183 .0276576
776.896 .0276480
777.609 .0276403
778.322 .0276342
779.035 .0276294
779.747 .0276260
780.459 .0276239
781.171 .0276225
781.882 .0276217
782.594 .0276212
783.305 .0276209
784.016 .0276208
784.726 .0276210
785.436 .0276208
786.147 .0276202
786.856 .0276192
787.566 .0276175
788.275 .0276149
788.984 .0276119
789.693 .0276077
790.401 .0276022
791.110 .0275957
791.818 .0275881
792.525 .0275792
793.233 .0275695
793.940 .0275593
794.647 .0275490
795.353 .0275388
796.060 .0275292
796.766 .0275199
797.472 .0275117
798.177 .0275041
798.883 .0274966
799.588 .0274894
800.292 .0274825
800.997 .0274755
801.701 .0274688
802.405 .0274624
803.109 .0274563
803.812 .0274505
804.515 .0274452
805.218 .0274401
805.921 .0274351
806.623 .0274295
807.325 .0274233
808.027 .0274164
808.728 .0274088
809.429 .0273997
810.130 .0273897
810.831 .0273795
811.531 .0273686
812.231 .0273578
812.931 .0273471
813.630 .0273368
814.330 .0273274
815.029 .0273184
815.727 .0273102
816.426 .0273024
817.124 .0272953
817.821 .0272883
818.519 .0272818
819.216 .0272762
819.913 .0272713
820.609 .0272669
821.306 .0272640
822.002 .0272625
822.697 .0272621
823.393 .0272629
824.088 .0272649
824.783 .0272678
825.477 .0272711
826.171 .0272742
826.865 .0272773
827.559 .0272802
828.252 .0272825
828.945 .0272841
829.638 .0272851
830.330 .0272858
831.023 .0272855
831.714 .0272847
832.406 .0272833
833.097 .0272810
833.788 .0272775
834.479 .0272729
835.169 .0272676
835.859 .0272620
836.548 .0272561
837.238 .0272503
837.927 .0272448
838.615 .0272401
839.304 .0272358
839.992 .0272321
840.680 .0272292
841.367 .0272270
842.054 .0272250
842.741 .0272236
843.428 .0272228
844.114 .0272226
844.800 .0272228
845.485 .0272230
846.170 .0272228
846.855 .0272219
847.540 .0272194
848.224 .0272157
848.908 .0272103
849.592 .0272035
850.275 .0271947
850.958 .0271849
851.641 .0271742
852.323 .0271624
853.005 .0271497
853.687 .0271360
854.368 .0271212
855.049 .0271052
855.730 .0270875
856.410 .0270685
857.090 .0270486
857.769 .0270278
858.449 .0270058
859.128 .0269832
859.806 .0269598
860.485 .0269361
861.163 .0269113
861.840 .0268862
862.518 .0268599
863.195 .0268328
863.871 .0268055
864.548 .0267778
865.224 .0267501
865.899 .0267229
866.574 .0266961
867.249 .0266703
867.924 .0266455
868.598 .0266220
869.272 .0265995
869.946 .0265792
870.619 .0265601
871.292 .0265420
871.964 .0265250
872.636 .0265090
873.308 .0264931
873.979 .0264775
874.651 .0264622
875.321 .0264470
875.992 .0264321
876.662 .0264178
877.331 .0264037
878.001 .0263899
878.670 .0263762
879.338 .0263620
880.007 .0263469
880.675 .0263312
881.342 .0263139
882.009 .0262961
882.676 .0262779
883.343 .0262597
884.009 .0262420
884.675 .0262254
885.340 .0262102
886.005 .0261960
886.670 .0261828
887.334 .0261704
887.998 .0261582
888.662 .0261463
889.325 .0261343
889.988 .0261223
890.650 .0261106
891.312 .0260993
891.974 .0260886
892.636 .0260790
893.297 .0260702
893.957 .0260620
894.618 .0260538
895.278 .0260457
895.937 .0260372
896.596 .0260282
897.255 .0260185
897.914 .0260078
898.572 .0259961
899.230 .0259833
899.887 .0259695
900.544 .0259548
901.201 .0259391
901.857 .0259228
902.513 .0259052
903.168 .0258863
903.823 .0258658
904.478 .0258439
905.132 .0258208
905.786 .0257965
906.440 .0257717
907.093 .0257471
907.746 .0257231
908.399 .0256996
909.051 .0256768
909.703 .0256548
910.354 .0256331
911.005 .0256114
911.656 .0255895
912.306 .0255672
912.956 .0255450
913.605 .0255231
914.254 .0255020
914.903 .0254817
915.551 .0254623
916.199 .0254432
916.847 .0254243
917.494 .0254055
918.141 .0253863
918.788 .0253663
919.434 .0253465
920.079 .0253265
920.725 .0253069
921.370 .0252879
922.014 .0252703
922.658 .0252538
923.302 .0252381
923.946 .0252224
924.589 .0252065
925.231 .0251897
925.873 .0251723
926.515 .0251536
927.157 .0251341
927.798 .0251146
928.439 .0250945
929.079 .0250744
929.719 .0250544
930.359 .0250342
930.998 .0250140
931.637 .0249939
932.275 .0249742
932.913 .0249542
933.551 .0249349
934.188 .0249164
934.825 .0248988
935.462 .0248829
936.098 .0248689
936.733 .0248567
937.369 .0248470
938.004 .0248396
938.638 .0248339
939.273 .0248302
939.907 .0248278
940.540 .0248260
941.173 .0248247
941.806 .0248235
942.438 .0248220
943.070 .0248201
943.702 .0248186
944.333 .0248171
944.964 .0248162
945.594 .0248162
946.224 .0248167
946.854 .0248184
947.483 .0248209
948.112 .0248239
948.741 .0248271
949.369 .0248308
949.996 .0248340
950.624 .0248374
951.251 .0248413
951.878 .0248457
952.504 .0248512
953.130 .0248578
953.755 .0248651
954.380 .0248729
955.005 .0248805
955.629 .0248872
956.253 .0248925
956.877 .0248963
957.500 .0248981
958.123 .0248987
958.746 .0248983
959.368 .0248974
959.990 .0248963
960.611 .0248958
961.232 .0248955
961.853 .0248956
962.473 .0248965
963.093 .0248973
963.712 .0248980
964.331 .0248986
964.950 .0248990
965.569 .0248998
966.187 .0249014
966.804 .0249044
967.422 .0249092
968.039 .0249160
968.655 .0249244
969.272 .0249341
969.887 .0249444
970.503 .0249542
971.118 .0249628
971.733 .0249701
972.347 .0249757
972.961 .0249803
973.575 .0249842
974.188 .0249878
974.801 .0249918
975.414 .0249962
976.026 .0250007
976.638 .0250051
977.250 .0250087
977.861 .0250114
978.472 .0250127
979.083 .0250131
979.693 .0250122
980.303 .0250111
980.912 .0250104
981.521 .0250102
982.130 .0250106
982.738 .0250118
983.346 .0250134
983.954 .0250155
984.562 .0250179
985.169 .0250199
985.775 .0250216
986.382 .0250234
986.988 .0250244
987.594 .0250254
988.199 .0250259
988.804 .0250265
989.409 .0250265
990.013 .0250272
990.617 .0250280
991.221 .0250290
991.824 .0250312
992.427 .0250349
993.030 .0250394
993.632 .0250452
994.234 .0250511
994.836 .0250575
995.438 .0250638
996.039 .0250697
996.640 .0250746
997.240 .0250795
997.840 .0250844
998.440 .0250892
999.040 .0250939
999.639 .0250991
1000.238 .0251037
1000.836 .0251082
1001.435 .0251118
1002.033 .0251140
1002.630 .0251154
1003.228 .0251162
1003.825 .0251166
1004.422 .0251180
1005.018 .0251203
1005.614 .0251241
1006.210 .0251290
1006.806 .0251357
1007.401 .0251430
1007.996 .0251509
1008.591 .0251596
1009.186 .0251687
1009.780 .0251774
1010.374 .0251866
1010.967 .0251951
1011.561 .0252042
1012.154 .0252131
1012.746 .0252219
1013.339 .0252304
1013.931 .0252387
1014.523 .0252464
1015.115 .0252535
1015.706 .0252603
1016.298 .0252669
1016.888 .0252728
1017.479 .0252785
1018.069 .0252835
1018.660 .0252881
1019.250 .0252921
1019.839 .0252956
1020.429 .0252990
1021.018 .0253031
1021.607 .0253071
1022.195 .0253118
1022.784 .0253169
1023.372 .0253219
1023.960 .0253265
1024.547 .0253308
1025.135 .0253339
1025.722 .0253362
1026.309 .0253381
1026.896 .0253398
1027.483 .0253416
1028.069 .0253443
1028.655 .0253477
1029.241 .0253517
1029.827 .0253560
1030.412 .0253600
1030.997 .0253630
1031.582 .0253665
1032.167 .0253697
1032.752 .0253730
1033.336 .0253774
1033.921 .0253828
1034.505 .0253888
1035.089 .0253951
1035.672 .0254008
1036.256 .0254056
1036.839 .0254084
1037.422 .0254090
1038.005 .0254073
1038.588 .0254045
1039.171 .0254019
1039.753 .0254006
1040.335 .0254015
1040.918 .0254056
1041.500 .0254115
1042.081 .0254189
1042.663 .0254260
1043.244 .0254319
1043.826 .0254358
1044.407 .0254363
1044.988 .0254346
1045.569 .0254307
1046.150 .0254248
1046.730 .0254187
1047.311 .0254120
1047.891 .0254059
1048.471 .0254000
1049.052 .0253933
1049.632 .0253860
1050.211 .0253779
1050.791 .0253686
1051.371 .0253575
1051.950 .0253453
1052.530 .0253326
1053.109 .0253182
1053.688 .0253022
1054.268 .0252854
1054.847 .0252679
1055.426 .0252505
1056.005 .0252330
1056.583 .0252153
1057.162 .0251987
1057.741 .0251830
1058.319 .0251674
1058.898 .0251528
1059.476 .0251375
1060.055 .0251212
1060.633 .0251022
1061.211 .0250816
1061.790 .0250594
1062.368 .0250362
1062.946 .0250150
1063.524 .0249968
1064.102 .0249824
1064.680 .0249721
1065.258 .0249655
1065.836 .0249639
1066.414 .0249655
1066.992 .0249687
1067.570 .0249723
1068.148 .0249747
1068.726 .0249748
1069.304 .0249736
1069.882 .0249702
1070.460 .0249655
1071.038 .0249601
1071.616 .0249537
1072.194 .0249460
1072.772 .0249358
1073.350 .0249235
1073.928 .0249078
1074.506 .0248893
1075.084 .0248670
1075.662 .0248400
1076.240 .0248122
1076.819 .0247849
1077.397 .0247593
1077.976 .0247379
1078.554 .0247215
1079.133 .0247102
1079.711 .0247021
1080.290 .0246969
1080.869 .0246919
1081.448 .0246869
1082.027 .0246814
1082.606 .0246746
1083.185 .0246678
1083.764 .0246624
1084.343 .0246587
1084.923 .0246582
1085.502 .0246600
1086.082 .0246630
1086.662 .0246668
1087.242 .0246693
1087.822 .0246688
1088.402 .0246650
1088.983 .0246582
1089.563 .0246489
1090.144 .0246372
1090.725 .0246257
1091.306 .0246147
1091.887 .0246058
1092.469 .0245991
1093.050 .0245943
1093.632 .0245916
1094.214 .0245899
1094.796 .0245874
1095.379 .0245844
1095.961 .0245804
1096.544 .0245732
1097.127 .0245639
1097.710 .0245535
1098.294 .0245437
1098.877 .0245344
1099.461 .0245275
1100.046 .0245243
1100.630 .0245246
1101.215 .0245285
1101.800 .0245346
1102.385 .0245424
1102.970 .0245529
1103.556 .0245637
1104.142 .0245769
1104.728 .0245937
1105.315 .0246159
1105.902 .0246414
1106.489 .0246732
1107.077 .0247094
1107.664 .0247488
1108.253 .0247886
1108.841 .0248286
1109.430 .0248674
1110.019 .0249055
1110.609 .0249413
1111.198 .0249740
1111.789 .0250051
1112.379 .0250355
1112.970 .0250604
1113.561 .0250811
1114.153 .0250979
1114.745 .0251117
1115.338 .0251230
1115.931 .0251343
1116.524 .0251473
1117.117 .0251633
1117.712 .0251830
1118.306 .0252069
1118.901 .0252320
1119.496 .0252586
1120.092 .0252848
1120.689 .0253100
1121.285 .0253384
1121.882 .0253671
1122.480 .0254012
1123.078 .0254444
1123.677 .0254981
1124.276 .0255602
1124.875 .0256263
1125.476 .0256940
1126.076 .0257634
1126.677 .0258307
1127.279 .0258980
1127.881 .0259649
1128.484 .0260337
1129.087 .0261038
1129.691 .0261768
1130.295 .0262553
1130.900 .0263342
1131.505 .0264114
1132.111 .0264892
1132.718 .0265615
1133.325 .0266318
1133.933 .0267059
1134.541 .0267865
1135.150 .0268820
1135.760 .0269958
1136.370 .0271211
1136.981 .0272569
1137.592 .0274001
1138.204 .0275500
1138.817 .0276988
1139.431 .0278508
1140.045 .0280143
1140.660 .0281942
1141.275 .0283924
1141.891 .0285647
1142.508 .0287344
1143.126 .0291621
1143.744 .0295685
1144.363 .0296551
1144.983 .0285737
