Measurement Sequence started on: 15-12-46-377
Integration time: 28
Scans to Average: 2 
>>>>>Begin Spectral Data<<<<<
432.689 .0000100
433.621 .0000100
434.552 .0000100
435.482 .0000100
436.410 .0000100
437.337 .0000100
438.262 .0280166
439.187 .0593443
440.110 .0982534
441.031 .1420945
441.952 .1846223
442.871 .2180788
443.789 .2364146
444.705 .2375570
445.621 .2241234
446.535 .2016975
447.447 .1763610
448.359 .1374504
449.269 .1183671
450.178 .1063845
451.086 .0979090
451.993 .0913477
452.898 .0860690
453.803 .0816749
454.706 .0780025
455.608 .0748644
456.508 .0721729
457.408 .0698482
458.306 .0677791
459.204 .0659196
460.100 .0642253
460.995 .0626474
461.888 .0611763
462.781 .0597911
463.673 .0585075
464.563 .0573313
465.452 .0562521
466.340 .0552726
467.228 .0543949
468.114 .0536045
468.999 .0528888
469.882 .0522308
470.765 .0516305
471.647 .0510820
472.528 .0505830
473.407 .0501450
474.286 .0497693
475.163 .0494498
476.040 .0491910
476.915 .0489739
477.790 .0487938
478.663 .0486372
479.535 .0484961
480.407 .0483728
481.277 .0482566
482.147 .0481606
483.015 .0480865
483.883 .0480314
484.749 .0480021
485.615 .0479904
486.479 .0479970
487.343 .0480170
488.206 .0480486
489.067 .0480864
489.928 .0481294
490.788 .0481829
491.647 .0482488
492.505 .0483325
493.362 .0484337
494.218 .0485477
495.073 .0486805
495.928 .0488406
496.781 .0490059
497.634 .0491903
498.486 .0493981
499.337 .0496324
500.187 .0498857
501.036 .0501612
501.884 .0504734
502.731 .0508188
503.578 .0512030
504.424 .0516242
505.268 .0520780
506.113 .0525822
506.956 .0531135
507.798 .0536798
508.640 .0542847
509.480 .0549286
510.320 .0556107
511.160 .0563567
511.998 .0571662
512.836 .0580698
513.672 .0590799
514.508 .0602242
515.344 .0615129
516.178 .0629631
517.012 .0646014
517.845 .0664432
518.677 .0685185
519.508 .0708338
520.339 .0734152
521.169 .0763743
521.998 .0797440
522.826 .0836096
523.654 .0880377
524.481 .0930618
525.307 .0987513
526.133 .1050720
526.958 .1119084
527.782 .1191031
528.605 .1265243
529.428 .1339750
530.250 .1409025
531.072 .1470610
531.892 .1520626
532.712 .1557272
533.532 .1578375
534.350 .1581939
535.168 .1567148
535.986 .1535574
536.802 .1488892
537.618 .1429294
538.434 .1359945
539.249 .1286007
540.063 .1210226
540.876 .1136270
541.689 .1066014
542.501 .1001938
543.313 .0945238
544.124 .0896111
544.934 .0853020
545.744 .0814834
546.553 .0780435
547.361 .0749345
548.169 .0721382
548.976 .0695928
549.783 .0672935
550.589 .0652388
551.395 .0634006
552.200 .0617767
553.004 .0603380
553.808 .0590402
554.611 .0578578
555.414 .0567685
556.216 .0557226
557.018 .0547142
557.819 .0537340
558.619 .0527898
559.419 .0518876
560.218 .0510503
561.017 .0502555
561.815 .0495133
562.613 .0488171
563.410 .0481512
564.207 .0474967
565.003 .0468582
565.799 .0462074
566.594 .0455444
567.388 .0448713
568.182 .0441914
568.976 .0435174
569.769 .0428644
570.562 .0422347
571.354 .0416391
572.145 .0410811
572.936 .0405590
573.727 .0400634
574.517 .0396000
575.307 .0391573
576.096 .0387386
576.885 .0383380
577.673 .0379556
578.461 .0375940
579.248 .0372562
580.035 .0369392
580.821 .0366412
581.607 .0363611
582.392 .0360961
583.177 .0358479
583.962 .0356163
584.746 .0354001
585.529 .0351972
586.313 .0350116
587.095 .0348412
587.878 .0346846
588.660 .0345430
589.441 .0344149
590.222 .0342992
591.003 .0341949
591.783 .0340982
592.563 .0340085
593.342 .0339258
594.121 .0338491
594.899 .0337782
595.678 .0337121
596.455 .0336521
597.233 .0335973
598.009 .0335474
598.786 .0335022
599.562 .0334590
600.338 .0334168
601.113 .0333745
601.888 .0333311
602.663 .0332851
603.437 .0332372
604.211 .0331880
604.984 .0331382
605.757 .0330890
606.530 .0330407
607.302 .0329941
608.074 .0329501
608.845 .0329090
609.616 .0328681
610.387 .0328280
611.158 .0327881
611.928 .0327473
612.697 .0327072
613.467 .0326674
614.236 .0326290
615.004 .0325926
615.773 .0325595
616.541 .0325298
617.308 .0325038
618.076 .0324823
618.843 .0324636
619.609 .0324477
620.375 .0324333
621.141 .0324190
621.907 .0324039
622.672 .0323887
623.437 .0323722
624.202 .0323545
624.966 .0323361
625.730 .0323168
626.493 .0322978
627.257 .0322789
628.020 .0322597
628.782 .0322397
629.545 .0322183
630.307 .0321945
631.068 .0321680
631.830 .0321386
632.591 .0321057
633.352 .0320698
634.112 .0320318
634.872 .0319919
635.632 .0319515
636.392 .0319114
637.151 .0318721
637.910 .0318345
638.668 .0317976
639.427 .0317609
640.185 .0317250
640.943 .0316903
641.700 .0316565
642.457 .0316243
643.214 .0315941
643.971 .0315651
644.727 .0315392
645.483 .0315161
646.239 .0314955
646.994 .0314777
647.750 .0314619
648.505 .0314464
649.259 .0314317
650.014 .0314176
650.768 .0314033
651.521 .0313895
652.275 .0313762
653.028 .0313615
653.781 .0313466
654.534 .0313311
655.286 .0313142
656.039 .0312961
656.791 .0312769
657.542 .0312551
658.294 .0312316
659.045 .0312074
659.796 .0311818
660.546 .0311557
661.297 .0311301
662.047 .0311042
662.796 .0310785
663.546 .0310532
664.295 .0310283
665.044 .0310038
665.793 .0309805
666.542 .0309570
667.290 .0309329
668.038 .0309090
668.786 .0308847
669.533 .0308599
670.281 .0308350
671.028 .0308105
671.774 .0307857
672.521 .0307613
673.267 .0307382
674.013 .0307157
674.759 .0306940
675.505 .0306732
676.250 .0306522
676.995 .0306308
677.740 .0306089
678.484 .0305868
679.229 .0305650
679.973 .0305443
680.717 .0305247
681.460 .0305060
682.204 .0304888
682.947 .0304731
683.690 .0304573
684.433 .0304415
685.175 .0304249
685.917 .0304067
686.659 .0303878
687.401 .0303683
688.142 .0303484
688.884 .0303286
689.625 .0303095
690.365 .0302906
691.106 .0302712
691.846 .0302512
692.586 .0302302
693.326 .0302082
694.066 .0301857
694.805 .0301621
695.545 .0301380
696.284 .0301141
697.022 .0300903
697.761 .0300673
698.499 .0300447
699.237 .0300226
699.975 .0300009
700.713 .0299795
701.450 .0299581
702.187 .0299364
702.924 .0299147
703.661 .0298932
704.397 .0298718
705.133 .0298507
705.869 .0298297
706.605 .0298092
707.341 .0297893
708.076 .0297698
708.811 .0297508
709.546 .0297322
710.281 .0297137
711.015 .0296958
711.749 .0296777
712.483 .0296594
713.217 .0296411
713.950 .0296227
714.684 .0296042
715.417 .0295856
716.150 .0295668
716.882 .0295482
717.615 .0295295
718.347 .0295107
719.079 .0294914
719.811 .0294717
720.542 .0294519
721.273 .0294322
722.005 .0294127
722.735 .0293934
723.466 .0293748
724.196 .0293570
724.927 .0293393
725.656 .0293219
726.386 .0293044
727.116 .0292868
727.845 .0292690
728.574 .0292510
729.303 .0292331
730.031 .0292154
730.760 .0291983
731.488 .0291818
732.216 .0291658
732.944 .0291508
733.671 .0291363
734.398 .0291221
735.125 .0291085
735.852 .0290953
736.579 .0290818
737.305 .0290687
738.031 .0290562
738.757 .0290443
739.483 .0290328
740.208 .0290216
740.933 .0290112
741.658 .0290011
742.383 .0289915
743.108 .0289820
743.832 .0289729
744.556 .0289643
745.280 .0289552
746.004 .0289455
746.727 .0289354
747.450 .0289247
748.173 .0289130
748.896 .0289006
749.618 .0288877
750.340 .0288747
751.062 .0288618
751.784 .0288491
752.506 .0288372
753.227 .0288257
753.948 .0288143
754.669 .0288026
755.389 .0287905
756.110 .0287772
756.830 .0287630
757.550 .0287478
758.269 .0287318
758.989 .0287152
759.708 .0286979
760.427 .0286802
761.146 .0286627
761.864 .0286452
762.582 .0286271
763.300 .0286085
764.018 .0285900
764.736 .0285713
765.453 .0285526
766.170 .0285343
766.887 .0285166
767.603 .0284996
768.320 .0284836
769.036 .0284678
769.751 .0284523
770.467 .0284371
771.182 .0284220
771.897 .0284066
772.612 .0283910
773.327 .0283756
774.041 .0283603
774.755 .0283456
775.469 .0283318
776.183 .0283187
776.896 .0283066
777.609 .0282957
778.322 .0282857
779.035 .0282762
779.747 .0282671
780.459 .0282584
781.171 .0282504
781.882 .0282429
782.594 .0282360
783.305 .0282297
784.016 .0282249
784.726 .0282214
785.436 .0282184
786.147 .0282163
786.856 .0282144
787.566 .0282124
788.275 .0282100
788.984 .0282066
789.693 .0282022
790.401 .0281968
791.110 .0281907
791.818 .0281835
792.525 .0281757
793.233 .0281674
793.940 .0281586
794.647 .0281497
795.353 .0281407
796.060 .0281306
796.766 .0281196
797.472 .0281074
798.177 .0280935
798.883 .0280778
799.588 .0280605
800.292 .0280419
800.997 .0280227
801.701 .0280030
802.405 .0279834
803.109 .0279644
803.812 .0279463
804.515 .0279286
805.218 .0279104
805.921 .0278922
806.623 .0278730
807.325 .0278531
808.027 .0278329
808.728 .0278124
809.429 .0277923
810.130 .0277729
810.831 .0277547
811.531 .0277376
812.231 .0277215
812.931 .0277057
813.630 .0276897
814.330 .0276734
815.029 .0276562
815.727 .0276384
816.426 .0276207
817.124 .0276035
817.821 .0275870
818.519 .0275715
819.216 .0275573
819.913 .0275444
820.609 .0275325
821.306 .0275212
822.002 .0275105
822.697 .0275002
823.393 .0274906
824.088 .0274816
824.783 .0274736
825.477 .0274668
826.171 .0274609
826.865 .0274561
827.559 .0274521
828.252 .0274487
828.945 .0274457
829.638 .0274434
830.330 .0274414
831.023 .0274396
831.714 .0274382
832.406 .0274373
833.097 .0274369
833.788 .0274370
834.479 .0274374
835.169 .0274380
835.859 .0274391
836.548 .0274399
837.238 .0274402
837.927 .0274399
838.615 .0274392
839.304 .0274381
839.992 .0274366
840.680 .0274350
841.367 .0274332
842.054 .0274312
842.741 .0274296
843.428 .0274280
844.114 .0274270
844.800 .0274261
845.485 .0274248
846.170 .0274226
846.855 .0274192
847.540 .0274138
848.224 .0274071
848.908 .0273993
849.592 .0273905
850.275 .0273809
850.958 .0273712
851.641 .0273614
852.323 .0273516
853.005 .0273414
853.687 .0273300
854.368 .0273167
855.049 .0273013
855.730 .0272833
856.410 .0272635
857.090 .0272427
857.769 .0272217
858.449 .0272012
859.128 .0271818
859.806 .0271635
860.485 .0271463
861.163 .0271300
861.840 .0271145
862.518 .0270994
863.195 .0270844
863.871 .0270693
864.548 .0270548
865.224 .0270410
865.899 .0270281
866.574 .0270161
867.249 .0270049
867.924 .0269941
868.598 .0269834
869.272 .0269730
869.946 .0269628
870.619 .0269530
871.292 .0269438
871.964 .0269347
872.636 .0269257
873.308 .0269165
873.979 .0269069
874.651 .0268965
875.321 .0268858
875.992 .0268747
876.662 .0268636
877.331 .0268534
878.001 .0268446
878.670 .0268372
879.338 .0268315
880.007 .0268271
880.675 .0268233
881.342 .0268197
882.009 .0268164
882.676 .0268125
883.343 .0268090
884.009 .0268058
884.675 .0268029
885.340 .0268002
886.005 .0267982
886.670 .0267965
887.334 .0267948
887.998 .0267934
888.662 .0267917
889.325 .0267898
889.988 .0267880
890.650 .0267862
891.312 .0267848
891.974 .0267841
892.636 .0267838
893.297 .0267838
893.957 .0267843
894.618 .0267849
895.278 .0267855
895.937 .0267865
896.596 .0267882
897.255 .0267904
897.914 .0267929
898.572 .0267952
899.230 .0267972
899.887 .0267992
900.544 .0268004
901.201 .0268007
901.857 .0267998
902.513 .0267974
903.168 .0267934
903.823 .0267870
904.478 .0267784
905.132 .0267672
905.786 .0267532
906.440 .0267361
907.093 .0267162
907.746 .0266942
908.399 .0266704
909.051 .0266457
909.703 .0266207
910.354 .0265954
911.005 .0265701
911.656 .0265453
912.306 .0265205
912.956 .0264961
913.605 .0264718
914.254 .0264474
914.903 .0264235
915.551 .0263999
916.199 .0263769
916.847 .0263546
917.494 .0263331
918.141 .0263126
918.788 .0262922
919.434 .0262727
920.079 .0262533
920.725 .0262341
921.370 .0262148
922.014 .0261953
922.658 .0261753
923.302 .0261544
923.946 .0261324
924.589 .0261096
925.231 .0260857
925.873 .0260610
926.515 .0260363
927.157 .0260113
927.798 .0259866
928.439 .0259622
929.079 .0259380
929.719 .0259139
930.359 .0258897
930.998 .0258653
931.637 .0258407
932.275 .0258159
932.913 .0257911
933.551 .0257657
934.188 .0257411
934.825 .0257168
935.462 .0256928
936.098 .0256693
936.733 .0256469
937.369 .0256254
938.004 .0256053
938.638 .0255867
939.273 .0255703
939.907 .0255556
940.540 .0255432
941.173 .0255321
941.806 .0255225
942.438 .0255138
943.070 .0255058
943.702 .0254974
944.333 .0254891
944.964 .0254800
945.594 .0254712
946.224 .0254625
946.854 .0254549
947.483 .0254478
948.112 .0254420
948.741 .0254369
949.369 .0254325
949.996 .0254277
950.624 .0254228
951.251 .0254171
951.878 .0254108
952.504 .0254033
953.130 .0253955
953.755 .0253876
954.380 .0253799
955.005 .0253726
955.629 .0253662
956.253 .0253598
956.877 .0253541
957.500 .0253485
958.123 .0253429
958.746 .0253368
959.368 .0253302
959.990 .0253227
960.611 .0253146
961.232 .0253060
961.853 .0252968
962.473 .0252871
963.093 .0252774
963.712 .0252668
964.331 .0252559
964.950 .0252450
965.569 .0252345
966.187 .0252245
966.804 .0252154
967.422 .0252072
968.039 .0251999
968.655 .0251930
969.272 .0251863
969.887 .0251798
970.503 .0251731
971.118 .0251652
971.733 .0251563
972.347 .0251467
972.961 .0251368
973.575 .0251266
974.188 .0251164
974.801 .0251060
975.414 .0250957
976.026 .0250850
976.638 .0250736
977.250 .0250618
977.861 .0250499
978.472 .0250374
979.083 .0250251
979.693 .0250129
980.303 .0250008
980.912 .0249892
981.521 .0249780
982.130 .0249672
982.738 .0249563
983.346 .0249454
983.954 .0249348
984.562 .0249246
985.169 .0249150
985.775 .0249056
986.382 .0248967
986.988 .0248879
987.594 .0248794
988.199 .0248701
988.804 .0248606
989.409 .0248509
990.013 .0248409
990.617 .0248309
991.221 .0248216
991.824 .0248138
992.427 .0248077
993.030 .0248041
993.632 .0248028
994.234 .0248031
994.836 .0248053
995.438 .0248084
996.039 .0248117
996.640 .0248145
997.240 .0248173
997.840 .0248195
998.440 .0248216
999.040 .0248237
999.639 .0248260
1000.238 .0248289
1000.836 .0248320
1001.435 .0248348
1002.033 .0248374
1002.630 .0248394
1003.228 .0248412
1003.825 .0248428
1004.422 .0248448
1005.018 .0248472
1005.614 .0248508
1006.210 .0248560
1006.806 .0248634
1007.401 .0248724
1007.996 .0248830
1008.591 .0248950
1009.186 .0249087
1009.780 .0249228
1010.374 .0249367
1010.967 .0249508
1011.561 .0249644
1012.154 .0249773
1012.746 .0249895
1013.339 .0250003
1013.931 .0250106
1014.523 .0250196
1015.115 .0250273
1015.706 .0250339
1016.298 .0250393
1016.888 .0250437
1017.479 .0250470
1018.069 .0250498
1018.660 .0250513
1019.250 .0250520
1019.839 .0250525
1020.429 .0250529
1021.018 .0250536
1021.607 .0250550
1022.195 .0250568
1022.784 .0250600
1023.372 .0250640
1023.960 .0250687
1024.547 .0250745
1025.135 .0250819
1025.722 .0250910
1026.309 .0251021
1026.896 .0251152
1027.483 .0251309
1028.069 .0251476
1028.655 .0251657
1029.241 .0251838
1029.827 .0252018
1030.412 .0252195
1030.997 .0252363
1031.582 .0252525
1032.167 .0252687
1032.752 .0252846
1033.336 .0253013
1033.921 .0253180
1034.505 .0253351
1035.089 .0253510
1035.672 .0253649
1036.256 .0253762
1036.839 .0253853
1037.422 .0253917
1038.005 .0253965
1038.588 .0254003
1039.171 .0254041
1039.753 .0254085
1040.335 .0254138
1040.918 .0254203
1041.500 .0254274
1042.081 .0254341
1042.663 .0254400
1043.244 .0254439
1043.826 .0254468
1044.407 .0254480
1044.988 .0254487
1045.569 .0254495
1046.150 .0254505
1046.730 .0254511
1047.311 .0254521
1047.891 .0254529
1048.471 .0254532
1049.052 .0254530
1049.632 .0254523
1050.211 .0254517
1050.791 .0254515
1051.371 .0254513
1051.950 .0254527
1052.530 .0254552
1053.109 .0254593
1053.688 .0254631
1054.268 .0254680
1054.847 .0254730
1055.426 .0254776
1056.005 .0254823
1056.583 .0254871
1057.162 .0254920
1057.741 .0254980
1058.319 .0255046
1058.898 .0255129
1059.476 .0255223
1060.055 .0255318
1060.633 .0255403
1061.211 .0255486
1061.790 .0255556
1062.368 .0255614
1062.946 .0255657
1063.524 .0255703
1064.102 .0255741
1064.680 .0255780
1065.258 .0255818
1065.836 .0255843
1066.414 .0255868
1066.992 .0255875
1067.570 .0255858
1068.148 .0255827
1068.726 .0255779
1069.304 .0255717
1069.882 .0255649
1070.460 .0255580
1071.038 .0255512
1071.616 .0255445
1072.194 .0255388
1072.772 .0255338
1073.350 .0255300
1073.928 .0255269
1074.506 .0255239
1075.084 .0255216
1075.662 .0255199
1076.240 .0255169
1076.819 .0255147
1077.397 .0255123
1077.976 .0255106
1078.554 .0255093
1079.133 .0255079
1079.711 .0255065
1080.290 .0255054
1080.869 .0255032
1081.448 .0255002
1082.027 .0254955
1082.606 .0254897
1083.185 .0254817
1083.764 .0254737
1084.343 .0254662
1084.923 .0254592
1085.502 .0254541
1086.082 .0254517
1086.662 .0254509
1087.242 .0254536
1087.822 .0254580
1088.402 .0254654
1088.983 .0254761
1089.563 .0254883
1090.144 .0255034
1090.725 .0255217
1091.306 .0255418
1091.887 .0255638
1092.469 .0255878
1093.050 .0256148
1093.632 .0256428
1094.214 .0256708
1094.796 .0256990
1095.379 .0257275
1095.961 .0257574
1096.544 .0257846
1097.127 .0258090
1097.710 .0258332
1098.294 .0258542
1098.877 .0258719
1099.461 .0258865
1100.046 .0258993
1100.630 .0259125
1101.215 .0259253
1101.800 .0259369
1102.385 .0259479
1102.970 .0259595
1103.556 .0259708
1104.142 .0259812
1104.728 .0259933
1105.315 .0260052
1105.902 .0260159
1106.489 .0260296
1107.077 .0260464
1107.664 .0260653
1108.253 .0260878
1108.841 .0261145
1109.430 .0261453
1110.019 .0261772
1110.609 .0262091
1111.198 .0262415
1111.789 .0262751
1112.379 .0263099
1112.970 .0263401
1113.561 .0263695
1114.153 .0264014
1114.745 .0264343
1115.338 .0264689
1115.931 .0265085
1116.524 .0265522
1117.117 .0266006
1117.712 .0266518
1118.306 .0267064
1118.901 .0267615
1119.496 .0268166
1120.092 .0268685
1120.689 .0269150
1121.285 .0269567
1121.882 .0269930
1122.480 .0270250
1123.078 .0270576
1123.677 .0270914
1124.276 .0271272
1124.875 .0271651
1125.476 .0272068
1126.076 .0272518
1126.677 .0272993
1127.279 .0273436
1127.881 .0273834
1128.484 .0274186
1129.087 .0274472
1129.691 .0274718
1130.295 .0274971
1130.900 .0275292
1131.505 .0275719
1132.111 .0276285
1132.718 .0276966
1133.325 .0277779
1133.933 .0278701
1134.541 .0279687
1135.150 .0280722
1135.760 .0281783
1136.370 .0282821
1136.981 .0283847
1137.592 .0284874
1138.204 .0285915
1138.817 .0286998
1139.431 .0288132
1140.045 .0289276
1140.660 .0290543
1141.275 .0291949
1141.891 .0293455
1142.508 .0294599
1143.126 .0295508
1143.744 .0298547
1144.363 .0301700
1144.983 .0302911
