Measurement Sequence started on: 15-12-46-377
Integration time: 28
Scans to Average: 2 
>>>>>Begin Spectral Data<<<<<
432.689 .0000100
433.621 .0000100
434.552 .0000100
435.482 .0000100
436.410 .0000100
437.337 .0000100
438.262 .0261954
439.187 .0554800
440.110 .0918997
441.031 .1329968
441.952 .1729114
442.871 .2043097
443.789 .2215053
444.705 .2225075
445.621 .2097396
446.535 .1884053
447.447 .1642082
448.359 .1272436
449.269 .1088449
450.178 .0971657
451.086 .0889228
451.993 .0826553
452.898 .0777886
453.803 .0738739
454.706 .0707097
455.608 .0680493
456.508 .0657975
457.408 .0638690
458.306 .0621588
459.204 .0606014
460.100 .0591750
460.995 .0578441
461.888 .0566158
462.781 .0554610
463.673 .0543892
464.563 .0533935
465.452 .0524769
466.340 .0516326
467.228 .0508692
468.114 .0501666
468.999 .0495275
469.882 .0489199
470.765 .0483651
471.647 .0478496
472.528 .0473668
473.407 .0469280
474.286 .0465446
475.163 .0462019
476.040 .0459023
476.915 .0456366
477.790 .0454088
478.663 .0452060
479.535 .0450370
480.407 .0448830
481.277 .0447445
482.147 .0446218
483.015 .0445055
483.883 .0443943
484.749 .0442944
485.615 .0441909
486.479 .0440842
487.343 .0439831
488.206 .0438871
489.067 .0437954
489.928 .0437212
490.788 .0436657
491.647 .0436333
492.505 .0436282
493.362 .0436453
494.218 .0436807
495.073 .0437443
495.928 .0438396
496.781 .0439488
497.634 .0440911
498.486 .0442589
499.337 .0444608
500.187 .0447020
501.036 .0449817
501.884 .0452993
502.731 .0456568
503.578 .0460513
504.424 .0464765
505.268 .0469317
506.113 .0474177
506.956 .0479276
507.798 .0484811
508.640 .0490705
509.480 .0497051
510.320 .0503893
511.160 .0511542
511.998 .0520005
512.836 .0529421
513.672 .0539789
514.508 .0551060
515.344 .0563395
516.178 .0576912
517.012 .0591942
517.845 .0608845
518.677 .0627981
519.508 .0649713
520.339 .0674653
521.169 .0703389
521.998 .0736091
522.826 .0773275
523.654 .0815455
524.481 .0862695
525.307 .0915270
526.133 .0972954
526.958 .1035447
527.782 .1102459
528.605 .1172942
529.428 .1245587
530.250 .1315835
531.072 .1380774
531.892 .1436661
532.712 .1480250
533.532 .1509147
534.350 .1520614
535.168 .1514006
535.986 .1490213
536.802 .1450908
537.618 .1398481
538.434 .1335907
539.249 .1267998
540.063 .1197187
540.876 .1126242
541.689 .1057299
542.501 .0992418
543.313 .0933243
544.124 .0880140
544.934 .0832785
545.744 .0790486
546.553 .0753061
547.361 .0720040
548.169 .0691096
548.976 .0665352
549.783 .0642378
550.589 .0621814
551.395 .0603002
552.200 .0585800
553.004 .0569826
553.808 .0554890
554.611 .0541117
555.414 .0528551
556.216 .0516996
557.018 .0506626
557.819 .0497300
558.619 .0488699
559.419 .0480766
560.218 .0473455
561.017 .0466517
561.815 .0459839
562.613 .0453361
563.410 .0447070
564.207 .0440899
565.003 .0434886
565.799 .0429005
566.594 .0423306
567.388 .0417831
568.182 .0412511
568.976 .0407283
569.769 .0402195
570.562 .0397193
571.354 .0392285
572.145 .0387528
572.936 .0382875
573.727 .0378317
574.517 .0373851
575.307 .0369573
576.096 .0365459
576.885 .0361460
577.673 .0357618
578.461 .0353991
579.248 .0350554
580.035 .0347320
580.821 .0344285
581.607 .0341479
582.392 .0338889
583.177 .0336493
583.962 .0334262
584.746 .0332221
585.529 .0330348
586.313 .0328648
587.095 .0327088
587.878 .0325711
588.660 .0324477
589.441 .0323374
590.222 .0322405
591.003 .0321586
591.783 .0320870
592.563 .0320235
593.342 .0319677
594.121 .0319161
594.899 .0318678
595.678 .0318225
596.455 .0317787
597.233 .0317367
598.009 .0316948
598.786 .0316540
599.562 .0316136
600.338 .0315751
601.113 .0315372
601.888 .0314991
602.663 .0314613
603.437 .0314228
604.211 .0313829
604.984 .0313427
605.757 .0313033
606.530 .0312649
607.302 .0312278
608.074 .0311929
608.845 .0311601
609.616 .0311293
610.387 .0311010
611.158 .0310750
611.928 .0310504
612.697 .0310275
613.467 .0310058
614.236 .0309844
615.004 .0309637
615.773 .0309432
616.541 .0309232
617.308 .0309038
618.076 .0308856
618.843 .0308679
619.609 .0308513
620.375 .0308362
621.141 .0308225
621.907 .0308091
622.672 .0307963
623.437 .0307822
624.202 .0307668
624.966 .0307493
625.730 .0307298
626.493 .0307079
627.257 .0306857
628.020 .0306633
628.782 .0306414
629.545 .0306203
630.307 .0306004
631.068 .0305801
631.830 .0305597
632.591 .0305372
633.352 .0305126
634.112 .0304847
634.872 .0304546
635.632 .0304222
636.392 .0303889
637.151 .0303553
637.910 .0303226
638.668 .0302914
639.427 .0302619
640.185 .0302329
640.943 .0302048
641.700 .0301771
642.457 .0301500
643.214 .0301226
643.971 .0300954
644.727 .0300692
645.483 .0300448
646.239 .0300215
646.994 .0299995
647.750 .0299790
648.505 .0299600
649.259 .0299417
650.014 .0299239
650.768 .0299065
651.521 .0298891
652.275 .0298717
653.028 .0298543
653.781 .0298366
654.534 .0298188
655.286 .0298000
656.039 .0297800
656.791 .0297591
657.542 .0297365
658.294 .0297127
659.045 .0296883
659.796 .0296636
660.546 .0296386
661.297 .0296129
662.047 .0295870
662.796 .0295605
663.546 .0295338
664.295 .0295065
665.044 .0294792
665.793 .0294534
666.542 .0294291
667.290 .0294072
668.038 .0293881
668.786 .0293709
669.533 .0293562
670.281 .0293433
671.028 .0293316
671.774 .0293201
672.521 .0293094
673.267 .0292995
674.013 .0292908
674.759 .0292830
675.505 .0292768
676.250 .0292714
676.995 .0292672
677.740 .0292627
678.484 .0292572
679.229 .0292506
679.973 .0292422
680.717 .0292319
681.460 .0292206
682.204 .0292077
682.947 .0291944
683.690 .0291812
684.433 .0291690
685.175 .0291569
685.917 .0291450
686.659 .0291338
687.401 .0291232
688.142 .0291126
688.884 .0291019
689.625 .0290910
690.365 .0290803
691.106 .0290691
691.846 .0290575
692.586 .0290454
693.326 .0290328
694.066 .0290195
694.805 .0290055
695.545 .0289905
696.284 .0289745
697.022 .0289576
697.761 .0289394
698.499 .0289207
699.237 .0289007
699.975 .0288797
700.713 .0288582
701.450 .0288369
702.187 .0288151
702.924 .0287934
703.661 .0287719
704.397 .0287503
705.133 .0287288
705.869 .0287075
706.605 .0286864
707.341 .0286662
708.076 .0286470
708.811 .0286283
709.546 .0286103
710.281 .0285935
711.015 .0285767
711.749 .0285596
712.483 .0285424
713.217 .0285245
713.950 .0285057
714.684 .0284864
715.417 .0284668
716.150 .0284474
716.882 .0284288
717.615 .0284111
718.347 .0283939
719.079 .0283771
719.811 .0283605
720.542 .0283430
721.273 .0283246
722.005 .0283052
722.735 .0282845
723.466 .0282626
724.196 .0282403
724.927 .0282177
725.656 .0281955
726.386 .0281742
727.116 .0281537
727.845 .0281336
728.574 .0281143
729.303 .0280956
730.031 .0280767
730.760 .0280583
731.488 .0280408
732.216 .0280241
732.944 .0280091
733.671 .0279956
734.398 .0279838
735.125 .0279738
735.852 .0279653
736.579 .0279577
737.305 .0279512
738.031 .0279455
738.757 .0279399
739.483 .0279347
740.208 .0279297
740.933 .0279247
741.658 .0279193
742.383 .0279137
743.108 .0279078
743.832 .0279012
744.556 .0278941
745.280 .0278860
746.004 .0278779
746.727 .0278694
747.450 .0278606
748.173 .0278519
748.896 .0278438
749.618 .0278359
750.340 .0278283
751.062 .0278209
751.784 .0278140
752.506 .0278073
753.227 .0278005
753.948 .0277934
754.669 .0277864
755.389 .0277792
756.110 .0277719
756.830 .0277644
757.550 .0277573
758.269 .0277497
758.989 .0277421
759.708 .0277337
760.427 .0277250
761.146 .0277154
761.864 .0277048
762.582 .0276926
763.300 .0276796
764.018 .0276655
764.736 .0276507
765.453 .0276355
766.170 .0276205
766.887 .0276053
767.603 .0275905
768.320 .0275755
769.036 .0275606
769.751 .0275453
770.467 .0275304
771.182 .0275154
771.897 .0275011
772.612 .0274880
773.327 .0274764
774.041 .0274661
774.755 .0274577
775.469 .0274507
776.183 .0274452
776.896 .0274408
777.609 .0274375
778.322 .0274348
779.035 .0274331
779.747 .0274322
780.459 .0274316
781.171 .0274314
781.882 .0274317
782.594 .0274319
783.305 .0274320
784.016 .0274320
784.726 .0274313
785.436 .0274300
786.147 .0274278
786.856 .0274246
787.566 .0274201
788.275 .0274144
788.984 .0274075
789.693 .0273994
790.401 .0273902
791.110 .0273802
791.818 .0273690
792.525 .0273576
793.233 .0273458
793.940 .0273336
794.647 .0273209
795.353 .0273080
796.060 .0272950
796.766 .0272814
797.472 .0272674
798.177 .0272534
798.883 .0272392
799.588 .0272252
800.292 .0272112
800.997 .0271974
801.701 .0271835
802.405 .0271696
803.109 .0271553
803.812 .0271406
804.515 .0271252
805.218 .0271089
805.921 .0270916
806.623 .0270736
807.325 .0270546
808.027 .0270345
808.728 .0270138
809.429 .0269924
810.130 .0269700
810.831 .0269472
811.531 .0269235
812.231 .0268993
812.931 .0268742
813.630 .0268486
814.330 .0268222
815.029 .0267955
815.727 .0267692
816.426 .0267431
817.124 .0267179
817.821 .0266938
818.519 .0266706
819.216 .0266485
819.913 .0266278
820.609 .0266080
821.306 .0265889
822.002 .0265713
822.697 .0265553
823.393 .0265410
824.088 .0265288
824.783 .0265184
825.477 .0265094
826.171 .0265016
826.865 .0264947
827.559 .0264879
828.252 .0264818
828.945 .0264758
829.638 .0264697
830.330 .0264645
831.023 .0264600
831.714 .0264564
832.406 .0264535
833.097 .0264515
833.788 .0264494
834.479 .0264465
835.169 .0264433
835.859 .0264394
836.548 .0264350
837.238 .0264306
837.927 .0264262
838.615 .0264224
839.304 .0264192
839.992 .0264162
840.680 .0264134
841.367 .0264108
842.054 .0264075
842.741 .0264033
843.428 .0263983
844.114 .0263928
844.800 .0263871
845.485 .0263812
846.170 .0263755
846.855 .0263698
847.540 .0263644
848.224 .0263590
848.908 .0263534
849.592 .0263475
850.275 .0263412
850.958 .0263341
851.641 .0263265
852.323 .0263180
853.005 .0263092
853.687 .0262997
854.368 .0262899
855.049 .0262800
855.730 .0262701
856.410 .0262599
857.090 .0262500
857.769 .0262400
858.449 .0262295
859.128 .0262188
859.806 .0262075
860.485 .0261962
861.163 .0261850
861.840 .0261739
862.518 .0261630
863.195 .0261524
863.871 .0261423
864.548 .0261324
865.224 .0261225
865.899 .0261132
866.574 .0261039
867.249 .0260947
867.924 .0260857
868.598 .0260772
869.272 .0260694
869.946 .0260625
870.619 .0260556
871.292 .0260494
871.964 .0260434
872.636 .0260373
873.308 .0260309
873.979 .0260253
874.651 .0260201
875.321 .0260157
875.992 .0260124
876.662 .0260106
877.331 .0260096
878.001 .0260101
878.670 .0260107
879.338 .0260114
880.007 .0260118
880.675 .0260120
881.342 .0260116
882.009 .0260121
882.676 .0260134
883.343 .0260156
884.009 .0260192
884.675 .0260245
885.340 .0260303
886.005 .0260365
886.670 .0260427
887.334 .0260482
887.998 .0260528
888.662 .0260566
889.325 .0260592
889.988 .0260614
890.650 .0260637
891.312 .0260658
891.974 .0260677
892.636 .0260698
893.297 .0260712
893.957 .0260716
894.618 .0260712
895.278 .0260697
895.937 .0260670
896.596 .0260640
897.255 .0260605
897.914 .0260569
898.572 .0260537
899.230 .0260510
899.887 .0260487
900.544 .0260465
901.201 .0260442
901.857 .0260406
902.513 .0260355
903.168 .0260288
903.823 .0260202
904.478 .0260100
905.132 .0259983
905.786 .0259851
906.440 .0259707
907.093 .0259549
907.746 .0259378
908.399 .0259189
909.051 .0258984
909.703 .0258760
910.354 .0258520
911.005 .0258262
911.656 .0257999
912.306 .0257735
912.956 .0257479
913.605 .0257237
914.254 .0257008
914.903 .0256791
915.551 .0256588
916.199 .0256393
916.847 .0256203
917.494 .0256014
918.141 .0255827
918.788 .0255638
919.434 .0255451
920.079 .0255267
920.725 .0255087
921.370 .0254913
922.014 .0254741
922.658 .0254564
923.302 .0254375
923.946 .0254169
924.589 .0253945
925.231 .0253700
925.873 .0253438
926.515 .0253157
927.157 .0252867
927.798 .0252575
928.439 .0252284
929.079 .0251995
929.719 .0251713
930.359 .0251439
930.998 .0251170
931.637 .0250904
932.275 .0250647
932.913 .0250400
933.551 .0250166
934.188 .0249944
934.825 .0249740
935.462 .0249552
936.098 .0249382
936.733 .0249223
937.369 .0249080
938.004 .0248947
938.638 .0248820
939.273 .0248700
939.907 .0248590
940.540 .0248487
941.173 .0248390
941.806 .0248298
942.438 .0248214
943.070 .0248125
943.702 .0248031
944.333 .0247929
944.964 .0247826
945.594 .0247719
946.224 .0247610
946.854 .0247506
947.483 .0247412
948.112 .0247325
948.741 .0247241
949.369 .0247155
949.996 .0247070
950.624 .0246977
951.251 .0246869
951.878 .0246750
952.504 .0246621
953.130 .0246485
953.755 .0246344
954.380 .0246205
955.005 .0246068
955.629 .0245932
956.253 .0245794
956.877 .0245658
957.500 .0245519
958.123 .0245378
958.746 .0245227
959.368 .0245076
959.990 .0244925
960.611 .0244774
961.232 .0244625
961.853 .0244486
962.473 .0244357
963.093 .0244238
963.712 .0244123
964.331 .0244015
964.950 .0243913
965.569 .0243819
966.187 .0243726
966.804 .0243640
967.422 .0243562
968.039 .0243493
968.655 .0243428
969.272 .0243375
969.887 .0243325
970.503 .0243282
971.118 .0243241
971.733 .0243205
972.347 .0243173
972.961 .0243145
973.575 .0243116
974.188 .0243093
974.801 .0243072
975.414 .0243053
976.026 .0243029
976.638 .0243008
977.250 .0242991
977.861 .0242976
978.472 .0242959
979.083 .0242945
979.693 .0242929
980.303 .0242911
980.912 .0242881
981.521 .0242845
982.130 .0242800
982.738 .0242747
983.346 .0242686
983.954 .0242624
984.562 .0242565
985.169 .0242508
985.775 .0242448
986.382 .0242386
986.988 .0242319
987.594 .0242238
988.199 .0242138
988.804 .0242026
989.409 .0241911
990.013 .0241801
990.617 .0241696
991.221 .0241613
991.824 .0241556
992.427 .0241527
993.030 .0241525
993.632 .0241541
994.234 .0241570
994.836 .0241607
995.438 .0241647
996.039 .0241689
996.640 .0241738
997.240 .0241801
997.840 .0241878
998.440 .0241976
999.040 .0242090
999.639 .0242211
1000.238 .0242337
1000.836 .0242464
1001.435 .0242582
1002.033 .0242682
1002.630 .0242768
1003.228 .0242842
1003.825 .0242919
1004.422 .0242999
1005.018 .0243086
1005.614 .0243185
1006.210 .0243293
1006.806 .0243404
1007.401 .0243504
1007.996 .0243593
1008.591 .0243671
1009.186 .0243738
1009.780 .0243798
1010.374 .0243849
1010.967 .0243908
1011.561 .0243976
1012.154 .0244054
1012.746 .0244135
1013.339 .0244219
1013.931 .0244296
1014.523 .0244360
1015.115 .0244409
1015.706 .0244445
1016.298 .0244476
1016.888 .0244514
1017.479 .0244563
1018.069 .0244631
1018.660 .0244726
1019.250 .0244850
1019.839 .0244995
1020.429 .0245162
1021.018 .0245337
1021.607 .0245514
1022.195 .0245689
1022.784 .0245862
1023.372 .0246032
1023.960 .0246201
1024.547 .0246370
1025.135 .0246540
1025.722 .0246709
1026.309 .0246869
1026.896 .0247016
1027.483 .0247148
1028.069 .0247267
1028.655 .0247370
1029.241 .0247459
1029.827 .0247539
1030.412 .0247611
1030.997 .0247678
1031.582 .0247739
1032.167 .0247796
1032.752 .0247846
1033.336 .0247890
1033.921 .0247936
1034.505 .0247981
1035.089 .0248033
1035.672 .0248095
1036.256 .0248171
1036.839 .0248260
1037.422 .0248355
1038.005 .0248451
1038.588 .0248548
1039.171 .0248634
1039.753 .0248702
1040.335 .0248749
1040.918 .0248778
1041.500 .0248788
1042.081 .0248782
1042.663 .0248769
1043.244 .0248753
1043.826 .0248731
1044.407 .0248710
1044.988 .0248681
1045.569 .0248643
1046.150 .0248595
1046.730 .0248534
1047.311 .0248467
1047.891 .0248400
1048.471 .0248334
1049.052 .0248279
1049.632 .0248248
1050.211 .0248246
1050.791 .0248258
1051.371 .0248288
1051.950 .0248333
1052.530 .0248383
1053.109 .0248427
1053.688 .0248468
1054.268 .0248506
1054.847 .0248545
1055.426 .0248583
1056.005 .0248622
1056.583 .0248672
1057.162 .0248728
1057.741 .0248791
1058.319 .0248847
1058.898 .0248897
1059.476 .0248939
1060.055 .0248962
1060.633 .0248969
1061.211 .0248960
1061.790 .0248938
1062.368 .0248901
1062.946 .0248861
1063.524 .0248828
1064.102 .0248799
1064.680 .0248778
1065.258 .0248771
1065.836 .0248774
1066.414 .0248775
1066.992 .0248773
1067.570 .0248756
1068.148 .0248713
1068.726 .0248646
1069.304 .0248548
1069.882 .0248429
1070.460 .0248307
1071.038 .0248195
1071.616 .0248090
1072.194 .0248013
1072.772 .0247962
1073.350 .0247922
1073.928 .0247893
1074.506 .0247862
1075.084 .0247822
1075.662 .0247770
1076.240 .0247713
1076.819 .0247649
1077.397 .0247586
1077.976 .0247541
1078.554 .0247504
1079.133 .0247477
1079.711 .0247456
1080.290 .0247431
1080.869 .0247400
1081.448 .0247357
1082.027 .0247302
1082.606 .0247242
1083.185 .0247190
1083.764 .0247146
1084.343 .0247127
1084.923 .0247130
1085.502 .0247152
1086.082 .0247196
1086.662 .0247257
1087.242 .0247315
1087.822 .0247361
1088.402 .0247413
1088.983 .0247460
1089.563 .0247501
1090.144 .0247552
1090.725 .0247609
1091.306 .0247684
1091.887 .0247776
1092.469 .0247875
1093.050 .0247966
1093.632 .0248058
1094.214 .0248143
1094.796 .0248190
1095.379 .0248227
1095.961 .0248258
1096.544 .0248273
1097.127 .0248309
1097.710 .0248377
1098.294 .0248476
1098.877 .0248615
1099.461 .0248823
1100.046 .0249062
1100.630 .0249321
1101.215 .0249607
1101.800 .0249877
1102.385 .0250104
1102.970 .0250302
1103.556 .0250452
1104.142 .0250562
1104.728 .0250676
1105.315 .0250787
1105.902 .0250900
1106.489 .0251054
1107.077 .0251230
1107.664 .0251411
1108.253 .0251600
1108.841 .0251783
1109.430 .0251928
1110.019 .0252045
1110.609 .0252160
1111.198 .0252267
1111.789 .0252415
1112.379 .0252623
1112.970 .0252888
1113.561 .0253217
1114.153 .0253601
1114.745 .0254003
1115.338 .0254421
1115.931 .0254846
1116.524 .0255251
1117.117 .0255650
1117.712 .0256047
1118.306 .0256450
1118.901 .0256865
1119.496 .0257277
1120.092 .0257691
1120.689 .0258073
1121.285 .0258399
1121.882 .0258662
1122.480 .0258878
1123.078 .0259094
1123.677 .0259301
1124.276 .0259548
1124.875 .0259851
1125.476 .0260206
1126.076 .0260599
1126.677 .0261025
1127.279 .0261463
1127.881 .0261910
1128.484 .0262332
1129.087 .0262724
1129.691 .0263104
1130.295 .0263501
1130.900 .0263900
1131.505 .0264325
1132.111 .0264793
1132.718 .0265282
1133.325 .0265782
1133.933 .0266311
1134.541 .0266832
1135.150 .0267352
1135.760 .0267898
1136.370 .0268442
1136.981 .0268971
1137.592 .0269481
1138.204 .0269973
1138.817 .0270531
1139.431 .0271168
1140.045 .0271828
1140.660 .0272479
1141.275 .0273246
1141.891 .0273661
1142.508 .0276244
1143.126 .0275982
1143.744 .0274763
1144.363 .0277760
1144.983 .0267669
