Measurement Sequence started on: 15-12-46-377
Integration time: 28
Scans to Average: 2 
>>>>>Begin Spectral Data<<<<<
432.689 .0000100
433.621 .0000100
434.552 .0000100
435.482 .0000100
436.410 .0000100
437.337 .0000100
438.262 .0283875
439.187 .0600526
440.110 .0994956
441.031 .1439971
441.952 .1871982
442.871 .2212026
443.789 .2398593
444.705 .2410543
445.621 .2273681
446.535 .2044633
447.447 .1785014
448.359 .1387044
449.269 .1190162
450.178 .1064630
451.086 .0975196
451.993 .0906262
452.898 .0851088
453.803 .0805351
454.706 .0767134
455.608 .0734666
456.508 .0706852
457.408 .0683186
458.306 .0662741
459.204 .0644869
460.100 .0629007
460.995 .0614839
461.888 .0601845
462.781 .0589794
463.673 .0578543
464.563 .0568024
465.452 .0558202
466.340 .0549067
467.228 .0540623
468.114 .0532850
468.999 .0525762
469.882 .0519200
470.765 .0513224
471.647 .0507669
472.528 .0502435
473.407 .0497552
474.286 .0493012
475.163 .0488780
476.040 .0484931
476.915 .0481444
477.790 .0478384
478.663 .0475787
479.535 .0473615
480.407 .0471916
481.277 .0470608
482.147 .0469668
483.015 .0468955
483.883 .0468476
484.749 .0468174
485.615 .0467927
486.479 .0467810
487.343 .0467803
488.206 .0467847
489.067 .0467962
489.928 .0468114
490.788 .0468419
491.647 .0468874
492.505 .0469509
493.362 .0470243
494.218 .0471166
495.073 .0472159
495.928 .0473325
496.781 .0474536
497.634 .0475952
498.486 .0477491
499.337 .0479193
500.187 .0481078
501.036 .0483185
501.884 .0485580
502.731 .0488312
503.578 .0491345
504.424 .0494780
505.268 .0498383
506.113 .0502357
506.956 .0506693
507.798 .0511466
508.640 .0516654
509.480 .0522321
510.320 .0528627
511.160 .0535671
511.998 .0543481
512.836 .0552263
513.672 .0561990
514.508 .0572736
515.344 .0584671
516.178 .0597973
517.012 .0613100
517.845 .0630335
518.677 .0650213
519.508 .0673007
520.339 .0699154
521.169 .0729146
521.998 .0763385
522.826 .0802198
523.654 .0846343
524.481 .0895245
525.307 .0949861
526.133 .1009778
526.958 .1074617
527.782 .1144132
528.605 .1216871
529.428 .1291330
530.250 .1362861
531.072 .1428619
531.892 .1485397
532.712 .1529355
533.532 .1559815
534.350 .1573301
535.168 .1569389
535.986 .1548983
536.802 .1512722
537.618 .1463136
538.434 .1402907
539.249 .1335953
540.063 .1264856
540.876 .1192565
541.689 .1122033
542.501 .1054857
543.313 .0993425
544.124 .0937942
544.934 .0887608
545.744 .0842186
546.553 .0801104
547.361 .0763512
548.169 .0729877
548.976 .0699296
549.783 .0671713
550.589 .0647142
551.395 .0624957
552.200 .0605136
553.004 .0587516
553.808 .0571675
554.611 .0557492
555.414 .0544886
556.216 .0533761
557.018 .0523722
557.819 .0514797
558.619 .0506752
559.419 .0499208
560.218 .0492285
561.017 .0485908
561.815 .0479714
562.613 .0473790
563.410 .0467944
564.207 .0462115
565.003 .0456372
565.799 .0450652
566.594 .0444908
567.388 .0439267
568.182 .0433701
568.976 .0428144
569.769 .0422658
570.562 .0417327
571.354 .0412102
572.145 .0407072
572.936 .0402241
573.727 .0397546
574.517 .0392960
575.307 .0388551
576.096 .0384278
576.885 .0380166
577.673 .0376256
578.461 .0372560
579.248 .0369110
580.035 .0365930
580.821 .0363026
581.607 .0360370
582.392 .0357932
583.177 .0355688
583.962 .0353592
584.746 .0351623
585.529 .0349768
586.313 .0348019
587.095 .0346385
587.878 .0344864
588.660 .0343429
589.441 .0342082
590.222 .0340817
591.003 .0339651
591.783 .0338548
592.563 .0337497
593.342 .0336507
594.121 .0335561
594.899 .0334658
595.678 .0333795
596.455 .0332991
597.233 .0332234
598.009 .0331532
598.786 .0330894
599.562 .0330303
600.338 .0329766
601.113 .0329273
601.888 .0328817
602.663 .0328380
603.437 .0327959
604.211 .0327539
604.984 .0327121
605.757 .0326717
606.530 .0326315
607.302 .0325923
608.074 .0325549
608.845 .0325192
609.616 .0324843
610.387 .0324504
611.158 .0324161
611.928 .0323805
612.697 .0323444
613.467 .0323067
614.236 .0322675
615.004 .0322279
615.773 .0321890
616.541 .0321509
617.308 .0321145
618.076 .0320800
618.843 .0320470
619.609 .0320162
620.375 .0319866
621.141 .0319574
621.907 .0319284
622.672 .0318996
623.437 .0318710
624.202 .0318432
624.966 .0318164
625.730 .0317906
626.493 .0317666
627.257 .0317443
628.020 .0317231
628.782 .0317024
629.545 .0316823
630.307 .0316622
631.068 .0316420
631.830 .0316210
632.591 .0315993
633.352 .0315778
634.112 .0315562
634.872 .0315340
635.632 .0315114
636.392 .0314880
637.151 .0314645
637.910 .0314394
638.668 .0314137
639.427 .0313869
640.185 .0313601
640.943 .0313325
641.700 .0313049
642.457 .0312772
643.214 .0312498
643.971 .0312226
644.727 .0311973
645.483 .0311730
646.239 .0311503
646.994 .0311288
647.750 .0311092
648.505 .0310907
649.259 .0310736
650.014 .0310563
650.768 .0310395
651.521 .0310221
652.275 .0310035
653.028 .0309836
653.781 .0309637
654.534 .0309434
655.286 .0309223
656.039 .0309007
656.791 .0308787
657.542 .0308549
658.294 .0308303
659.045 .0308039
659.796 .0307758
660.546 .0307469
661.297 .0307168
662.047 .0306862
662.796 .0306568
663.546 .0306289
664.295 .0306022
665.044 .0305775
665.793 .0305552
666.542 .0305342
667.290 .0305147
668.038 .0304970
668.786 .0304799
669.533 .0304638
670.281 .0304483
671.028 .0304319
671.774 .0304153
672.521 .0303987
673.267 .0303814
674.013 .0303642
674.759 .0303469
675.505 .0303292
676.250 .0303110
676.995 .0302923
677.740 .0302730
678.484 .0302520
679.229 .0302301
679.973 .0302067
680.717 .0301820
681.460 .0301567
682.204 .0301307
682.947 .0301048
683.690 .0300797
684.433 .0300555
685.175 .0300321
685.917 .0300091
686.659 .0299870
687.401 .0299652
688.142 .0299438
688.884 .0299226
689.625 .0299014
690.365 .0298802
691.106 .0298586
691.846 .0298367
692.586 .0298147
693.326 .0297924
694.066 .0297700
694.805 .0297471
695.545 .0297240
696.284 .0297005
697.022 .0296769
697.761 .0296537
698.499 .0296311
699.237 .0296092
699.975 .0295877
700.713 .0295663
701.450 .0295454
702.187 .0295247
702.924 .0295045
703.661 .0294846
704.397 .0294655
705.133 .0294470
705.869 .0294298
706.605 .0294137
707.341 .0293990
708.076 .0293856
708.811 .0293732
709.546 .0293606
710.281 .0293474
711.015 .0293331
711.749 .0293169
712.483 .0292991
713.217 .0292797
713.950 .0292585
714.684 .0292368
715.417 .0292142
716.150 .0291920
716.882 .0291701
717.615 .0291488
718.347 .0291275
719.079 .0291058
719.811 .0290841
720.542 .0290617
721.273 .0290390
722.005 .0290166
722.735 .0289952
723.466 .0289753
724.196 .0289568
724.927 .0289401
725.656 .0289249
726.386 .0289112
727.116 .0288981
727.845 .0288849
728.574 .0288715
729.303 .0288578
730.031 .0288437
730.760 .0288295
731.488 .0288157
732.216 .0288026
732.944 .0287902
733.671 .0287790
734.398 .0287681
735.125 .0287578
735.852 .0287479
736.579 .0287382
737.305 .0287290
738.031 .0287202
738.757 .0287119
739.483 .0287040
740.208 .0286963
740.933 .0286889
741.658 .0286811
742.383 .0286729
743.108 .0286641
743.832 .0286547
744.556 .0286447
745.280 .0286344
746.004 .0286238
746.727 .0286133
747.450 .0286026
748.173 .0285913
748.896 .0285796
749.618 .0285671
750.340 .0285538
751.062 .0285399
751.784 .0285257
752.506 .0285118
753.227 .0284984
753.948 .0284859
754.669 .0284746
755.389 .0284644
756.110 .0284550
756.830 .0284454
757.550 .0284360
758.269 .0284256
758.989 .0284140
759.708 .0284012
760.427 .0283873
761.146 .0283726
761.864 .0283575
762.582 .0283426
763.300 .0283278
764.018 .0283135
764.736 .0282997
765.453 .0282861
766.170 .0282723
766.887 .0282580
767.603 .0282431
768.320 .0282273
769.036 .0282108
769.751 .0281937
770.467 .0281764
771.182 .0281600
771.897 .0281442
772.612 .0281291
773.327 .0281152
774.041 .0281021
774.755 .0280895
775.469 .0280775
776.183 .0280659
776.896 .0280544
777.609 .0280432
778.322 .0280323
779.035 .0280215
779.747 .0280114
780.459 .0280024
781.171 .0279937
781.882 .0279859
782.594 .0279786
783.305 .0279715
784.016 .0279648
784.726 .0279587
785.436 .0279526
786.147 .0279462
786.856 .0279399
787.566 .0279333
788.275 .0279263
788.984 .0279192
789.693 .0279114
790.401 .0279031
791.110 .0278945
791.818 .0278852
792.525 .0278750
793.233 .0278647
793.940 .0278540
794.647 .0278426
795.353 .0278304
796.060 .0278173
796.766 .0278033
797.472 .0277885
798.177 .0277730
798.883 .0277567
799.588 .0277399
800.292 .0277227
800.997 .0277054
801.701 .0276882
802.405 .0276718
803.109 .0276560
803.812 .0276411
804.515 .0276274
805.218 .0276143
805.921 .0276013
806.623 .0275893
807.325 .0275775
808.027 .0275656
808.728 .0275533
809.429 .0275405
810.130 .0275273
810.831 .0275141
811.531 .0275003
812.231 .0274856
812.931 .0274700
813.630 .0274536
814.330 .0274351
815.029 .0274147
815.727 .0273926
816.426 .0273690
817.124 .0273442
817.821 .0273190
818.519 .0272934
819.216 .0272686
819.913 .0272452
820.609 .0272233
821.306 .0272027
822.002 .0271837
822.697 .0271658
823.393 .0271495
824.088 .0271348
824.783 .0271216
825.477 .0271097
826.171 .0270995
826.865 .0270911
827.559 .0270835
828.252 .0270768
828.945 .0270711
829.638 .0270656
830.330 .0270610
831.023 .0270566
831.714 .0270521
832.406 .0270481
833.097 .0270443
833.788 .0270401
834.479 .0270353
835.169 .0270302
835.859 .0270244
836.548 .0270177
837.238 .0270107
837.927 .0270029
838.615 .0269951
839.304 .0269878
839.992 .0269804
840.680 .0269731
841.367 .0269663
842.054 .0269595
842.741 .0269528
843.428 .0269466
844.114 .0269411
844.800 .0269361
845.485 .0269320
846.170 .0269283
846.855 .0269249
847.540 .0269216
848.224 .0269183
848.908 .0269144
849.592 .0269101
850.275 .0269050
850.958 .0268993
851.641 .0268931
852.323 .0268867
853.005 .0268798
853.687 .0268722
854.368 .0268637
855.049 .0268540
855.730 .0268427
856.410 .0268300
857.090 .0268158
857.769 .0268009
858.449 .0267848
859.128 .0267684
859.806 .0267520
860.485 .0267360
861.163 .0267211
861.840 .0267074
862.518 .0266945
863.195 .0266830
863.871 .0266726
864.548 .0266633
865.224 .0266547
865.899 .0266471
866.574 .0266399
867.249 .0266329
867.924 .0266265
868.598 .0266203
869.272 .0266142
869.946 .0266087
870.619 .0266036
871.292 .0265994
871.964 .0265959
872.636 .0265933
873.308 .0265912
873.979 .0265903
874.651 .0265896
875.321 .0265887
875.992 .0265872
876.662 .0265852
877.331 .0265824
878.001 .0265790
878.670 .0265750
879.338 .0265707
880.007 .0265667
880.675 .0265633
881.342 .0265603
882.009 .0265580
882.676 .0265561
883.343 .0265542
884.009 .0265515
884.675 .0265480
885.340 .0265430
886.005 .0265367
886.670 .0265294
887.334 .0265218
887.998 .0265144
888.662 .0265079
889.325 .0265031
889.988 .0265004
890.650 .0264997
891.312 .0265008
891.974 .0265032
892.636 .0265066
893.297 .0265103
893.957 .0265137
894.618 .0265165
895.278 .0265188
895.937 .0265207
896.596 .0265227
897.255 .0265248
897.914 .0265269
898.572 .0265290
899.230 .0265308
899.887 .0265317
900.544 .0265315
901.201 .0265295
901.857 .0265255
902.513 .0265193
903.168 .0265107
903.823 .0265002
904.478 .0264877
905.132 .0264740
905.786 .0264592
906.440 .0264436
907.093 .0264274
907.746 .0264101
908.399 .0263923
909.051 .0263743
909.703 .0263561
910.354 .0263374
911.005 .0263183
911.656 .0262994
912.306 .0262802
912.956 .0262610
913.605 .0262419
914.254 .0262235
914.903 .0262060
915.551 .0261896
916.199 .0261742
916.847 .0261605
917.494 .0261482
918.141 .0261369
918.788 .0261265
919.434 .0261166
920.079 .0261062
920.725 .0260950
921.370 .0260831
922.014 .0260707
922.658 .0260569
923.302 .0260425
923.946 .0260276
924.589 .0260121
925.231 .0259957
925.873 .0259784
926.515 .0259602
927.157 .0259415
927.798 .0259215
928.439 .0259006
929.079 .0258789
929.719 .0258570
930.359 .0258348
930.998 .0258131
931.637 .0257923
932.275 .0257724
932.913 .0257531
933.551 .0257347
934.188 .0257165
934.825 .0256985
935.462 .0256801
936.098 .0256617
936.733 .0256434
937.369 .0256253
938.004 .0256070
938.638 .0255895
939.273 .0255729
939.907 .0255571
940.540 .0255417
941.173 .0255270
941.806 .0255126
942.438 .0254979
943.070 .0254828
943.702 .0254674
944.333 .0254514
944.964 .0254358
945.594 .0254207
946.224 .0254066
946.854 .0253938
947.483 .0253823
948.112 .0253718
948.741 .0253616
949.369 .0253511
949.996 .0253395
950.624 .0253261
951.251 .0253116
951.878 .0252955
952.504 .0252781
953.130 .0252607
953.755 .0252432
954.380 .0252260
955.005 .0252092
955.629 .0251923
956.253 .0251750
956.877 .0251574
957.500 .0251392
958.123 .0251201
958.746 .0251009
959.368 .0250822
959.990 .0250639
960.611 .0250468
961.232 .0250313
961.853 .0250170
962.473 .0250043
963.093 .0249927
963.712 .0249808
964.331 .0249692
964.950 .0249574
965.569 .0249453
966.187 .0249331
966.804 .0249219
967.422 .0249112
968.039 .0249009
968.655 .0248914
969.272 .0248818
969.887 .0248715
970.503 .0248608
971.118 .0248489
971.733 .0248357
972.347 .0248220
972.961 .0248079
973.575 .0247934
974.188 .0247798
974.801 .0247666
975.414 .0247534
976.026 .0247402
976.638 .0247264
977.250 .0247108
977.861 .0246942
978.472 .0246770
979.083 .0246588
979.693 .0246405
980.303 .0246223
980.912 .0246047
981.521 .0245880
982.130 .0245720
982.738 .0245565
983.346 .0245412
983.954 .0245261
984.562 .0245106
985.169 .0244944
985.775 .0244779
986.382 .0244610
986.988 .0244448
987.594 .0244290
988.199 .0244141
988.804 .0244004
989.409 .0243885
990.013 .0243782
990.617 .0243700
991.221 .0243632
991.824 .0243578
992.427 .0243542
993.030 .0243519
993.632 .0243506
994.234 .0243509
994.836 .0243521
995.438 .0243546
996.039 .0243576
996.640 .0243613
997.240 .0243646
997.840 .0243684
998.440 .0243721
999.040 .0243749
999.639 .0243772
1000.238 .0243785
1000.836 .0243786
1001.435 .0243777
1002.033 .0243759
1002.630 .0243729
1003.228 .0243693
1003.825 .0243655
1004.422 .0243616
1005.018 .0243589
1005.614 .0243577
1006.210 .0243585
1006.806 .0243612
1007.401 .0243652
1007.996 .0243701
1008.591 .0243750
1009.186 .0243800
1009.780 .0243836
1010.374 .0243866
1010.967 .0243887
1011.561 .0243897
1012.154 .0243903
1012.746 .0243908
1013.339 .0243918
1013.931 .0243934
1014.523 .0243953
1015.115 .0243968
1015.706 .0243983
1016.298 .0243995
1016.888 .0244001
1017.479 .0244007
1018.069 .0244018
1018.660 .0244031
1019.250 .0244054
1019.839 .0244090
1020.429 .0244137
1021.018 .0244195
1021.607 .0244271
1022.195 .0244357
1022.784 .0244457
1023.372 .0244559
1023.960 .0244660
1024.547 .0244763
1025.135 .0244875
1025.722 .0244989
1026.309 .0245108
1026.896 .0245242
1027.483 .0245394
1028.069 .0245552
1028.655 .0245724
1029.241 .0245902
1029.827 .0246089
1030.412 .0246278
1030.997 .0246472
1031.582 .0246667
1032.167 .0246865
1032.752 .0247065
1033.336 .0247270
1033.921 .0247480
1034.505 .0247694
1035.089 .0247893
1035.672 .0248075
1036.256 .0248239
1036.839 .0248380
1037.422 .0248496
1038.005 .0248602
1038.588 .0248705
1039.171 .0248809
1039.753 .0248911
1040.335 .0249020
1040.918 .0249139
1041.500 .0249254
1042.081 .0249375
1042.663 .0249493
1043.244 .0249601
1043.826 .0249698
1044.407 .0249778
1044.988 .0249854
1045.569 .0249924
1046.150 .0249982
1046.730 .0250026
1047.311 .0250064
1047.891 .0250097
1048.471 .0250118
1049.052 .0250135
1049.632 .0250164
1050.211 .0250195
1050.791 .0250225
1051.371 .0250255
1051.950 .0250280
1052.530 .0250298
1053.109 .0250312
1053.688 .0250320
1054.268 .0250343
1054.847 .0250386
1055.426 .0250459
1056.005 .0250573
1056.583 .0250734
1057.162 .0250923
1057.741 .0251129
1058.319 .0251348
1058.898 .0251556
1059.476 .0251719
1060.055 .0251845
1060.633 .0251930
1061.211 .0251989
1061.790 .0252030
1062.368 .0252072
1062.946 .0252128
1063.524 .0252207
1064.102 .0252282
1064.680 .0252346
1065.258 .0252398
1065.836 .0252428
1066.414 .0252420
1066.992 .0252389
1067.570 .0252356
1068.148 .0252328
1068.726 .0252326
1069.304 .0252372
1069.882 .0252463
1070.460 .0252592
1071.038 .0252740
1071.616 .0252888
1072.194 .0253039
1072.772 .0253173
1073.350 .0253291
1073.928 .0253412
1074.506 .0253539
1075.084 .0253675
1075.662 .0253815
1076.240 .0253972
1076.819 .0254134
1077.397 .0254285
1077.976 .0254416
1078.554 .0254514
1079.133 .0254586
1079.711 .0254635
1080.290 .0254669
1080.869 .0254704
1081.448 .0254741
1082.027 .0254786
1082.606 .0254846
1083.185 .0254921
1083.764 .0254992
1084.343 .0255074
1084.923 .0255156
1085.502 .0255255
1086.082 .0255353
1086.662 .0255469
1087.242 .0255584
1087.822 .0255704
1088.402 .0255819
1088.983 .0255925
1089.563 .0256025
1090.144 .0256135
1090.725 .0256249
1091.306 .0256383
1091.887 .0256511
1092.469 .0256654
1093.050 .0256780
1093.632 .0256921
1094.214 .0257037
1094.796 .0257125
1095.379 .0257179
1095.961 .0257217
1096.544 .0257228
1097.127 .0257236
1097.710 .0257257
1098.294 .0257331
1098.877 .0257443
1099.461 .0257618
1100.046 .0257833
1100.630 .0258104
1101.215 .0258407
1101.800 .0258732
1102.385 .0259028
1102.970 .0259306
1103.556 .0259542
1104.142 .0259743
1104.728 .0259925
1105.315 .0260108
1105.902 .0260310
1106.489 .0260560
1107.077 .0260854
1107.664 .0261188
1108.253 .0261537
1108.841 .0261917
1109.430 .0262272
1110.019 .0262589
1110.609 .0262837
1111.198 .0263024
1111.789 .0263182
1112.379 .0263338
1112.970 .0263509
1113.561 .0263734
1114.153 .0264041
1114.745 .0264404
1115.338 .0264827
1115.931 .0265302
1116.524 .0265773
1117.117 .0266245
1117.712 .0266694
1118.306 .0267111
1118.901 .0267484
1119.496 .0267847
1120.092 .0268209
1120.689 .0268584
1121.285 .0268982
1121.882 .0269379
1122.480 .0269776
1123.078 .0270222
1123.677 .0270668
1124.276 .0271092
1124.875 .0271537
1125.476 .0271956
1126.076 .0272349
1126.677 .0272729
1127.279 .0273069
1127.881 .0273374
1128.484 .0273666
1129.087 .0273931
1129.691 .0274187
1130.295 .0274500
1130.900 .0274877
1131.505 .0275295
1132.111 .0275821
1132.718 .0276437
1133.325 .0277106
1133.933 .0277839
1134.541 .0278608
1135.150 .0279348
1135.760 .0280106
1136.370 .0280804
1136.981 .0281501
1137.592 .0282252
1138.204 .0283091
1138.817 .0284039
1139.431 .0285042
1140.045 .0286145
1140.660 .0287189
1141.275 .0288289
1141.891 .0289591
1142.508 .0290376
1143.126 .0291650
1143.744 .0289263
1144.363 .0293747
1144.983 .0301160
