Measurement Sequence started on: 15-12-46-377
Integration time: 28
Scans to Average: 2 
>>>>>Begin Spectral Data<<<<<
432.689 .0000100
433.621 .0000100
434.552 .0000100
435.482 .0000100
436.410 .0000100
437.337 .0000100
438.262 .0276910
439.187 .0586244
440.110 .0970718
441.031 .1404679
441.952 .1825814
442.871 .2157352
443.789 .2339152
444.705 .2350497
445.621 .2216809
446.535 .1993039
447.447 .1739240
448.359 .1350612
449.269 .1157889
450.178 .1035549
451.086 .0948484
451.993 .0882007
452.898 .0829203
453.803 .0785930
454.706 .0750180
455.608 .0719588
456.508 .0692995
457.408 .0669816
458.306 .0648969
459.204 .0630356
460.100 .0613715
460.995 .0598854
461.888 .0585523
462.781 .0573658
463.673 .0562907
464.563 .0552994
465.452 .0543879
466.340 .0535419
467.228 .0527481
468.114 .0520184
468.999 .0513581
469.882 .0507480
470.765 .0501960
471.647 .0496994
472.528 .0492344
473.407 .0488023
474.286 .0483874
475.163 .0479838
476.040 .0475949
476.915 .0472220
477.790 .0468662
478.663 .0465410
479.535 .0462542
480.407 .0460024
481.277 .0457854
482.147 .0456022
483.015 .0454453
483.883 .0453206
484.749 .0452174
485.615 .0451365
486.479 .0450815
487.343 .0450603
488.206 .0450640
489.067 .0450976
489.928 .0451569
490.788 .0452455
491.647 .0453637
492.505 .0455060
493.362 .0456709
494.218 .0458651
495.073 .0460859
495.928 .0463344
496.781 .0466028
497.634 .0468964
498.486 .0471974
499.337 .0475101
500.187 .0478287
501.036 .0481509
501.884 .0484889
502.731 .0488403
503.578 .0492135
504.424 .0496151
505.268 .0500333
506.113 .0504850
506.956 .0509679
507.798 .0514840
508.640 .0520341
509.480 .0526209
510.320 .0532636
511.160 .0539748
511.998 .0547606
512.836 .0556339
513.672 .0566342
514.508 .0577560
515.344 .0590119
516.178 .0604088
517.012 .0619840
517.845 .0637499
518.677 .0657345
519.508 .0679572
520.339 .0704622
521.169 .0733082
521.998 .0765092
522.826 .0801008
523.654 .0841154
524.481 .0885503
525.307 .0934671
526.133 .0988592
526.958 .1046957
527.782 .1108418
528.605 .1172820
529.428 .1238830
530.250 .1301907
531.072 .1359984
531.892 .1409835
532.712 .1448981
533.532 .1475114
534.350 .1485417
535.168 .1479138
535.986 .1457214
536.802 .1421342
537.618 .1373069
538.434 .1315252
539.249 .1252759
540.063 .1187402
540.876 .1122370
541.689 .1059523
542.501 .1000102
543.313 .0945483
544.124 .0895530
544.934 .0849750
545.744 .0807856
546.553 .0769546
547.361 .0735210
548.169 .0704775
548.976 .0677854
549.783 .0653774
550.589 .0632566
551.395 .0613684
552.200 .0596589
553.004 .0580949
553.808 .0566384
554.611 .0552883
555.414 .0540508
556.216 .0529024
557.018 .0518503
557.819 .0508901
558.619 .0500072
559.419 .0491896
560.218 .0484407
561.017 .0477355
561.815 .0470472
562.613 .0463766
563.410 .0457180
564.207 .0450513
565.003 .0443960
565.799 .0437538
566.594 .0431226
567.388 .0425138
568.182 .0419202
568.976 .0413394
569.769 .0407826
570.562 .0402543
571.354 .0397484
572.145 .0392700
572.936 .0388192
573.727 .0383907
574.517 .0379830
575.307 .0376012
576.096 .0372335
576.885 .0368850
577.673 .0365538
578.461 .0362373
579.248 .0359346
580.035 .0356475
580.821 .0353764
581.607 .0351216
582.392 .0348813
583.177 .0346550
583.962 .0344429
584.746 .0342515
585.529 .0340746
586.313 .0339160
587.095 .0337715
587.878 .0336410
588.660 .0335208
589.441 .0334102
590.222 .0333070
591.003 .0332109
591.783 .0331219
592.563 .0330392
593.342 .0329620
594.121 .0328885
594.899 .0328198
595.678 .0327562
596.455 .0326972
597.233 .0326405
598.009 .0325843
598.786 .0325296
599.562 .0324753
600.338 .0324211
601.113 .0323668
601.888 .0323130
602.663 .0322598
603.437 .0322075
604.211 .0321565
604.984 .0321070
605.757 .0320594
606.530 .0320134
607.302 .0319705
608.074 .0319301
608.845 .0318917
609.616 .0318549
610.387 .0318208
611.158 .0317888
611.928 .0317582
612.697 .0317288
613.467 .0317007
614.236 .0316742
615.004 .0316493
615.773 .0316260
616.541 .0316055
617.308 .0315878
618.076 .0315718
618.843 .0315576
619.609 .0315455
620.375 .0315333
621.141 .0315211
621.907 .0315084
622.672 .0314942
623.437 .0314781
624.202 .0314607
624.966 .0314419
625.730 .0314224
626.493 .0314029
627.257 .0313838
628.020 .0313650
628.782 .0313475
629.545 .0313296
630.307 .0313116
631.068 .0312943
631.830 .0312770
632.591 .0312586
633.352 .0312407
634.112 .0312225
634.872 .0312045
635.632 .0311874
636.392 .0311711
637.151 .0311549
637.910 .0311387
638.668 .0311223
639.427 .0311051
640.185 .0310861
640.943 .0310663
641.700 .0310443
642.457 .0310219
643.214 .0309985
643.971 .0309744
644.727 .0309503
645.483 .0309265
646.239 .0309024
646.994 .0308774
647.750 .0308518
648.505 .0308263
649.259 .0308012
650.014 .0307774
650.768 .0307551
651.521 .0307348
652.275 .0307166
653.028 .0307006
653.781 .0306853
654.534 .0306703
655.286 .0306539
656.039 .0306352
656.791 .0306137
657.542 .0305889
658.294 .0305615
659.045 .0305320
659.796 .0305019
660.546 .0304708
661.297 .0304388
662.047 .0304060
662.796 .0303719
663.546 .0303366
664.295 .0303004
665.044 .0302628
665.793 .0302249
666.542 .0301875
667.290 .0301510
668.038 .0301155
668.786 .0300818
669.533 .0300498
670.281 .0300189
671.028 .0299892
671.774 .0299608
672.521 .0299342
673.267 .0299104
674.013 .0298891
674.759 .0298703
675.505 .0298537
676.250 .0298385
676.995 .0298231
677.740 .0298072
678.484 .0297902
679.229 .0297724
679.973 .0297544
680.717 .0297370
681.460 .0297208
682.204 .0297062
682.947 .0296939
683.690 .0296831
684.433 .0296730
685.175 .0296631
685.917 .0296524
686.659 .0296410
687.401 .0296285
688.142 .0296155
688.884 .0296029
689.625 .0295915
690.365 .0295815
691.106 .0295722
691.846 .0295636
692.586 .0295553
693.326 .0295468
694.066 .0295377
694.805 .0295280
695.545 .0295177
696.284 .0295072
697.022 .0294967
697.761 .0294863
698.499 .0294765
699.237 .0294673
699.975 .0294588
700.713 .0294506
701.450 .0294426
702.187 .0294345
702.924 .0294264
703.661 .0294184
704.397 .0294099
705.133 .0294009
705.869 .0293918
706.605 .0293822
707.341 .0293723
708.076 .0293620
708.811 .0293511
709.546 .0293395
710.281 .0293269
711.015 .0293132
711.749 .0292978
712.483 .0292811
713.217 .0292633
713.950 .0292446
714.684 .0292251
715.417 .0292053
716.150 .0291853
716.882 .0291655
717.615 .0291462
718.347 .0291274
719.079 .0291090
719.811 .0290909
720.542 .0290727
721.273 .0290541
722.005 .0290350
722.735 .0290151
723.466 .0289937
724.196 .0289715
724.927 .0289478
725.656 .0289224
726.386 .0288954
727.116 .0288673
727.845 .0288382
728.574 .0288083
729.303 .0287779
730.031 .0287473
730.760 .0287168
731.488 .0286865
732.216 .0286568
732.944 .0286277
733.671 .0285997
734.398 .0285727
735.125 .0285473
735.852 .0285238
736.579 .0285021
737.305 .0284830
738.031 .0284664
738.757 .0284518
739.483 .0284385
740.208 .0284259
740.933 .0284136
741.658 .0284011
742.383 .0283877
743.108 .0283728
743.832 .0283571
744.556 .0283404
745.280 .0283231
746.004 .0283054
746.727 .0282882
747.450 .0282714
748.173 .0282549
748.896 .0282387
749.618 .0282223
750.340 .0282058
751.062 .0281888
751.784 .0281718
752.506 .0281548
753.227 .0281382
753.948 .0281222
754.669 .0281071
755.389 .0280931
756.110 .0280802
756.830 .0280680
757.550 .0280567
758.269 .0280458
758.989 .0280351
759.708 .0280239
760.427 .0280125
761.146 .0280005
761.864 .0279880
762.582 .0279752
763.300 .0279622
764.018 .0279494
764.736 .0279373
765.453 .0279260
766.170 .0279159
766.887 .0279071
767.603 .0278996
768.320 .0278929
769.036 .0278871
769.751 .0278816
770.467 .0278762
771.182 .0278711
771.897 .0278661
772.612 .0278613
773.327 .0278574
774.041 .0278546
774.755 .0278527
775.469 .0278521
776.183 .0278529
776.896 .0278547
777.609 .0278570
778.322 .0278594
779.035 .0278615
779.747 .0278634
780.459 .0278649
781.171 .0278660
781.882 .0278673
782.594 .0278694
783.305 .0278720
784.016 .0278762
784.726 .0278816
785.436 .0278880
786.147 .0278950
786.856 .0279025
787.566 .0279098
788.275 .0279167
788.984 .0279226
789.693 .0279274
790.401 .0279310
791.110 .0279334
791.818 .0279342
792.525 .0279339
793.233 .0279326
793.940 .0279300
794.647 .0279258
795.353 .0279203
796.060 .0279129
796.766 .0279037
797.472 .0278928
798.177 .0278799
798.883 .0278653
799.588 .0278493
800.292 .0278322
800.997 .0278142
801.701 .0277955
802.405 .0277764
803.109 .0277568
803.812 .0277370
804.515 .0277165
805.218 .0276954
805.921 .0276737
806.623 .0276513
807.325 .0276281
808.027 .0276045
808.728 .0275802
809.429 .0275549
810.130 .0275288
810.831 .0275022
811.531 .0274741
812.231 .0274456
812.931 .0274164
813.630 .0273870
814.330 .0273574
815.029 .0273279
815.727 .0272984
816.426 .0272695
817.124 .0272406
817.821 .0272117
818.519 .0271828
819.216 .0271546
819.913 .0271267
820.609 .0270993
821.306 .0270732
822.002 .0270484
822.697 .0270247
823.393 .0270027
824.088 .0269814
824.783 .0269609
825.477 .0269405
826.171 .0269203
826.865 .0269005
827.559 .0268808
828.252 .0268617
828.945 .0268433
829.638 .0268254
830.330 .0268082
831.023 .0267912
831.714 .0267744
832.406 .0267579
833.097 .0267407
833.788 .0267228
834.479 .0267046
835.169 .0266862
835.859 .0266680
836.548 .0266505
837.238 .0266344
837.927 .0266193
838.615 .0266049
839.304 .0265920
839.992 .0265794
840.680 .0265674
841.367 .0265561
842.054 .0265450
842.741 .0265344
843.428 .0265243
844.114 .0265149
844.800 .0265067
845.485 .0264998
846.170 .0264940
846.855 .0264887
847.540 .0264841
848.224 .0264796
848.908 .0264744
849.592 .0264688
850.275 .0264629
850.958 .0264563
851.641 .0264492
852.323 .0264418
853.005 .0264343
853.687 .0264269
854.368 .0264196
855.049 .0264124
855.730 .0264052
856.410 .0263976
857.090 .0263896
857.769 .0263809
858.449 .0263720
859.128 .0263626
859.806 .0263529
860.485 .0263437
861.163 .0263350
861.840 .0263271
862.518 .0263205
863.195 .0263157
863.871 .0263122
864.548 .0263103
865.224 .0263102
865.899 .0263110
866.574 .0263133
867.249 .0263169
867.924 .0263216
868.598 .0263277
869.272 .0263351
869.946 .0263435
870.619 .0263531
871.292 .0263639
871.964 .0263750
872.636 .0263866
873.308 .0263983
873.979 .0264095
874.651 .0264198
875.321 .0264291
875.992 .0264371
876.662 .0264441
877.331 .0264505
878.001 .0264561
878.670 .0264613
879.338 .0264664
880.007 .0264716
880.675 .0264775
881.342 .0264835
882.009 .0264896
882.676 .0264956
883.343 .0265016
884.009 .0265073
884.675 .0265129
885.340 .0265183
886.005 .0265241
886.670 .0265307
887.334 .0265380
887.998 .0265459
888.662 .0265549
889.325 .0265645
889.988 .0265745
890.650 .0265845
891.312 .0265939
891.974 .0266023
892.636 .0266106
893.297 .0266185
893.957 .0266263
894.618 .0266341
895.278 .0266420
895.937 .0266498
896.596 .0266576
897.255 .0266644
897.914 .0266698
898.572 .0266735
899.230 .0266751
899.887 .0266742
900.544 .0266709
901.201 .0266655
901.857 .0266580
902.513 .0266488
903.168 .0266376
903.823 .0266239
904.478 .0266081
905.132 .0265896
905.786 .0265690
906.440 .0265457
907.093 .0265203
907.746 .0264929
908.399 .0264644
909.051 .0264352
909.703 .0264052
910.354 .0263747
911.005 .0263436
911.656 .0263120
912.306 .0262793
912.956 .0262459
913.605 .0262123
914.254 .0261787
914.903 .0261455
915.551 .0261126
916.199 .0260808
916.847 .0260496
917.494 .0260190
918.141 .0259884
918.788 .0259573
919.434 .0259262
920.079 .0258939
920.725 .0258611
921.370 .0258280
922.014 .0257946
922.658 .0257613
923.302 .0257281
923.946 .0256948
924.589 .0256612
925.231 .0256273
925.873 .0255928
926.515 .0255579
927.157 .0255221
927.798 .0254859
928.439 .0254496
929.079 .0254134
929.719 .0253772
930.359 .0253406
930.998 .0253045
931.637 .0252686
932.275 .0252328
932.913 .0251971
933.551 .0251615
934.188 .0251265
934.825 .0250923
935.462 .0250588
936.098 .0250262
936.733 .0249944
937.369 .0249634
938.004 .0249332
938.638 .0249034
939.273 .0248743
939.907 .0248464
940.540 .0248195
941.173 .0247939
941.806 .0247694
942.438 .0247469
943.070 .0247260
943.702 .0247068
944.333 .0246886
944.964 .0246712
945.594 .0246544
946.224 .0246378
946.854 .0246210
947.483 .0246050
948.112 .0245895
948.741 .0245745
949.369 .0245604
949.996 .0245476
950.624 .0245356
951.251 .0245250
951.878 .0245152
952.504 .0245055
953.130 .0244953
953.755 .0244843
954.380 .0244720
955.005 .0244591
955.629 .0244455
956.253 .0244315
956.877 .0244179
957.500 .0244057
958.123 .0243946
958.746 .0243847
959.368 .0243764
959.990 .0243686
960.611 .0243609
961.232 .0243529
961.853 .0243446
962.473 .0243363
963.093 .0243283
963.712 .0243208
964.331 .0243142
964.950 .0243088
965.569 .0243049
966.187 .0243022
966.804 .0243010
967.422 .0243010
968.039 .0243019
968.655 .0243036
969.272 .0243058
969.887 .0243081
970.503 .0243113
971.118 .0243145
971.733 .0243180
972.347 .0243216
972.961 .0243256
973.575 .0243301
974.188 .0243349
974.801 .0243399
975.414 .0243452
976.026 .0243504
976.638 .0243559
977.250 .0243608
977.861 .0243657
978.472 .0243702
979.083 .0243744
979.693 .0243778
980.303 .0243808
980.912 .0243830
981.521 .0243849
982.130 .0243871
982.738 .0243894
983.346 .0243918
983.954 .0243946
984.562 .0243981
985.169 .0244025
985.775 .0244073
986.382 .0244131
986.988 .0244193
987.594 .0244267
988.199 .0244347
988.804 .0244430
989.409 .0244522
990.013 .0244624
990.617 .0244736
991.221 .0244857
991.824 .0244990
992.427 .0245134
993.030 .0245295
993.632 .0245474
994.234 .0245671
994.836 .0245879
995.438 .0246094
996.039 .0246313
996.640 .0246524
997.240 .0246729
997.840 .0246925
998.440 .0247110
999.040 .0247287
999.639 .0247453
1000.238 .0247611
1000.836 .0247762
1001.435 .0247911
1002.033 .0248052
1002.630 .0248185
1003.228 .0248307
1003.825 .0248420
1004.422 .0248529
1005.018 .0248639
1005.614 .0248759
1006.210 .0248889
1006.806 .0249029
1007.401 .0249177
1007.996 .0249327
1008.591 .0249479
1009.186 .0249634
1009.780 .0249790
1010.374 .0249946
1010.967 .0250102
1011.561 .0250261
1012.154 .0250416
1012.746 .0250567
1013.339 .0250711
1013.931 .0250843
1014.523 .0250960
1015.115 .0251060
1015.706 .0251142
1016.298 .0251220
1016.888 .0251294
1017.479 .0251373
1018.069 .0251458
1018.660 .0251553
1019.250 .0251658
1019.839 .0251766
1020.429 .0251878
1021.018 .0251994
1021.607 .0252111
1022.195 .0252233
1022.784 .0252358
1023.372 .0252483
1023.960 .0252613
1024.547 .0252747
1025.135 .0252883
1025.722 .0253021
1026.309 .0253154
1026.896 .0253297
1027.483 .0253439
1028.069 .0253581
1028.655 .0253722
1029.241 .0253856
1029.827 .0253988
1030.412 .0254107
1030.997 .0254208
1031.582 .0254294
1032.167 .0254369
1032.752 .0254437
1033.336 .0254499
1033.921 .0254560
1034.505 .0254619
1035.089 .0254678
1035.672 .0254725
1036.256 .0254755
1036.839 .0254756
1037.422 .0254727
1038.005 .0254663
1038.588 .0254570
1039.171 .0254460
1039.753 .0254335
1040.335 .0254218
1040.918 .0254115
1041.500 .0254015
1042.081 .0253931
1042.663 .0253851
1043.244 .0253774
1043.826 .0253689
1044.407 .0253594
1044.988 .0253479
1045.569 .0253349
1046.150 .0253215
1046.730 .0253070
1047.311 .0252933
1047.891 .0252805
1048.471 .0252683
1049.052 .0252562
1049.632 .0252447
1050.211 .0252319
1050.791 .0252180
1051.371 .0252036
1051.950 .0251883
1052.530 .0251716
1053.109 .0251553
1053.688 .0251387
1054.268 .0251233
1054.847 .0251089
1055.426 .0250958
1056.005 .0250815
1056.583 .0250678
1057.162 .0250523
1057.741 .0250358
1058.319 .0250191
1058.898 .0250031
1059.476 .0249872
1060.055 .0249727
1060.633 .0249588
1061.211 .0249459
1061.790 .0249328
1062.368 .0249202
1062.946 .0249068
1063.524 .0248930
1064.102 .0248779
1064.680 .0248623
1065.258 .0248463
1065.836 .0248309
1066.414 .0248160
1066.992 .0248016
1067.570 .0247864
1068.148 .0247703
1068.726 .0247526
1069.304 .0247315
1069.882 .0247080
1070.460 .0246815
1071.038 .0246522
1071.616 .0246210
1072.194 .0245894
1072.772 .0245575
1073.350 .0245277
1073.928 .0245007
1074.506 .0244765
1075.084 .0244542
1075.662 .0244353
1076.240 .0244180
1076.819 .0244019
1077.397 .0243878
1077.976 .0243751
1078.554 .0243635
1079.133 .0243553
1079.711 .0243490
1080.290 .0243453
1080.869 .0243438
1081.448 .0243445
1082.027 .0243446
1082.606 .0243442
1083.185 .0243431
1083.764 .0243389
1084.343 .0243329
1084.923 .0243260
1085.502 .0243187
1086.082 .0243115
1086.662 .0243055
1087.242 .0242986
1087.822 .0242904
1088.402 .0242814
1088.983 .0242706
1089.563 .0242582
1090.144 .0242453
1090.725 .0242324
1091.306 .0242196
1091.887 .0242083
1092.469 .0241987
1093.050 .0241895
1093.632 .0241828
1094.214 .0241777
1094.796 .0241734
1095.379 .0241712
1095.961 .0241714
1096.544 .0241752
1097.127 .0241838
1097.710 .0241973
1098.294 .0242134
1098.877 .0242312
1099.461 .0242497
1100.046 .0242676
1100.630 .0242839
1101.215 .0242985
1101.800 .0243122
1102.385 .0243279
1102.970 .0243455
1103.556 .0243646
1104.142 .0243854
1104.728 .0244092
1105.315 .0244324
1105.902 .0244533
1106.489 .0244710
1107.077 .0244859
1107.664 .0244988
1108.253 .0245128
1108.841 .0245272
1109.430 .0245453
1110.019 .0245657
1110.609 .0245886
1111.198 .0246122
1111.789 .0246355
1112.379 .0246553
1112.970 .0246697
1113.561 .0246795
1114.153 .0246848
1114.745 .0246858
1115.338 .0246863
1115.931 .0246891
1116.524 .0246978
1117.117 .0247125
1117.712 .0247338
1118.306 .0247608
1118.901 .0247949
1119.496 .0248338
1120.092 .0248765
1120.689 .0249227
1121.285 .0249728
1121.882 .0250281
1122.480 .0250894
1123.078 .0251584
1123.677 .0252327
1124.276 .0253130
1124.875 .0253970
1125.476 .0254805
1126.076 .0255627
1126.677 .0256397
1127.279 .0257128
1127.881 .0257811
1128.484 .0258476
1129.087 .0259136
1129.691 .0259826
1130.295 .0260582
1130.900 .0261438
1131.505 .0262390
1132.111 .0263436
1132.718 .0264538
1133.325 .0265726
1133.933 .0266967
1134.541 .0268248
1135.150 .0269547
1135.760 .0270884
1136.370 .0272267
1136.981 .0273716
1137.592 .0275154
1138.204 .0276625
1138.817 .0278086
1139.431 .0279514
1140.045 .0280882
1140.660 .0282152
1141.275 .0283356
1141.891 .0284793
1142.508 .0285400
1143.126 .0287044
1143.744 .0287149
1144.363 .0288503
1144.983 .0297898
