Measurement Sequence started on: 15-12-46-377
Integration time: 28
Scans to Average: 2 
>>>>>Begin Spectral Data<<<<<
432.689 .0000100
433.621 .0000100
434.552 .0000100
435.482 .0000100
436.410 .0000100
437.337 .0000100
438.262 .0255179
439.187 .0541467
440.110 .0898301
441.031 .1301374
441.952 .1693732
442.871 .2004144
443.789 .2176582
444.705 .2191713
445.621 .2072282
446.535 .1869210
447.447 .1637807
448.359 .1281493
449.269 .1104714
450.178 .0992579
451.086 .0913415
451.993 .0852745
452.898 .0804565
453.803 .0765120
454.706 .0732316
455.608 .0704446
456.508 .0680340
457.408 .0659668
458.306 .0641459
459.204 .0625290
460.100 .0610744
460.995 .0597538
461.888 .0585544
462.781 .0574452
463.673 .0564077
464.563 .0554397
465.452 .0545340
466.340 .0536717
467.228 .0528592
468.114 .0521098
468.999 .0514234
469.882 .0507928
470.765 .0502171
471.647 .0496923
472.528 .0492108
473.407 .0487726
474.286 .0483688
475.163 .0480049
476.040 .0476852
476.915 .0474018
477.790 .0471572
478.663 .0469533
479.535 .0467873
480.407 .0466539
481.277 .0465508
482.147 .0464759
483.015 .0464173
483.883 .0463744
484.749 .0463443
485.615 .0463255
486.479 .0463175
487.343 .0463196
488.206 .0463322
489.067 .0463472
489.928 .0463628
490.788 .0463762
491.647 .0463961
492.505 .0464279
493.362 .0464736
494.218 .0465362
495.073 .0466257
495.928 .0467487
496.781 .0468991
497.634 .0470823
498.486 .0472917
499.337 .0475292
500.187 .0477931
501.036 .0480791
501.884 .0484004
502.731 .0487629
503.578 .0491821
504.424 .0496466
505.268 .0501553
506.113 .0507043
506.956 .0512774
507.798 .0518819
508.640 .0525091
509.480 .0531630
510.320 .0538580
511.160 .0546089
511.998 .0554255
512.836 .0563294
513.672 .0573264
514.508 .0584234
515.344 .0596378
516.178 .0609785
517.012 .0624743
517.845 .0641621
518.677 .0660969
519.508 .0683099
520.339 .0708704
521.169 .0738326
521.998 .0772136
522.826 .0810885
523.654 .0854579
524.481 .0903175
525.307 .0957092
526.133 .1016244
526.958 .1080199
527.782 .1148623
528.605 .1220193
529.428 .1293698
530.250 .1364079
531.072 .1428753
531.892 .1483641
532.712 .1525494
533.532 .1552516
534.350 .1562262
535.168 .1554180
535.986 .1529941
536.802 .1491069
537.618 .1440447
538.434 .1380027
539.249 .1314540
540.063 .1245498
540.876 .1175681
541.689 .1107165
542.501 .1041626
543.313 .0980888
544.124 .0925662
544.934 .0875448
545.744 .0830099
546.553 .0789284
547.361 .0752987
548.169 .0720799
548.976 .0692222
549.783 .0666903
550.589 .0644710
551.395 .0624904
552.200 .0607453
553.004 .0591765
553.808 .0577519
554.611 .0564535
555.414 .0552656
556.216 .0541645
557.018 .0531565
557.819 .0522232
558.619 .0513497
559.419 .0505262
560.218 .0497486
561.017 .0489980
561.815 .0482663
562.613 .0475478
563.410 .0468379
564.207 .0461293
565.003 .0454351
565.799 .0447508
566.594 .0440872
567.388 .0434593
568.182 .0428570
568.976 .0422797
569.769 .0417355
570.562 .0412221
571.354 .0407333
572.145 .0402713
572.936 .0398308
573.727 .0394018
574.517 .0389855
575.307 .0385825
576.096 .0381949
576.885 .0378237
577.673 .0374695
578.461 .0371315
579.248 .0368091
580.035 .0365013
580.821 .0362053
581.607 .0359243
582.392 .0356585
583.177 .0354073
583.962 .0351683
584.746 .0349446
585.529 .0347350
586.313 .0345406
587.095 .0343630
587.878 .0342020
588.660 .0340566
589.441 .0339260
590.222 .0338083
591.003 .0337068
591.783 .0336191
592.563 .0335440
593.342 .0334779
594.121 .0334182
594.899 .0333634
595.678 .0333117
596.455 .0332611
597.233 .0332115
598.009 .0331630
598.786 .0331155
599.562 .0330690
600.338 .0330239
601.113 .0329809
601.888 .0329395
602.663 .0328998
603.437 .0328611
604.211 .0328207
604.984 .0327797
605.757 .0327378
606.530 .0326952
607.302 .0326528
608.074 .0326116
608.845 .0325713
609.616 .0325333
610.387 .0324986
611.158 .0324665
611.928 .0324365
612.697 .0324079
613.467 .0323803
614.236 .0323526
615.004 .0323247
615.773 .0322965
616.541 .0322679
617.308 .0322411
618.076 .0322154
618.843 .0321915
619.609 .0321701
620.375 .0321508
621.141 .0321320
621.907 .0321138
622.672 .0320951
623.437 .0320750
624.202 .0320536
624.966 .0320311
625.730 .0320078
626.493 .0319838
627.257 .0319587
628.020 .0319329
628.782 .0319059
629.545 .0318782
630.307 .0318481
631.068 .0318166
631.830 .0317841
632.591 .0317504
633.352 .0317165
634.112 .0316833
634.872 .0316504
635.632 .0316185
636.392 .0315868
637.151 .0315565
637.910 .0315272
638.668 .0314996
639.427 .0314732
640.185 .0314489
640.943 .0314263
641.700 .0314053
642.457 .0313849
643.214 .0313649
643.971 .0313443
644.727 .0313231
645.483 .0313009
646.239 .0312786
646.994 .0312571
647.750 .0312375
648.505 .0312196
649.259 .0312045
650.014 .0311901
650.768 .0311759
651.521 .0311615
652.275 .0311456
653.028 .0311282
653.781 .0311091
654.534 .0310893
655.286 .0310698
656.039 .0310513
656.791 .0310340
657.542 .0310173
658.294 .0310014
659.045 .0309845
659.796 .0309656
660.546 .0309443
661.297 .0309210
662.047 .0308960
662.796 .0308697
663.546 .0308437
664.295 .0308184
665.044 .0307946
665.793 .0307727
666.542 .0307524
667.290 .0307336
668.038 .0307150
668.786 .0306964
669.533 .0306774
670.281 .0306579
671.028 .0306383
671.774 .0306189
672.521 .0306000
673.267 .0305820
674.013 .0305650
674.759 .0305485
675.505 .0305328
676.250 .0305165
676.995 .0304990
677.740 .0304803
678.484 .0304606
679.229 .0304402
679.973 .0304185
680.717 .0303971
681.460 .0303758
682.204 .0303549
682.947 .0303348
683.690 .0303150
684.433 .0302959
685.175 .0302769
685.917 .0302580
686.659 .0302385
687.401 .0302188
688.142 .0301994
688.884 .0301801
689.625 .0301614
690.365 .0301434
691.106 .0301253
691.846 .0301076
692.586 .0300905
693.326 .0300737
694.066 .0300570
694.805 .0300409
695.545 .0300247
696.284 .0300090
697.022 .0299929
697.761 .0299765
698.499 .0299593
699.237 .0299418
699.975 .0299230
700.713 .0299026
701.450 .0298818
702.187 .0298607
702.924 .0298395
703.661 .0298187
704.397 .0297984
705.133 .0297789
705.869 .0297601
706.605 .0297414
707.341 .0297231
708.076 .0297051
708.811 .0296870
709.546 .0296687
710.281 .0296509
711.015 .0296341
711.749 .0296182
712.483 .0296034
713.217 .0295903
713.950 .0295783
714.684 .0295670
715.417 .0295561
716.150 .0295454
716.882 .0295339
717.615 .0295215
718.347 .0295083
719.079 .0294943
719.811 .0294798
720.542 .0294655
721.273 .0294508
722.005 .0294363
722.735 .0294218
723.466 .0294063
724.196 .0293904
724.927 .0293739
725.656 .0293563
726.386 .0293379
727.116 .0293191
727.845 .0293004
728.574 .0292818
729.303 .0292645
730.031 .0292484
730.760 .0292335
731.488 .0292203
732.216 .0292084
732.944 .0291980
733.671 .0291891
734.398 .0291821
735.125 .0291763
735.852 .0291723
736.579 .0291692
737.305 .0291669
738.031 .0291656
738.757 .0291648
739.483 .0291637
740.208 .0291620
740.933 .0291600
741.658 .0291568
742.383 .0291524
743.108 .0291472
743.832 .0291412
744.556 .0291344
745.280 .0291268
746.004 .0291184
746.727 .0291095
747.450 .0291004
748.173 .0290905
748.896 .0290802
749.618 .0290700
750.340 .0290596
751.062 .0290491
751.784 .0290386
752.506 .0290282
753.227 .0290174
753.948 .0290056
754.669 .0289933
755.389 .0289801
756.110 .0289662
756.830 .0289517
757.550 .0289365
758.269 .0289208
758.989 .0289042
759.708 .0288866
760.427 .0288680
761.146 .0288483
761.864 .0288274
762.582 .0288056
763.300 .0287833
764.018 .0287613
764.736 .0287398
765.453 .0287192
766.170 .0287000
766.887 .0286815
767.603 .0286636
768.320 .0286456
769.036 .0286276
769.751 .0286092
770.467 .0285903
771.182 .0285712
771.897 .0285518
772.612 .0285326
773.327 .0285141
774.041 .0284960
774.755 .0284785
775.469 .0284616
776.183 .0284458
776.896 .0284309
777.609 .0284169
778.322 .0284036
779.035 .0283913
779.747 .0283796
780.459 .0283688
781.171 .0283586
781.882 .0283492
782.594 .0283407
783.305 .0283333
784.016 .0283271
784.726 .0283218
785.436 .0283177
786.147 .0283140
786.856 .0283105
787.566 .0283065
788.275 .0283014
788.984 .0282954
789.693 .0282888
790.401 .0282815
791.110 .0282733
791.818 .0282647
792.525 .0282558
793.233 .0282466
793.940 .0282369
794.647 .0282271
795.353 .0282171
796.060 .0282071
796.766 .0281972
797.472 .0281876
798.177 .0281786
798.883 .0281702
799.588 .0281624
800.292 .0281550
800.997 .0281478
801.701 .0281404
802.405 .0281328
803.109 .0281255
803.812 .0281179
804.515 .0281100
805.218 .0281017
805.921 .0280928
806.623 .0280832
807.325 .0280723
808.027 .0280605
808.728 .0280476
809.429 .0280336
810.130 .0280185
810.831 .0280032
811.531 .0279878
812.231 .0279723
812.931 .0279569
813.630 .0279413
814.330 .0279260
815.029 .0279109
815.727 .0278961
816.426 .0278820
817.124 .0278687
817.821 .0278562
818.519 .0278445
819.216 .0278343
819.913 .0278253
820.609 .0278174
821.306 .0278103
822.002 .0278043
822.697 .0277990
823.393 .0277946
824.088 .0277909
824.783 .0277880
825.477 .0277857
826.171 .0277834
826.865 .0277815
827.559 .0277800
828.252 .0277790
828.945 .0277783
829.638 .0277779
830.330 .0277785
831.023 .0277792
831.714 .0277801
832.406 .0277813
833.097 .0277826
833.788 .0277832
834.479 .0277831
835.169 .0277824
835.859 .0277816
836.548 .0277804
837.238 .0277794
837.927 .0277785
838.615 .0277778
839.304 .0277776
839.992 .0277772
840.680 .0277769
841.367 .0277762
842.054 .0277747
842.741 .0277723
843.428 .0277691
844.114 .0277653
844.800 .0277606
845.485 .0277555
846.170 .0277498
846.855 .0277435
847.540 .0277362
848.224 .0277283
848.908 .0277197
849.592 .0277104
850.275 .0277000
850.958 .0276882
851.641 .0276757
852.323 .0276621
853.005 .0276472
853.687 .0276311
854.368 .0276137
855.049 .0275956
855.730 .0275767
856.410 .0275570
857.090 .0275372
857.769 .0275173
858.449 .0274969
859.128 .0274762
859.806 .0274549
860.485 .0274332
861.163 .0274110
861.840 .0273887
862.518 .0273669
863.195 .0273454
863.871 .0273249
864.548 .0273054
865.224 .0272867
865.899 .0272690
866.574 .0272519
867.249 .0272353
867.924 .0272190
868.598 .0272031
869.272 .0271870
869.946 .0271713
870.619 .0271561
871.292 .0271417
871.964 .0271275
872.636 .0271141
873.308 .0271011
873.979 .0270883
874.651 .0270759
875.321 .0270636
875.992 .0270515
876.662 .0270398
877.331 .0270283
878.001 .0270166
878.670 .0270051
879.338 .0269937
880.007 .0269826
880.675 .0269720
881.342 .0269622
882.009 .0269530
882.676 .0269442
883.343 .0269363
884.009 .0269284
884.675 .0269205
885.340 .0269121
886.005 .0269026
886.670 .0268925
887.334 .0268822
887.998 .0268717
888.662 .0268620
889.325 .0268537
889.988 .0268470
890.650 .0268416
891.312 .0268373
891.974 .0268335
892.636 .0268298
893.297 .0268261
893.957 .0268224
894.618 .0268180
895.278 .0268140
895.937 .0268102
896.596 .0268073
897.255 .0268048
897.914 .0268027
898.572 .0268007
899.230 .0267986
899.887 .0267959
900.544 .0267919
901.201 .0267868
901.857 .0267812
902.513 .0267746
903.168 .0267674
903.823 .0267595
904.478 .0267512
905.132 .0267424
905.786 .0267331
906.440 .0267232
907.093 .0267126
907.746 .0267010
908.399 .0266887
909.051 .0266756
909.703 .0266617
910.354 .0266474
911.005 .0266326
911.656 .0266180
912.306 .0266030
912.956 .0265884
913.605 .0265738
914.254 .0265594
914.903 .0265457
915.551 .0265326
916.199 .0265200
916.847 .0265083
917.494 .0264972
918.141 .0264869
918.788 .0264769
919.434 .0264678
920.079 .0264587
920.725 .0264498
921.370 .0264407
922.014 .0264315
922.658 .0264217
923.302 .0264116
923.946 .0264005
924.589 .0263888
925.231 .0263761
925.873 .0263623
926.515 .0263470
927.157 .0263309
927.798 .0263139
928.439 .0262958
929.079 .0262770
929.719 .0262581
930.359 .0262389
930.998 .0262200
931.637 .0262012
932.275 .0261830
932.913 .0261655
933.551 .0261487
934.188 .0261332
934.825 .0261193
935.462 .0261077
936.098 .0260986
936.733 .0260922
937.369 .0260886
938.004 .0260870
938.638 .0260868
939.273 .0260876
939.907 .0260890
940.540 .0260908
941.173 .0260929
941.806 .0260957
942.438 .0260993
943.070 .0261042
943.702 .0261096
944.333 .0261152
944.964 .0261203
945.594 .0261236
946.224 .0261246
946.854 .0261233
947.483 .0261196
948.112 .0261140
948.741 .0261071
949.369 .0260993
949.996 .0260913
950.624 .0260832
951.251 .0260753
951.878 .0260675
952.504 .0260595
953.130 .0260506
953.755 .0260406
954.380 .0260304
955.005 .0260197
955.629 .0260090
956.253 .0259988
956.877 .0259890
957.500 .0259799
958.123 .0259709
958.746 .0259621
959.368 .0259535
959.990 .0259452
960.611 .0259374
961.232 .0259299
961.853 .0259229
962.473 .0259173
963.093 .0259125
963.712 .0259087
964.331 .0259054
964.950 .0259018
965.569 .0258985
966.187 .0258953
966.804 .0258921
967.422 .0258894
968.039 .0258874
968.655 .0258862
969.272 .0258852
969.887 .0258843
970.503 .0258829
971.118 .0258805
971.733 .0258773
972.347 .0258723
972.961 .0258651
973.575 .0258565
974.188 .0258462
974.801 .0258346
975.414 .0258215
976.026 .0258071
976.638 .0257918
977.250 .0257759
977.861 .0257594
978.472 .0257418
979.083 .0257236
979.693 .0257048
980.303 .0256849
980.912 .0256644
981.521 .0256433
982.130 .0256220
982.738 .0256012
983.346 .0255807
983.954 .0255610
984.562 .0255421
985.169 .0255238
985.775 .0255062
986.382 .0254885
986.988 .0254700
987.594 .0254509
988.199 .0254312
988.804 .0254117
989.409 .0253921
990.013 .0253739
990.617 .0253572
991.221 .0253424
991.824 .0253293
992.427 .0253179
993.030 .0253077
993.632 .0252986
994.234 .0252899
994.836 .0252817
995.438 .0252741
996.039 .0252679
996.640 .0252626
997.240 .0252591
997.840 .0252573
998.440 .0252569
999.040 .0252571
999.639 .0252583
1000.238 .0252589
1000.836 .0252589
1001.435 .0252575
1002.033 .0252549
1002.630 .0252505
1003.228 .0252448
1003.825 .0252380
1004.422 .0252310
1005.018 .0252237
1005.614 .0252164
1006.210 .0252084
1006.806 .0252011
1007.401 .0251932
1007.996 .0251852
1008.591 .0251778
1009.186 .0251713
1009.780 .0251656
1010.374 .0251611
1010.967 .0251574
1011.561 .0251551
1012.154 .0251534
1012.746 .0251521
1013.339 .0251504
1013.931 .0251490
1014.523 .0251472
1015.115 .0251457
1015.706 .0251452
1016.298 .0251461
1016.888 .0251482
1017.479 .0251515
1018.069 .0251554
1018.660 .0251598
1019.250 .0251638
1019.839 .0251670
1020.429 .0251697
1021.018 .0251725
1021.607 .0251751
1022.195 .0251785
1022.784 .0251831
1023.372 .0251898
1023.960 .0251986
1024.547 .0252085
1025.135 .0252193
1025.722 .0252304
1026.309 .0252412
1026.896 .0252517
1027.483 .0252620
1028.069 .0252719
1028.655 .0252813
1029.241 .0252904
1029.827 .0252991
1030.412 .0253076
1030.997 .0253162
1031.582 .0253240
1032.167 .0253314
1032.752 .0253390
1033.336 .0253455
1033.921 .0253509
1034.505 .0253562
1035.089 .0253603
1035.672 .0253629
1036.256 .0253638
1036.839 .0253632
1037.422 .0253613
1038.005 .0253588
1038.588 .0253565
1039.171 .0253547
1039.753 .0253547
1040.335 .0253567
1040.918 .0253602
1041.500 .0253662
1042.081 .0253731
1042.663 .0253797
1043.244 .0253861
1043.826 .0253919
1044.407 .0253970
1044.988 .0254011
1045.569 .0254050
1046.150 .0254097
1046.730 .0254153
1047.311 .0254218
1047.891 .0254289
1048.471 .0254360
1049.052 .0254426
1049.632 .0254478
1050.211 .0254506
1050.791 .0254506
1051.371 .0254485
1051.950 .0254460
1052.530 .0254432
1053.109 .0254406
1053.688 .0254391
1054.268 .0254386
1054.847 .0254404
1055.426 .0254433
1056.005 .0254473
1056.583 .0254523
1057.162 .0254584
1057.741 .0254653
1058.319 .0254732
1058.898 .0254818
1059.476 .0254911
1060.055 .0255009
1060.633 .0255104
1061.211 .0255188
1061.790 .0255261
1062.368 .0255333
1062.946 .0255416
1063.524 .0255511
1064.102 .0255625
1064.680 .0255747
1065.258 .0255884
1065.836 .0256020
1066.414 .0256137
1066.992 .0256235
1067.570 .0256305
1068.148 .0256349
1068.726 .0256369
1069.304 .0256382
1069.882 .0256395
1070.460 .0256423
1071.038 .0256478
1071.616 .0256549
1072.194 .0256648
1072.772 .0256757
1073.350 .0256869
1073.928 .0256972
1074.506 .0257054
1075.084 .0257108
1075.662 .0257133
1076.240 .0257142
1076.819 .0257134
1077.397 .0257119
1077.976 .0257110
1078.554 .0257121
1079.133 .0257157
1079.711 .0257207
1080.290 .0257272
1080.869 .0257334
1081.448 .0257386
1082.027 .0257395
1082.606 .0257366
1083.185 .0257303
1083.764 .0257219
1084.343 .0257139
1084.923 .0257064
1085.502 .0257016
1086.082 .0257021
1086.662 .0257082
1087.242 .0257186
1087.822 .0257324
1088.402 .0257485
1088.983 .0257642
1089.563 .0257790
1090.144 .0257916
1090.725 .0258017
1091.306 .0258099
1091.887 .0258184
1092.469 .0258268
1093.050 .0258358
1093.632 .0258484
1094.214 .0258649
1094.796 .0258858
1095.379 .0259124
1095.961 .0259425
1096.544 .0259750
1097.127 .0260100
1097.710 .0260437
1098.294 .0260748
1098.877 .0261026
1099.461 .0261285
1100.046 .0261513
1100.630 .0261732
1101.215 .0261971
1101.800 .0262217
1102.385 .0262510
1102.970 .0262850
1103.556 .0263181
1104.142 .0263529
1104.728 .0263863
1105.315 .0264163
1105.902 .0264404
1106.489 .0264617
1107.077 .0264790
1107.664 .0264965
1108.253 .0265165
1108.841 .0265391
1109.430 .0265665
1110.019 .0266013
1110.609 .0266399
1111.198 .0266797
1111.789 .0267207
1112.379 .0267592
1112.970 .0267914
1113.561 .0268230
1114.153 .0268482
1114.745 .0268735
1115.338 .0268987
1115.931 .0269275
1116.524 .0269559
1117.117 .0269893
1117.712 .0270289
1118.306 .0270707
1118.901 .0271167
1119.496 .0271643
1120.092 .0272117
1120.689 .0272610
1121.285 .0273086
1121.882 .0273569
1122.480 .0274044
1123.078 .0274577
1123.677 .0275100
1124.276 .0275641
1124.875 .0276208
1125.476 .0276788
1126.076 .0277341
1126.677 .0277877
1127.279 .0278375
1127.881 .0278796
1128.484 .0279209
1129.087 .0279625
1129.691 .0280083
1130.295 .0280610
1130.900 .0281240
1131.505 .0282012
1132.111 .0282921
1132.718 .0283967
1133.325 .0285072
1133.933 .0286242
1134.541 .0287461
1135.150 .0288640
1135.760 .0289801
1136.370 .0290962
1136.981 .0292159
1137.592 .0293364
1138.204 .0294604
1138.817 .0295818
1139.431 .0297091
1140.045 .0298301
1140.660 .0299464
1141.275 .0300542
1141.891 .0301720
1142.508 .0303654
1143.126 .0302751
1143.744 .0304164
1144.363 .0305171
1144.983 .0310820
