Measurement Sequence started on: 15-12-46-377
Integration time: 28
Scans to Average: 2 
>>>>>Begin Spectral Data<<<<<
432.689 .0000100
433.621 .0000100
434.552 .0000100
435.482 .0000100
436.410 .0000100
437.337 .0000100
438.262 .0263257
439.187 .0556683
440.110 .0921635
441.031 .1332573
441.952 .1730749
442.871 .2043196
443.789 .2212805
444.705 .2220100
445.621 .2089921
446.535 .1874943
447.447 .1632564
448.359 .1263015
449.269 .1081209
450.178 .0966559
451.086 .0886461
451.993 .0825682
452.898 .0777773
453.803 .0738967
454.706 .0707208
455.608 .0680177
456.508 .0657236
457.408 .0637670
458.306 .0620662
459.204 .0605700
460.100 .0592520
460.995 .0580623
461.888 .0569874
462.781 .0560036
463.673 .0550836
464.563 .0542383
465.452 .0534580
466.340 .0527109
467.228 .0520124
468.114 .0513530
468.999 .0507349
469.882 .0501491
470.765 .0496043
471.647 .0490948
472.528 .0486179
473.407 .0481759
474.286 .0477679
475.163 .0473948
476.040 .0470612
476.915 .0467580
477.790 .0464840
478.663 .0462345
479.535 .0460058
480.407 .0458005
481.277 .0456225
482.147 .0454704
483.015 .0453473
483.883 .0452495
484.749 .0451800
485.615 .0451438
486.479 .0451332
487.343 .0451510
488.206 .0451971
489.067 .0452582
489.928 .0453329
490.788 .0454222
491.647 .0455286
492.505 .0456456
493.362 .0457875
494.218 .0459490
495.073 .0461242
495.928 .0463221
496.781 .0465312
497.634 .0467564
498.486 .0469962
499.337 .0472452
500.187 .0474954
501.036 .0477546
501.884 .0480264
502.731 .0483149
503.578 .0486348
504.424 .0489926
505.268 .0493763
506.113 .0497942
506.956 .0502522
507.798 .0507489
508.640 .0512880
509.480 .0518887
510.320 .0525460
511.160 .0532809
511.998 .0540940
512.836 .0550024
513.672 .0560108
514.508 .0571329
515.344 .0583733
516.178 .0597527
517.012 .0612918
517.845 .0630377
518.677 .0650084
519.508 .0672467
520.339 .0698050
521.169 .0727543
521.998 .0761054
522.826 .0799214
523.654 .0842322
524.481 .0890638
525.307 .0944299
526.133 .1002841
526.958 .1065837
527.782 .1133000
528.605 .1202831
529.428 .1274127
530.250 .1342387
531.072 .1405822
531.892 .1460257
532.712 .1503380
533.532 .1533286
534.350 .1547483
535.168 .1544822
535.986 .1525779
536.802 .1490901
537.618 .1442456
538.434 .1382637
539.249 .1315852
540.063 .1244275
540.876 .1171737
541.689 .1100606
542.501 .1033260
543.313 .0971906
544.124 .0917211
544.934 .0868110
545.744 .0824206
546.553 .0784784
547.361 .0749151
548.169 .0717169
548.976 .0688277
549.783 .0662199
550.589 .0638539
551.395 .0617072
552.200 .0597659
553.004 .0580024
553.808 .0563921
554.611 .0549331
555.414 .0535929
556.216 .0523695
557.018 .0512533
557.819 .0502311
558.619 .0492759
559.419 .0483909
560.218 .0475545
561.017 .0467634
561.815 .0460028
562.613 .0452722
563.410 .0445657
564.207 .0438979
565.003 .0432638
565.799 .0426664
566.594 .0421083
567.388 .0416075
568.182 .0411377
568.976 .0406980
569.769 .0402778
570.562 .0398695
571.354 .0394682
572.145 .0390782
572.936 .0386881
573.727 .0383066
574.517 .0379335
575.307 .0375711
576.096 .0372166
576.885 .0368754
577.673 .0365491
578.461 .0362376
579.248 .0359396
580.035 .0356525
580.821 .0353750
581.607 .0351126
582.392 .0348618
583.177 .0346213
583.962 .0343901
584.746 .0341720
585.529 .0339651
586.313 .0337716
587.095 .0335912
587.878 .0334229
588.660 .0332693
589.441 .0331315
590.222 .0330072
591.003 .0328972
591.783 .0328012
592.563 .0327172
593.342 .0326417
594.121 .0325714
594.899 .0325049
595.678 .0324413
596.455 .0323794
597.233 .0323195
598.009 .0322602
598.786 .0322041
599.562 .0321521
600.338 .0321040
601.113 .0320605
601.888 .0320205
602.663 .0319834
603.437 .0319481
604.211 .0319123
604.984 .0318749
605.757 .0318357
606.530 .0317959
607.302 .0317561
608.074 .0317173
608.845 .0316815
609.616 .0316497
610.387 .0316218
611.158 .0315988
611.928 .0315787
612.697 .0315603
613.467 .0315432
614.236 .0315258
615.004 .0315074
615.773 .0314878
616.541 .0314674
617.308 .0314473
618.076 .0314276
618.843 .0314090
619.609 .0313911
620.375 .0313747
621.141 .0313588
621.907 .0313424
622.672 .0313258
623.437 .0313090
624.202 .0312905
624.966 .0312710
625.730 .0312503
626.493 .0312281
627.257 .0312045
628.020 .0311792
628.782 .0311522
629.545 .0311240
630.307 .0310941
631.068 .0310636
631.830 .0310319
632.591 .0310003
633.352 .0309683
634.112 .0309358
634.872 .0309033
635.632 .0308701
636.392 .0308360
637.151 .0308017
637.910 .0307675
638.668 .0307336
639.427 .0306999
640.185 .0306675
640.943 .0306368
641.700 .0306078
642.457 .0305807
643.214 .0305550
643.971 .0305300
644.727 .0305058
645.483 .0304814
646.239 .0304565
646.994 .0304314
647.750 .0304060
648.505 .0303805
649.259 .0303557
650.014 .0303312
650.768 .0303069
651.521 .0302830
652.275 .0302599
653.028 .0302365
653.781 .0302131
654.534 .0301899
655.286 .0301669
656.039 .0301444
656.791 .0301223
657.542 .0301002
658.294 .0300785
659.045 .0300570
659.796 .0300358
660.546 .0300147
661.297 .0299937
662.047 .0299729
662.796 .0299524
663.546 .0299324
664.295 .0299126
665.044 .0298936
665.793 .0298751
666.542 .0298571
667.290 .0298393
668.038 .0298213
668.786 .0298034
669.533 .0297863
670.281 .0297700
671.028 .0297546
671.774 .0297405
672.521 .0297275
673.267 .0297155
674.013 .0297044
674.759 .0296932
675.505 .0296817
676.250 .0296695
676.995 .0296568
677.740 .0296437
678.484 .0296309
679.229 .0296183
679.973 .0296061
680.717 .0295949
681.460 .0295839
682.204 .0295726
682.947 .0295612
683.690 .0295497
684.433 .0295375
685.175 .0295243
685.917 .0295100
686.659 .0294948
687.401 .0294791
688.142 .0294625
688.884 .0294447
689.625 .0294261
690.365 .0294063
691.106 .0293851
691.846 .0293631
692.586 .0293400
693.326 .0293156
694.066 .0292905
694.805 .0292647
695.545 .0292382
696.284 .0292102
697.022 .0291814
697.761 .0291521
698.499 .0291223
699.237 .0290921
699.975 .0290615
700.713 .0290317
701.450 .0290035
702.187 .0289761
702.924 .0289506
703.661 .0289267
704.397 .0289042
705.133 .0288829
705.869 .0288628
706.605 .0288434
707.341 .0288246
708.076 .0288060
708.811 .0287876
709.546 .0287691
710.281 .0287503
711.015 .0287315
711.749 .0287131
712.483 .0286950
713.217 .0286770
713.950 .0286586
714.684 .0286399
715.417 .0286202
716.150 .0285995
716.882 .0285773
717.615 .0285540
718.347 .0285295
719.079 .0285041
719.811 .0284786
720.542 .0284536
721.273 .0284289
722.005 .0284053
722.735 .0283834
723.466 .0283628
724.196 .0283431
724.927 .0283245
725.656 .0283063
726.386 .0282887
727.116 .0282712
727.845 .0282539
728.574 .0282366
729.303 .0282196
730.031 .0282031
730.760 .0281875
731.488 .0281726
732.216 .0281586
732.944 .0281452
733.671 .0281331
734.398 .0281215
735.125 .0281108
735.852 .0281010
736.579 .0280924
737.305 .0280849
738.031 .0280789
738.757 .0280739
739.483 .0280703
740.208 .0280670
740.933 .0280647
741.658 .0280627
742.383 .0280609
743.108 .0280590
743.832 .0280575
744.556 .0280564
745.280 .0280556
746.004 .0280545
746.727 .0280538
747.450 .0280527
748.173 .0280512
748.896 .0280488
749.618 .0280459
750.340 .0280427
751.062 .0280399
751.784 .0280368
752.506 .0280339
753.227 .0280312
753.948 .0280279
754.669 .0280245
755.389 .0280205
756.110 .0280156
756.830 .0280096
757.550 .0280030
758.269 .0279961
758.989 .0279882
759.708 .0279796
760.427 .0279705
761.146 .0279599
761.864 .0279480
762.582 .0279341
763.300 .0279181
764.018 .0279006
764.736 .0278821
765.453 .0278625
766.170 .0278426
766.887 .0278231
767.603 .0278043
768.320 .0277864
769.036 .0277700
769.751 .0277543
770.467 .0277388
771.182 .0277236
771.897 .0277081
772.612 .0276914
773.327 .0276748
774.041 .0276575
774.755 .0276399
775.469 .0276221
776.183 .0276049
776.896 .0275881
777.609 .0275721
778.322 .0275571
779.035 .0275426
779.747 .0275284
780.459 .0275142
781.171 .0274994
781.882 .0274844
782.594 .0274692
783.305 .0274538
784.016 .0274384
784.726 .0274239
785.436 .0274100
786.147 .0273969
786.856 .0273847
787.566 .0273736
788.275 .0273631
788.984 .0273529
789.693 .0273423
790.401 .0273310
791.110 .0273185
791.818 .0273046
792.525 .0272891
793.233 .0272721
793.940 .0272539
794.647 .0272345
795.353 .0272146
796.060 .0271946
796.766 .0271749
797.472 .0271553
798.177 .0271357
798.883 .0271158
799.588 .0270952
800.292 .0270737
800.997 .0270514
801.701 .0270285
802.405 .0270052
803.109 .0269817
803.812 .0269587
804.515 .0269360
805.218 .0269141
805.921 .0268925
806.623 .0268717
807.325 .0268517
808.027 .0268319
808.728 .0268119
809.429 .0267918
810.130 .0267718
810.831 .0267517
811.531 .0267312
812.231 .0267107
812.931 .0266906
813.630 .0266710
814.330 .0266524
815.029 .0266350
815.727 .0266193
816.426 .0266052
817.124 .0265924
817.821 .0265806
818.519 .0265696
819.216 .0265590
819.913 .0265491
820.609 .0265404
821.306 .0265330
822.002 .0265271
822.697 .0265240
823.393 .0265237
824.088 .0265262
824.783 .0265306
825.477 .0265366
826.171 .0265438
826.865 .0265514
827.559 .0265591
828.252 .0265669
828.945 .0265754
829.638 .0265848
830.330 .0265952
831.023 .0266066
831.714 .0266189
832.406 .0266313
833.097 .0266431
833.788 .0266538
834.479 .0266631
835.169 .0266713
835.859 .0266784
836.548 .0266850
837.238 .0266917
837.927 .0266980
838.615 .0267046
839.304 .0267108
839.992 .0267165
840.680 .0267215
841.367 .0267254
842.054 .0267285
842.741 .0267314
843.428 .0267345
844.114 .0267383
844.800 .0267427
845.485 .0267476
846.170 .0267524
846.855 .0267566
847.540 .0267599
848.224 .0267618
848.908 .0267625
849.592 .0267614
850.275 .0267591
850.958 .0267560
851.641 .0267522
852.323 .0267475
853.005 .0267422
853.687 .0267357
854.368 .0267280
855.049 .0267185
855.730 .0267075
856.410 .0266956
857.090 .0266830
857.769 .0266695
858.449 .0266558
859.128 .0266418
859.806 .0266279
860.485 .0266140
861.163 .0266005
861.840 .0265872
862.518 .0265741
863.195 .0265609
863.871 .0265476
864.548 .0265343
865.224 .0265211
865.899 .0265074
866.574 .0264937
867.249 .0264794
867.924 .0264648
868.598 .0264498
869.272 .0264347
869.946 .0264195
870.619 .0264041
871.292 .0263885
871.964 .0263724
872.636 .0263557
873.308 .0263384
873.979 .0263205
874.651 .0263023
875.321 .0262836
875.992 .0262647
876.662 .0262458
877.331 .0262274
878.001 .0262089
878.670 .0261906
879.338 .0261722
880.007 .0261537
880.675 .0261350
881.342 .0261159
882.009 .0260967
882.676 .0260775
883.343 .0260589
884.009 .0260410
884.675 .0260238
885.340 .0260077
886.005 .0259924
886.670 .0259780
887.334 .0259641
887.998 .0259506
888.662 .0259371
889.325 .0259235
889.988 .0259099
890.650 .0258963
891.312 .0258820
891.974 .0258677
892.636 .0258538
893.297 .0258401
893.957 .0258268
894.618 .0258140
895.278 .0258014
895.937 .0257891
896.596 .0257766
897.255 .0257639
897.914 .0257503
898.572 .0257358
899.230 .0257199
899.887 .0257029
900.544 .0256851
901.201 .0256669
901.857 .0256486
902.513 .0256304
903.168 .0256120
903.823 .0255931
904.478 .0255736
905.132 .0255532
905.786 .0255312
906.440 .0255077
907.093 .0254825
907.746 .0254556
908.399 .0254276
909.051 .0253992
909.703 .0253705
910.354 .0253421
911.005 .0253140
911.656 .0252863
912.306 .0252586
912.956 .0252309
913.605 .0252031
914.254 .0251759
914.903 .0251492
915.551 .0251228
916.199 .0250975
916.847 .0250732
917.494 .0250498
918.141 .0250279
918.788 .0250072
919.434 .0249877
920.079 .0249693
920.725 .0249521
921.370 .0249360
922.014 .0249214
922.658 .0249079
923.302 .0248958
923.946 .0248847
924.589 .0248745
925.231 .0248636
925.873 .0248525
926.515 .0248411
927.157 .0248287
927.798 .0248157
928.439 .0248025
929.079 .0247889
929.719 .0247755
930.359 .0247620
930.998 .0247487
931.637 .0247355
932.275 .0247224
932.913 .0247086
933.551 .0246947
934.188 .0246804
934.825 .0246660
935.462 .0246522
936.098 .0246404
936.733 .0246307
937.369 .0246232
938.004 .0246188
938.638 .0246171
939.273 .0246179
939.907 .0246212
940.540 .0246265
941.173 .0246344
941.806 .0246442
942.438 .0246559
943.070 .0246690
943.702 .0246834
944.333 .0246983
944.964 .0247133
945.594 .0247281
946.224 .0247429
946.854 .0247568
947.483 .0247707
948.112 .0247846
948.741 .0247989
949.369 .0248134
949.996 .0248279
950.624 .0248420
951.251 .0248550
951.878 .0248665
952.504 .0248766
953.130 .0248848
953.755 .0248921
954.380 .0248987
955.005 .0249052
955.629 .0249121
956.253 .0249195
956.877 .0249274
957.500 .0249359
958.123 .0249443
958.746 .0249521
959.368 .0249590
959.990 .0249651
960.611 .0249699
961.232 .0249737
961.853 .0249775
962.473 .0249815
963.093 .0249858
963.712 .0249914
964.331 .0249979
964.950 .0250056
965.569 .0250143
966.187 .0250239
966.804 .0250345
967.422 .0250459
968.039 .0250571
968.655 .0250682
969.272 .0250788
969.887 .0250886
970.503 .0250975
971.118 .0251058
971.733 .0251138
972.347 .0251216
972.961 .0251288
973.575 .0251360
974.188 .0251426
974.801 .0251482
975.414 .0251522
976.026 .0251543
976.638 .0251543
977.250 .0251518
977.861 .0251468
978.472 .0251408
979.083 .0251333
979.693 .0251254
980.303 .0251169
980.912 .0251085
981.521 .0251003
982.130 .0250922
982.738 .0250839
983.346 .0250755
983.954 .0250667
984.562 .0250568
985.169 .0250454
985.775 .0250331
986.382 .0250198
986.988 .0250061
987.594 .0249928
988.199 .0249801
988.804 .0249690
989.409 .0249594
990.013 .0249511
990.617 .0249442
991.221 .0249377
991.824 .0249315
992.427 .0249247
993.030 .0249173
993.632 .0249091
994.234 .0249008
994.836 .0248930
995.438 .0248860
996.039 .0248803
996.640 .0248761
997.240 .0248728
997.840 .0248704
998.440 .0248679
999.040 .0248639
999.639 .0248583
1000.238 .0248501
1000.836 .0248391
1001.435 .0248261
1002.033 .0248109
1002.630 .0247946
1003.228 .0247787
1003.825 .0247636
1004.422 .0247493
1005.018 .0247367
1005.614 .0247260
1006.210 .0247159
1006.806 .0247067
1007.401 .0246966
1007.996 .0246848
1008.591 .0246721
1009.186 .0246584
1009.780 .0246433
1010.374 .0246284
1010.967 .0246136
1011.561 .0245987
1012.154 .0245840
1012.746 .0245690
1013.339 .0245526
1013.931 .0245347
1014.523 .0245156
1015.115 .0244940
1015.706 .0244710
1016.298 .0244478
1016.888 .0244245
1017.479 .0244029
1018.069 .0243834
1018.660 .0243652
1019.250 .0243487
1019.839 .0243337
1020.429 .0243204
1021.018 .0243083
1021.607 .0242980
1022.195 .0242886
1022.784 .0242808
1023.372 .0242746
1023.960 .0242698
1024.547 .0242660
1025.135 .0242634
1025.722 .0242609
1026.309 .0242581
1026.896 .0242548
1027.483 .0242508
1028.069 .0242458
1028.655 .0242405
1029.241 .0242346
1029.827 .0242281
1030.412 .0242210
1030.997 .0242136
1031.582 .0242055
1032.167 .0241972
1032.752 .0241886
1033.336 .0241791
1033.921 .0241690
1034.505 .0241582
1035.089 .0241463
1035.672 .0241329
1036.256 .0241187
1036.839 .0241032
1037.422 .0240872
1038.005 .0240718
1038.588 .0240567
1039.171 .0240432
1039.753 .0240321
1040.335 .0240228
1040.918 .0240146
1041.500 .0240072
1042.081 .0240000
1042.663 .0239919
1043.244 .0239826
1043.826 .0239720
1044.407 .0239606
1044.988 .0239488
1045.569 .0239375
1046.150 .0239264
1046.730 .0239171
1047.311 .0239086
1047.891 .0239001
1048.471 .0238911
1049.052 .0238805
1049.632 .0238681
1050.211 .0238535
1050.791 .0238378
1051.371 .0238228
1051.950 .0238095
1052.530 .0237985
1053.109 .0237918
1053.688 .0237893
1054.268 .0237896
1054.847 .0237922
1055.426 .0237955
1056.005 .0237973
1056.583 .0237964
1057.162 .0237926
1057.741 .0237862
1058.319 .0237790
1058.898 .0237722
1059.476 .0237645
1060.055 .0237588
1060.633 .0237553
1061.211 .0237524
1061.790 .0237496
1062.368 .0237480
1062.946 .0237452
1063.524 .0237409
1064.102 .0237357
1064.680 .0237301
1065.258 .0237246
1065.836 .0237213
1066.414 .0237189
1066.992 .0237176
1067.570 .0237195
1068.148 .0237244
1068.726 .0237309
1069.304 .0237414
1069.882 .0237545
1070.460 .0237693
1071.038 .0237855
1071.616 .0238032
1072.194 .0238196
1072.772 .0238351
1073.350 .0238499
1073.928 .0238622
1074.506 .0238724
1075.084 .0238818
1075.662 .0238902
1076.240 .0239002
1076.819 .0239117
1077.397 .0239239
1077.976 .0239362
1078.554 .0239494
1079.133 .0239625
1079.711 .0239733
1080.290 .0239823
1080.869 .0239891
1081.448 .0239935
1082.027 .0239963
1082.606 .0239984
1083.185 .0240014
1083.764 .0240059
1084.343 .0240129
1084.923 .0240226
1085.502 .0240337
1086.082 .0240470
1086.662 .0240628
1087.242 .0240795
1087.822 .0240977
1088.402 .0241173
1088.983 .0241370
1089.563 .0241569
1090.144 .0241775
1090.725 .0241988
1091.306 .0242196
1091.887 .0242431
1092.469 .0242685
1093.050 .0242946
1093.632 .0243227
1094.214 .0243529
1094.796 .0243845
1095.379 .0244175
1095.961 .0244523
1096.544 .0244876
1097.127 .0245244
1097.710 .0245634
1098.294 .0246036
1098.877 .0246457
1099.461 .0246902
1100.046 .0247340
1100.630 .0247744
1101.215 .0248127
1101.800 .0248473
1102.385 .0248771
1102.970 .0249049
1103.556 .0249305
1104.142 .0249539
1104.728 .0249766
1105.315 .0249999
1105.902 .0250222
1106.489 .0250444
1107.077 .0250657
1107.664 .0250860
1108.253 .0251067
1108.841 .0251274
1109.430 .0251490
1110.019 .0251741
1110.609 .0252056
1111.198 .0252410
1111.789 .0252804
1112.379 .0253253
1112.970 .0253734
1113.561 .0254245
1114.153 .0254795
1114.745 .0255383
1115.338 .0256018
1115.931 .0256679
1116.524 .0257365
1117.117 .0258087
1117.712 .0258823
1118.306 .0259552
1118.901 .0260261
1119.496 .0260957
1120.092 .0261641
1120.689 .0262294
1121.285 .0262936
1121.882 .0263560
1122.480 .0264197
1123.078 .0264831
1123.677 .0265477
1124.276 .0266136
1124.875 .0266809
1125.476 .0267496
1126.076 .0268195
1126.677 .0268874
1127.279 .0269510
1127.881 .0270129
1128.484 .0270715
1129.087 .0271274
1129.691 .0271827
1130.295 .0272378
1130.900 .0272995
1131.505 .0273684
1132.111 .0274476
1132.718 .0275326
1133.325 .0276287
1133.933 .0277307
1134.541 .0278370
1135.150 .0279464
1135.760 .0280555
1136.370 .0281650
1136.981 .0282801
1137.592 .0283972
1138.204 .0285171
1138.817 .0286428
1139.431 .0287752
1140.045 .0289108
1140.660 .0290498
1141.275 .0291903
1141.891 .0293382
1142.508 .0294469
1143.126 .0296070
1143.744 .0297051
1144.363 .0299372
1144.983 .0302419
