Measurement Sequence started on: 15-12-46-377
Integration time: 28
Scans to Average: 2 
>>>>>Begin Spectral Data<<<<<
432.689 .0000100
433.621 .0000100
434.552 .0000100
435.482 .0000100
436.410 .0000100
437.337 .0000100
438.262 .0278167
439.187 .0588363
440.110 .0974096
441.031 .1408387
441.952 .1829689
442.871 .2160511
443.789 .2340631
444.705 .2350020
445.621 .2214311
446.535 .1988996
447.447 .1734534
448.359 .1345017
449.269 .1152932
450.178 .1031268
451.086 .0945170
451.993 .0878541
452.898 .0825638
453.803 .0782225
454.706 .0746031
455.608 .0715428
456.508 .0689259
457.408 .0666625
458.306 .0646600
459.204 .0628538
460.100 .0611964
460.995 .0596926
461.888 .0583188
462.781 .0570436
463.673 .0558894
464.563 .0548462
465.452 .0538856
466.340 .0530040
467.228 .0522004
468.114 .0514484
468.999 .0507504
469.882 .0500966
470.765 .0494951
471.647 .0489493
472.528 .0484560
473.407 .0480292
474.286 .0476688
475.163 .0473704
476.040 .0471270
476.915 .0469247
477.790 .0467649
478.663 .0466306
479.535 .0465137
480.407 .0464172
481.277 .0463381
482.147 .0462741
483.015 .0462178
483.883 .0461744
484.749 .0461453
485.615 .0461121
486.479 .0460802
487.343 .0460615
488.206 .0460516
489.067 .0460522
489.928 .0460628
490.788 .0460898
491.647 .0461329
492.505 .0461897
493.362 .0462495
494.218 .0463163
495.073 .0463859
495.928 .0464592
496.781 .0465310
497.634 .0466303
498.486 .0467594
499.337 .0469264
500.187 .0471370
501.036 .0473971
501.884 .0476867
502.731 .0480078
503.578 .0483488
504.424 .0487107
505.268 .0490770
506.113 .0494639
506.956 .0498632
507.798 .0503055
508.640 .0508001
509.480 .0513688
510.320 .0520246
511.160 .0527924
511.998 .0536417
512.836 .0545875
513.672 .0556287
514.508 .0567772
515.344 .0580126
516.178 .0593792
517.012 .0608797
517.845 .0625786
518.677 .0645098
519.508 .0667144
520.339 .0692341
521.169 .0721801
521.998 .0755597
522.826 .0794121
523.654 .0837743
524.481 .0886411
525.307 .0940237
526.133 .0999249
526.958 .1062559
527.782 .1129453
528.605 .1198466
529.428 .1269187
530.250 .1336288
531.072 .1397602
531.892 .1449505
532.712 .1489351
533.532 .1514872
534.350 .1523979
535.168 .1515425
535.986 .1490485
536.802 .1451108
537.618 .1399478
538.434 .1337868
539.249 .1271178
540.063 .1201652
540.876 .1131951
541.689 .1064155
542.501 .1000321
543.313 .0941564
544.124 .0888991
544.934 .0841820
545.744 .0799449
546.553 .0761782
547.361 .0728188
548.169 .0698709
548.976 .0672417
549.783 .0649231
550.589 .0628436
551.395 .0609766
552.200 .0593073
553.004 .0578047
553.808 .0564438
554.611 .0552266
555.414 .0541232
556.216 .0531121
557.018 .0521861
557.819 .0513182
558.619 .0505053
559.419 .0497393
560.218 .0490121
561.017 .0483190
561.815 .0476420
562.613 .0469853
563.410 .0463276
564.207 .0456819
565.003 .0450348
565.799 .0443788
566.594 .0437203
567.388 .0430622
568.182 .0424128
568.976 .0417806
569.769 .0411687
570.562 .0405866
571.354 .0400365
572.145 .0395227
572.936 .0390392
573.727 .0385851
574.517 .0381550
575.307 .0377488
576.096 .0373629
576.885 .0369968
577.673 .0366454
578.461 .0363126
579.248 .0359962
580.035 .0356961
580.821 .0354098
581.607 .0351355
582.392 .0348753
583.177 .0346359
583.962 .0344098
584.746 .0342028
585.529 .0340126
586.313 .0338378
587.095 .0336781
587.878 .0335327
588.660 .0334002
589.441 .0332792
590.222 .0331683
591.003 .0330695
591.783 .0329803
592.563 .0329022
593.342 .0328313
594.121 .0327657
594.899 .0327057
595.678 .0326479
596.455 .0325907
597.233 .0325360
598.009 .0324824
598.786 .0324306
599.562 .0323821
600.338 .0323361
601.113 .0322923
601.888 .0322500
602.663 .0322095
603.437 .0321711
604.211 .0321334
604.984 .0320986
605.757 .0320660
606.530 .0320369
607.302 .0320119
608.074 .0319899
608.845 .0319717
609.616 .0319567
610.387 .0319442
611.158 .0319337
611.928 .0319237
612.697 .0319140
613.467 .0319039
614.236 .0318934
615.004 .0318822
615.773 .0318694
616.541 .0318542
617.308 .0318375
618.076 .0318183
618.843 .0317965
619.609 .0317729
620.375 .0317487
621.141 .0317241
621.907 .0316990
622.672 .0316736
623.437 .0316482
624.202 .0316220
624.966 .0315955
625.730 .0315687
626.493 .0315417
627.257 .0315159
628.020 .0314910
628.782 .0314671
629.545 .0314457
630.307 .0314254
631.068 .0314060
631.830 .0313877
632.591 .0313696
633.352 .0313507
634.112 .0313311
634.872 .0313114
635.632 .0312909
636.392 .0312691
637.151 .0312476
637.910 .0312252
638.668 .0312024
639.427 .0311789
640.185 .0311540
640.943 .0311284
641.700 .0311026
642.457 .0310756
643.214 .0310485
643.971 .0310203
644.727 .0309928
645.483 .0309653
646.239 .0309386
646.994 .0309125
647.750 .0308870
648.505 .0308619
649.259 .0308373
650.014 .0308116
650.768 .0307856
651.521 .0307589
652.275 .0307326
653.028 .0307062
653.781 .0306805
654.534 .0306559
655.286 .0306326
656.039 .0306105
656.791 .0305898
657.542 .0305682
658.294 .0305464
659.045 .0305233
659.796 .0304994
660.546 .0304743
661.297 .0304491
662.047 .0304244
662.796 .0304014
663.546 .0303811
664.295 .0303628
665.044 .0303458
665.793 .0303310
666.542 .0303169
667.290 .0303028
668.038 .0302881
668.786 .0302727
669.533 .0302567
670.281 .0302408
671.028 .0302248
671.774 .0302098
672.521 .0301966
673.267 .0301853
674.013 .0301758
674.759 .0301674
675.505 .0301602
676.250 .0301530
676.995 .0301459
677.740 .0301381
678.484 .0301286
679.229 .0301185
679.973 .0301076
680.717 .0300961
681.460 .0300844
682.204 .0300727
682.947 .0300615
683.690 .0300504
684.433 .0300392
685.175 .0300268
685.917 .0300139
686.659 .0300003
687.401 .0299859
688.142 .0299705
688.884 .0299546
689.625 .0299382
690.365 .0299210
691.106 .0299033
691.846 .0298844
692.586 .0298641
693.326 .0298430
694.066 .0298208
694.805 .0297982
695.545 .0297753
696.284 .0297526
697.022 .0297303
697.761 .0297085
698.499 .0296869
699.237 .0296653
699.975 .0296442
700.713 .0296238
701.450 .0296036
702.187 .0295839
702.924 .0295652
703.661 .0295474
704.397 .0295304
705.133 .0295145
705.869 .0294991
706.605 .0294838
707.341 .0294687
708.076 .0294529
708.811 .0294365
709.546 .0294193
710.281 .0294004
711.015 .0293796
711.749 .0293571
712.483 .0293324
713.217 .0293054
713.950 .0292769
714.684 .0292472
715.417 .0292166
716.150 .0291861
716.882 .0291560
717.615 .0291267
718.347 .0290988
719.079 .0290726
719.811 .0290476
720.542 .0290243
721.273 .0290022
722.005 .0289809
722.735 .0289613
723.466 .0289425
724.196 .0289243
724.927 .0289071
725.656 .0288904
726.386 .0288740
727.116 .0288575
727.845 .0288415
728.574 .0288250
729.303 .0288089
730.031 .0287930
730.760 .0287766
731.488 .0287603
732.216 .0287442
732.944 .0287277
733.671 .0287117
734.398 .0286962
735.125 .0286810
735.852 .0286671
736.579 .0286544
737.305 .0286425
738.031 .0286325
738.757 .0286240
739.483 .0286167
740.208 .0286106
740.933 .0286058
741.658 .0286018
742.383 .0285984
743.108 .0285959
743.832 .0285930
744.556 .0285899
745.280 .0285868
746.004 .0285827
746.727 .0285782
747.450 .0285735
748.173 .0285685
748.896 .0285636
749.618 .0285591
750.340 .0285547
751.062 .0285505
751.784 .0285470
752.506 .0285436
753.227 .0285400
753.948 .0285366
754.669 .0285339
755.389 .0285311
756.110 .0285292
756.830 .0285279
757.550 .0285274
758.269 .0285274
758.989 .0285277
759.708 .0285275
760.427 .0285268
761.146 .0285250
761.864 .0285216
762.582 .0285163
763.300 .0285096
764.018 .0285012
764.736 .0284918
765.453 .0284817
766.170 .0284713
766.887 .0284604
767.603 .0284495
768.320 .0284386
769.036 .0284280
769.751 .0284169
770.467 .0284052
771.182 .0283931
771.897 .0283804
772.612 .0283669
773.327 .0283529
774.041 .0283391
774.755 .0283253
775.469 .0283114
776.183 .0282975
776.896 .0282833
777.609 .0282688
778.322 .0282532
779.035 .0282366
779.747 .0282193
780.459 .0282015
781.171 .0281831
781.882 .0281647
782.594 .0281469
783.305 .0281296
784.016 .0281129
784.726 .0280963
785.436 .0280798
786.147 .0280631
786.856 .0280459
787.566 .0280281
788.275 .0280099
788.984 .0279913
789.693 .0279721
790.401 .0279525
791.110 .0279318
791.818 .0279099
792.525 .0278865
793.233 .0278616
793.940 .0278353
794.647 .0278077
795.353 .0277795
796.060 .0277509
796.766 .0277229
797.472 .0276953
798.177 .0276683
798.883 .0276421
799.588 .0276168
800.292 .0275923
800.997 .0275681
801.701 .0275447
802.405 .0275223
803.109 .0275011
803.812 .0274811
804.515 .0274620
805.218 .0274437
805.921 .0274258
806.623 .0274079
807.325 .0273897
808.027 .0273712
808.728 .0273525
809.429 .0273337
810.130 .0273150
810.831 .0272962
811.531 .0272772
812.231 .0272583
812.931 .0272392
813.630 .0272195
814.330 .0271992
815.029 .0271788
815.727 .0271582
816.426 .0271377
817.124 .0271175
817.821 .0270977
818.519 .0270791
819.216 .0270616
819.913 .0270450
820.609 .0270298
821.306 .0270162
822.002 .0270047
822.697 .0269946
823.393 .0269869
824.088 .0269812
824.783 .0269770
825.477 .0269740
826.171 .0269716
826.865 .0269701
827.559 .0269691
828.252 .0269683
828.945 .0269680
829.638 .0269682
830.330 .0269691
831.023 .0269700
831.714 .0269712
832.406 .0269721
833.097 .0269722
833.788 .0269706
834.479 .0269677
835.169 .0269634
835.859 .0269583
836.548 .0269530
837.238 .0269483
837.927 .0269448
838.615 .0269426
839.304 .0269419
839.992 .0269430
840.680 .0269452
841.367 .0269490
842.054 .0269532
842.741 .0269585
843.428 .0269645
844.114 .0269714
844.800 .0269791
845.485 .0269876
846.170 .0269970
846.855 .0270069
847.540 .0270166
848.224 .0270266
848.908 .0270362
849.592 .0270455
850.275 .0270542
850.958 .0270620
851.641 .0270691
852.323 .0270754
853.005 .0270807
853.687 .0270850
854.368 .0270880
855.049 .0270898
855.730 .0270901
856.410 .0270891
857.090 .0270869
857.769 .0270839
858.449 .0270806
859.128 .0270771
859.806 .0270738
860.485 .0270712
861.163 .0270689
861.840 .0270668
862.518 .0270648
863.195 .0270626
863.871 .0270596
864.548 .0270564
865.224 .0270525
865.899 .0270483
866.574 .0270441
867.249 .0270400
867.924 .0270360
868.598 .0270320
869.272 .0270275
869.946 .0270220
870.619 .0270154
871.292 .0270073
871.964 .0269973
872.636 .0269860
873.308 .0269733
873.979 .0269591
874.651 .0269439
875.321 .0269279
875.992 .0269111
876.662 .0268936
877.331 .0268753
878.001 .0268562
878.670 .0268367
879.338 .0268165
880.007 .0267962
880.675 .0267757
881.342 .0267551
882.009 .0267343
882.676 .0267131
883.343 .0266911
884.009 .0266683
884.675 .0266446
885.340 .0266202
886.005 .0265950
886.670 .0265698
887.334 .0265445
887.998 .0265196
888.662 .0264954
889.325 .0264716
889.988 .0264480
890.650 .0264248
891.312 .0264013
891.974 .0263779
892.636 .0263544
893.297 .0263311
893.957 .0263077
894.618 .0262850
895.278 .0262626
895.937 .0262407
896.596 .0262196
897.255 .0261988
897.914 .0261780
898.572 .0261569
899.230 .0261356
899.887 .0261137
900.544 .0260914
901.201 .0260685
901.857 .0260450
902.513 .0260209
903.168 .0259967
903.823 .0259719
904.478 .0259471
905.132 .0259218
905.786 .0258959
906.440 .0258690
907.093 .0258416
907.746 .0258133
908.399 .0257846
909.051 .0257555
909.703 .0257267
910.354 .0256976
911.005 .0256690
911.656 .0256412
912.306 .0256143
912.956 .0255881
913.605 .0255624
914.254 .0255366
914.903 .0255112
915.551 .0254861
916.199 .0254618
916.847 .0254385
917.494 .0254169
918.141 .0253968
918.788 .0253784
919.434 .0253618
920.079 .0253462
920.725 .0253314
921.370 .0253174
922.014 .0253031
922.658 .0252881
923.302 .0252728
923.946 .0252573
924.589 .0252418
925.231 .0252265
925.873 .0252111
926.515 .0251957
927.157 .0251802
927.798 .0251641
928.439 .0251473
929.079 .0251297
929.719 .0251114
930.359 .0250922
930.998 .0250728
931.637 .0250532
932.275 .0250339
932.913 .0250155
933.551 .0249975
934.188 .0249804
934.825 .0249638
935.462 .0249478
936.098 .0249331
936.733 .0249195
937.369 .0249069
938.004 .0248957
938.638 .0248862
939.273 .0248781
939.907 .0248717
940.540 .0248669
941.173 .0248632
941.806 .0248612
942.438 .0248606
943.070 .0248606
943.702 .0248617
944.333 .0248639
944.964 .0248666
945.594 .0248698
946.224 .0248740
946.854 .0248783
947.483 .0248832
948.112 .0248886
948.741 .0248935
949.369 .0248982
949.996 .0249027
950.624 .0249067
951.251 .0249101
951.878 .0249134
952.504 .0249161
953.130 .0249181
953.755 .0249203
954.380 .0249225
955.005 .0249249
955.629 .0249281
956.253 .0249318
956.877 .0249363
957.500 .0249422
958.123 .0249489
958.746 .0249561
959.368 .0249643
959.990 .0249732
960.611 .0249819
961.232 .0249909
961.853 .0250006
962.473 .0250111
963.093 .0250226
963.712 .0250350
964.331 .0250476
964.950 .0250610
965.569 .0250745
966.187 .0250877
966.804 .0251007
967.422 .0251136
968.039 .0251256
968.655 .0251372
969.272 .0251489
969.887 .0251604
970.503 .0251717
971.118 .0251837
971.733 .0251956
972.347 .0252077
972.961 .0252195
973.575 .0252307
974.188 .0252416
974.801 .0252522
975.414 .0252612
976.026 .0252691
976.638 .0252760
977.250 .0252821
977.861 .0252871
978.472 .0252919
979.083 .0252963
979.693 .0252998
980.303 .0253026
980.912 .0253041
981.521 .0253038
982.130 .0253020
982.738 .0252985
983.346 .0252938
983.954 .0252883
984.562 .0252823
985.169 .0252759
985.775 .0252694
986.382 .0252628
986.988 .0252557
987.594 .0252480
988.199 .0252398
988.804 .0252313
989.409 .0252230
990.013 .0252159
990.617 .0252101
991.221 .0252061
991.824 .0252044
992.427 .0252046
993.030 .0252062
993.632 .0252088
994.234 .0252122
994.836 .0252161
995.438 .0252203
996.039 .0252244
996.640 .0252282
997.240 .0252321
997.840 .0252364
998.440 .0252412
999.040 .0252453
999.639 .0252495
1000.238 .0252525
1000.836 .0252539
1001.435 .0252530
1002.033 .0252492
1002.630 .0252427
1003.228 .0252338
1003.825 .0252230
1004.422 .0252107
1005.018 .0251981
1005.614 .0251859
1006.210 .0251738
1006.806 .0251628
1007.401 .0251519
1007.996 .0251403
1008.591 .0251275
1009.186 .0251140
1009.780 .0250983
1010.374 .0250814
1010.967 .0250644
1011.561 .0250474
1012.154 .0250315
1012.746 .0250172
1013.339 .0250040
1013.931 .0249921
1014.523 .0249808
1015.115 .0249687
1015.706 .0249549
1016.298 .0249406
1016.888 .0249248
1017.479 .0249086
1018.069 .0248919
1018.660 .0248758
1019.250 .0248597
1019.839 .0248439
1020.429 .0248280
1021.018 .0248112
1021.607 .0247940
1022.195 .0247757
1022.784 .0247562
1023.372 .0247362
1023.960 .0247156
1024.547 .0246964
1025.135 .0246779
1025.722 .0246610
1026.309 .0246458
1026.896 .0246321
1027.483 .0246200
1028.069 .0246092
1028.655 .0245998
1029.241 .0245912
1029.827 .0245836
1030.412 .0245767
1030.997 .0245699
1031.582 .0245637
1032.167 .0245580
1032.752 .0245523
1033.336 .0245467
1033.921 .0245403
1034.505 .0245326
1035.089 .0245228
1035.672 .0245109
1036.256 .0244965
1036.839 .0244796
1037.422 .0244607
1038.005 .0244401
1038.588 .0244180
1039.171 .0243953
1039.753 .0243725
1040.335 .0243498
1040.918 .0243274
1041.500 .0243049
1042.081 .0242820
1042.663 .0242597
1043.244 .0242376
1043.826 .0242166
1044.407 .0241969
1044.988 .0241790
1045.569 .0241625
1046.150 .0241467
1046.730 .0241319
1047.311 .0241169
1047.891 .0241024
1048.471 .0240877
1049.052 .0240725
1049.632 .0240578
1050.211 .0240443
1050.791 .0240329
1051.371 .0240241
1051.950 .0240187
1052.530 .0240153
1053.109 .0240135
1053.688 .0240118
1054.268 .0240081
1054.847 .0240035
1055.426 .0239970
1056.005 .0239895
1056.583 .0239816
1057.162 .0239743
1057.741 .0239683
1058.319 .0239644
1058.898 .0239639
1059.476 .0239651
1060.055 .0239668
1060.633 .0239684
1061.211 .0239684
1061.790 .0239660
1062.368 .0239611
1062.946 .0239535
1063.524 .0239442
1064.102 .0239344
1064.680 .0239255
1065.258 .0239182
1065.836 .0239127
1066.414 .0239113
1066.992 .0239131
1067.570 .0239164
1068.148 .0239210
1068.726 .0239250
1069.304 .0239287
1069.882 .0239334
1070.460 .0239376
1071.038 .0239414
1071.616 .0239464
1072.194 .0239530
1072.772 .0239608
1073.350 .0239700
1073.928 .0239817
1074.506 .0239943
1075.084 .0240083
1075.662 .0240235
1076.240 .0240379
1076.819 .0240530
1077.397 .0240688
1077.976 .0240849
1078.554 .0241015
1079.133 .0241173
1079.711 .0241317
1080.290 .0241450
1080.869 .0241577
1081.448 .0241683
1082.027 .0241766
1082.606 .0241834
1083.185 .0241910
1083.764 .0241985
1084.343 .0242077
1084.923 .0242185
1085.502 .0242318
1086.082 .0242461
1086.662 .0242602
1087.242 .0242730
1087.822 .0242840
1088.402 .0242939
1088.983 .0243046
1089.563 .0243160
1090.144 .0243311
1090.725 .0243488
1091.306 .0243715
1091.887 .0243992
1092.469 .0244313
1093.050 .0244647
1093.632 .0244988
1094.214 .0245321
1094.796 .0245637
1095.379 .0245931
1095.961 .0246209
1096.544 .0246465
1097.127 .0246732
1097.710 .0247006
1098.294 .0247282
1098.877 .0247565
1099.461 .0247855
1100.046 .0248150
1100.630 .0248453
1101.215 .0248748
1101.800 .0249015
1102.385 .0249279
1102.970 .0249548
1103.556 .0249810
1104.142 .0250072
1104.728 .0250364
1105.315 .0250672
1105.902 .0251003
1106.489 .0251369
1107.077 .0251742
1107.664 .0252124
1108.253 .0252512
1108.841 .0252874
1109.430 .0253218
1110.019 .0253537
1110.609 .0253851
1111.198 .0254177
1111.789 .0254554
1112.379 .0254969
1112.970 .0255411
1113.561 .0255902
1114.153 .0256418
1114.745 .0256923
1115.338 .0257387
1115.931 .0257791
1116.524 .0258132
1117.117 .0258426
1117.712 .0258701
1118.306 .0258987
1118.901 .0259331
1119.496 .0259752
1120.092 .0260243
1120.689 .0260798
1121.285 .0261364
1121.882 .0261934
1122.480 .0262497
1123.078 .0263040
1123.677 .0263571
1124.276 .0264124
1124.875 .0264740
1125.476 .0265478
1126.076 .0266340
1126.677 .0267329
1127.279 .0268403
1127.881 .0269552
1128.484 .0270680
1129.087 .0271749
1129.691 .0272748
1130.295 .0273661
1130.900 .0274490
1131.505 .0275310
1132.111 .0276138
1132.718 .0276995
1133.325 .0277911
1133.933 .0278853
1134.541 .0279793
1135.150 .0280733
1135.760 .0281626
1136.370 .0282493
1136.981 .0283364
1137.592 .0284249
1138.204 .0285196
1138.817 .0286210
1139.431 .0287353
1140.045 .0288508
1140.660 .0289747
1141.275 .0291044
1141.891 .0292306
1142.508 .0294159
1143.126 .0293550
1143.744 .0296074
1144.363 .0298466
1144.983 .0298380
