Measurement Sequence started on: 15-12-46-377
Integration time: 28
Scans to Average: 2 
>>>>>Begin Spectral Data<<<<<
432.689 .0000100
433.621 .0000100
434.552 .0000100
435.482 .0000100
436.410 .0000100
437.337 .0000100
438.262 .0284993
439.187 .0602209
440.110 .0996584
441.031 .1441053
441.952 .1871568
442.871 .2209041
443.789 .2392452
444.705 .2400793
445.621 .2260727
446.535 .2029247
447.447 .1768580
448.359 .1370314
449.269 .1175366
450.178 .1052887
451.086 .0967116
451.993 .0902190
452.898 .0851056
453.803 .0809014
454.706 .0774244
455.608 .0744543
456.508 .0718956
457.408 .0696670
458.306 .0677041
459.204 .0659406
460.100 .0643370
460.995 .0628657
461.888 .0615216
462.781 .0602697
463.673 .0590974
464.563 .0580059
465.452 .0569908
466.340 .0560334
467.228 .0551388
468.114 .0542978
468.999 .0535183
469.882 .0527809
470.765 .0520926
471.647 .0514570
472.528 .0508812
473.407 .0503695
474.286 .0499323
475.163 .0495589
476.040 .0492505
476.915 .0489877
477.790 .0487659
478.663 .0485764
479.535 .0484119
480.407 .0482712
481.277 .0481551
482.147 .0480630
483.015 .0479957
483.883 .0479472
484.749 .0479237
485.615 .0479161
486.479 .0479213
487.343 .0479413
488.206 .0479708
489.067 .0480030
489.928 .0480437
490.788 .0480900
491.647 .0481484
492.505 .0482126
493.362 .0482926
494.218 .0483859
495.073 .0484992
495.928 .0486362
496.781 .0487882
497.634 .0489668
498.486 .0491790
499.337 .0494192
500.187 .0496958
501.036 .0500077
501.884 .0503506
502.731 .0507129
503.578 .0511057
504.424 .0515143
505.268 .0519314
506.113 .0523615
506.956 .0528044
507.798 .0532681
508.640 .0537663
509.480 .0543046
510.320 .0549112
511.160 .0556168
511.998 .0564215
512.836 .0573276
513.672 .0583454
514.508 .0594868
515.344 .0607578
516.178 .0621864
517.012 .0638181
517.845 .0656917
518.677 .0678744
519.508 .0704092
520.339 .0733445
521.169 .0767340
521.998 .0805829
522.826 .0849395
523.654 .0898241
524.481 .0952468
525.307 .1012486
526.133 .1078393
526.958 .1150138
527.782 .1227433
528.605 .1307949
529.428 .1390563
530.250 .1469762
531.072 .1542365
531.892 .1603262
532.712 .1649186
533.532 .1677381
534.350 .1686014
535.168 .1675037
535.986 .1645456
536.802 .1599002
537.618 .1540041
538.434 .1470296
539.249 .1395050
540.063 .1316440
540.876 .1237618
541.689 .1160625
542.501 .1088062
543.313 .1021113
544.124 .0960472
544.934 .0906351
545.744 .0858459
546.553 .0815631
547.361 .0778026
548.169 .0744918
548.976 .0715329
549.783 .0689153
550.589 .0665828
551.395 .0644481
552.200 .0625270
553.004 .0607877
553.808 .0592236
554.611 .0578312
555.414 .0566165
556.216 .0555469
557.018 .0546146
557.819 .0538033
558.619 .0530622
559.419 .0523536
560.218 .0516817
561.017 .0510145
561.815 .0503438
562.613 .0496796
563.410 .0490117
564.207 .0483506
565.003 .0477147
565.799 .0470920
566.594 .0464839
567.388 .0458793
568.182 .0452794
568.976 .0446684
569.769 .0440522
570.562 .0434347
571.354 .0428069
572.145 .0421891
572.936 .0415870
573.727 .0409986
574.517 .0404434
575.307 .0399201
576.096 .0394337
576.885 .0389840
577.673 .0385745
578.461 .0381966
579.248 .0378489
580.035 .0375260
580.821 .0372247
581.607 .0369357
582.392 .0366606
583.177 .0363971
583.962 .0361457
584.746 .0359141
585.529 .0356980
586.313 .0354996
587.095 .0353205
587.878 .0351546
588.660 .0350047
589.441 .0348661
590.222 .0347374
591.003 .0346170
591.783 .0345032
592.563 .0343976
593.342 .0342995
594.121 .0342081
594.899 .0341267
595.678 .0340543
596.455 .0339904
597.233 .0339340
598.009 .0338830
598.786 .0338379
599.562 .0337961
600.338 .0337566
601.113 .0337178
601.888 .0336779
602.663 .0336379
603.437 .0335981
604.211 .0335580
604.984 .0335190
605.757 .0334804
606.530 .0334431
607.302 .0334074
608.074 .0333730
608.845 .0333400
609.616 .0333086
610.387 .0332791
611.158 .0332508
611.928 .0332223
612.697 .0331954
613.467 .0331683
614.236 .0331416
615.004 .0331153
615.773 .0330887
616.541 .0330621
617.308 .0330359
618.076 .0330103
618.843 .0329850
619.609 .0329602
620.375 .0329365
621.141 .0329125
621.907 .0328884
622.672 .0328632
623.437 .0328364
624.202 .0328076
624.966 .0327772
625.730 .0327443
626.493 .0327099
627.257 .0326749
628.020 .0326400
628.782 .0326055
629.545 .0325720
630.307 .0325392
631.068 .0325067
631.830 .0324743
632.591 .0324413
633.352 .0324067
634.112 .0323712
634.872 .0323351
635.632 .0322987
636.392 .0322624
637.151 .0322280
637.910 .0321958
638.668 .0321663
639.427 .0321398
640.185 .0321156
640.943 .0320932
641.700 .0320727
642.457 .0320527
643.214 .0320324
643.971 .0320120
644.727 .0319920
645.483 .0319718
646.239 .0319524
646.994 .0319333
647.750 .0319144
648.505 .0318952
649.259 .0318757
650.014 .0318542
650.768 .0318310
651.521 .0318060
652.275 .0317786
653.028 .0317496
653.781 .0317196
654.534 .0316890
655.286 .0316580
656.039 .0316269
656.791 .0315961
657.542 .0315649
658.294 .0315339
659.045 .0315030
659.796 .0314725
660.546 .0314430
661.297 .0314148
662.047 .0313875
662.796 .0313622
663.546 .0313385
664.295 .0313164
665.044 .0312956
665.793 .0312755
666.542 .0312561
667.290 .0312369
668.038 .0312185
668.786 .0311999
669.533 .0311810
670.281 .0311621
671.028 .0311432
671.774 .0311243
672.521 .0311054
673.267 .0310870
674.013 .0310693
674.759 .0310524
675.505 .0310358
676.250 .0310200
676.995 .0310049
677.740 .0309904
678.484 .0309761
679.229 .0309614
679.973 .0309463
680.717 .0309306
681.460 .0309143
682.204 .0308973
682.947 .0308800
683.690 .0308621
684.433 .0308429
685.175 .0308231
685.917 .0308016
686.659 .0307790
687.401 .0307555
688.142 .0307309
688.884 .0307051
689.625 .0306784
690.365 .0306516
691.106 .0306242
691.846 .0305972
692.586 .0305704
693.326 .0305439
694.066 .0305185
694.805 .0304938
695.545 .0304699
696.284 .0304471
697.022 .0304256
697.761 .0304047
698.499 .0303845
699.237 .0303648
699.975 .0303453
700.713 .0303264
701.450 .0303083
702.187 .0302910
702.924 .0302739
703.661 .0302580
704.397 .0302418
705.133 .0302258
705.869 .0302100
706.605 .0301939
707.341 .0301779
708.076 .0301619
708.811 .0301459
709.546 .0301299
710.281 .0301143
711.015 .0300988
711.749 .0300830
712.483 .0300673
713.217 .0300510
713.950 .0300338
714.684 .0300160
715.417 .0299985
716.150 .0299808
716.882 .0299638
717.615 .0299474
718.347 .0299315
719.079 .0299163
719.811 .0299015
720.542 .0298867
721.273 .0298716
722.005 .0298559
722.735 .0298395
723.466 .0298222
724.196 .0298040
724.927 .0297846
725.656 .0297643
726.386 .0297432
727.116 .0297214
727.845 .0296984
728.574 .0296751
729.303 .0296523
730.031 .0296306
730.760 .0296099
731.488 .0295906
732.216 .0295729
732.944 .0295568
733.671 .0295419
734.398 .0295282
735.125 .0295149
735.852 .0295029
736.579 .0294918
737.305 .0294815
738.031 .0294725
738.757 .0294651
739.483 .0294587
740.208 .0294532
740.933 .0294480
741.658 .0294422
742.383 .0294352
743.108 .0294270
743.832 .0294176
744.556 .0294070
745.280 .0293956
746.004 .0293835
746.727 .0293711
747.450 .0293590
748.173 .0293463
748.896 .0293332
749.618 .0293202
750.340 .0293066
751.062 .0292927
751.784 .0292785
752.506 .0292646
753.227 .0292513
753.948 .0292380
754.669 .0292248
755.389 .0292110
756.110 .0291971
756.830 .0291824
757.550 .0291671
758.269 .0291516
758.989 .0291362
759.708 .0291208
760.427 .0291059
761.146 .0290910
761.864 .0290765
762.582 .0290622
763.300 .0290479
764.018 .0290333
764.736 .0290190
765.453 .0290045
766.170 .0289901
766.887 .0289764
767.603 .0289632
768.320 .0289501
769.036 .0289374
769.751 .0289249
770.467 .0289125
771.182 .0289001
771.897 .0288876
772.612 .0288752
773.327 .0288635
774.041 .0288520
774.755 .0288405
775.469 .0288296
776.183 .0288196
776.896 .0288096
777.609 .0287997
778.322 .0287897
779.035 .0287794
779.747 .0287692
780.459 .0287592
781.171 .0287492
781.882 .0287394
782.594 .0287304
783.305 .0287222
784.016 .0287144
784.726 .0287077
785.436 .0287016
786.147 .0286958
786.856 .0286899
787.566 .0286834
788.275 .0286755
788.984 .0286667
789.693 .0286572
790.401 .0286465
791.110 .0286350
791.818 .0286232
792.525 .0286108
793.233 .0285982
793.940 .0285852
794.647 .0285712
795.353 .0285559
796.060 .0285396
796.766 .0285220
797.472 .0285030
798.177 .0284834
798.883 .0284640
799.588 .0284450
800.292 .0284271
800.997 .0284101
801.701 .0283943
802.405 .0283800
803.109 .0283665
803.812 .0283537
804.515 .0283415
805.218 .0283295
805.921 .0283176
806.623 .0283057
807.325 .0282939
808.027 .0282825
808.728 .0282714
809.429 .0282602
810.130 .0282491
810.831 .0282382
811.531 .0282268
812.231 .0282145
812.931 .0282014
813.630 .0281869
814.330 .0281709
815.029 .0281544
815.727 .0281370
816.426 .0281191
817.124 .0281016
817.821 .0280844
818.519 .0280678
819.216 .0280523
819.913 .0280376
820.609 .0280237
821.306 .0280110
822.002 .0279992
822.697 .0279881
823.393 .0279787
824.088 .0279708
824.783 .0279640
825.477 .0279583
826.171 .0279535
826.865 .0279493
827.559 .0279457
828.252 .0279422
828.945 .0279385
829.638 .0279347
830.330 .0279308
831.023 .0279266
831.714 .0279223
832.406 .0279182
833.097 .0279142
833.788 .0279100
834.479 .0279057
835.169 .0279011
835.859 .0278967
836.548 .0278928
837.238 .0278892
837.927 .0278860
838.615 .0278832
839.304 .0278806
839.992 .0278781
840.680 .0278760
841.367 .0278735
842.054 .0278710
842.741 .0278681
843.428 .0278647
844.114 .0278607
844.800 .0278563
845.485 .0278513
846.170 .0278462
846.855 .0278403
847.540 .0278334
848.224 .0278256
848.908 .0278180
849.592 .0278100
850.275 .0278011
850.958 .0277921
851.641 .0277824
852.323 .0277719
853.005 .0277609
853.687 .0277492
854.368 .0277376
855.049 .0277265
855.730 .0277158
856.410 .0277049
857.090 .0276947
857.769 .0276843
858.449 .0276732
859.128 .0276619
859.806 .0276496
860.485 .0276364
861.163 .0276229
861.840 .0276099
862.518 .0275969
863.195 .0275849
863.871 .0275739
864.548 .0275636
865.224 .0275540
865.899 .0275446
866.574 .0275346
867.249 .0275248
867.924 .0275149
868.598 .0275048
869.272 .0274947
869.946 .0274857
870.619 .0274769
871.292 .0274687
871.964 .0274606
872.636 .0274524
873.308 .0274439
873.979 .0274354
874.651 .0274261
875.321 .0274164
875.992 .0274064
876.662 .0273962
877.331 .0273859
878.001 .0273756
878.670 .0273649
879.338 .0273538
880.007 .0273422
880.675 .0273301
881.342 .0273171
882.009 .0273038
882.676 .0272904
883.343 .0272767
884.009 .0272632
884.675 .0272497
885.340 .0272366
886.005 .0272241
886.670 .0272121
887.334 .0272008
887.998 .0271902
888.662 .0271802
889.325 .0271711
889.988 .0271627
890.650 .0271554
891.312 .0271489
891.974 .0271431
892.636 .0271377
893.297 .0271325
893.957 .0271273
894.618 .0271217
895.278 .0271159
895.937 .0271098
896.596 .0271036
897.255 .0270971
897.914 .0270900
898.572 .0270825
899.230 .0270742
899.887 .0270648
900.544 .0270537
901.201 .0270411
901.857 .0270270
902.513 .0270115
903.168 .0269949
903.823 .0269777
904.478 .0269602
905.132 .0269427
905.786 .0269254
906.440 .0269081
907.093 .0268908
907.746 .0268728
908.399 .0268541
909.051 .0268348
909.703 .0268150
910.354 .0267945
911.005 .0267741
911.656 .0267540
912.306 .0267344
912.956 .0267152
913.605 .0266967
914.254 .0266786
914.903 .0266610
915.551 .0266435
916.199 .0266263
916.847 .0266093
917.494 .0265925
918.141 .0265755
918.788 .0265585
919.434 .0265416
920.079 .0265245
920.725 .0265071
921.370 .0264897
922.014 .0264722
922.658 .0264542
923.302 .0264360
923.946 .0264172
924.589 .0263974
925.231 .0263763
925.873 .0263539
926.515 .0263302
927.157 .0263052
927.798 .0262791
928.439 .0262527
929.079 .0262262
929.719 .0262000
930.359 .0261737
930.998 .0261479
931.637 .0261225
932.275 .0260977
932.913 .0260732
933.551 .0260495
934.188 .0260269
934.825 .0260058
935.462 .0259863
936.098 .0259689
936.733 .0259536
937.369 .0259407
938.004 .0259300
938.638 .0259210
939.273 .0259131
939.907 .0259065
940.540 .0259010
941.173 .0258970
941.806 .0258943
942.438 .0258929
943.070 .0258926
943.702 .0258933
944.333 .0258943
944.964 .0258951
945.594 .0258958
946.224 .0258960
946.854 .0258956
947.483 .0258946
948.112 .0258924
948.741 .0258894
949.369 .0258856
949.996 .0258808
950.624 .0258748
951.251 .0258675
951.878 .0258589
952.504 .0258497
953.130 .0258401
953.755 .0258307
954.380 .0258220
955.005 .0258143
955.629 .0258070
956.253 .0258001
956.877 .0257933
957.500 .0257864
958.123 .0257792
958.746 .0257715
959.368 .0257631
959.990 .0257545
960.611 .0257460
961.232 .0257379
961.853 .0257304
962.473 .0257238
963.093 .0257175
963.712 .0257116
964.331 .0257056
964.950 .0256991
965.569 .0256926
966.187 .0256869
966.804 .0256816
967.422 .0256778
968.039 .0256759
968.655 .0256761
969.272 .0256780
969.887 .0256811
970.503 .0256848
971.118 .0256883
971.733 .0256913
972.347 .0256932
972.961 .0256941
973.575 .0256948
974.188 .0256948
974.801 .0256944
975.414 .0256937
976.026 .0256926
976.638 .0256906
977.250 .0256877
977.861 .0256836
978.472 .0256786
979.083 .0256723
979.693 .0256650
980.303 .0256576
980.912 .0256500
981.521 .0256423
982.130 .0256350
982.738 .0256281
983.346 .0256215
983.954 .0256144
984.562 .0256070
985.169 .0255992
985.775 .0255909
986.382 .0255819
986.988 .0255723
987.594 .0255629
988.199 .0255540
988.804 .0255457
989.409 .0255390
990.013 .0255338
990.617 .0255302
991.221 .0255281
991.824 .0255278
992.427 .0255290
993.030 .0255317
993.632 .0255357
994.234 .0255413
994.836 .0255481
995.438 .0255553
996.039 .0255632
996.640 .0255718
997.240 .0255811
997.840 .0255915
998.440 .0256025
999.040 .0256140
999.639 .0256257
1000.238 .0256375
1000.836 .0256487
1001.435 .0256593
1002.033 .0256689
1002.630 .0256777
1003.228 .0256859
1003.825 .0256937
1004.422 .0257009
1005.018 .0257084
1005.614 .0257166
1006.210 .0257250
1006.806 .0257330
1007.401 .0257400
1007.996 .0257451
1008.591 .0257494
1009.186 .0257520
1009.780 .0257533
1010.374 .0257534
1010.967 .0257526
1011.561 .0257513
1012.154 .0257495
1012.746 .0257472
1013.339 .0257445
1013.931 .0257418
1014.523 .0257392
1015.115 .0257362
1015.706 .0257337
1016.298 .0257321
1016.888 .0257317
1017.479 .0257324
1018.069 .0257336
1018.660 .0257340
1019.250 .0257343
1019.839 .0257337
1020.429 .0257325
1021.018 .0257313
1021.607 .0257301
1022.195 .0257301
1022.784 .0257310
1023.372 .0257337
1023.960 .0257373
1024.547 .0257413
1025.135 .0257450
1025.722 .0257473
1026.309 .0257482
1026.896 .0257476
1027.483 .0257455
1028.069 .0257431
1028.655 .0257407
1029.241 .0257392
1029.827 .0257384
1030.412 .0257386
1030.997 .0257403
1031.582 .0257437
1032.167 .0257471
1032.752 .0257505
1033.336 .0257534
1033.921 .0257559
1034.505 .0257582
1035.089 .0257602
1035.672 .0257621
1036.256 .0257643
1036.839 .0257667
1037.422 .0257695
1038.005 .0257723
1038.588 .0257756
1039.171 .0257790
1039.753 .0257816
1040.335 .0257835
1040.918 .0257835
1041.500 .0257814
1042.081 .0257781
1042.663 .0257730
1043.244 .0257670
1043.826 .0257591
1044.407 .0257502
1044.988 .0257408
1045.569 .0257302
1046.150 .0257191
1046.730 .0257071
1047.311 .0256950
1047.891 .0256830
1048.471 .0256711
1049.052 .0256603
1049.632 .0256515
1050.211 .0256448
1050.791 .0256406
1051.371 .0256387
1051.950 .0256389
1052.530 .0256408
1053.109 .0256427
1053.688 .0256447
1054.268 .0256459
1054.847 .0256452
1055.426 .0256433
1056.005 .0256394
1056.583 .0256346
1057.162 .0256278
1057.741 .0256203
1058.319 .0256114
1058.898 .0256000
1059.476 .0255854
1060.055 .0255679
1060.633 .0255463
1061.211 .0255216
1061.790 .0254944
1062.368 .0254668
1062.946 .0254404
1063.524 .0254170
1064.102 .0253970
1064.680 .0253830
1065.258 .0253727
1065.836 .0253664
1066.414 .0253616
1066.992 .0253591
1067.570 .0253574
1068.148 .0253561
1068.726 .0253561
1069.304 .0253584
1069.882 .0253626
1070.460 .0253692
1071.038 .0253772
1071.616 .0253868
1072.194 .0253959
1072.772 .0254031
1073.350 .0254067
1073.928 .0254064
1074.506 .0254017
1075.084 .0253941
1075.662 .0253839
1076.240 .0253745
1076.819 .0253647
1077.397 .0253558
1077.976 .0253484
1078.554 .0253415
1079.133 .0253358
1079.711 .0253302
1080.290 .0253243
1080.869 .0253181
1081.448 .0253100
1082.027 .0253018
1082.606 .0252934
1083.185 .0252873
1083.764 .0252838
1084.343 .0252827
1084.923 .0252839
1085.502 .0252876
1086.082 .0252930
1086.662 .0252999
1087.242 .0253070
1087.822 .0253136
1088.402 .0253198
1088.983 .0253241
1089.563 .0253282
1090.144 .0253319
1090.725 .0253377
1091.306 .0253457
1091.887 .0253546
1092.469 .0253666
1093.050 .0253821
1093.632 .0254004
1094.214 .0254215
1094.796 .0254435
1095.379 .0254664
1095.961 .0254882
1096.544 .0255081
1097.127 .0255240
1097.710 .0255367
1098.294 .0255469
1098.877 .0255556
1099.461 .0255620
1100.046 .0255703
1100.630 .0255801
1101.215 .0255930
1101.800 .0256105
1102.385 .0256301
1102.970 .0256499
1103.556 .0256691
1104.142 .0256861
1104.728 .0257000
1105.315 .0257083
1105.902 .0257131
1106.489 .0257162
1107.077 .0257210
1107.664 .0257291
1108.253 .0257397
1108.841 .0257547
1109.430 .0257739
1110.019 .0257924
1110.609 .0258077
1111.198 .0258200
1111.789 .0258302
1112.379 .0258394
1112.970 .0258495
1113.561 .0258628
1114.153 .0258832
1114.745 .0259129
1115.338 .0259509
1115.931 .0259955
1116.524 .0260423
1117.117 .0260913
1117.712 .0261398
1118.306 .0261878
1118.901 .0262363
1119.496 .0262845
1120.092 .0263375
1120.689 .0263922
1121.285 .0264520
1121.882 .0265136
1122.480 .0265802
1123.078 .0266497
1123.677 .0267195
1124.276 .0267897
1124.875 .0268590
1125.476 .0269266
1126.076 .0269924
1126.677 .0270568
1127.279 .0271199
1127.881 .0271816
1128.484 .0272472
1129.087 .0273135
1129.691 .0273888
1130.295 .0274731
1130.900 .0275686
1131.505 .0276711
1132.111 .0277797
1132.718 .0278889
1133.325 .0279943
1133.933 .0280957
1134.541 .0281906
1135.150 .0282804
1135.760 .0283720
1136.370 .0284720
1136.981 .0285897
1137.592 .0287246
1138.204 .0288819
1138.817 .0290570
1139.431 .0292449
1140.045 .0294372
1140.660 .0296260
1141.275 .0298225
1141.891 .0300716
1142.508 .0301636
1143.126 .0303380
1143.744 .0304069
1144.363 .0309825
1144.983 .0326020
