Measurement Sequence started on: 15-12-46-377
Integration time: 28
Scans to Average: 2 
>>>>>Begin Spectral Data<<<<<
432.689 .0000100
433.621 .0000100
434.552 .0000100
435.482 .0000100
436.410 .0000100
437.337 .0000100
438.262 .0297778
439.187 .0632831
440.110 .1048642
441.031 .1517199
441.952 .1971817
442.871 .2329295
443.789 .2524500
444.705 .2534946
445.621 .2388159
446.535 .2144032
447.447 .1868180
448.359 .1448006
449.269 .1238056
450.178 .1106079
451.086 .1013058
451.993 .0941605
452.898 .0884643
453.803 .0837806
454.706 .0798816
455.608 .0765554
456.508 .0736921
457.408 .0712112
458.306 .0690372
459.204 .0671230
460.100 .0654077
460.995 .0638685
461.888 .0624876
462.781 .0612209
463.673 .0600585
464.563 .0590050
465.452 .0580224
466.340 .0570949
467.228 .0562270
468.114 .0554078
468.999 .0546409
469.882 .0539220
470.765 .0532507
471.647 .0526353
472.528 .0520772
473.407 .0515792
474.286 .0511404
475.163 .0507589
476.040 .0504241
476.915 .0501219
477.790 .0498614
478.663 .0496332
479.535 .0494307
480.407 .0492695
481.277 .0491420
482.147 .0490524
483.015 .0489941
483.883 .0489632
484.749 .0489505
485.615 .0489544
486.479 .0489647
487.343 .0489850
488.206 .0490151
489.067 .0490482
489.928 .0490835
490.788 .0491258
491.647 .0491775
492.505 .0492330
493.362 .0492989
494.218 .0493796
495.073 .0494709
495.928 .0495901
496.781 .0497263
497.634 .0498969
498.486 .0501008
499.337 .0503382
500.187 .0506129
501.036 .0509260
501.884 .0512687
502.731 .0516348
503.578 .0520383
504.424 .0524746
505.268 .0529381
506.113 .0534395
506.956 .0539798
507.798 .0545652
508.640 .0552040
509.480 .0559011
510.320 .0566631
511.160 .0575002
511.998 .0584032
512.836 .0593746
513.672 .0604067
514.508 .0614951
515.344 .0626344
516.178 .0638505
517.012 .0652040
517.845 .0667123
518.677 .0684314
519.508 .0704575
520.339 .0728298
521.169 .0756219
521.998 .0788715
522.826 .0826493
523.654 .0869717
524.481 .0918270
525.307 .0972642
526.133 .1032231
526.958 .1097204
527.782 .1167786
528.605 .1242195
529.428 .1320354
530.250 .1396831
531.072 .1467928
531.892 .1529738
532.712 .1579286
533.532 .1612912
534.350 .1628022
535.168 .1623575
535.986 .1600325
536.802 .1559341
537.618 .1504288
538.434 .1437527
539.249 .1364890
540.063 .1289466
540.876 .1213929
541.689 .1140587
542.501 .1072797
543.313 .1011333
544.124 .0957061
544.934 .0908886
545.744 .0866005
546.553 .0827261
547.361 .0792370
548.169 .0760960
548.976 .0732395
549.783 .0706569
550.589 .0683235
551.395 .0661649
552.200 .0641983
553.004 .0623867
553.808 .0607136
554.611 .0591996
555.414 .0578434
556.216 .0566075
557.018 .0554839
557.819 .0544516
558.619 .0534930
559.419 .0525960
560.218 .0517601
561.017 .0509606
561.815 .0501868
562.613 .0494436
563.410 .0487197
564.207 .0480180
565.003 .0473519
565.799 .0467213
566.594 .0461190
567.388 .0455497
568.182 .0449958
568.976 .0444463
569.769 .0438983
570.562 .0433490
571.354 .0427907
572.145 .0422315
572.936 .0416821
573.727 .0411426
574.517 .0406244
575.307 .0401447
576.096 .0396956
576.885 .0392787
577.673 .0388857
578.461 .0385126
579.248 .0381534
580.035 .0378112
580.821 .0374835
581.607 .0371690
582.392 .0368773
583.177 .0366060
583.962 .0363553
584.746 .0361301
585.529 .0359290
586.313 .0357492
587.095 .0355891
587.878 .0354461
588.660 .0353141
589.441 .0351948
590.222 .0350855
591.003 .0349871
591.783 .0349001
592.563 .0348212
593.342 .0347497
594.121 .0346821
594.899 .0346212
595.678 .0345617
596.455 .0345041
597.233 .0344491
598.009 .0343940
598.786 .0343407
599.562 .0342878
600.338 .0342355
601.113 .0341840
601.888 .0341336
602.663 .0340831
603.437 .0340327
604.211 .0339828
604.984 .0339329
605.757 .0338840
606.530 .0338352
607.302 .0337873
608.074 .0337400
608.845 .0336944
609.616 .0336511
610.387 .0336090
611.158 .0335700
611.928 .0335329
612.697 .0334981
613.467 .0334655
614.236 .0334339
615.004 .0334027
615.773 .0333714
616.541 .0333401
617.308 .0333089
618.076 .0332775
618.843 .0332471
619.609 .0332185
620.375 .0331921
621.141 .0331678
621.907 .0331453
622.672 .0331238
623.437 .0331037
624.202 .0330834
624.966 .0330617
625.730 .0330381
626.493 .0330131
627.257 .0329865
628.020 .0329581
628.782 .0329291
629.545 .0328987
630.307 .0328672
631.068 .0328355
631.830 .0328024
632.591 .0327675
633.352 .0327312
634.112 .0326924
634.872 .0326507
635.632 .0326064
636.392 .0325602
637.151 .0325126
637.910 .0324654
638.668 .0324196
639.427 .0323755
640.185 .0323343
640.943 .0322972
641.700 .0322634
642.457 .0322331
643.214 .0322056
643.971 .0321797
644.727 .0321558
645.483 .0321335
646.239 .0321122
646.994 .0320917
647.750 .0320727
648.505 .0320547
649.259 .0320374
650.014 .0320207
650.768 .0320039
651.521 .0319874
652.275 .0319704
653.028 .0319521
653.781 .0319327
654.534 .0319125
655.286 .0318914
656.039 .0318695
656.791 .0318469
657.542 .0318231
658.294 .0317990
659.045 .0317744
659.796 .0317488
660.546 .0317232
661.297 .0316974
662.047 .0316710
662.796 .0316445
663.546 .0316186
664.295 .0315928
665.044 .0315677
665.793 .0315436
666.542 .0315198
667.290 .0314969
668.038 .0314748
668.786 .0314531
669.533 .0314316
670.281 .0314116
671.028 .0313921
671.774 .0313731
672.521 .0313556
673.267 .0313394
674.013 .0313241
674.759 .0313093
675.505 .0312947
676.250 .0312795
676.995 .0312635
677.740 .0312470
678.484 .0312294
679.229 .0312113
679.973 .0311930
680.717 .0311742
681.460 .0311552
682.204 .0311365
682.947 .0311174
683.690 .0310982
684.433 .0310790
685.175 .0310595
685.917 .0310391
686.659 .0310184
687.401 .0309977
688.142 .0309766
688.884 .0309551
689.625 .0309329
690.365 .0309099
691.106 .0308860
691.846 .0308615
692.586 .0308362
693.326 .0308102
694.066 .0307838
694.805 .0307564
695.545 .0307282
696.284 .0306997
697.022 .0306708
697.761 .0306417
698.499 .0306125
699.237 .0305833
699.975 .0305542
700.713 .0305258
701.450 .0304982
702.187 .0304716
702.924 .0304458
703.661 .0304210
704.397 .0303968
705.133 .0303733
705.869 .0303502
706.605 .0303277
707.341 .0303061
708.076 .0302845
708.811 .0302621
709.546 .0302393
710.281 .0302160
711.015 .0301922
711.749 .0301683
712.483 .0301450
713.217 .0301223
713.950 .0301006
714.684 .0300801
715.417 .0300604
716.150 .0300417
716.882 .0300241
717.615 .0300069
718.347 .0299898
719.079 .0299725
719.811 .0299549
720.542 .0299377
721.273 .0299213
722.005 .0299052
722.735 .0298895
723.466 .0298746
724.196 .0298604
724.927 .0298457
725.656 .0298311
726.386 .0298169
727.116 .0298030
727.845 .0297892
728.574 .0297761
729.303 .0297634
730.031 .0297512
730.760 .0297398
731.488 .0297288
732.216 .0297179
732.944 .0297076
733.671 .0296973
734.398 .0296875
735.125 .0296787
735.852 .0296710
736.579 .0296638
737.305 .0296581
738.031 .0296537
738.757 .0296491
739.483 .0296443
740.208 .0296391
740.933 .0296334
741.658 .0296267
742.383 .0296195
743.108 .0296117
743.832 .0296044
744.556 .0295975
745.280 .0295902
746.004 .0295830
746.727 .0295758
747.450 .0295678
748.173 .0295584
748.896 .0295474
749.618 .0295347
750.340 .0295206
751.062 .0295059
751.784 .0294906
752.506 .0294755
753.227 .0294608
753.948 .0294460
754.669 .0294314
755.389 .0294171
756.110 .0294024
756.830 .0293875
757.550 .0293730
758.269 .0293584
758.989 .0293441
759.708 .0293298
760.427 .0293158
761.146 .0293018
761.864 .0292877
762.582 .0292725
763.300 .0292557
764.018 .0292377
764.736 .0292183
765.453 .0291969
766.170 .0291747
766.887 .0291514
767.603 .0291280
768.320 .0291041
769.036 .0290802
769.751 .0290562
770.467 .0290324
771.182 .0290090
771.897 .0289857
772.612 .0289626
773.327 .0289403
774.041 .0289183
774.755 .0288974
775.469 .0288778
776.183 .0288594
776.896 .0288417
777.609 .0288251
778.322 .0288093
779.035 .0287938
779.747 .0287780
780.459 .0287622
781.171 .0287461
781.882 .0287296
782.594 .0287130
783.305 .0286960
784.016 .0286798
784.726 .0286645
785.436 .0286501
786.147 .0286368
786.856 .0286246
787.566 .0286135
788.275 .0286030
788.984 .0285932
789.693 .0285838
790.401 .0285746
791.110 .0285655
791.818 .0285565
792.525 .0285480
793.233 .0285396
793.940 .0285314
794.647 .0285231
795.353 .0285142
796.060 .0285046
796.766 .0284936
797.472 .0284811
798.177 .0284670
798.883 .0284518
799.588 .0284354
800.292 .0284184
800.997 .0284010
801.701 .0283837
802.405 .0283666
803.109 .0283498
803.812 .0283332
804.515 .0283165
805.218 .0283000
805.921 .0282836
806.623 .0282676
807.325 .0282521
808.027 .0282371
808.728 .0282228
809.429 .0282088
810.130 .0281951
810.831 .0281810
811.531 .0281666
812.231 .0281517
812.931 .0281365
813.630 .0281206
814.330 .0281042
815.029 .0280883
815.727 .0280729
816.426 .0280584
817.124 .0280450
817.821 .0280333
818.519 .0280232
819.216 .0280146
819.913 .0280076
820.609 .0280022
821.306 .0279987
822.002 .0279969
822.697 .0279965
823.393 .0279976
824.088 .0279997
824.783 .0280021
825.477 .0280047
826.171 .0280073
826.865 .0280099
827.559 .0280132
828.252 .0280170
828.945 .0280215
829.638 .0280261
830.330 .0280312
831.023 .0280362
831.714 .0280405
832.406 .0280435
833.097 .0280449
833.788 .0280448
834.479 .0280432
835.169 .0280409
835.859 .0280390
836.548 .0280378
837.238 .0280383
837.927 .0280398
838.615 .0280425
839.304 .0280457
839.992 .0280489
840.680 .0280515
841.367 .0280535
842.054 .0280546
842.741 .0280547
843.428 .0280548
844.114 .0280552
844.800 .0280558
845.485 .0280566
846.170 .0280571
846.855 .0280570
847.540 .0280554
848.224 .0280520
848.908 .0280464
849.592 .0280393
850.275 .0280305
850.958 .0280201
851.641 .0280090
852.323 .0279969
853.005 .0279834
853.687 .0279685
854.368 .0279519
855.049 .0279336
855.730 .0279137
856.410 .0278923
857.090 .0278699
857.769 .0278473
858.449 .0278247
859.128 .0278025
859.806 .0277813
860.485 .0277608
861.163 .0277404
861.840 .0277200
862.518 .0276989
863.195 .0276767
863.871 .0276537
864.548 .0276303
865.224 .0276066
865.899 .0275837
866.574 .0275613
867.249 .0275399
867.924 .0275198
868.598 .0275006
869.272 .0274819
869.946 .0274638
870.619 .0274456
871.292 .0274271
871.964 .0274085
872.636 .0273899
873.308 .0273713
873.979 .0273533
874.651 .0273360
875.321 .0273194
875.992 .0273036
876.662 .0272886
877.331 .0272743
878.001 .0272610
878.670 .0272475
879.338 .0272339
880.007 .0272202
880.675 .0272061
881.342 .0271914
882.009 .0271762
882.676 .0271610
883.343 .0271457
884.009 .0271309
884.675 .0271163
885.340 .0271020
886.005 .0270885
886.670 .0270752
887.334 .0270621
887.998 .0270490
888.662 .0270358
889.325 .0270223
889.988 .0270093
890.650 .0269969
891.312 .0269851
891.974 .0269742
892.636 .0269642
893.297 .0269552
893.957 .0269468
894.618 .0269383
895.278 .0269295
895.937 .0269203
896.596 .0269108
897.255 .0269000
897.914 .0268883
898.572 .0268760
899.230 .0268633
899.887 .0268501
900.544 .0268362
901.201 .0268221
901.857 .0268072
902.513 .0267915
903.168 .0267744
903.823 .0267557
904.478 .0267356
905.132 .0267138
905.786 .0266906
906.440 .0266663
907.093 .0266415
907.746 .0266162
908.399 .0265909
909.051 .0265659
909.703 .0265409
910.354 .0265160
911.005 .0264912
911.656 .0264667
912.306 .0264426
912.956 .0264189
913.605 .0263960
914.254 .0263740
914.903 .0263537
915.551 .0263352
916.199 .0263186
916.847 .0263040
917.494 .0262912
918.141 .0262800
918.788 .0262704
919.434 .0262621
920.079 .0262546
920.725 .0262483
921.370 .0262430
922.014 .0262386
922.658 .0262346
923.302 .0262308
923.946 .0262273
924.589 .0262234
925.231 .0262187
925.873 .0262129
926.515 .0262056
927.157 .0261978
927.798 .0261886
928.439 .0261786
929.079 .0261677
929.719 .0261557
930.359 .0261429
930.998 .0261294
931.637 .0261152
932.275 .0261004
932.913 .0260853
933.551 .0260703
934.188 .0260553
934.825 .0260408
935.462 .0260274
936.098 .0260156
936.733 .0260059
937.369 .0259977
938.004 .0259911
938.638 .0259862
939.273 .0259827
939.907 .0259801
940.540 .0259787
941.173 .0259781
941.806 .0259785
942.438 .0259802
943.070 .0259831
943.702 .0259872
944.333 .0259928
944.964 .0259995
945.594 .0260072
946.224 .0260154
946.854 .0260240
947.483 .0260321
948.112 .0260402
948.741 .0260477
949.369 .0260549
949.996 .0260619
950.624 .0260689
951.251 .0260758
951.878 .0260832
952.504 .0260906
953.130 .0260975
953.755 .0261039
954.380 .0261096
955.005 .0261139
955.629 .0261172
956.253 .0261195
956.877 .0261218
957.500 .0261242
958.123 .0261276
958.746 .0261314
959.368 .0261360
959.990 .0261407
960.611 .0261451
961.232 .0261493
961.853 .0261528
962.473 .0261552
963.093 .0261567
963.712 .0261573
964.331 .0261571
964.950 .0261559
965.569 .0261542
966.187 .0261519
966.804 .0261491
967.422 .0261456
968.039 .0261414
968.655 .0261369
969.272 .0261322
969.887 .0261268
970.503 .0261213
971.118 .0261155
971.733 .0261090
972.347 .0261023
972.961 .0260951
973.575 .0260879
974.188 .0260804
974.801 .0260726
975.414 .0260648
976.026 .0260569
976.638 .0260483
977.250 .0260393
977.861 .0260302
978.472 .0260208
979.083 .0260098
979.693 .0259976
980.303 .0259837
980.912 .0259683
981.521 .0259510
982.130 .0259320
982.738 .0259120
983.346 .0258920
983.954 .0258716
984.562 .0258518
985.169 .0258328
985.775 .0258148
986.382 .0257974
986.988 .0257805
987.594 .0257637
988.199 .0257465
988.804 .0257296
989.409 .0257131
990.013 .0256975
990.617 .0256829
991.221 .0256691
991.824 .0256570
992.427 .0256464
993.030 .0256368
993.632 .0256275
994.234 .0256192
994.836 .0256114
995.438 .0256032
996.039 .0255948
996.640 .0255862
997.240 .0255781
997.840 .0255702
998.440 .0255623
999.040 .0255543
999.639 .0255464
1000.238 .0255383
1000.836 .0255303
1001.435 .0255224
1002.033 .0255145
1002.630 .0255065
1003.228 .0254985
1003.825 .0254905
1004.422 .0254826
1005.018 .0254743
1005.614 .0254656
1006.210 .0254559
1006.806 .0254447
1007.401 .0254311
1007.996 .0254153
1008.591 .0253982
1009.186 .0253796
1009.780 .0253601
1010.374 .0253405
1010.967 .0253212
1011.561 .0253029
1012.154 .0252861
1012.746 .0252707
1013.339 .0252574
1013.931 .0252458
1014.523 .0252355
1015.115 .0252261
1015.706 .0252182
1016.298 .0252114
1016.888 .0252055
1017.479 .0252009
1018.069 .0251973
1018.660 .0251938
1019.250 .0251911
1019.839 .0251878
1020.429 .0251842
1021.018 .0251804
1021.607 .0251760
1022.195 .0251707
1022.784 .0251651
1023.372 .0251585
1023.960 .0251515
1024.547 .0251437
1025.135 .0251355
1025.722 .0251266
1026.309 .0251176
1026.896 .0251086
1027.483 .0250997
1028.069 .0250911
1028.655 .0250837
1029.241 .0250766
1029.827 .0250705
1030.412 .0250645
1030.997 .0250587
1031.582 .0250528
1032.167 .0250465
1032.752 .0250398
1033.336 .0250335
1033.921 .0250274
1034.505 .0250218
1035.089 .0250168
1035.672 .0250131
1036.256 .0250098
1036.839 .0250080
1037.422 .0250070
1038.005 .0250069
1038.588 .0250073
1039.171 .0250082
1039.753 .0250102
1040.335 .0250133
1040.918 .0250171
1041.500 .0250212
1042.081 .0250254
1042.663 .0250295
1043.244 .0250315
1043.826 .0250307
1044.407 .0250269
1044.988 .0250199
1045.569 .0250088
1046.150 .0249948
1046.730 .0249784
1047.311 .0249616
1047.891 .0249452
1048.471 .0249303
1049.052 .0249175
1049.632 .0249066
1050.211 .0248977
1050.791 .0248906
1051.371 .0248840
1051.950 .0248785
1052.530 .0248723
1053.109 .0248668
1053.688 .0248616
1054.268 .0248583
1054.847 .0248574
1055.426 .0248599
1056.005 .0248662
1056.583 .0248760
1057.162 .0248875
1057.741 .0249004
1058.319 .0249134
1058.898 .0249260
1059.476 .0249375
1060.055 .0249481
1060.633 .0249568
1061.211 .0249658
1061.790 .0249751
1062.368 .0249858
1062.946 .0249965
1063.524 .0250078
1064.102 .0250180
1064.680 .0250264
1065.258 .0250330
1065.836 .0250366
1066.414 .0250369
1066.992 .0250355
1067.570 .0250319
1068.148 .0250278
1068.726 .0250224
1069.304 .0250167
1069.882 .0250112
1070.460 .0250059
1071.038 .0250000
1071.616 .0249932
1072.194 .0249857
1072.772 .0249800
1073.350 .0249767
1073.928 .0249762
1074.506 .0249796
1075.084 .0249878
1075.662 .0249996
1076.240 .0250159
1076.819 .0250347
1077.397 .0250547
1077.976 .0250739
1078.554 .0250933
1079.133 .0251114
1079.711 .0251269
1080.290 .0251420
1080.869 .0251553
1081.448 .0251671
1082.027 .0251782
1082.606 .0251865
1083.185 .0251932
1083.764 .0251994
1084.343 .0252050
1084.923 .0252089
1085.502 .0252141
1086.082 .0252214
1086.662 .0252309
1087.242 .0252446
1087.822 .0252627
1088.402 .0252839
1088.983 .0253091
1089.563 .0253366
1090.144 .0253658
1090.725 .0253973
1091.306 .0254304
1091.887 .0254629
1092.469 .0254971
1093.050 .0255327
1093.632 .0255690
1094.214 .0256052
1094.796 .0256422
1095.379 .0256771
1095.961 .0257096
1096.544 .0257391
1097.127 .0257643
1097.710 .0257857
1098.294 .0258053
1098.877 .0258226
1099.461 .0258404
1100.046 .0258584
1100.630 .0258787
1101.215 .0259022
1101.800 .0259327
1102.385 .0259672
1102.970 .0260033
1103.556 .0260412
1104.142 .0260807
1104.728 .0261193
1105.315 .0261575
1105.902 .0261949
1106.489 .0262328
1107.077 .0262719
1107.664 .0263133
1108.253 .0263550
1108.841 .0264004
1109.430 .0264470
1110.019 .0264935
1110.609 .0265379
1111.198 .0265795
1111.789 .0266166
1112.379 .0266513
1112.970 .0266866
1113.561 .0267248
1114.153 .0267683
1114.745 .0268195
1115.338 .0268794
1115.931 .0269464
1116.524 .0270160
1117.117 .0270886
1117.712 .0271608
1118.306 .0272324
1118.901 .0273008
1119.496 .0273684
1120.092 .0274360
1120.689 .0275046
1121.285 .0275750
1121.882 .0276457
1122.480 .0277167
1123.078 .0277862
1123.677 .0278505
1124.276 .0279108
1124.875 .0279682
1125.476 .0280226
1126.076 .0280773
1126.677 .0281379
1127.279 .0282018
1127.881 .0282685
1128.484 .0283387
1129.087 .0284113
1129.691 .0284850
1130.295 .0285615
1130.900 .0286411
1131.505 .0287256
1132.111 .0288185
1132.718 .0289202
1133.325 .0290310
1133.933 .0291497
1134.541 .0292713
1135.150 .0293873
1135.760 .0294976
1136.370 .0295951
1136.981 .0296780
1137.592 .0297481
1138.204 .0298133
1138.817 .0298763
1139.431 .0299361
1140.045 .0299898
1140.660 .0300319
1141.275 .0300690
1141.891 .0300884
1142.508 .0302507
1143.126 .0301237
1143.744 .0298560
1144.363 .0300910
1144.983 .0299508
