Measurement Sequence started on: 15-12-46-377
Integration time: 28
Scans to Average: 2 
>>>>>Begin Spectral Data<<<<<
432.689 .0000100
433.621 .0000100
434.552 .0000100
435.482 .0000100
436.410 .0000100
437.337 .0000100
438.262 .0264913
439.187 .0560977
440.110 .0929027
441.031 .1344189
441.952 .1746914
442.871 .2063576
443.789 .2237046
444.705 .2247634
445.621 .2119881
446.535 .1906595
447.447 .1665402
448.359 .1295528
449.269 .1113365
450.178 .0998600
451.086 .0917455
451.993 .0855226
452.898 .0805636
453.803 .0764471
454.706 .0730088
455.608 .0700535
456.508 .0674908
457.408 .0652585
458.306 .0632791
459.204 .0614876
460.100 .0598589
460.995 .0583767
461.888 .0570365
462.781 .0558047
463.673 .0546785
464.563 .0536481
465.452 .0527025
466.340 .0518270
467.228 .0510215
468.114 .0502810
468.999 .0496105
469.882 .0489946
470.765 .0484443
471.647 .0479497
472.528 .0475045
473.407 .0471096
474.286 .0467634
475.163 .0464544
476.040 .0461810
476.915 .0459317
477.790 .0457083
478.663 .0455105
479.535 .0453359
480.407 .0451892
481.277 .0450761
482.147 .0449897
483.015 .0449240
483.883 .0448770
484.749 .0448492
485.615 .0448337
486.479 .0448270
487.343 .0448454
488.206 .0448816
489.067 .0449370
489.928 .0450140
490.788 .0451116
491.647 .0452304
492.505 .0453680
493.362 .0455183
494.218 .0456815
495.073 .0458506
495.928 .0460324
496.781 .0462225
497.634 .0464369
498.486 .0466741
499.337 .0469375
500.187 .0472306
501.036 .0475585
501.884 .0479094
502.731 .0482923
503.578 .0486988
504.424 .0491272
505.268 .0495718
506.113 .0500376
506.956 .0505205
507.798 .0510341
508.640 .0515854
509.480 .0521896
510.320 .0528535
511.160 .0536030
511.998 .0544411
512.836 .0553905
513.672 .0564405
514.508 .0576120
515.344 .0588984
516.178 .0603275
517.012 .0619110
517.845 .0637081
518.677 .0657563
519.508 .0680603
520.339 .0706804
521.169 .0737112
521.998 .0771576
522.826 .0810628
523.654 .0854279
524.481 .0903004
525.307 .0956720
526.133 .1015420
526.958 .1078585
527.782 .1146248
528.605 .1216430
529.428 .1287812
530.250 .1355231
531.072 .1416562
531.892 .1467571
532.712 .1505025
533.532 .1527829
534.350 .1533740
535.168 .1522232
535.986 .1494879
536.802 .1453361
537.618 .1401113
538.434 .1339921
539.249 .1274105
540.063 .1205106
540.876 .1136256
541.689 .1069412
542.501 .1005645
543.313 .0947664
544.124 .0895597
544.934 .0848904
545.744 .0807179
546.553 .0770180
547.361 .0737385
548.169 .0708508
548.976 .0682860
549.783 .0659694
550.589 .0638743
551.395 .0619466
552.200 .0601606
553.004 .0585397
553.808 .0570483
554.611 .0556842
555.414 .0544266
556.216 .0532711
557.018 .0522087
557.819 .0512287
558.619 .0502976
559.419 .0494174
560.218 .0485888
561.017 .0478090
561.815 .0470611
562.613 .0463498
563.410 .0456729
564.207 .0450164
565.003 .0443850
565.799 .0437658
566.594 .0431489
567.388 .0425527
568.182 .0419586
568.976 .0413711
569.769 .0408038
570.562 .0402522
571.354 .0397168
572.145 .0392088
572.936 .0387257
573.727 .0382593
574.517 .0378142
575.307 .0373903
576.096 .0369838
576.885 .0365952
577.673 .0362256
578.461 .0358697
579.248 .0355358
580.035 .0352268
580.821 .0349421
581.607 .0346848
582.392 .0344527
583.177 .0342429
583.962 .0340532
584.746 .0338833
585.529 .0337291
586.313 .0335873
587.095 .0334594
587.878 .0333419
588.660 .0332328
589.441 .0331325
590.222 .0330397
591.003 .0329535
591.783 .0328735
592.563 .0328001
593.342 .0327315
594.121 .0326660
594.899 .0326039
595.678 .0325442
596.455 .0324876
597.233 .0324336
598.009 .0323802
598.786 .0323281
599.562 .0322781
600.338 .0322288
601.113 .0321796
601.888 .0321324
602.663 .0320866
603.437 .0320422
604.211 .0319999
604.984 .0319586
605.757 .0319186
606.530 .0318792
607.302 .0318402
608.074 .0318005
608.845 .0317619
609.616 .0317228
610.387 .0316845
611.158 .0316489
611.928 .0316159
612.697 .0315857
613.467 .0315593
614.236 .0315365
615.004 .0315162
615.773 .0314989
616.541 .0314842
617.308 .0314705
618.076 .0314595
618.843 .0314494
619.609 .0314398
620.375 .0314308
621.141 .0314228
621.907 .0314142
622.672 .0314060
623.437 .0313975
624.202 .0313869
624.966 .0313750
625.730 .0313625
626.493 .0313477
627.257 .0313314
628.020 .0313137
628.782 .0312943
629.545 .0312727
630.307 .0312499
631.068 .0312249
631.830 .0311987
632.591 .0311721
633.352 .0311454
634.112 .0311185
634.872 .0310926
635.632 .0310677
636.392 .0310436
637.151 .0310214
637.910 .0309998
638.668 .0309777
639.427 .0309562
640.185 .0309348
640.943 .0309130
641.700 .0308904
642.457 .0308680
643.214 .0308458
643.971 .0308226
644.727 .0307990
645.483 .0307744
646.239 .0307493
646.994 .0307234
647.750 .0306970
648.505 .0306695
649.259 .0306419
650.014 .0306142
650.768 .0305863
651.521 .0305586
652.275 .0305311
653.028 .0305036
653.781 .0304763
654.534 .0304493
655.286 .0304223
656.039 .0303942
656.791 .0303667
657.542 .0303382
658.294 .0303094
659.045 .0302801
659.796 .0302505
660.546 .0302206
661.297 .0301908
662.047 .0301607
662.796 .0301300
663.546 .0300994
664.295 .0300690
665.044 .0300382
665.793 .0300077
666.542 .0299780
667.290 .0299487
668.038 .0299202
668.786 .0298933
669.533 .0298677
670.281 .0298441
671.028 .0298221
671.774 .0298013
672.521 .0297825
673.267 .0297654
674.013 .0297499
674.759 .0297355
675.505 .0297230
676.250 .0297112
676.995 .0296997
677.740 .0296888
678.484 .0296783
679.229 .0296681
679.973 .0296584
680.717 .0296488
681.460 .0296394
682.204 .0296304
682.947 .0296221
683.690 .0296142
684.433 .0296069
685.175 .0295998
685.917 .0295928
686.659 .0295861
687.401 .0295797
688.142 .0295733
688.884 .0295675
689.625 .0295620
690.365 .0295562
691.106 .0295498
691.846 .0295431
692.586 .0295361
693.326 .0295286
694.066 .0295207
694.805 .0295124
695.545 .0295034
696.284 .0294936
697.022 .0294831
697.761 .0294714
698.499 .0294584
699.237 .0294440
699.975 .0294284
700.713 .0294120
701.450 .0293951
702.187 .0293780
702.924 .0293614
703.661 .0293449
704.397 .0293283
705.133 .0293115
705.869 .0292942
706.605 .0292768
707.341 .0292588
708.076 .0292404
708.811 .0292221
709.546 .0292038
710.281 .0291857
711.015 .0291675
711.749 .0291489
712.483 .0291299
713.217 .0291097
713.950 .0290888
714.684 .0290668
715.417 .0290440
716.150 .0290209
716.882 .0289973
717.615 .0289730
718.347 .0289484
719.079 .0289230
719.811 .0288973
720.542 .0288709
721.273 .0288438
722.005 .0288157
722.735 .0287871
723.466 .0287583
724.196 .0287288
724.927 .0286983
725.656 .0286676
726.386 .0286360
727.116 .0286039
727.845 .0285714
728.574 .0285386
729.303 .0285063
730.031 .0284747
730.760 .0284438
731.488 .0284137
732.216 .0283843
732.944 .0283563
733.671 .0283287
734.398 .0283024
735.125 .0282777
735.852 .0282542
736.579 .0282325
737.305 .0282125
738.031 .0281943
738.757 .0281774
739.483 .0281617
740.208 .0281470
740.933 .0281334
741.658 .0281206
742.383 .0281086
743.108 .0280982
743.832 .0280894
744.556 .0280820
745.280 .0280761
746.004 .0280716
746.727 .0280678
747.450 .0280643
748.173 .0280607
748.896 .0280570
749.618 .0280534
750.340 .0280490
751.062 .0280443
751.784 .0280399
752.506 .0280354
753.227 .0280305
753.948 .0280251
754.669 .0280198
755.389 .0280136
756.110 .0280067
756.830 .0279989
757.550 .0279903
758.269 .0279817
758.989 .0279727
759.708 .0279629
760.427 .0279534
761.146 .0279435
761.864 .0279333
762.582 .0279229
763.300 .0279131
764.018 .0279033
764.736 .0278939
765.453 .0278858
766.170 .0278785
766.887 .0278720
767.603 .0278661
768.320 .0278601
769.036 .0278540
769.751 .0278475
770.467 .0278399
771.182 .0278316
771.897 .0278232
772.612 .0278151
773.327 .0278078
774.041 .0278019
774.755 .0277978
775.469 .0277954
776.183 .0277944
776.896 .0277942
777.609 .0277940
778.322 .0277937
779.035 .0277928
779.747 .0277912
780.459 .0277889
781.171 .0277859
781.882 .0277832
782.594 .0277806
783.305 .0277784
784.016 .0277764
784.726 .0277744
785.436 .0277721
786.147 .0277687
786.856 .0277645
787.566 .0277590
788.275 .0277523
788.984 .0277447
789.693 .0277358
790.401 .0277262
791.110 .0277161
791.818 .0277057
792.525 .0276957
793.233 .0276862
793.940 .0276767
794.647 .0276670
795.353 .0276567
796.060 .0276454
796.766 .0276325
797.472 .0276178
798.177 .0276011
798.883 .0275826
799.588 .0275624
800.292 .0275410
800.997 .0275188
801.701 .0274962
802.405 .0274730
803.109 .0274492
803.812 .0274245
804.515 .0273988
805.218 .0273717
805.921 .0273433
806.623 .0273139
807.325 .0272845
808.027 .0272553
808.728 .0272264
809.429 .0271984
810.130 .0271712
810.831 .0271444
811.531 .0271177
812.231 .0270903
812.931 .0270620
813.630 .0270327
814.330 .0270024
815.029 .0269711
815.727 .0269403
816.426 .0269102
817.124 .0268812
817.821 .0268536
818.519 .0268271
819.216 .0268014
819.913 .0267763
820.609 .0267513
821.306 .0267264
822.002 .0267021
822.697 .0266784
823.393 .0266554
824.088 .0266343
824.783 .0266150
825.477 .0265978
826.171 .0265825
826.865 .0265688
827.559 .0265561
828.252 .0265440
828.945 .0265319
829.638 .0265195
830.330 .0265074
831.023 .0264956
831.714 .0264845
832.406 .0264744
833.097 .0264655
833.788 .0264575
834.479 .0264508
835.169 .0264446
835.859 .0264387
836.548 .0264328
837.238 .0264268
837.927 .0264206
838.615 .0264144
839.304 .0264079
839.992 .0264013
840.680 .0263950
841.367 .0263890
842.054 .0263834
842.741 .0263784
843.428 .0263736
844.114 .0263697
844.800 .0263662
845.485 .0263627
846.170 .0263590
846.855 .0263554
847.540 .0263514
848.224 .0263470
848.908 .0263427
849.592 .0263385
850.275 .0263351
850.958 .0263330
851.641 .0263318
852.323 .0263317
853.005 .0263330
853.687 .0263346
854.368 .0263361
855.049 .0263376
855.730 .0263385
856.410 .0263383
857.090 .0263379
857.769 .0263367
858.449 .0263351
859.128 .0263336
859.806 .0263322
860.485 .0263311
861.163 .0263306
861.840 .0263305
862.518 .0263303
863.195 .0263300
863.871 .0263295
864.548 .0263283
865.224 .0263269
865.899 .0263252
866.574 .0263236
867.249 .0263227
867.924 .0263230
868.598 .0263249
869.272 .0263284
869.946 .0263337
870.619 .0263404
871.292 .0263482
871.964 .0263557
872.636 .0263624
873.308 .0263681
873.979 .0263731
874.651 .0263775
875.321 .0263817
875.992 .0263862
876.662 .0263914
877.331 .0263971
878.001 .0264032
878.670 .0264086
879.338 .0264134
880.007 .0264167
880.675 .0264186
881.342 .0264193
882.009 .0264193
882.676 .0264190
883.343 .0264190
884.009 .0264196
884.675 .0264203
885.340 .0264206
886.005 .0264208
886.670 .0264199
887.334 .0264181
887.998 .0264151
888.662 .0264116
889.325 .0264076
889.988 .0264038
890.650 .0264000
891.312 .0263962
891.974 .0263924
892.636 .0263884
893.297 .0263836
893.957 .0263780
894.618 .0263719
895.278 .0263650
895.937 .0263577
896.596 .0263505
897.255 .0263430
897.914 .0263355
898.572 .0263281
899.230 .0263202
899.887 .0263115
900.544 .0263019
901.201 .0262911
901.857 .0262789
902.513 .0262656
903.168 .0262509
903.823 .0262343
904.478 .0262162
905.132 .0261961
905.786 .0261736
906.440 .0261495
907.093 .0261236
907.746 .0260959
908.399 .0260670
909.051 .0260367
909.703 .0260050
910.354 .0259720
911.005 .0259382
911.656 .0259034
912.306 .0258681
912.956 .0258323
913.605 .0257960
914.254 .0257599
914.903 .0257243
915.551 .0256886
916.199 .0256535
916.847 .0256188
917.494 .0255844
918.141 .0255504
918.788 .0255164
919.434 .0254827
920.079 .0254491
920.725 .0254160
921.370 .0253828
922.014 .0253494
922.658 .0253160
923.302 .0252826
923.946 .0252492
924.589 .0252157
925.231 .0251813
925.873 .0251469
926.515 .0251125
927.157 .0250781
927.798 .0250436
928.439 .0250093
929.079 .0249750
929.719 .0249410
930.359 .0249069
930.998 .0248731
931.637 .0248397
932.275 .0248073
932.913 .0247757
933.551 .0247448
934.188 .0247153
934.825 .0246867
935.462 .0246594
936.098 .0246333
936.733 .0246077
937.369 .0245826
938.004 .0245584
938.638 .0245351
939.273 .0245126
939.907 .0244910
940.540 .0244710
941.173 .0244522
941.806 .0244348
942.438 .0244189
943.070 .0244040
943.702 .0243905
944.333 .0243778
944.964 .0243653
945.594 .0243533
946.224 .0243421
946.854 .0243316
947.483 .0243221
948.112 .0243139
948.741 .0243068
949.369 .0243008
949.996 .0242960
950.624 .0242921
951.251 .0242885
951.878 .0242854
952.504 .0242824
953.130 .0242791
953.755 .0242757
954.380 .0242721
955.005 .0242685
955.629 .0242653
956.253 .0242620
956.877 .0242589
957.500 .0242563
958.123 .0242544
958.746 .0242524
959.368 .0242507
959.990 .0242492
960.611 .0242475
961.232 .0242458
961.853 .0242441
962.473 .0242425
963.093 .0242408
963.712 .0242393
964.331 .0242379
964.950 .0242367
965.569 .0242360
966.187 .0242357
966.804 .0242362
967.422 .0242378
968.039 .0242403
968.655 .0242437
969.272 .0242480
969.887 .0242530
970.503 .0242584
971.118 .0242640
971.733 .0242700
972.347 .0242766
972.961 .0242836
973.575 .0242911
974.188 .0242993
974.801 .0243083
975.414 .0243178
976.026 .0243277
976.638 .0243376
977.250 .0243471
977.861 .0243560
978.472 .0243646
979.083 .0243722
979.693 .0243800
980.303 .0243877
980.912 .0243956
981.521 .0244039
982.130 .0244127
982.738 .0244213
983.346 .0244303
983.954 .0244394
984.562 .0244487
985.169 .0244574
985.775 .0244658
986.382 .0244735
986.988 .0244813
987.594 .0244888
988.199 .0244968
988.804 .0245051
989.409 .0245143
990.013 .0245240
990.617 .0245345
991.221 .0245449
991.824 .0245562
992.427 .0245679
993.030 .0245795
993.632 .0245912
994.234 .0246032
994.836 .0246149
995.438 .0246268
996.039 .0246380
996.640 .0246492
997.240 .0246592
997.840 .0246693
998.440 .0246784
999.040 .0246876
999.639 .0246977
1000.238 .0247079
1000.836 .0247186
1001.435 .0247300
1002.033 .0247410
1002.630 .0247515
1003.228 .0247617
1003.825 .0247718
1004.422 .0247813
1005.018 .0247909
1005.614 .0248010
1006.210 .0248119
1006.806 .0248237
1007.401 .0248361
1007.996 .0248487
1008.591 .0248617
1009.186 .0248737
1009.780 .0248840
1010.374 .0248936
1010.967 .0249016
1011.561 .0249085
1012.154 .0249142
1012.746 .0249193
1013.339 .0249240
1013.931 .0249283
1014.523 .0249325
1015.115 .0249359
1015.706 .0249387
1016.298 .0249409
1016.888 .0249427
1017.479 .0249443
1018.069 .0249458
1018.660 .0249468
1019.250 .0249486
1019.839 .0249502
1020.429 .0249518
1021.018 .0249527
1021.607 .0249533
1022.195 .0249540
1022.784 .0249542
1023.372 .0249546
1023.960 .0249559
1024.547 .0249578
1025.135 .0249608
1025.722 .0249638
1026.309 .0249669
1026.896 .0249697
1027.483 .0249727
1028.069 .0249753
1028.655 .0249767
1029.241 .0249772
1029.827 .0249769
1030.412 .0249755
1030.997 .0249736
1031.582 .0249708
1032.167 .0249671
1032.752 .0249642
1033.336 .0249610
1033.921 .0249572
1034.505 .0249539
1035.089 .0249512
1035.672 .0249487
1036.256 .0249456
1036.839 .0249416
1037.422 .0249353
1038.005 .0249277
1038.588 .0249193
1039.171 .0249093
1039.753 .0248990
1040.335 .0248890
1040.918 .0248798
1041.500 .0248707
1042.081 .0248618
1042.663 .0248510
1043.244 .0248392
1043.826 .0248250
1044.407 .0248067
1044.988 .0247843
1045.569 .0247600
1046.150 .0247348
1046.730 .0247101
1047.311 .0246871
1047.891 .0246670
1048.471 .0246491
1049.052 .0246335
1049.632 .0246191
1050.211 .0246058
1050.791 .0245922
1051.371 .0245792
1051.950 .0245661
1052.530 .0245543
1053.109 .0245429
1053.688 .0245322
1054.268 .0245227
1054.847 .0245138
1055.426 .0245044
1056.005 .0244939
1056.583 .0244811
1057.162 .0244667
1057.741 .0244487
1058.319 .0244285
1058.898 .0244064
1059.476 .0243828
1060.055 .0243576
1060.633 .0243322
1061.211 .0243065
1061.790 .0242804
1062.368 .0242539
1062.946 .0242284
1063.524 .0242037
1064.102 .0241803
1064.680 .0241586
1065.258 .0241381
1065.836 .0241195
1066.414 .0241026
1066.992 .0240852
1067.570 .0240682
1068.148 .0240508
1068.726 .0240326
1069.304 .0240141
1069.882 .0239959
1070.460 .0239774
1071.038 .0239603
1071.616 .0239447
1072.194 .0239301
1072.772 .0239151
1073.350 .0239007
1073.928 .0238850
1074.506 .0238682
1075.084 .0238517
1075.662 .0238350
1076.240 .0238201
1076.819 .0238078
1077.397 .0237989
1077.976 .0237936
1078.554 .0237919
1079.133 .0237930
1079.711 .0237958
1080.290 .0238010
1080.869 .0238065
1081.448 .0238112
1082.027 .0238156
1082.606 .0238204
1083.185 .0238261
1083.764 .0238334
1084.343 .0238437
1084.923 .0238552
1085.502 .0238681
1086.082 .0238807
1086.662 .0238929
1087.242 .0239045
1087.822 .0239163
1088.402 .0239294
1088.983 .0239422
1089.563 .0239565
1090.144 .0239701
1090.725 .0239833
1091.306 .0239963
1091.887 .0240073
1092.469 .0240162
1093.050 .0240239
1093.632 .0240305
1094.214 .0240355
1094.796 .0240413
1095.379 .0240487
1095.961 .0240573
1096.544 .0240680
1097.127 .0240795
1097.710 .0240904
1098.294 .0240998
1098.877 .0241085
1099.461 .0241150
1100.046 .0241201
1100.630 .0241244
1101.215 .0241292
1101.800 .0241353
1102.385 .0241434
1102.970 .0241527
1103.556 .0241635
1104.142 .0241777
1104.728 .0241932
1105.315 .0242093
1105.902 .0242249
1106.489 .0242409
1107.077 .0242577
1107.664 .0242755
1108.253 .0242956
1108.841 .0243173
1109.430 .0243413
1110.019 .0243670
1110.609 .0243934
1111.198 .0244186
1111.789 .0244450
1112.379 .0244706
1112.970 .0244956
1113.561 .0245224
1114.153 .0245496
1114.745 .0245788
1115.338 .0246118
1115.931 .0246474
1116.524 .0246852
1117.117 .0247233
1117.712 .0247622
1118.306 .0247977
1118.901 .0248342
1119.496 .0248704
1120.092 .0249070
1120.689 .0249463
1121.285 .0249903
1121.882 .0250347
1122.480 .0250810
1123.078 .0251274
1123.677 .0251724
1124.276 .0252152
1124.875 .0252580
1125.476 .0252983
1126.076 .0253408
1126.677 .0253862
1127.279 .0254369
1127.881 .0254926
1128.484 .0255584
1129.087 .0256268
1129.691 .0257015
1130.295 .0257813
1130.900 .0258663
1131.505 .0259552
1132.111 .0260529
1132.718 .0261584
1133.325 .0262749
1133.933 .0263998
1134.541 .0265332
1135.150 .0266730
1135.760 .0268244
1136.370 .0269798
1136.981 .0271399
1137.592 .0273007
1138.204 .0274617
1138.817 .0276222
1139.431 .0277879
1140.045 .0279535
1140.660 .0281229
1141.275 .0283067
1141.891 .0284805
1142.508 .0287429
1143.126 .0288528
1143.744 .0290198
1144.363 .0295161
1144.983 .0291110
