Measurement Sequence started on: 15-12-46-377
Integration time: 28
Scans to Average: 2 
>>>>>Begin Spectral Data<<<<<
432.689 .0000100
433.621 .0000100
434.552 .0000100
435.482 .0000100
436.410 .0000100
437.337 .0000100
438.262 .0270484
439.187 .0574384
440.110 .0952154
441.031 .1378495
441.952 .1792834
442.871 .2119477
443.789 .2299409
444.705 .2311883
445.621 .2181644
446.535 .1962697
447.447 .1714033
448.359 .1333351
449.269 .1143137
450.178 .1022773
451.086 .0937294
451.993 .0871610
452.898 .0819272
453.803 .0776212
454.706 .0740395
455.608 .0709699
456.508 .0683260
457.408 .0660441
458.306 .0640434
459.204 .0622756
460.100 .0606932
460.995 .0592961
461.888 .0580271
462.781 .0568776
463.673 .0558066
464.563 .0548259
465.452 .0539061
466.340 .0530338
467.228 .0522227
468.114 .0514698
468.999 .0507838
469.882 .0501493
470.765 .0495705
471.647 .0490493
472.528 .0485736
473.407 .0481473
474.286 .0477684
475.163 .0474406
476.040 .0471466
476.915 .0468864
477.790 .0466524
478.663 .0464452
479.535 .0462635
480.407 .0461088
481.277 .0459866
482.147 .0458957
483.015 .0458369
483.883 .0458015
484.749 .0457882
485.615 .0457921
486.479 .0458074
487.343 .0458270
488.206 .0458488
489.067 .0458745
489.928 .0459037
490.788 .0459469
491.647 .0460152
492.505 .0461175
493.362 .0462556
494.218 .0464228
495.073 .0466172
495.928 .0468295
496.781 .0470534
497.634 .0472847
498.486 .0475194
499.337 .0477596
500.187 .0480112
501.036 .0482706
501.884 .0485455
502.731 .0488354
503.578 .0491463
504.424 .0494707
505.268 .0497996
506.113 .0501333
506.956 .0504704
507.798 .0508386
508.640 .0512505
509.480 .0517164
510.320 .0522764
511.160 .0529424
511.998 .0537390
512.836 .0546686
513.672 .0557422
514.508 .0569626
515.344 .0583263
516.178 .0598715
517.012 .0616054
517.845 .0635691
518.677 .0657981
519.508 .0683227
520.339 .0711942
521.169 .0744588
521.998 .0780733
522.826 .0820850
523.654 .0865106
524.481 .0912755
525.307 .0964162
526.133 .1018926
526.958 .1076677
527.782 .1137405
528.605 .1200303
529.428 .1264453
530.250 .1325348
531.072 .1381590
531.892 .1428994
532.712 .1465109
533.532 .1488398
534.350 .1496291
535.168 .1488184
535.986 .1465447
536.802 .1429170
537.618 .1381538
538.434 .1325083
539.249 .1263806
540.063 .1199216
540.876 .1134207
541.689 .1070140
542.501 .1008815
543.313 .0951918
544.124 .0900240
544.934 .0853062
545.744 .0810254
546.553 .0771726
547.361 .0737091
548.169 .0706389
548.976 .0678895
549.783 .0654302
550.589 .0632485
551.395 .0612865
552.200 .0595106
553.004 .0579081
553.808 .0564514
554.611 .0551520
555.414 .0539969
556.216 .0529683
557.018 .0520426
557.819 .0511962
558.619 .0504145
559.419 .0496858
560.218 .0489973
561.017 .0483390
561.815 .0476984
562.613 .0470745
563.410 .0464652
564.207 .0458672
565.003 .0452842
565.799 .0447180
566.594 .0441576
567.388 .0436074
568.182 .0430597
568.976 .0425132
569.769 .0419688
570.562 .0414311
571.354 .0409009
572.145 .0403775
572.936 .0398608
573.727 .0393545
574.517 .0388576
575.307 .0383746
576.096 .0379046
576.885 .0374498
577.673 .0370218
578.461 .0366222
579.248 .0362561
580.035 .0359234
580.821 .0356239
581.607 .0353529
582.392 .0351032
583.177 .0348715
583.962 .0346561
584.746 .0344588
585.529 .0342759
586.313 .0341076
587.095 .0339557
587.878 .0338209
588.660 .0337009
589.441 .0335930
590.222 .0334935
591.003 .0334004
591.783 .0333105
592.563 .0332209
593.342 .0331319
594.121 .0330442
594.899 .0329591
595.678 .0328786
596.455 .0328025
597.233 .0327329
598.009 .0326686
598.786 .0326107
599.562 .0325582
600.338 .0325087
601.113 .0324621
601.888 .0324168
602.663 .0323724
603.437 .0323300
604.211 .0322889
604.984 .0322509
605.757 .0322165
606.530 .0321858
607.302 .0321577
608.074 .0321323
608.845 .0321084
609.616 .0320850
610.387 .0320611
611.158 .0320357
611.928 .0320084
612.697 .0319799
613.467 .0319508
614.236 .0319219
615.004 .0318938
615.773 .0318676
616.541 .0318426
617.308 .0318197
618.076 .0317983
618.843 .0317781
619.609 .0317596
620.375 .0317423
621.141 .0317252
621.907 .0317086
622.672 .0316925
623.437 .0316763
624.202 .0316603
624.966 .0316444
625.730 .0316283
626.493 .0316119
627.257 .0315941
628.020 .0315756
628.782 .0315557
629.545 .0315343
630.307 .0315109
631.068 .0314847
631.830 .0314564
632.591 .0314252
633.352 .0313922
634.112 .0313574
634.872 .0313219
635.632 .0312860
636.392 .0312494
637.151 .0312127
637.910 .0311757
638.668 .0311382
639.427 .0311006
640.185 .0310630
640.943 .0310250
641.700 .0309869
642.457 .0309495
643.214 .0309126
643.971 .0308768
644.727 .0308422
645.483 .0308086
646.239 .0307762
646.994 .0307450
647.750 .0307142
648.505 .0306844
649.259 .0306568
650.014 .0306313
650.768 .0306078
651.521 .0305865
652.275 .0305669
653.028 .0305488
653.781 .0305316
654.534 .0305144
655.286 .0304964
656.039 .0304782
656.791 .0304591
657.542 .0304390
658.294 .0304200
659.045 .0304022
659.796 .0303856
660.546 .0303714
661.297 .0303579
662.047 .0303444
662.796 .0303299
663.546 .0303147
664.295 .0302977
665.044 .0302791
665.793 .0302595
666.542 .0302392
667.290 .0302197
668.038 .0302017
668.786 .0301845
669.533 .0301687
670.281 .0301541
671.028 .0301392
671.774 .0301233
672.521 .0301069
673.267 .0300899
674.013 .0300734
674.759 .0300574
675.505 .0300427
676.250 .0300290
676.995 .0300169
677.740 .0300062
678.484 .0299962
679.229 .0299869
679.973 .0299773
680.717 .0299669
681.460 .0299559
682.204 .0299439
682.947 .0299314
683.690 .0299183
684.433 .0299051
685.175 .0298913
685.917 .0298765
686.659 .0298605
687.401 .0298437
688.142 .0298259
688.884 .0298072
689.625 .0297873
690.365 .0297665
691.106 .0297447
691.846 .0297225
692.586 .0296996
693.326 .0296759
694.066 .0296518
694.805 .0296270
695.545 .0296009
696.284 .0295739
697.022 .0295459
697.761 .0295169
698.499 .0294875
699.237 .0294580
699.975 .0294280
700.713 .0293983
701.450 .0293691
702.187 .0293404
702.924 .0293122
703.661 .0292849
704.397 .0292577
705.133 .0292309
705.869 .0292051
706.605 .0291797
707.341 .0291548
708.076 .0291308
708.811 .0291072
709.546 .0290839
710.281 .0290608
711.015 .0290371
711.749 .0290126
712.483 .0289876
713.217 .0289624
713.950 .0289363
714.684 .0289102
715.417 .0288845
716.150 .0288593
716.882 .0288350
717.615 .0288114
718.347 .0287884
719.079 .0287661
719.811 .0287442
720.542 .0287223
721.273 .0287005
722.005 .0286791
722.735 .0286583
723.466 .0286384
724.196 .0286200
724.927 .0286027
725.656 .0285863
726.386 .0285716
727.116 .0285577
727.845 .0285444
728.574 .0285316
729.303 .0285192
730.031 .0285078
730.760 .0284968
731.488 .0284864
732.216 .0284772
732.944 .0284695
733.671 .0284634
734.398 .0284580
735.125 .0284542
735.852 .0284516
736.579 .0284498
737.305 .0284489
738.031 .0284486
738.757 .0284488
739.483 .0284493
740.208 .0284498
740.933 .0284503
741.658 .0284509
742.383 .0284513
743.108 .0284513
743.832 .0284513
744.556 .0284510
745.280 .0284502
746.004 .0284487
746.727 .0284467
747.450 .0284439
748.173 .0284400
748.896 .0284355
749.618 .0284302
750.340 .0284248
751.062 .0284194
751.784 .0284140
752.506 .0284090
753.227 .0284044
753.948 .0283997
754.669 .0283948
755.389 .0283894
756.110 .0283834
756.830 .0283765
757.550 .0283695
758.269 .0283622
758.989 .0283546
759.708 .0283466
760.427 .0283383
761.146 .0283288
761.864 .0283183
762.582 .0283056
763.300 .0282910
764.018 .0282748
764.736 .0282572
765.453 .0282379
766.170 .0282183
766.887 .0281983
767.603 .0281782
768.320 .0281583
769.036 .0281388
769.751 .0281190
770.467 .0280995
771.182 .0280796
771.897 .0280592
772.612 .0280385
773.327 .0280175
774.041 .0279959
774.755 .0279741
775.469 .0279521
776.183 .0279299
776.896 .0279076
777.609 .0278856
778.322 .0278638
779.035 .0278420
779.747 .0278207
780.459 .0277997
781.171 .0277792
781.882 .0277588
782.594 .0277389
783.305 .0277199
784.016 .0277021
784.726 .0276857
785.436 .0276708
786.147 .0276573
786.856 .0276456
787.566 .0276349
788.275 .0276247
788.984 .0276148
789.693 .0276044
790.401 .0275930
791.110 .0275804
791.818 .0275666
792.525 .0275514
793.233 .0275352
793.940 .0275182
794.647 .0275001
795.353 .0274808
796.060 .0274604
796.766 .0274384
797.472 .0274149
798.177 .0273900
798.883 .0273639
799.588 .0273372
800.292 .0273109
800.997 .0272851
801.701 .0272605
802.405 .0272378
803.109 .0272173
803.812 .0271990
804.515 .0271826
805.218 .0271675
805.921 .0271536
806.623 .0271402
807.325 .0271276
808.027 .0271154
808.728 .0271035
809.429 .0270921
810.130 .0270808
810.831 .0270699
811.531 .0270588
812.231 .0270472
812.931 .0270353
813.630 .0270227
814.330 .0270090
815.029 .0269944
815.727 .0269791
816.426 .0269639
817.124 .0269486
817.821 .0269338
818.519 .0269201
819.216 .0269078
819.913 .0268970
820.609 .0268881
821.306 .0268813
822.002 .0268771
822.697 .0268750
823.393 .0268756
824.088 .0268785
824.783 .0268834
825.477 .0268903
826.171 .0268987
826.865 .0269083
827.559 .0269185
828.252 .0269291
828.945 .0269403
829.638 .0269520
830.330 .0269644
831.023 .0269773
831.714 .0269910
832.406 .0270052
833.097 .0270193
833.788 .0270325
834.479 .0270451
835.169 .0270565
835.859 .0270666
836.548 .0270752
837.238 .0270827
837.927 .0270891
838.615 .0270951
839.304 .0271011
839.992 .0271067
840.680 .0271122
841.367 .0271177
842.054 .0271229
842.741 .0271280
843.428 .0271329
844.114 .0271376
844.800 .0271420
845.485 .0271466
846.170 .0271502
846.855 .0271534
847.540 .0271563
848.224 .0271588
848.908 .0271607
849.592 .0271618
850.275 .0271617
850.958 .0271599
851.641 .0271572
852.323 .0271528
853.005 .0271464
853.687 .0271382
854.368 .0271277
855.049 .0271151
855.730 .0271007
856.410 .0270849
857.090 .0270678
857.769 .0270500
858.449 .0270317
859.128 .0270126
859.806 .0269933
860.485 .0269738
861.163 .0269545
861.840 .0269355
862.518 .0269170
863.195 .0268983
863.871 .0268799
864.548 .0268619
865.224 .0268440
865.899 .0268261
866.574 .0268084
867.249 .0267906
867.924 .0267728
868.598 .0267551
869.272 .0267378
869.946 .0267205
870.619 .0267035
871.292 .0266863
871.964 .0266689
872.636 .0266507
873.308 .0266320
873.979 .0266126
874.651 .0265919
875.321 .0265706
875.992 .0265487
876.662 .0265260
877.331 .0265029
878.001 .0264798
878.670 .0264566
879.338 .0264338
880.007 .0264113
880.675 .0263890
881.342 .0263668
882.009 .0263448
882.676 .0263224
883.343 .0262998
884.009 .0262774
884.675 .0262549
885.340 .0262326
886.005 .0262114
886.670 .0261910
887.334 .0261717
887.998 .0261531
888.662 .0261355
889.325 .0261184
889.988 .0261017
890.650 .0260854
891.312 .0260694
891.974 .0260538
892.636 .0260391
893.297 .0260251
893.957 .0260123
894.618 .0260003
895.278 .0259887
895.937 .0259770
896.596 .0259655
897.255 .0259531
897.914 .0259401
898.572 .0259266
899.230 .0259130
899.887 .0258990
900.544 .0258851
901.201 .0258709
901.857 .0258567
902.513 .0258419
903.168 .0258258
903.823 .0258079
904.478 .0257880
905.132 .0257658
905.786 .0257416
906.440 .0257158
907.093 .0256895
907.746 .0256627
908.399 .0256363
909.051 .0256104
909.703 .0255850
910.354 .0255602
911.005 .0255361
911.656 .0255121
912.306 .0254884
912.956 .0254646
913.605 .0254410
914.254 .0254179
914.903 .0253959
915.551 .0253751
916.199 .0253557
916.847 .0253381
917.494 .0253220
918.141 .0253072
918.788 .0252939
919.434 .0252819
920.079 .0252703
920.725 .0252595
921.370 .0252488
922.014 .0252383
922.658 .0252280
923.302 .0252180
923.946 .0252077
924.589 .0251973
925.231 .0251862
925.873 .0251748
926.515 .0251629
927.157 .0251513
927.798 .0251396
928.439 .0251285
929.079 .0251177
929.719 .0251070
930.359 .0250962
930.998 .0250860
931.637 .0250757
932.275 .0250653
932.913 .0250549
933.551 .0250450
934.188 .0250359
934.825 .0250278
935.462 .0250212
936.098 .0250163
936.733 .0250137
937.369 .0250128
938.004 .0250136
938.638 .0250160
939.273 .0250198
939.907 .0250245
940.540 .0250306
941.173 .0250379
941.806 .0250467
942.438 .0250568
943.070 .0250684
943.702 .0250809
944.333 .0250939
944.964 .0251067
945.594 .0251189
946.224 .0251304
946.854 .0251410
947.483 .0251506
948.112 .0251606
948.741 .0251709
949.369 .0251816
949.996 .0251928
950.624 .0252044
951.251 .0252159
951.878 .0252268
952.504 .0252366
953.130 .0252452
953.755 .0252527
954.380 .0252597
955.005 .0252660
955.629 .0252728
956.253 .0252803
956.877 .0252888
957.500 .0252984
958.123 .0253089
958.746 .0253195
959.368 .0253298
959.990 .0253398
960.611 .0253490
961.232 .0253572
961.853 .0253653
962.473 .0253734
963.093 .0253818
963.712 .0253905
964.331 .0253997
964.950 .0254092
965.569 .0254190
966.187 .0254285
966.804 .0254379
967.422 .0254467
968.039 .0254548
968.655 .0254619
969.272 .0254679
969.887 .0254731
970.503 .0254775
971.118 .0254813
971.733 .0254849
972.347 .0254880
972.961 .0254906
973.575 .0254923
974.188 .0254934
974.801 .0254935
975.414 .0254919
976.026 .0254887
976.638 .0254841
977.250 .0254782
977.861 .0254717
978.472 .0254649
979.083 .0254579
979.693 .0254509
980.303 .0254435
980.912 .0254350
981.521 .0254257
982.130 .0254152
982.738 .0254039
983.346 .0253918
983.954 .0253794
984.562 .0253667
985.169 .0253538
985.775 .0253412
986.382 .0253286
986.988 .0253158
987.594 .0253025
988.199 .0252886
988.804 .0252742
989.409 .0252593
990.013 .0252448
990.617 .0252302
991.221 .0252163
991.824 .0252029
992.427 .0251904
993.030 .0251782
993.632 .0251668
994.234 .0251559
994.836 .0251455
995.438 .0251357
996.039 .0251261
996.640 .0251165
997.240 .0251071
997.840 .0250974
998.440 .0250872
999.040 .0250761
999.639 .0250646
1000.238 .0250523
1000.836 .0250393
1001.435 .0250253
1002.033 .0250106
1002.630 .0249941
1003.228 .0249766
1003.825 .0249580
1004.422 .0249386
1005.018 .0249187
1005.614 .0248989
1006.210 .0248802
1006.806 .0248623
1007.401 .0248456
1007.996 .0248300
1008.591 .0248152
1009.186 .0248021
1009.780 .0247894
1010.374 .0247774
1010.967 .0247660
1011.561 .0247548
1012.154 .0247437
1012.746 .0247333
1013.339 .0247221
1013.931 .0247100
1014.523 .0246970
1015.115 .0246831
1015.706 .0246681
1016.298 .0246526
1016.888 .0246371
1017.479 .0246222
1018.069 .0246082
1018.660 .0245947
1019.250 .0245809
1019.839 .0245678
1020.429 .0245541
1021.018 .0245395
1021.607 .0245250
1022.195 .0245099
1022.784 .0244948
1023.372 .0244809
1023.960 .0244681
1024.547 .0244568
1025.135 .0244468
1025.722 .0244375
1026.309 .0244280
1026.896 .0244186
1027.483 .0244080
1028.069 .0243961
1028.655 .0243845
1029.241 .0243732
1029.827 .0243618
1030.412 .0243515
1030.997 .0243423
1031.582 .0243345
1032.167 .0243280
1032.752 .0243227
1033.336 .0243182
1033.921 .0243154
1034.505 .0243133
1035.089 .0243112
1035.672 .0243094
1036.256 .0243079
1036.839 .0243059
1037.422 .0243036
1038.005 .0243011
1038.588 .0242981
1039.171 .0242945
1039.753 .0242904
1040.335 .0242854
1040.918 .0242799
1041.500 .0242732
1042.081 .0242650
1042.663 .0242546
1043.244 .0242430
1043.826 .0242290
1044.407 .0242129
1044.988 .0241962
1045.569 .0241786
1046.150 .0241609
1046.730 .0241444
1047.311 .0241297
1047.891 .0241172
1048.471 .0241061
1049.052 .0240967
1049.632 .0240869
1050.211 .0240783
1050.791 .0240695
1051.371 .0240599
1051.950 .0240512
1052.530 .0240435
1053.109 .0240361
1053.688 .0240301
1054.268 .0240249
1054.847 .0240206
1055.426 .0240168
1056.005 .0240129
1056.583 .0240080
1057.162 .0240027
1057.741 .0239968
1058.319 .0239914
1058.898 .0239864
1059.476 .0239834
1060.055 .0239806
1060.633 .0239791
1061.211 .0239787
1061.790 .0239788
1062.368 .0239807
1062.946 .0239840
1063.524 .0239893
1064.102 .0239980
1064.680 .0240092
1065.258 .0240234
1065.836 .0240395
1066.414 .0240569
1066.992 .0240732
1067.570 .0240879
1068.148 .0240994
1068.726 .0241083
1069.304 .0241155
1069.882 .0241224
1070.460 .0241293
1071.038 .0241378
1071.616 .0241488
1072.194 .0241607
1072.772 .0241729
1073.350 .0241845
1073.928 .0241935
1074.506 .0242010
1075.084 .0242051
1075.662 .0242067
1076.240 .0242083
1076.819 .0242108
1077.397 .0242147
1077.976 .0242208
1078.554 .0242304
1079.133 .0242418
1079.711 .0242536
1080.290 .0242658
1080.869 .0242768
1081.448 .0242869
1082.027 .0242960
1082.606 .0243043
1083.185 .0243150
1083.764 .0243288
1084.343 .0243454
1084.923 .0243652
1085.502 .0243884
1086.082 .0244132
1086.662 .0244377
1087.242 .0244619
1087.822 .0244861
1088.402 .0245100
1088.983 .0245336
1089.563 .0245571
1090.144 .0245823
1090.725 .0246094
1091.306 .0246362
1091.887 .0246653
1092.469 .0246951
1093.050 .0247239
1093.632 .0247518
1094.214 .0247782
1094.796 .0248051
1095.379 .0248318
1095.961 .0248576
1096.544 .0248850
1097.127 .0249134
1097.710 .0249424
1098.294 .0249699
1098.877 .0249986
1099.461 .0250284
1100.046 .0250581
1100.630 .0250870
1101.215 .0251166
1101.800 .0251448
1102.385 .0251740
1102.970 .0252034
1103.556 .0252347
1104.142 .0252689
1104.728 .0253056
1105.315 .0253453
1105.902 .0253892
1106.489 .0254358
1107.077 .0254849
1107.664 .0255369
1108.253 .0255928
1108.841 .0256489
1109.430 .0257051
1110.019 .0257615
1110.609 .0258186
1111.198 .0258757
1111.789 .0259348
1112.379 .0259952
1112.970 .0260570
1113.561 .0261184
1114.153 .0261781
1114.745 .0262361
1115.338 .0262911
1115.931 .0263413
1116.524 .0263872
1117.117 .0264320
1117.712 .0264758
1118.306 .0265198
1118.901 .0265685
1119.496 .0266227
1120.092 .0266819
1120.689 .0267454
1121.285 .0268112
1121.882 .0268771
1122.480 .0269400
1123.078 .0269995
1123.677 .0270534
1124.276 .0271053
1124.875 .0271550
1125.476 .0272066
1126.076 .0272652
1126.677 .0273333
1127.279 .0274067
1127.881 .0274894
1128.484 .0275797
1129.087 .0276704
1129.691 .0277633
1130.295 .0278565
1130.900 .0279488
1131.505 .0280468
1132.111 .0281531
1132.718 .0282686
1133.325 .0283948
1133.933 .0285357
1134.541 .0286825
1135.150 .0288338
1135.760 .0289875
1136.370 .0291339
1136.981 .0292745
1137.592 .0294109
1138.204 .0295370
1138.817 .0296584
1139.431 .0297797
1140.045 .0298898
1140.660 .0299938
1141.275 .0300931
1141.891 .0301784
1142.508 .0304499
1143.126 .0302155
1143.744 .0303623
1144.363 .0304917
1144.983 .0304055
