Measurement Sequence started on: 15-12-46-377
Integration time: 28
Scans to Average: 2 
>>>>>Begin Spectral Data<<<<<
432.689 .0000100
433.621 .0000100
434.552 .0000100
435.482 .0000100
436.410 .0000100
437.337 .0000100
438.262 .0273595
439.187 .0579332
440.110 .0960193
441.031 .1389621
441.952 .1806829
442.871 .2135919
443.789 .2316938
444.705 .2329671
445.621 .2199139
446.535 .1980065
447.447 .1731804
448.359 .1350680
449.269 .1163304
450.178 .1045010
451.086 .0962024
451.993 .0898369
452.898 .0847485
453.803 .0805656
454.706 .0770613
455.608 .0740542
456.508 .0714450
457.408 .0691868
458.306 .0671959
459.204 .0654344
460.100 .0638427
460.995 .0623830
461.888 .0610359
462.781 .0597841
463.673 .0586125
464.563 .0575214
465.452 .0565005
466.340 .0555437
467.228 .0546552
468.114 .0538203
468.999 .0530488
469.882 .0523284
470.765 .0516633
471.647 .0510507
472.528 .0504844
473.407 .0499688
474.286 .0494987
475.163 .0490791
476.040 .0487048
476.915 .0483741
477.790 .0480810
478.663 .0478267
479.535 .0476043
480.407 .0474107
481.277 .0472393
482.147 .0470915
483.015 .0469673
483.883 .0468651
484.749 .0467880
485.615 .0467304
486.479 .0466918
487.343 .0466740
488.206 .0466700
489.067 .0466805
489.928 .0466969
490.788 .0467294
491.647 .0467737
492.505 .0468306
493.362 .0468969
494.218 .0469786
495.073 .0470778
495.928 .0471978
496.781 .0473249
497.634 .0474715
498.486 .0476288
499.337 .0478077
500.187 .0480004
501.036 .0482198
501.884 .0484609
502.731 .0487245
503.578 .0490120
504.424 .0493249
505.268 .0496514
506.113 .0500088
506.956 .0503930
507.798 .0508211
508.640 .0512934
509.480 .0518277
510.320 .0524358
511.160 .0531447
511.998 .0539476
512.836 .0548592
513.672 .0558653
514.508 .0569913
515.344 .0582131
516.178 .0595807
517.012 .0611107
517.845 .0628285
518.677 .0647800
519.508 .0669828
520.339 .0694642
521.169 .0723152
521.998 .0755344
522.826 .0791899
523.654 .0832906
524.481 .0878581
525.307 .0929153
526.133 .0984696
526.958 .1044354
527.782 .1107747
528.605 .1173429
529.428 .1240805
530.250 .1304979
531.072 .1364162
531.892 .1414946
532.712 .1454541
533.532 .1481202
534.350 .1492528
535.168 .1487249
535.986 .1466756
536.802 .1431687
537.618 .1384441
538.434 .1326890
539.249 .1263817
540.063 .1196879
540.876 .1129455
541.689 .1063539
542.501 .1001173
543.313 .0943738
544.124 .0892211
544.934 .0845557
545.744 .0803695
546.553 .0766218
547.361 .0732662
548.169 .0702703
548.976 .0676017
549.783 .0651925
550.589 .0630522
551.395 .0611050
552.200 .0593655
553.004 .0577900
553.808 .0563641
554.611 .0550684
555.414 .0539054
556.216 .0528511
557.018 .0519071
557.819 .0510452
558.619 .0502470
559.419 .0494929
560.218 .0487761
561.017 .0480873
561.815 .0474159
562.613 .0467582
563.410 .0461128
564.207 .0454816
565.003 .0448792
565.799 .0442900
566.594 .0437138
567.388 .0431651
568.182 .0426325
568.976 .0421104
569.769 .0416007
570.562 .0411036
571.354 .0406137
572.145 .0401396
572.936 .0396769
573.727 .0392301
574.517 .0388039
575.307 .0383979
576.096 .0380070
576.885 .0376366
577.673 .0372847
578.461 .0369525
579.248 .0366399
580.035 .0363501
580.821 .0360779
581.607 .0358222
582.392 .0355825
583.177 .0353545
583.962 .0351397
584.746 .0349377
585.529 .0347475
586.313 .0345708
587.095 .0344053
587.878 .0342525
588.660 .0341126
589.441 .0339837
590.222 .0338660
591.003 .0337561
591.783 .0336530
592.563 .0335553
593.342 .0334626
594.121 .0333734
594.899 .0332906
595.678 .0332132
596.455 .0331416
597.233 .0330756
598.009 .0330149
598.786 .0329588
599.562 .0329073
600.338 .0328594
601.113 .0328137
601.888 .0327704
602.663 .0327302
603.437 .0326916
604.211 .0326565
604.984 .0326245
605.757 .0325954
606.530 .0325694
607.302 .0325454
608.074 .0325226
608.845 .0325018
609.616 .0324823
610.387 .0324634
611.158 .0324449
611.928 .0324264
612.697 .0324074
613.467 .0323880
614.236 .0323685
615.004 .0323481
615.773 .0323272
616.541 .0323061
617.308 .0322838
618.076 .0322600
618.843 .0322353
619.609 .0322090
620.375 .0321818
621.141 .0321531
621.907 .0321232
622.672 .0320927
623.437 .0320619
624.202 .0320317
624.966 .0320023
625.730 .0319744
626.493 .0319481
627.257 .0319225
628.020 .0318983
628.782 .0318748
629.545 .0318518
630.307 .0318294
631.068 .0318080
631.830 .0317872
632.591 .0317670
633.352 .0317473
634.112 .0317278
634.872 .0317084
635.632 .0316891
636.392 .0316689
637.151 .0316482
637.910 .0316271
638.668 .0316047
639.427 .0315816
640.185 .0315586
640.943 .0315348
641.700 .0315102
642.457 .0314857
643.214 .0314600
643.971 .0314329
644.727 .0314047
645.483 .0313746
646.239 .0313424
646.994 .0313096
647.750 .0312754
648.505 .0312406
649.259 .0312062
650.014 .0311721
650.768 .0311382
651.521 .0311053
652.275 .0310721
653.028 .0310391
653.781 .0310068
654.534 .0309749
655.286 .0309425
656.039 .0309114
656.791 .0308821
657.542 .0308543
658.294 .0308290
659.045 .0308064
659.796 .0307860
660.546 .0307684
661.297 .0307522
662.047 .0307373
662.796 .0307233
663.546 .0307104
664.295 .0306977
665.044 .0306856
665.793 .0306749
666.542 .0306648
667.290 .0306560
668.038 .0306489
668.786 .0306416
669.533 .0306341
670.281 .0306264
671.028 .0306179
671.774 .0306080
672.521 .0305975
673.267 .0305858
674.013 .0305734
674.759 .0305611
675.505 .0305481
676.250 .0305342
676.995 .0305205
677.740 .0305064
678.484 .0304915
679.229 .0304769
679.973 .0304623
680.717 .0304472
681.460 .0304330
682.204 .0304190
682.947 .0304047
683.690 .0303908
684.433 .0303776
685.175 .0303639
685.917 .0303503
686.659 .0303370
687.401 .0303232
688.142 .0303106
688.884 .0302990
689.625 .0302876
690.365 .0302766
691.106 .0302655
691.846 .0302536
692.586 .0302403
693.326 .0302259
694.066 .0302106
694.805 .0301942
695.545 .0301773
696.284 .0301594
697.022 .0301412
697.761 .0301234
698.499 .0301056
699.237 .0300871
699.975 .0300681
700.713 .0300477
701.450 .0300260
702.187 .0300032
702.924 .0299799
703.661 .0299562
704.397 .0299321
705.133 .0299078
705.869 .0298835
706.605 .0298591
707.341 .0298347
708.076 .0298100
708.811 .0297855
709.546 .0297607
710.281 .0297351
711.015 .0297091
711.749 .0296834
712.483 .0296579
713.217 .0296320
713.950 .0296059
714.684 .0295794
715.417 .0295523
716.150 .0295247
716.882 .0294971
717.615 .0294700
718.347 .0294436
719.079 .0294179
719.811 .0293931
720.542 .0293700
721.273 .0293482
722.005 .0293268
722.735 .0293060
723.466 .0292851
724.196 .0292630
724.927 .0292392
725.656 .0292142
726.386 .0291883
727.116 .0291618
727.845 .0291352
728.574 .0291087
729.303 .0290831
730.031 .0290592
730.760 .0290368
731.488 .0290159
732.216 .0289968
732.944 .0289790
733.671 .0289623
734.398 .0289471
735.125 .0289331
735.852 .0289205
736.579 .0289098
737.305 .0289011
738.031 .0288946
738.757 .0288902
739.483 .0288874
740.208 .0288856
740.933 .0288850
741.658 .0288841
742.383 .0288821
743.108 .0288784
743.832 .0288735
744.556 .0288669
745.280 .0288589
746.004 .0288494
746.727 .0288390
747.450 .0288289
748.173 .0288188
748.896 .0288088
749.618 .0287999
750.340 .0287923
751.062 .0287860
751.784 .0287811
752.506 .0287781
753.227 .0287764
753.948 .0287762
754.669 .0287772
755.389 .0287789
756.110 .0287812
756.830 .0287839
757.550 .0287865
758.269 .0287892
758.989 .0287917
759.708 .0287930
760.427 .0287936
761.146 .0287939
761.864 .0287935
762.582 .0287921
763.300 .0287901
764.018 .0287875
764.736 .0287841
765.453 .0287799
766.170 .0287750
766.887 .0287694
767.603 .0287635
768.320 .0287566
769.036 .0287491
769.751 .0287416
770.467 .0287342
771.182 .0287271
771.897 .0287204
772.612 .0287142
773.327 .0287082
774.041 .0287020
774.755 .0286956
775.469 .0286884
776.183 .0286804
776.896 .0286711
777.609 .0286604
778.322 .0286484
779.035 .0286352
779.747 .0286210
780.459 .0286062
781.171 .0285913
781.882 .0285759
782.594 .0285603
783.305 .0285447
784.016 .0285290
784.726 .0285132
785.436 .0284971
786.147 .0284802
786.856 .0284625
787.566 .0284440
788.275 .0284244
788.984 .0284042
789.693 .0283835
790.401 .0283626
791.110 .0283415
791.818 .0283205
792.525 .0282995
793.233 .0282778
793.940 .0282556
794.647 .0282321
795.353 .0282069
796.060 .0281803
796.766 .0281520
797.472 .0281228
798.177 .0280931
798.883 .0280636
799.588 .0280349
800.292 .0280074
800.997 .0279815
801.701 .0279566
802.405 .0279325
803.109 .0279085
803.812 .0278841
804.515 .0278589
805.218 .0278330
805.921 .0278060
806.623 .0277785
807.325 .0277512
808.027 .0277244
808.728 .0276983
809.429 .0276729
810.130 .0276480
810.831 .0276236
811.531 .0275986
812.231 .0275726
812.931 .0275452
813.630 .0275168
814.330 .0274876
815.029 .0274580
815.727 .0274284
816.426 .0274001
817.124 .0273735
817.821 .0273486
818.519 .0273261
819.216 .0273059
819.913 .0272879
820.609 .0272717
821.306 .0272572
822.002 .0272443
822.697 .0272332
823.393 .0272236
824.088 .0272158
824.783 .0272097
825.477 .0272048
826.171 .0272009
826.865 .0271982
827.559 .0271961
828.252 .0271946
828.945 .0271932
829.638 .0271916
830.330 .0271897
831.023 .0271877
831.714 .0271850
832.406 .0271819
833.097 .0271781
833.788 .0271731
834.479 .0271667
835.169 .0271598
835.859 .0271522
836.548 .0271444
837.238 .0271373
837.927 .0271310
838.615 .0271261
839.304 .0271235
839.992 .0271228
840.680 .0271241
841.367 .0271275
842.054 .0271326
842.741 .0271384
843.428 .0271451
844.114 .0271528
844.800 .0271611
845.485 .0271703
846.170 .0271803
846.855 .0271907
847.540 .0272020
848.224 .0272145
848.908 .0272274
849.592 .0272406
850.275 .0272542
850.958 .0272673
851.641 .0272795
852.323 .0272908
853.005 .0273010
853.687 .0273098
854.368 .0273178
855.049 .0273252
855.730 .0273318
856.410 .0273385
857.090 .0273451
857.769 .0273517
858.449 .0273581
859.128 .0273641
859.806 .0273692
860.485 .0273737
861.163 .0273782
861.840 .0273821
862.518 .0273859
863.195 .0273903
863.871 .0273948
864.548 .0273994
865.224 .0274043
865.899 .0274093
866.574 .0274141
867.249 .0274189
867.924 .0274231
868.598 .0274271
869.272 .0274308
869.946 .0274340
870.619 .0274364
871.292 .0274380
871.964 .0274381
872.636 .0274368
873.308 .0274342
873.979 .0274300
874.651 .0274242
875.321 .0274173
875.992 .0274092
876.662 .0274001
877.331 .0273898
878.001 .0273781
878.670 .0273650
879.338 .0273502
880.007 .0273335
880.675 .0273150
881.342 .0272955
882.009 .0272751
882.676 .0272538
883.343 .0272319
884.009 .0272094
884.675 .0271863
885.340 .0271624
886.005 .0271378
886.670 .0271129
887.334 .0270877
887.998 .0270627
888.662 .0270377
889.325 .0270130
889.988 .0269888
890.650 .0269649
891.312 .0269411
891.974 .0269172
892.636 .0268932
893.297 .0268689
893.957 .0268443
894.618 .0268195
895.278 .0267946
895.937 .0267693
896.596 .0267441
897.255 .0267184
897.914 .0266923
898.572 .0266653
899.230 .0266375
899.887 .0266087
900.544 .0265785
901.201 .0265468
901.857 .0265140
902.513 .0264803
903.168 .0264465
903.823 .0264124
904.478 .0263787
905.132 .0263452
905.786 .0263127
906.440 .0262803
907.093 .0262481
907.746 .0262157
908.399 .0261832
909.051 .0261504
909.703 .0261175
910.354 .0260840
911.005 .0260510
911.656 .0260182
912.306 .0259862
912.956 .0259543
913.605 .0259234
914.254 .0258931
914.903 .0258637
915.551 .0258349
916.199 .0258075
916.847 .0257806
917.494 .0257546
918.141 .0257295
918.788 .0257051
919.434 .0256815
920.079 .0256583
920.725 .0256354
921.370 .0256131
922.014 .0255910
922.658 .0255696
923.302 .0255485
923.946 .0255283
924.589 .0255084
925.231 .0254881
925.873 .0254676
926.515 .0254466
927.157 .0254248
927.798 .0254019
928.439 .0253780
929.079 .0253530
929.719 .0253266
930.359 .0252995
930.998 .0252719
931.637 .0252443
932.275 .0252171
932.913 .0251910
933.551 .0251658
934.188 .0251422
934.825 .0251202
935.462 .0250997
936.098 .0250809
936.733 .0250637
937.369 .0250482
938.004 .0250341
938.638 .0250217
939.273 .0250112
939.907 .0250027
940.540 .0249964
941.173 .0249920
941.806 .0249895
942.438 .0249883
943.070 .0249884
943.702 .0249889
944.333 .0249897
944.964 .0249904
945.594 .0249909
946.224 .0249907
946.854 .0249903
947.483 .0249899
948.112 .0249897
948.741 .0249897
949.369 .0249903
949.996 .0249910
950.624 .0249920
951.251 .0249933
951.878 .0249949
952.504 .0249971
953.130 .0250000
953.755 .0250040
954.380 .0250093
955.005 .0250157
955.629 .0250229
956.253 .0250308
956.877 .0250396
957.500 .0250491
958.123 .0250586
958.746 .0250683
959.368 .0250783
959.990 .0250891
960.611 .0251004
961.232 .0251126
961.853 .0251259
962.473 .0251402
963.093 .0251549
963.712 .0251697
964.331 .0251841
964.950 .0251982
965.569 .0252121
966.187 .0252264
966.804 .0252408
967.422 .0252560
968.039 .0252719
968.655 .0252888
969.272 .0253063
969.887 .0253239
970.503 .0253413
971.118 .0253585
971.733 .0253755
972.347 .0253921
972.961 .0254084
973.575 .0254251
974.188 .0254420
974.801 .0254585
975.414 .0254744
976.026 .0254893
976.638 .0255033
977.250 .0255160
977.861 .0255279
978.472 .0255391
979.083 .0255500
979.693 .0255598
980.303 .0255689
980.912 .0255772
981.521 .0255846
982.130 .0255907
982.738 .0255959
983.346 .0256006
983.954 .0256048
984.562 .0256085
985.169 .0256121
985.775 .0256159
986.382 .0256203
986.988 .0256246
987.594 .0256292
988.199 .0256339
988.804 .0256389
989.409 .0256440
990.013 .0256491
990.617 .0256546
991.221 .0256604
991.824 .0256670
992.427 .0256746
993.030 .0256831
993.632 .0256924
994.234 .0257029
994.836 .0257139
995.438 .0257253
996.039 .0257361
996.640 .0257462
997.240 .0257556
997.840 .0257642
998.440 .0257716
999.040 .0257781
999.639 .0257841
1000.238 .0257891
1000.836 .0257925
1001.435 .0257947
1002.033 .0257951
1002.630 .0257936
1003.228 .0257901
1003.825 .0257847
1004.422 .0257780
1005.018 .0257701
1005.614 .0257618
1006.210 .0257535
1006.806 .0257454
1007.401 .0257370
1007.996 .0257281
1008.591 .0257191
1009.186 .0257093
1009.780 .0256990
1010.374 .0256888
1010.967 .0256786
1011.561 .0256689
1012.154 .0256586
1012.746 .0256476
1013.339 .0256356
1013.931 .0256231
1014.523 .0256090
1015.115 .0255939
1015.706 .0255776
1016.298 .0255606
1016.888 .0255435
1017.479 .0255268
1018.069 .0255105
1018.660 .0254945
1019.250 .0254785
1019.839 .0254624
1020.429 .0254460
1021.018 .0254300
1021.607 .0254142
1022.195 .0253994
1022.784 .0253850
1023.372 .0253712
1023.960 .0253577
1024.547 .0253444
1025.135 .0253317
1025.722 .0253190
1026.309 .0253066
1026.896 .0252939
1027.483 .0252815
1028.069 .0252690
1028.655 .0252565
1029.241 .0252440
1029.827 .0252308
1030.412 .0252166
1030.997 .0252019
1031.582 .0251860
1032.167 .0251699
1032.752 .0251536
1033.336 .0251378
1033.921 .0251216
1034.505 .0251052
1035.089 .0250873
1035.672 .0250677
1036.256 .0250457
1036.839 .0250217
1037.422 .0249952
1038.005 .0249674
1038.588 .0249391
1039.171 .0249111
1039.753 .0248841
1040.335 .0248586
1040.918 .0248336
1041.500 .0248094
1042.081 .0247850
1042.663 .0247608
1043.244 .0247365
1043.826 .0247124
1044.407 .0246884
1044.988 .0246656
1045.569 .0246446
1046.150 .0246253
1046.730 .0246077
1047.311 .0245920
1047.891 .0245779
1048.471 .0245639
1049.052 .0245497
1049.632 .0245351
1050.211 .0245201
1050.791 .0245046
1051.371 .0244888
1051.950 .0244738
1052.530 .0244600
1053.109 .0244478
1053.688 .0244365
1054.268 .0244260
1054.847 .0244169
1055.426 .0244069
1056.005 .0243963
1056.583 .0243853
1057.162 .0243737
1057.741 .0243611
1058.319 .0243486
1058.898 .0243365
1059.476 .0243248
1060.055 .0243146
1060.633 .0243047
1061.211 .0242936
1061.790 .0242822
1062.368 .0242697
1062.946 .0242547
1063.524 .0242397
1064.102 .0242249
1064.680 .0242101
1065.258 .0241974
1065.836 .0241873
1066.414 .0241793
1066.992 .0241738
1067.570 .0241711
1068.148 .0241692
1068.726 .0241676
1069.304 .0241663
1069.882 .0241635
1070.460 .0241603
1071.038 .0241573
1071.616 .0241532
1072.194 .0241483
1072.772 .0241440
1073.350 .0241397
1073.928 .0241354
1074.506 .0241314
1075.084 .0241279
1075.662 .0241237
1076.240 .0241195
1076.819 .0241146
1077.397 .0241089
1077.976 .0241037
1078.554 .0240995
1079.133 .0240963
1079.711 .0240952
1080.290 .0240978
1080.869 .0241040
1081.448 .0241141
1082.027 .0241270
1082.606 .0241412
1083.185 .0241558
1083.764 .0241713
1084.343 .0241857
1084.923 .0241989
1085.502 .0242123
1086.082 .0242254
1086.662 .0242379
1087.242 .0242511
1087.822 .0242654
1088.402 .0242812
1088.983 .0242975
1089.563 .0243144
1090.144 .0243296
1090.725 .0243457
1091.306 .0243612
1091.887 .0243780
1092.469 .0243969
1093.050 .0244180
1093.632 .0244418
1094.214 .0244683
1094.796 .0244979
1095.379 .0245300
1095.961 .0245627
1096.544 .0245981
1097.127 .0246340
1097.710 .0246729
1098.294 .0247135
1098.877 .0247584
1099.461 .0248060
1100.046 .0248552
1100.630 .0249026
1101.215 .0249467
1101.800 .0249857
1102.385 .0250187
1102.970 .0250453
1103.556 .0250667
1104.142 .0250851
1104.728 .0251033
1105.315 .0251237
1105.902 .0251492
1106.489 .0251781
1107.077 .0252127
1107.664 .0252491
1108.253 .0252860
1108.841 .0253214
1109.430 .0253569
1110.019 .0253926
1110.609 .0254295
1111.198 .0254698
1111.789 .0255133
1112.379 .0255627
1112.970 .0256175
1113.561 .0256759
1114.153 .0257382
1114.745 .0258025
1115.338 .0258674
1115.931 .0259295
1116.524 .0259886
1117.117 .0260445
1117.712 .0260977
1118.306 .0261495
1118.901 .0261991
1119.496 .0262459
1120.092 .0262920
1120.689 .0263380
1121.285 .0263839
1121.882 .0264318
1122.480 .0264824
1123.078 .0265383
1123.677 .0265971
1124.276 .0266597
1124.875 .0267269
1125.476 .0267963
1126.076 .0268702
1126.677 .0269484
1127.279 .0270261
1127.881 .0271042
1128.484 .0271819
1129.087 .0272587
1129.691 .0273386
1130.295 .0274222
1130.900 .0275107
1131.505 .0276067
1132.111 .0277169
1132.718 .0278385
1133.325 .0279707
1133.933 .0281139
1134.541 .0282625
1135.150 .0284107
1135.760 .0285538
1136.370 .0286875
1136.981 .0288143
1137.592 .0289347
1138.204 .0290536
1138.817 .0291709
1139.431 .0292930
1140.045 .0294087
1140.660 .0295102
1141.275 .0296070
1141.891 .0297147
1142.508 .0299704
1143.126 .0297982
1143.744 .0295593
1144.363 .0299460
1144.983 .0307038
