Measurement Sequence started on: 15-12-46-377
Integration time: 28
Scans to Average: 2 
>>>>>Begin Spectral Data<<<<<
432.689 .0000100
433.621 .0000100
434.552 .0000100
435.482 .0000100
436.410 .0000100
437.337 .0000100
438.262 .0278821
439.187 .0590598
440.110 .0977677
441.031 .1413752
441.952 .1836627
442.871 .2168545
443.789 .2348707
444.705 .2357043
445.621 .2219230
446.535 .1991690
447.447 .1735016
448.359 .1343295
449.269 .1149415
450.178 .1027263
451.086 .0940816
451.993 .0874149
452.898 .0820896
453.803 .0777152
454.706 .0740451
455.608 .0709314
456.508 .0682464
457.408 .0659617
458.306 .0639829
459.204 .0622422
460.100 .0606642
460.995 .0592437
461.888 .0579488
462.781 .0567635
463.673 .0556788
464.563 .0547025
465.452 .0538120
466.340 .0529982
467.228 .0522610
468.114 .0515830
468.999 .0509491
469.882 .0503542
470.765 .0497879
471.647 .0492560
472.528 .0487544
473.407 .0482977
474.286 .0478959
475.163 .0475603
476.040 .0472850
476.915 .0470715
477.790 .0469111
478.663 .0467869
479.535 .0466851
480.407 .0466001
481.277 .0465258
482.147 .0464610
483.015 .0464093
483.883 .0463741
484.749 .0463637
485.615 .0463768
486.479 .0464041
487.343 .0464548
488.206 .0465163
489.067 .0465801
489.928 .0466387
490.788 .0466963
491.647 .0467514
492.505 .0468055
493.362 .0468696
494.218 .0469519
495.073 .0470570
495.928 .0471911
496.781 .0473519
497.634 .0475450
498.486 .0477686
499.337 .0480243
500.187 .0483109
501.036 .0486386
501.884 .0489954
502.731 .0493900
503.578 .0498219
504.424 .0502918
505.268 .0507831
506.113 .0512885
506.956 .0518077
507.798 .0523448
508.640 .0529023
509.480 .0534920
510.320 .0541389
511.160 .0548579
511.998 .0556675
512.836 .0565829
513.672 .0576168
514.508 .0587790
515.344 .0600568
516.178 .0614914
517.012 .0630952
517.845 .0648951
518.677 .0669527
519.508 .0692827
520.339 .0719487
521.169 .0750288
521.998 .0785372
522.826 .0825317
523.654 .0870606
524.481 .0921132
525.307 .0977599
526.133 .1039908
526.958 .1107735
527.782 .1179925
528.605 .1255277
529.428 .1332227
530.250 .1405022
531.072 .1471452
531.892 .1527377
532.712 .1569757
533.532 .1597407
534.350 .1607920
535.168 .1600686
535.986 .1577138
536.802 .1538601
537.618 .1486955
538.434 .1424564
539.249 .1355563
540.063 .1281788
540.876 .1206647
541.689 .1132835
542.501 .1062294
543.313 .0997148
544.124 .0938686
544.934 .0886153
545.744 .0839148
546.553 .0797288
547.361 .0759764
548.169 .0726644
548.976 .0696935
549.783 .0670192
550.589 .0646191
551.395 .0624481
552.200 .0604877
553.004 .0587187
553.808 .0571048
554.611 .0556652
555.414 .0543618
556.216 .0531999
557.018 .0521657
557.819 .0512326
558.619 .0503807
559.419 .0495884
560.218 .0488480
561.017 .0481501
561.815 .0474640
562.613 .0467943
563.410 .0461309
564.207 .0454790
565.003 .0448374
565.799 .0442140
566.594 .0436101
567.388 .0430359
568.182 .0424831
568.976 .0419516
569.769 .0414361
570.562 .0409366
571.354 .0404499
572.145 .0399746
572.936 .0395113
573.727 .0390534
574.517 .0386019
575.307 .0381666
576.096 .0377511
576.885 .0373586
577.673 .0369938
578.461 .0366547
579.248 .0363405
580.035 .0360476
580.821 .0357717
581.607 .0355055
582.392 .0352545
583.177 .0350151
583.962 .0347899
584.746 .0345827
585.529 .0343941
586.313 .0342289
587.095 .0340860
587.878 .0339602
588.660 .0338498
589.441 .0337498
590.222 .0336584
591.003 .0335716
591.783 .0334874
592.563 .0334075
593.342 .0333307
594.121 .0332597
594.899 .0331930
595.678 .0331310
596.455 .0330746
597.233 .0330227
598.009 .0329738
598.786 .0329282
599.562 .0328835
600.338 .0328400
601.113 .0327963
601.888 .0327525
602.663 .0327089
603.437 .0326644
604.211 .0326194
604.984 .0325753
605.757 .0325312
606.530 .0324878
607.302 .0324450
608.074 .0324036
608.845 .0323632
609.616 .0323236
610.387 .0322851
611.158 .0322475
611.928 .0322107
612.697 .0321747
613.467 .0321389
614.236 .0321042
615.004 .0320706
615.773 .0320383
616.541 .0320082
617.308 .0319807
618.076 .0319557
618.843 .0319327
619.609 .0319127
620.375 .0318937
621.141 .0318757
621.907 .0318579
622.672 .0318394
623.437 .0318196
624.202 .0317986
624.966 .0317769
625.730 .0317540
626.493 .0317306
627.257 .0317073
628.020 .0316827
628.782 .0316577
629.545 .0316314
630.307 .0316034
631.068 .0315742
631.830 .0315444
632.591 .0315128
633.352 .0314813
634.112 .0314504
634.872 .0314204
635.632 .0313916
636.392 .0313648
637.151 .0313397
637.910 .0313145
638.668 .0312897
639.427 .0312647
640.185 .0312394
640.943 .0312145
641.700 .0311896
642.457 .0311652
643.214 .0311420
643.971 .0311197
644.727 .0310980
645.483 .0310767
646.239 .0310556
646.994 .0310340
647.750 .0310111
648.505 .0309871
649.259 .0309622
650.014 .0309371
650.768 .0309122
651.521 .0308880
652.275 .0308643
653.028 .0308417
653.781 .0308206
654.534 .0308003
655.286 .0307810
656.039 .0307623
656.791 .0307434
657.542 .0307234
658.294 .0307021
659.045 .0306805
659.796 .0306574
660.546 .0306340
661.297 .0306095
662.047 .0305843
662.796 .0305586
663.546 .0305321
664.295 .0305054
665.044 .0304789
665.793 .0304529
666.542 .0304270
667.290 .0304019
668.038 .0303782
668.786 .0303557
669.533 .0303347
670.281 .0303147
671.028 .0302962
671.774 .0302784
672.521 .0302617
673.267 .0302464
674.013 .0302329
674.759 .0302209
675.505 .0302101
676.250 .0302008
676.995 .0301925
677.740 .0301842
678.484 .0301748
679.229 .0301642
679.973 .0301516
680.717 .0301358
681.460 .0301176
682.204 .0300970
682.947 .0300753
683.690 .0300533
684.433 .0300312
685.175 .0300097
685.917 .0299890
686.659 .0299690
687.401 .0299490
688.142 .0299288
688.884 .0299084
689.625 .0298868
690.365 .0298649
691.106 .0298428
691.846 .0298210
692.586 .0298002
693.326 .0297812
694.066 .0297636
694.805 .0297474
695.545 .0297319
696.284 .0297166
697.022 .0297007
697.761 .0296840
698.499 .0296651
699.237 .0296446
699.975 .0296228
700.713 .0296002
701.450 .0295770
702.187 .0295545
702.924 .0295331
703.661 .0295127
704.397 .0294934
705.133 .0294750
705.869 .0294569
706.605 .0294395
707.341 .0294217
708.076 .0294038
708.811 .0293854
709.546 .0293666
710.281 .0293473
711.015 .0293278
711.749 .0293080
712.483 .0292882
713.217 .0292683
713.950 .0292485
714.684 .0292284
715.417 .0292077
716.150 .0291867
716.882 .0291651
717.615 .0291428
718.347 .0291195
719.079 .0290954
719.811 .0290711
720.542 .0290467
721.273 .0290226
722.005 .0289993
722.735 .0289770
723.466 .0289556
724.196 .0289350
724.927 .0289143
725.656 .0288936
726.386 .0288722
727.116 .0288500
727.845 .0288271
728.574 .0288033
729.303 .0287793
730.031 .0287557
730.760 .0287340
731.488 .0287138
732.216 .0286953
732.944 .0286792
733.671 .0286649
734.398 .0286519
735.125 .0286400
735.852 .0286293
736.579 .0286196
737.305 .0286109
738.031 .0286037
738.757 .0285973
739.483 .0285924
740.208 .0285883
740.933 .0285849
741.658 .0285817
742.383 .0285786
743.108 .0285750
743.832 .0285706
744.556 .0285660
745.280 .0285606
746.004 .0285542
746.727 .0285473
747.450 .0285399
748.173 .0285320
748.896 .0285238
749.618 .0285156
750.340 .0285070
751.062 .0284992
751.784 .0284917
752.506 .0284848
753.227 .0284784
753.948 .0284721
754.669 .0284655
755.389 .0284578
756.110 .0284488
756.830 .0284379
757.550 .0284256
758.269 .0284120
758.989 .0283975
759.708 .0283822
760.427 .0283665
761.146 .0283507
761.864 .0283349
762.582 .0283187
763.300 .0283023
764.018 .0282857
764.736 .0282689
765.453 .0282524
766.170 .0282369
766.887 .0282221
767.603 .0282088
768.320 .0281968
769.036 .0281862
769.751 .0281761
770.467 .0281671
771.182 .0281585
771.897 .0281505
772.612 .0281429
773.327 .0281354
774.041 .0281281
774.755 .0281216
775.469 .0281152
776.183 .0281091
776.896 .0281031
777.609 .0280974
778.322 .0280909
779.035 .0280841
779.747 .0280769
780.459 .0280695
781.171 .0280616
781.882 .0280539
782.594 .0280458
783.305 .0280378
784.016 .0280296
784.726 .0280213
785.436 .0280129
786.147 .0280044
786.856 .0279953
787.566 .0279860
788.275 .0279767
788.984 .0279675
789.693 .0279581
790.401 .0279487
791.110 .0279391
791.818 .0279292
792.525 .0279191
793.233 .0279090
793.940 .0278989
794.647 .0278886
795.353 .0278782
796.060 .0278675
796.766 .0278563
797.472 .0278441
798.177 .0278310
798.883 .0278169
799.588 .0278017
800.292 .0277853
800.997 .0277677
801.701 .0277490
802.405 .0277298
803.109 .0277101
803.812 .0276899
804.515 .0276690
805.218 .0276474
805.921 .0276250
806.623 .0276019
807.325 .0275784
808.027 .0275546
808.728 .0275307
809.429 .0275069
810.130 .0274834
810.831 .0274602
811.531 .0274375
812.231 .0274152
812.931 .0273933
813.630 .0273717
814.330 .0273499
815.029 .0273279
815.727 .0273060
816.426 .0272843
817.124 .0272627
817.821 .0272410
818.519 .0272201
819.216 .0272001
819.913 .0271809
820.609 .0271626
821.306 .0271454
822.002 .0271290
822.697 .0271136
823.393 .0270988
824.088 .0270846
824.783 .0270710
825.477 .0270585
826.171 .0270465
826.865 .0270359
827.559 .0270267
828.252 .0270189
828.945 .0270122
829.638 .0270070
830.330 .0270023
831.023 .0269977
831.714 .0269934
832.406 .0269890
833.097 .0269842
833.788 .0269789
834.479 .0269729
835.169 .0269667
835.859 .0269606
836.548 .0269546
837.238 .0269487
837.927 .0269433
838.615 .0269384
839.304 .0269334
839.992 .0269284
840.680 .0269235
841.367 .0269187
842.054 .0269141
842.741 .0269092
843.428 .0269043
844.114 .0269002
844.800 .0268965
845.485 .0268934
846.170 .0268908
846.855 .0268885
847.540 .0268860
848.224 .0268837
848.908 .0268809
849.592 .0268777
850.275 .0268738
850.958 .0268694
851.641 .0268644
852.323 .0268590
853.005 .0268531
853.687 .0268469
854.368 .0268408
855.049 .0268342
855.730 .0268265
856.410 .0268180
857.090 .0268085
857.769 .0267982
858.449 .0267876
859.128 .0267763
859.806 .0267646
860.485 .0267533
861.163 .0267422
861.840 .0267316
862.518 .0267215
863.195 .0267120
863.871 .0267025
864.548 .0266928
865.224 .0266836
865.899 .0266746
866.574 .0266669
867.249 .0266605
867.924 .0266555
868.598 .0266523
869.272 .0266504
869.946 .0266495
870.619 .0266494
871.292 .0266498
871.964 .0266498
872.636 .0266491
873.308 .0266479
873.979 .0266458
874.651 .0266434
875.321 .0266408
875.992 .0266383
876.662 .0266355
877.331 .0266326
878.001 .0266296
878.670 .0266265
879.338 .0266236
880.007 .0266210
880.675 .0266186
881.342 .0266165
882.009 .0266144
882.676 .0266123
883.343 .0266102
884.009 .0266084
884.675 .0266063
885.340 .0266047
886.005 .0266034
886.670 .0266025
887.334 .0266026
887.998 .0266038
888.662 .0266059
889.325 .0266082
889.988 .0266110
890.650 .0266141
891.312 .0266166
891.974 .0266191
892.636 .0266213
893.297 .0266231
893.957 .0266250
894.618 .0266268
895.278 .0266288
895.937 .0266312
896.596 .0266334
897.255 .0266351
897.914 .0266357
898.572 .0266350
899.230 .0266321
899.887 .0266272
900.544 .0266204
901.201 .0266116
901.857 .0266005
902.513 .0265875
903.168 .0265726
903.823 .0265557
904.478 .0265371
905.132 .0265169
905.786 .0264949
906.440 .0264717
907.093 .0264472
907.746 .0264220
908.399 .0263963
909.051 .0263707
909.703 .0263455
910.354 .0263206
911.005 .0262963
911.656 .0262725
912.306 .0262491
912.956 .0262268
913.605 .0262051
914.254 .0261843
914.903 .0261647
915.551 .0261466
916.199 .0261296
916.847 .0261140
917.494 .0260995
918.141 .0260855
918.788 .0260716
919.434 .0260579
920.079 .0260436
920.725 .0260286
921.370 .0260131
922.014 .0259968
922.658 .0259796
923.302 .0259616
923.946 .0259423
924.589 .0259215
925.231 .0258992
925.873 .0258754
926.515 .0258499
927.157 .0258232
927.798 .0257954
928.439 .0257666
929.079 .0257377
929.719 .0257086
930.359 .0256790
930.998 .0256492
931.637 .0256193
932.275 .0255890
932.913 .0255585
933.551 .0255275
934.188 .0254968
934.825 .0254664
935.462 .0254369
936.098 .0254084
936.733 .0253813
937.369 .0253559
938.004 .0253317
938.638 .0253083
939.273 .0252852
939.907 .0252621
940.540 .0252396
941.173 .0252174
941.806 .0251961
942.438 .0251755
943.070 .0251566
943.702 .0251395
944.333 .0251244
944.964 .0251108
945.594 .0250987
946.224 .0250873
946.854 .0250764
947.483 .0250654
948.112 .0250543
948.741 .0250433
949.369 .0250329
949.996 .0250230
950.624 .0250136
951.251 .0250044
951.878 .0249957
952.504 .0249865
953.130 .0249767
953.755 .0249655
954.380 .0249525
955.005 .0249381
955.629 .0249227
956.253 .0249062
956.877 .0248894
957.500 .0248730
958.123 .0248571
958.746 .0248414
959.368 .0248263
959.990 .0248115
960.611 .0247971
961.232 .0247834
961.853 .0247702
962.473 .0247580
963.093 .0247470
963.712 .0247372
964.331 .0247284
964.950 .0247206
965.569 .0247133
966.187 .0247059
966.804 .0246990
967.422 .0246926
968.039 .0246866
968.655 .0246810
969.272 .0246758
969.887 .0246705
970.503 .0246648
971.118 .0246586
971.733 .0246516
972.347 .0246440
972.961 .0246360
973.575 .0246276
974.188 .0246191
974.801 .0246112
975.414 .0246036
976.026 .0245957
976.638 .0245880
977.250 .0245803
977.861 .0245726
978.472 .0245650
979.083 .0245582
979.693 .0245520
980.303 .0245467
980.912 .0245422
981.521 .0245382
982.130 .0245344
982.738 .0245307
983.346 .0245267
983.954 .0245230
984.562 .0245194
985.169 .0245164
985.775 .0245139
986.382 .0245129
986.988 .0245125
987.594 .0245123
988.199 .0245120
988.804 .0245117
989.409 .0245108
990.013 .0245094
990.617 .0245080
991.221 .0245071
991.824 .0245074
992.427 .0245096
993.030 .0245133
993.632 .0245193
994.234 .0245272
994.836 .0245363
995.438 .0245461
996.039 .0245562
996.640 .0245660
997.240 .0245758
997.840 .0245859
998.440 .0245960
999.040 .0246057
999.639 .0246164
1000.238 .0246274
1000.836 .0246383
1001.435 .0246490
1002.033 .0246597
1002.630 .0246696
1003.228 .0246788
1003.825 .0246865
1004.422 .0246939
1005.018 .0247013
1005.614 .0247093
1006.210 .0247182
1006.806 .0247288
1007.401 .0247409
1007.996 .0247544
1008.591 .0247687
1009.186 .0247844
1009.780 .0248002
1010.374 .0248162
1010.967 .0248317
1011.561 .0248471
1012.154 .0248616
1012.746 .0248752
1013.339 .0248883
1013.931 .0249010
1014.523 .0249122
1015.115 .0249219
1015.706 .0249305
1016.298 .0249381
1016.888 .0249450
1017.479 .0249513
1018.069 .0249574
1018.660 .0249643
1019.250 .0249714
1019.839 .0249785
1020.429 .0249863
1021.018 .0249951
1021.607 .0250046
1022.195 .0250144
1022.784 .0250247
1023.372 .0250356
1023.960 .0250471
1024.547 .0250592
1025.135 .0250717
1025.722 .0250843
1026.309 .0250969
1026.896 .0251090
1027.483 .0251207
1028.069 .0251321
1028.655 .0251428
1029.241 .0251535
1029.827 .0251639
1030.412 .0251739
1030.997 .0251835
1031.582 .0251932
1032.167 .0252035
1032.752 .0252146
1033.336 .0252268
1033.921 .0252401
1034.505 .0252544
1035.089 .0252697
1035.672 .0252849
1036.256 .0252998
1036.839 .0253142
1037.422 .0253278
1038.005 .0253405
1038.588 .0253525
1039.171 .0253634
1039.753 .0253742
1040.335 .0253854
1040.918 .0253970
1041.500 .0254084
1042.081 .0254196
1042.663 .0254301
1043.244 .0254400
1043.826 .0254490
1044.407 .0254576
1044.988 .0254655
1045.569 .0254737
1046.150 .0254804
1046.730 .0254857
1047.311 .0254902
1047.891 .0254935
1048.471 .0254959
1049.052 .0254972
1049.632 .0254974
1050.211 .0254972
1050.791 .0254971
1051.371 .0254966
1051.950 .0254960
1052.530 .0254949
1053.109 .0254921
1053.688 .0254863
1054.268 .0254786
1054.847 .0254690
1055.426 .0254576
1056.005 .0254467
1056.583 .0254370
1057.162 .0254277
1057.741 .0254193
1058.319 .0254119
1058.898 .0254051
1059.476 .0253982
1060.055 .0253907
1060.633 .0253809
1061.211 .0253704
1061.790 .0253594
1062.368 .0253479
1062.946 .0253375
1063.524 .0253291
1064.102 .0253218
1064.680 .0253152
1065.258 .0253091
1065.836 .0253031
1066.414 .0252976
1066.992 .0252933
1067.570 .0252900
1068.148 .0252875
1068.726 .0252871
1069.304 .0252886
1069.882 .0252920
1070.460 .0252978
1071.038 .0253033
1071.616 .0253084
1072.194 .0253130
1072.772 .0253152
1073.350 .0253163
1073.928 .0253161
1074.506 .0253157
1075.084 .0253155
1075.662 .0253162
1076.240 .0253180
1076.819 .0253205
1077.397 .0253241
1077.976 .0253284
1078.554 .0253323
1079.133 .0253358
1079.711 .0253374
1080.290 .0253381
1080.869 .0253390
1081.448 .0253394
1082.027 .0253396
1082.606 .0253415
1083.185 .0253442
1083.764 .0253477
1084.343 .0253531
1084.923 .0253589
1085.502 .0253650
1086.082 .0253704
1086.662 .0253737
1087.242 .0253734
1087.822 .0253701
1088.402 .0253633
1088.983 .0253518
1089.563 .0253377
1090.144 .0253215
1090.725 .0253035
1091.306 .0252860
1091.887 .0252696
1092.469 .0252542
1093.050 .0252398
1093.632 .0252268
1094.214 .0252131
1094.796 .0252017
1095.379 .0251911
1095.961 .0251831
1096.544 .0251792
1097.127 .0251790
1097.710 .0251830
1098.294 .0251900
1098.877 .0252010
1099.461 .0252141
1100.046 .0252277
1100.630 .0252417
1101.215 .0252547
1101.800 .0252676
1102.385 .0252796
1102.970 .0252901
1103.556 .0253000
1104.142 .0253077
1104.728 .0253124
1105.315 .0253133
1105.902 .0253104
1106.489 .0253050
1107.077 .0252996
1107.664 .0252935
1108.253 .0252904
1108.841 .0252890
1109.430 .0252921
1110.019 .0252991
1110.609 .0253102
1111.198 .0253246
1111.789 .0253419
1112.379 .0253653
1112.970 .0253931
1113.561 .0254247
1114.153 .0254629
1114.745 .0255042
1115.338 .0255508
1115.931 .0255996
1116.524 .0256472
1117.117 .0256936
1117.712 .0257399
1118.306 .0257864
1118.901 .0258317
1119.496 .0258765
1120.092 .0259191
1120.689 .0259584
1121.285 .0259935
1121.882 .0260202
1122.480 .0260387
1123.078 .0260553
1123.677 .0260721
1124.276 .0260903
1124.875 .0261169
1125.476 .0261531
1126.076 .0262002
1126.677 .0262581
1127.279 .0263197
1127.881 .0263808
1128.484 .0264373
1129.087 .0264875
1129.691 .0265293
1130.295 .0265663
1130.900 .0266023
1131.505 .0266394
1132.111 .0266838
1132.718 .0267371
1133.325 .0267997
1133.933 .0268705
1134.541 .0269525
1135.150 .0270407
1135.760 .0271342
1136.370 .0272304
1136.981 .0273315
1137.592 .0274385
1138.204 .0275526
1138.817 .0276772
1139.431 .0278203
1140.045 .0279881
1140.660 .0281652
1141.275 .0283522
1141.891 .0285321
1142.508 .0288714
1143.126 .0292959
1143.744 .0290332
1144.363 .0292173
1144.983 .0289743
