Measurement Sequence started on: 15-12-46-377
Integration time: 28
Scans to Average: 2 
>>>>>Begin Spectral Data<<<<<
432.689 .0000100
433.621 .0000100
434.552 .0000100
435.482 .0000100
436.410 .0000100
437.337 .0000100
438.262 .0266118
439.187 .0563339
440.110 .0933751
441.031 .1350883
441.952 .1755776
442.871 .2073848
443.789 .2247654
444.705 .2257474
445.621 .2127795
446.535 .1911941
447.447 .1668164
448.359 .1295415
449.269 .1111777
450.178 .0995754
451.086 .0914665
451.993 .0852490
452.898 .0803236
453.803 .0762394
454.706 .0728127
455.608 .0698693
456.508 .0673165
457.408 .0650811
458.306 .0630975
459.204 .0613052
460.100 .0596625
460.995 .0581699
461.888 .0568189
462.781 .0555934
463.673 .0544877
464.563 .0535052
465.452 .0526295
466.340 .0518311
467.228 .0511070
468.114 .0504394
468.999 .0498256
469.882 .0492586
470.765 .0487397
471.647 .0482732
472.528 .0478638
473.407 .0475289
474.286 .0472573
475.163 .0470430
476.040 .0468793
476.915 .0467443
477.790 .0466266
478.663 .0465145
479.535 .0464052
480.407 .0463024
481.277 .0462078
482.147 .0461252
483.015 .0460550
483.883 .0460044
484.749 .0459781
485.615 .0459701
486.479 .0459813
487.343 .0460151
488.206 .0460531
489.067 .0460954
489.928 .0461447
490.788 .0461977
491.647 .0462591
492.505 .0463335
493.362 .0464280
494.218 .0465417
495.073 .0466738
495.928 .0468258
496.781 .0469975
497.634 .0471987
498.486 .0474232
499.337 .0476600
500.187 .0479145
501.036 .0481840
501.884 .0484683
502.731 .0487731
503.578 .0490932
504.424 .0494368
505.268 .0497930
506.113 .0501719
506.956 .0505773
507.798 .0510282
508.640 .0515288
509.480 .0520883
510.320 .0527252
511.160 .0534470
511.998 .0542491
512.836 .0551510
513.672 .0561575
514.508 .0572946
515.344 .0585418
516.178 .0599259
517.012 .0614760
517.845 .0632507
518.677 .0652680
519.508 .0675743
520.339 .0702145
521.169 .0732602
521.998 .0766894
522.826 .0805482
523.654 .0848561
524.481 .0896452
525.307 .0949161
526.133 .1006491
526.958 .1068114
527.782 .1133567
528.605 .1201578
529.428 .1271673
530.250 .1338752
531.072 .1400923
531.892 .1454504
532.712 .1496022
533.532 .1523383
534.350 .1533830
535.168 .1526250
535.986 .1501326
536.802 .1460417
537.618 .1406299
538.434 .1341570
539.249 .1272062
540.063 .1200000
540.876 .1128556
541.689 .1060453
542.501 .0996842
543.313 .0939091
544.124 .0887065
544.934 .0839904
545.744 .0797112
546.553 .0758356
547.361 .0723643
548.169 .0692930
548.976 .0665918
549.783 .0642507
550.589 .0622311
551.395 .0604778
552.200 .0589433
553.004 .0575680
553.808 .0563115
554.611 .0551534
555.414 .0540623
556.216 .0530332
557.018 .0520791
557.819 .0512030
558.619 .0503853
559.419 .0496260
560.218 .0489213
561.017 .0482543
561.815 .0476125
562.613 .0469777
563.410 .0463358
564.207 .0456848
565.003 .0450290
565.799 .0443636
566.594 .0436973
567.388 .0430483
568.182 .0424140
568.976 .0418000
569.769 .0412147
570.562 .0406496
571.354 .0401052
572.145 .0395873
572.936 .0390861
573.727 .0386011
574.517 .0381302
575.307 .0376727
576.096 .0372328
576.885 .0368215
577.673 .0364390
578.461 .0360894
579.248 .0357788
580.035 .0355032
580.821 .0352564
581.607 .0350318
582.392 .0348227
583.177 .0346260
583.962 .0344378
584.746 .0342616
585.529 .0340965
586.313 .0339496
587.095 .0338176
587.878 .0337002
588.660 .0335972
589.441 .0335042
590.222 .0334175
591.003 .0333368
591.783 .0332576
592.563 .0331780
593.342 .0330994
594.121 .0330215
594.899 .0329470
595.678 .0328777
596.455 .0328127
597.233 .0327532
598.009 .0326960
598.786 .0326408
599.562 .0325850
600.338 .0325308
601.113 .0324783
601.888 .0324263
602.663 .0323768
603.437 .0323300
604.211 .0322855
604.984 .0322449
605.757 .0322077
606.530 .0321735
607.302 .0321404
608.074 .0321080
608.845 .0320755
609.616 .0320426
610.387 .0320102
611.158 .0319792
611.928 .0319503
612.697 .0319238
613.467 .0318990
614.236 .0318758
615.004 .0318544
615.773 .0318331
616.541 .0318113
617.308 .0317890
618.076 .0317656
618.843 .0317420
619.609 .0317192
620.375 .0316986
621.141 .0316805
621.907 .0316648
622.672 .0316511
623.437 .0316378
624.202 .0316244
624.966 .0316098
625.730 .0315941
626.493 .0315771
627.257 .0315590
628.020 .0315400
628.782 .0315212
629.545 .0315024
630.307 .0314831
631.068 .0314629
631.830 .0314410
632.591 .0314159
633.352 .0313879
634.112 .0313567
634.872 .0313234
635.632 .0312888
636.392 .0312536
637.151 .0312190
637.910 .0311852
638.668 .0311521
639.427 .0311198
640.185 .0310886
640.943 .0310583
641.700 .0310283
642.457 .0309994
643.214 .0309715
643.971 .0309448
644.727 .0309200
645.483 .0308963
646.239 .0308739
646.994 .0308533
647.750 .0308328
648.505 .0308127
649.259 .0307934
650.014 .0307741
650.768 .0307545
651.521 .0307349
652.275 .0307145
653.028 .0306927
653.781 .0306700
654.534 .0306464
655.286 .0306217
656.039 .0305969
656.791 .0305714
657.542 .0305453
658.294 .0305199
659.045 .0304954
659.796 .0304716
660.546 .0304493
661.297 .0304282
662.047 .0304083
662.796 .0303894
663.546 .0303716
664.295 .0303546
665.044 .0303384
665.793 .0303235
666.542 .0303080
667.290 .0302924
668.038 .0302763
668.786 .0302592
669.533 .0302416
670.281 .0302231
671.028 .0302037
671.774 .0301837
672.521 .0301640
673.267 .0301452
674.013 .0301271
674.759 .0301107
675.505 .0300949
676.250 .0300792
676.995 .0300641
677.740 .0300489
678.484 .0300331
679.229 .0300185
679.973 .0300047
680.717 .0299922
681.460 .0299815
682.204 .0299726
682.947 .0299657
683.690 .0299604
684.433 .0299555
685.175 .0299492
685.917 .0299414
686.659 .0299319
687.401 .0299196
688.142 .0299053
688.884 .0298896
689.625 .0298726
690.365 .0298548
691.106 .0298364
691.846 .0298171
692.586 .0297969
693.326 .0297755
694.066 .0297528
694.805 .0297284
695.545 .0297025
696.284 .0296757
697.022 .0296486
697.761 .0296213
698.499 .0295936
699.237 .0295662
699.975 .0295386
700.713 .0295110
701.450 .0294834
702.187 .0294548
702.924 .0294269
703.661 .0293991
704.397 .0293720
705.133 .0293458
705.869 .0293208
706.605 .0292968
707.341 .0292732
708.076 .0292500
708.811 .0292264
709.546 .0292021
710.281 .0291776
711.015 .0291529
711.749 .0291286
712.483 .0291049
713.217 .0290821
713.950 .0290608
714.684 .0290403
715.417 .0290197
716.150 .0289995
716.882 .0289787
717.615 .0289573
718.347 .0289356
719.079 .0289134
719.811 .0288916
720.542 .0288706
721.273 .0288508
722.005 .0288321
722.735 .0288147
723.466 .0287987
724.196 .0287830
724.927 .0287678
725.656 .0287526
726.386 .0287367
727.116 .0287208
727.845 .0287048
728.574 .0286878
729.303 .0286704
730.031 .0286529
730.760 .0286352
731.488 .0286177
732.216 .0286014
732.944 .0285860
733.671 .0285718
734.398 .0285589
735.125 .0285468
735.852 .0285353
736.579 .0285249
737.305 .0285150
738.031 .0285057
738.757 .0284971
739.483 .0284896
740.208 .0284830
740.933 .0284780
741.658 .0284748
742.383 .0284727
743.108 .0284721
743.832 .0284722
744.556 .0284723
745.280 .0284722
746.004 .0284715
746.727 .0284702
747.450 .0284678
748.173 .0284642
748.896 .0284591
749.618 .0284530
750.340 .0284462
751.062 .0284389
751.784 .0284314
752.506 .0284235
753.227 .0284155
753.948 .0284070
754.669 .0283982
755.389 .0283885
756.110 .0283786
756.830 .0283680
757.550 .0283568
758.269 .0283451
758.989 .0283325
759.708 .0283201
760.427 .0283076
761.146 .0282948
761.864 .0282814
762.582 .0282672
763.300 .0282526
764.018 .0282375
764.736 .0282226
765.453 .0282076
766.170 .0281930
766.887 .0281788
767.603 .0281648
768.320 .0281507
769.036 .0281367
769.751 .0281223
770.467 .0281076
771.182 .0280929
771.897 .0280780
772.612 .0280632
773.327 .0280495
774.041 .0280371
774.755 .0280253
775.469 .0280140
776.183 .0280032
776.896 .0279921
777.609 .0279808
778.322 .0279690
779.035 .0279564
779.747 .0279437
780.459 .0279312
781.171 .0279184
781.882 .0279058
782.594 .0278942
783.305 .0278828
784.016 .0278719
784.726 .0278616
785.436 .0278513
786.147 .0278410
786.856 .0278311
787.566 .0278212
788.275 .0278110
788.984 .0278008
789.693 .0277900
790.401 .0277787
791.110 .0277668
791.818 .0277538
792.525 .0277395
793.233 .0277244
793.940 .0277079
794.647 .0276900
795.353 .0276712
796.060 .0276507
796.766 .0276286
797.472 .0276051
798.177 .0275803
798.883 .0275543
799.588 .0275274
800.292 .0275002
800.997 .0274730
801.701 .0274462
802.405 .0274201
803.109 .0273951
803.812 .0273715
804.515 .0273487
805.218 .0273262
805.921 .0273039
806.623 .0272816
807.325 .0272593
808.027 .0272375
808.728 .0272158
809.429 .0271948
810.130 .0271746
810.831 .0271555
811.531 .0271374
812.231 .0271199
812.931 .0271025
813.630 .0270851
814.330 .0270672
815.029 .0270487
815.727 .0270294
816.426 .0270106
817.124 .0269924
817.821 .0269750
818.519 .0269586
819.216 .0269436
819.913 .0269301
820.609 .0269182
821.306 .0269072
822.002 .0268974
822.697 .0268887
823.393 .0268811
824.088 .0268747
824.783 .0268694
825.477 .0268655
826.171 .0268632
826.865 .0268617
827.559 .0268615
828.252 .0268620
828.945 .0268637
829.638 .0268667
830.330 .0268707
831.023 .0268754
831.714 .0268807
832.406 .0268864
833.097 .0268923
833.788 .0268976
834.479 .0269027
835.169 .0269071
835.859 .0269115
836.548 .0269158
837.238 .0269199
837.927 .0269243
838.615 .0269290
839.304 .0269334
839.992 .0269374
840.680 .0269409
841.367 .0269441
842.054 .0269470
842.741 .0269497
843.428 .0269523
844.114 .0269552
844.800 .0269581
845.485 .0269605
846.170 .0269625
846.855 .0269636
847.540 .0269634
848.224 .0269618
848.908 .0269589
849.592 .0269548
850.275 .0269497
850.958 .0269441
851.641 .0269382
852.323 .0269322
853.005 .0269259
853.687 .0269188
854.368 .0269114
855.049 .0269036
855.730 .0268951
856.410 .0268859
857.090 .0268768
857.769 .0268672
858.449 .0268578
859.128 .0268484
859.806 .0268391
860.485 .0268302
861.163 .0268213
861.840 .0268122
862.518 .0268032
863.195 .0267939
863.871 .0267842
864.548 .0267742
865.224 .0267640
865.899 .0267532
866.574 .0267417
867.249 .0267299
867.924 .0267178
868.598 .0267060
869.272 .0266943
869.946 .0266830
870.619 .0266724
871.292 .0266629
871.964 .0266537
872.636 .0266448
873.308 .0266361
873.979 .0266276
874.651 .0266186
875.321 .0266091
875.992 .0265991
876.662 .0265888
877.331 .0265782
878.001 .0265679
878.670 .0265572
879.338 .0265467
880.007 .0265364
880.675 .0265263
881.342 .0265160
882.009 .0265056
882.676 .0264944
883.343 .0264828
884.009 .0264707
884.675 .0264582
885.340 .0264448
886.005 .0264310
886.670 .0264168
887.334 .0264028
887.998 .0263888
888.662 .0263757
889.325 .0263633
889.988 .0263520
890.650 .0263414
891.312 .0263315
891.974 .0263215
892.636 .0263113
893.297 .0263008
893.957 .0262897
894.618 .0262777
895.278 .0262653
895.937 .0262526
896.596 .0262404
897.255 .0262286
897.914 .0262171
898.572 .0262050
899.230 .0261927
899.887 .0261790
900.544 .0261636
901.201 .0261462
901.857 .0261270
902.513 .0261055
903.168 .0260824
903.823 .0260579
904.478 .0260317
905.132 .0260046
905.786 .0259767
906.440 .0259477
907.093 .0259180
907.746 .0258871
908.399 .0258557
909.051 .0258239
909.703 .0257920
910.354 .0257597
911.005 .0257276
911.656 .0256959
912.306 .0256648
912.956 .0256343
913.605 .0256049
914.254 .0255766
914.903 .0255499
915.551 .0255245
916.199 .0255009
916.847 .0254786
917.494 .0254574
918.141 .0254366
918.788 .0254162
919.434 .0253957
920.079 .0253752
920.725 .0253550
921.370 .0253355
922.014 .0253163
922.658 .0252978
923.302 .0252794
923.946 .0252613
924.589 .0252423
925.231 .0252225
925.873 .0252015
926.515 .0251800
927.157 .0251577
927.798 .0251352
928.439 .0251129
929.079 .0250911
929.719 .0250695
930.359 .0250485
930.998 .0250278
931.637 .0250077
932.275 .0249877
932.913 .0249684
933.551 .0249498
934.188 .0249328
934.825 .0249172
935.462 .0249035
936.098 .0248918
936.733 .0248820
937.369 .0248728
938.004 .0248643
938.638 .0248561
939.273 .0248483
939.907 .0248407
940.540 .0248340
941.173 .0248279
941.806 .0248233
942.438 .0248201
943.070 .0248184
943.702 .0248178
944.333 .0248179
944.964 .0248178
945.594 .0248177
946.224 .0248171
946.854 .0248162
947.483 .0248156
948.112 .0248165
948.741 .0248190
949.369 .0248231
949.996 .0248288
950.624 .0248362
951.251 .0248447
951.878 .0248538
952.504 .0248624
953.130 .0248699
953.755 .0248766
954.380 .0248823
955.005 .0248874
955.629 .0248922
956.253 .0248973
956.877 .0249029
957.500 .0249086
958.123 .0249145
958.746 .0249195
959.368 .0249234
959.990 .0249270
960.611 .0249295
961.232 .0249313
961.853 .0249328
962.473 .0249346
963.093 .0249370
963.712 .0249402
964.331 .0249438
964.950 .0249475
965.569 .0249516
966.187 .0249560
966.804 .0249605
967.422 .0249655
968.039 .0249713
968.655 .0249775
969.272 .0249849
969.887 .0249930
970.503 .0250008
971.118 .0250085
971.733 .0250160
972.347 .0250229
972.961 .0250295
973.575 .0250354
974.188 .0250408
974.801 .0250460
975.414 .0250511
976.026 .0250555
976.638 .0250589
977.250 .0250618
977.861 .0250638
978.472 .0250651
979.083 .0250659
979.693 .0250657
980.303 .0250647
980.912 .0250638
981.521 .0250624
982.130 .0250608
982.738 .0250590
983.346 .0250571
983.954 .0250548
984.562 .0250524
985.169 .0250492
985.775 .0250453
986.382 .0250411
986.988 .0250366
987.594 .0250310
988.199 .0250245
988.804 .0250176
989.409 .0250104
990.013 .0250036
990.617 .0249977
991.221 .0249922
991.824 .0249879
992.427 .0249855
993.030 .0249852
993.632 .0249867
994.234 .0249901
994.836 .0249951
995.438 .0250008
996.039 .0250071
996.640 .0250130
997.240 .0250186
997.840 .0250243
998.440 .0250307
999.040 .0250365
999.639 .0250420
1000.238 .0250472
1000.836 .0250517
1001.435 .0250553
1002.033 .0250574
1002.630 .0250573
1003.228 .0250552
1003.825 .0250512
1004.422 .0250460
1005.018 .0250397
1005.614 .0250342
1006.210 .0250294
1006.806 .0250255
1007.401 .0250227
1007.996 .0250202
1008.591 .0250178
1009.186 .0250155
1009.780 .0250130
1010.374 .0250093
1010.967 .0250042
1011.561 .0249981
1012.154 .0249912
1012.746 .0249835
1013.339 .0249750
1013.931 .0249655
1014.523 .0249554
1015.115 .0249448
1015.706 .0249332
1016.298 .0249205
1016.888 .0249076
1017.479 .0248944
1018.069 .0248804
1018.660 .0248654
1019.250 .0248504
1019.839 .0248355
1020.429 .0248217
1021.018 .0248098
1021.607 .0247995
1022.195 .0247908
1022.784 .0247839
1023.372 .0247777
1023.960 .0247723
1024.547 .0247677
1025.135 .0247629
1025.722 .0247579
1026.309 .0247532
1026.896 .0247489
1027.483 .0247445
1028.069 .0247412
1028.655 .0247386
1029.241 .0247352
1029.827 .0247307
1030.412 .0247245
1030.997 .0247164
1031.582 .0247074
1032.167 .0246969
1032.752 .0246852
1033.336 .0246729
1033.921 .0246604
1034.505 .0246469
1035.089 .0246334
1035.672 .0246192
1036.256 .0246044
1036.839 .0245884
1037.422 .0245721
1038.005 .0245556
1038.588 .0245398
1039.171 .0245246
1039.753 .0245108
1040.335 .0244978
1040.918 .0244856
1041.500 .0244723
1042.081 .0244593
1042.663 .0244459
1043.244 .0244322
1043.826 .0244182
1044.407 .0244046
1044.988 .0243912
1045.569 .0243784
1046.150 .0243649
1046.730 .0243504
1047.311 .0243345
1047.891 .0243173
1048.471 .0242979
1049.052 .0242774
1049.632 .0242573
1050.211 .0242383
1050.791 .0242212
1051.371 .0242073
1051.950 .0241957
1052.530 .0241862
1053.109 .0241788
1053.688 .0241715
1054.268 .0241650
1054.847 .0241585
1055.426 .0241526
1056.005 .0241477
1056.583 .0241449
1057.162 .0241438
1057.741 .0241444
1058.319 .0241471
1058.898 .0241518
1059.476 .0241560
1060.055 .0241597
1060.633 .0241614
1061.211 .0241620
1061.790 .0241606
1062.368 .0241584
1062.946 .0241558
1063.524 .0241543
1064.102 .0241532
1064.680 .0241528
1065.258 .0241519
1065.836 .0241512
1066.414 .0241495
1066.992 .0241455
1067.570 .0241396
1068.148 .0241324
1068.726 .0241243
1069.304 .0241168
1069.882 .0241101
1070.460 .0241049
1071.038 .0241002
1071.616 .0240967
1072.194 .0240933
1072.772 .0240886
1073.350 .0240838
1073.928 .0240770
1074.506 .0240695
1075.084 .0240608
1075.662 .0240524
1076.240 .0240465
1076.819 .0240443
1077.397 .0240454
1077.976 .0240484
1078.554 .0240529
1079.133 .0240582
1079.711 .0240622
1080.290 .0240653
1080.869 .0240661
1081.448 .0240667
1082.027 .0240665
1082.606 .0240669
1083.185 .0240701
1083.764 .0240775
1084.343 .0240872
1084.923 .0240989
1085.502 .0241119
1086.082 .0241244
1086.662 .0241369
1087.242 .0241492
1087.822 .0241619
1088.402 .0241767
1088.983 .0241928
1089.563 .0242108
1090.144 .0242310
1090.725 .0242550
1091.306 .0242794
1091.887 .0243027
1092.469 .0243271
1093.050 .0243484
1093.632 .0243687
1094.214 .0243886
1094.796 .0244104
1095.379 .0244338
1095.961 .0244582
1096.544 .0244837
1097.127 .0245088
1097.710 .0245336
1098.294 .0245575
1098.877 .0245790
1099.461 .0246013
1100.046 .0246241
1100.630 .0246487
1101.215 .0246771
1101.800 .0247118
1102.385 .0247495
1102.970 .0247897
1103.556 .0248303
1104.142 .0248698
1104.728 .0249079
1105.315 .0249443
1105.902 .0249800
1106.489 .0250146
1107.077 .0250482
1107.664 .0250817
1108.253 .0251145
1108.841 .0251466
1109.430 .0251752
1110.019 .0251985
1110.609 .0252153
1111.198 .0252244
1111.789 .0252308
1112.379 .0252351
1112.970 .0252415
1113.561 .0252535
1114.153 .0252704
1114.745 .0252935
1115.338 .0253247
1115.931 .0253592
1116.524 .0253992
1117.117 .0254453
1117.712 .0254961
1118.306 .0255479
1118.901 .0256085
1119.496 .0256752
1120.092 .0257508
1120.689 .0258365
1121.285 .0259305
1121.882 .0260253
1122.480 .0261243
1123.078 .0262223
1123.677 .0263163
1124.276 .0264098
1124.875 .0265014
1125.476 .0265854
1126.076 .0266694
1126.677 .0267477
1127.279 .0268213
1127.881 .0268932
1128.484 .0269669
1129.087 .0270336
1129.691 .0270991
1130.295 .0271614
1130.900 .0272226
1131.505 .0272836
1132.111 .0273483
1132.718 .0274123
1133.325 .0274840
1133.933 .0275615
1134.541 .0276435
1135.150 .0277332
1135.760 .0278308
1136.370 .0279318
1136.981 .0280400
1137.592 .0281485
1138.204 .0282567
1138.817 .0283645
1139.431 .0284759
1140.045 .0285881
1140.660 .0286965
1141.275 .0287968
1141.891 .0289067
1142.508 .0290810
1143.126 .0292387
1143.744 .0291189
1144.363 .0290633
1144.983 .0296709
