Measurement Sequence started on: 15-12-46-377
Integration time: 28
Scans to Average: 2 
>>>>>Begin Spectral Data<<<<<
432.689 .0000100
433.621 .0000100
434.552 .0000100
435.482 .0000100
436.410 .0000100
437.337 .0000100
438.262 .0277497
439.187 .0588096
440.110 .0974468
441.031 .1410799
441.952 .1834693
442.871 .2168609
443.789 .2351972
444.705 .2364231
445.621 .2230135
446.535 .2005041
447.447 .1749378
448.359 .1358269
449.269 .1163251
450.178 .1039217
451.086 .0951326
451.993 .0884544
452.898 .0832246
453.803 .0790019
454.706 .0755232
455.608 .0726089
456.508 .0701107
457.408 .0679474
458.306 .0660143
459.204 .0642795
460.100 .0627084
460.995 .0612920
461.888 .0600319
462.781 .0589063
463.673 .0578848
464.563 .0569572
465.452 .0561017
466.340 .0552869
467.228 .0545121
468.114 .0537681
468.999 .0530604
469.882 .0523758
470.765 .0517240
471.647 .0511195
472.528 .0505706
473.407 .0500839
474.286 .0496529
475.163 .0492684
476.040 .0489321
476.915 .0486259
477.790 .0483526
478.663 .0481058
479.535 .0478921
480.407 .0477069
481.277 .0475517
482.147 .0474252
483.015 .0473273
483.883 .0472505
484.749 .0472014
485.615 .0471632
486.479 .0471345
487.343 .0471157
488.206 .0471080
489.067 .0471092
489.928 .0471332
490.788 .0471744
491.647 .0472407
492.505 .0473302
493.362 .0474392
494.218 .0475636
495.073 .0477096
495.928 .0478854
496.781 .0480814
497.634 .0483077
498.486 .0485709
499.337 .0488578
500.187 .0491847
501.036 .0495422
501.884 .0499245
502.731 .0503316
503.578 .0507657
504.424 .0512171
505.268 .0516797
506.113 .0521594
506.956 .0526527
507.798 .0531775
508.640 .0537358
509.480 .0543295
510.320 .0549676
511.160 .0556770
511.998 .0564653
512.836 .0573382
513.672 .0583222
514.508 .0594251
515.344 .0606635
516.178 .0620748
517.012 .0636860
517.845 .0655550
518.677 .0677426
519.508 .0702974
520.339 .0732797
521.169 .0767446
521.998 .0806801
522.826 .0851443
523.654 .0901005
524.481 .0955383
525.307 .1014836
526.133 .1078881
526.958 .1147059
527.782 .1219080
528.605 .1293870
529.428 .1369857
530.250 .1441863
531.072 .1507537
531.892 .1562026
532.712 .1602396
533.532 .1626096
534.350 .1630555
535.168 .1615251
535.986 .1582067
536.802 .1532437
537.618 .1469846
538.434 .1397780
539.249 .1321346
540.063 .1242643
540.876 .1165487
541.689 .1091885
542.501 .1023473
543.313 .0961575
544.124 .0906639
544.934 .0857056
545.744 .0812768
546.553 .0772881
547.361 .0737165
548.169 .0705610
548.976 .0677855
549.783 .0653375
550.589 .0632140
551.395 .0613662
552.200 .0597565
553.004 .0583253
553.808 .0570388
554.611 .0558552
555.414 .0547650
556.216 .0537331
557.018 .0527668
557.819 .0518428
558.619 .0509857
559.419 .0501834
560.218 .0494362
561.017 .0487376
561.815 .0480668
562.613 .0474163
563.410 .0467791
564.207 .0461472
565.003 .0455303
565.799 .0449217
566.594 .0443266
567.388 .0437557
568.182 .0432176
568.976 .0426988
569.769 .0422096
570.562 .0417414
571.354 .0412918
572.145 .0408535
572.936 .0404250
573.727 .0400051
574.517 .0395929
575.307 .0391934
576.096 .0388021
576.885 .0384224
577.673 .0380609
578.461 .0377102
579.248 .0373765
580.035 .0370592
580.821 .0367574
581.607 .0364678
582.392 .0361926
583.177 .0359312
583.962 .0356846
584.746 .0354578
585.529 .0352481
586.313 .0350575
587.095 .0348849
587.878 .0347273
588.660 .0345830
589.441 .0344512
590.222 .0343320
591.003 .0342236
591.783 .0341265
592.563 .0340384
593.342 .0339584
594.121 .0338859
594.899 .0338198
595.678 .0337582
596.455 .0337008
597.233 .0336457
598.009 .0335920
598.786 .0335404
599.562 .0334892
600.338 .0334381
601.113 .0333878
601.888 .0333390
602.663 .0332903
603.437 .0332420
604.211 .0331943
604.984 .0331467
605.757 .0330991
606.530 .0330516
607.302 .0330036
608.074 .0329560
608.845 .0329094
609.616 .0328630
610.387 .0328188
611.158 .0327781
611.928 .0327388
612.697 .0327017
613.467 .0326670
614.236 .0326339
615.004 .0326005
615.773 .0325671
616.541 .0325334
617.308 .0324998
618.076 .0324676
618.843 .0324364
619.609 .0324079
620.375 .0323823
621.141 .0323588
621.907 .0323371
622.672 .0323174
623.437 .0322987
624.202 .0322795
624.966 .0322611
625.730 .0322431
626.493 .0322250
627.257 .0322075
628.020 .0321901
628.782 .0321734
629.545 .0321563
630.307 .0321371
631.068 .0321162
631.830 .0320938
632.591 .0320694
633.352 .0320433
634.112 .0320166
634.872 .0319889
635.632 .0319602
636.392 .0319301
637.151 .0318987
637.910 .0318655
638.668 .0318303
639.427 .0317932
640.185 .0317551
640.943 .0317172
641.700 .0316795
642.457 .0316433
643.214 .0316096
643.971 .0315766
644.727 .0315447
645.483 .0315128
646.239 .0314812
646.994 .0314492
647.750 .0314172
648.505 .0313856
649.259 .0313557
650.014 .0313273
650.768 .0313006
651.521 .0312763
652.275 .0312550
653.028 .0312355
653.781 .0312171
654.534 .0312001
655.286 .0311834
656.039 .0311667
656.791 .0311498
657.542 .0311313
658.294 .0311123
659.045 .0310922
659.796 .0310707
660.546 .0310486
661.297 .0310260
662.047 .0310035
662.796 .0309805
663.546 .0309579
664.295 .0309351
665.044 .0309119
665.793 .0308888
666.542 .0308658
667.290 .0308425
668.038 .0308196
668.786 .0307958
669.533 .0307723
670.281 .0307489
671.028 .0307258
671.774 .0307027
672.521 .0306802
673.267 .0306578
674.013 .0306359
674.759 .0306131
675.505 .0305907
676.250 .0305681
676.995 .0305460
677.740 .0305234
678.484 .0305008
679.229 .0304787
679.973 .0304568
680.717 .0304348
681.460 .0304135
682.204 .0303919
682.947 .0303707
683.690 .0303498
684.433 .0303296
685.175 .0303100
685.917 .0302914
686.659 .0302733
687.401 .0302563
688.142 .0302397
688.884 .0302231
689.625 .0302060
690.365 .0301885
691.106 .0301706
691.846 .0301517
692.586 .0301326
693.326 .0301143
694.066 .0300969
694.805 .0300809
695.545 .0300662
696.284 .0300532
697.022 .0300410
697.761 .0300292
698.499 .0300172
699.237 .0300043
699.975 .0299902
700.713 .0299750
701.450 .0299590
702.187 .0299424
702.924 .0299260
703.661 .0299097
704.397 .0298940
705.133 .0298792
705.869 .0298643
706.605 .0298494
707.341 .0298347
708.076 .0298188
708.811 .0298013
709.546 .0297822
710.281 .0297619
711.015 .0297405
711.749 .0297187
712.483 .0296969
713.217 .0296754
713.950 .0296541
714.684 .0296330
715.417 .0296111
716.150 .0295893
716.882 .0295667
717.615 .0295427
718.347 .0295177
719.079 .0294927
719.811 .0294674
720.542 .0294430
721.273 .0294196
722.005 .0293971
722.735 .0293749
723.466 .0293530
724.196 .0293305
724.927 .0293069
725.656 .0292827
726.386 .0292575
727.116 .0292321
727.845 .0292074
728.574 .0291829
729.303 .0291599
730.031 .0291387
730.760 .0291189
731.488 .0290996
732.216 .0290810
732.944 .0290629
733.671 .0290449
734.398 .0290275
735.125 .0290106
735.852 .0289945
736.579 .0289804
737.305 .0289681
738.031 .0289575
738.757 .0289486
739.483 .0289406
740.208 .0289329
740.933 .0289251
741.658 .0289169
742.383 .0289076
743.108 .0288974
743.832 .0288868
744.556 .0288753
745.280 .0288632
746.004 .0288508
746.727 .0288382
747.450 .0288257
748.173 .0288126
748.896 .0287988
749.618 .0287847
750.340 .0287702
751.062 .0287559
751.784 .0287416
752.506 .0287272
753.227 .0287128
753.948 .0286977
754.669 .0286820
755.389 .0286657
756.110 .0286488
756.830 .0286312
757.550 .0286137
758.269 .0285965
758.989 .0285795
759.708 .0285629
760.427 .0285471
761.146 .0285315
761.864 .0285156
762.582 .0284993
763.300 .0284824
764.018 .0284653
764.736 .0284487
765.453 .0284326
766.170 .0284176
766.887 .0284038
767.603 .0283905
768.320 .0283777
769.036 .0283651
769.751 .0283523
770.467 .0283389
771.182 .0283256
771.897 .0283122
772.612 .0282990
773.327 .0282866
774.041 .0282755
774.755 .0282655
775.469 .0282568
776.183 .0282491
776.896 .0282424
777.609 .0282367
778.322 .0282316
779.035 .0282274
779.747 .0282245
780.459 .0282229
781.171 .0282228
781.882 .0282238
782.594 .0282260
783.305 .0282290
784.016 .0282331
784.726 .0282376
785.436 .0282424
786.147 .0282474
786.856 .0282525
787.566 .0282573
788.275 .0282621
788.984 .0282659
789.693 .0282689
790.401 .0282709
791.110 .0282712
791.818 .0282696
792.525 .0282661
793.233 .0282609
793.940 .0282545
794.647 .0282470
795.353 .0282390
796.060 .0282301
796.766 .0282211
797.472 .0282115
798.177 .0282010
798.883 .0281895
799.588 .0281771
800.292 .0281639
800.997 .0281500
801.701 .0281354
802.405 .0281210
803.109 .0281073
803.812 .0280945
804.515 .0280827
805.218 .0280711
805.921 .0280594
806.623 .0280471
807.325 .0280337
808.027 .0280194
808.728 .0280041
809.429 .0279880
810.130 .0279715
810.831 .0279553
811.531 .0279394
812.231 .0279235
812.931 .0279083
813.630 .0278934
814.330 .0278782
815.029 .0278626
815.727 .0278467
816.426 .0278304
817.124 .0278139
817.821 .0277975
818.519 .0277816
819.216 .0277665
819.913 .0277519
820.609 .0277378
821.306 .0277243
822.002 .0277114
822.697 .0276990
823.393 .0276869
824.088 .0276751
824.783 .0276634
825.477 .0276519
826.171 .0276404
826.865 .0276294
827.559 .0276188
828.252 .0276091
828.945 .0276001
829.638 .0275918
830.330 .0275842
831.023 .0275771
831.714 .0275705
832.406 .0275638
833.097 .0275566
833.788 .0275487
834.479 .0275398
835.169 .0275304
835.859 .0275201
836.548 .0275096
837.238 .0274987
837.927 .0274874
838.615 .0274759
839.304 .0274637
839.992 .0274508
840.680 .0274375
841.367 .0274236
842.054 .0274093
842.741 .0273944
843.428 .0273795
844.114 .0273648
844.800 .0273506
845.485 .0273369
846.170 .0273233
846.855 .0273097
847.540 .0272960
848.224 .0272818
848.908 .0272675
849.592 .0272529
850.275 .0272385
850.958 .0272240
851.641 .0272097
852.323 .0271951
853.005 .0271803
853.687 .0271646
854.368 .0271481
855.049 .0271302
855.730 .0271111
856.410 .0270904
857.090 .0270687
857.769 .0270459
858.449 .0270227
859.128 .0269989
859.806 .0269745
860.485 .0269496
861.163 .0269248
861.840 .0268997
862.518 .0268746
863.195 .0268495
863.871 .0268249
864.548 .0268006
865.224 .0267775
865.899 .0267552
866.574 .0267342
867.249 .0267147
867.924 .0266968
868.598 .0266802
869.272 .0266654
869.946 .0266522
870.619 .0266404
871.292 .0266303
871.964 .0266215
872.636 .0266130
873.308 .0266053
873.979 .0265980
874.651 .0265908
875.321 .0265833
875.992 .0265759
876.662 .0265683
877.331 .0265610
878.001 .0265541
878.670 .0265475
879.338 .0265416
880.007 .0265367
880.675 .0265322
881.342 .0265283
882.009 .0265247
882.676 .0265214
883.343 .0265184
884.009 .0265155
884.675 .0265124
885.340 .0265096
886.005 .0265072
886.670 .0265053
887.334 .0265042
887.998 .0265038
888.662 .0265043
889.325 .0265058
889.988 .0265081
890.650 .0265110
891.312 .0265143
891.974 .0265181
892.636 .0265224
893.297 .0265274
893.957 .0265330
894.618 .0265391
895.278 .0265462
895.937 .0265538
896.596 .0265618
897.255 .0265699
897.914 .0265777
898.572 .0265848
899.230 .0265908
899.887 .0265954
900.544 .0265982
901.201 .0265996
901.857 .0265998
902.513 .0265980
903.168 .0265951
903.823 .0265911
904.478 .0265857
905.132 .0265791
905.786 .0265715
906.440 .0265630
907.093 .0265536
907.746 .0265438
908.399 .0265334
909.051 .0265232
909.703 .0265135
910.354 .0265041
911.005 .0264958
911.656 .0264886
912.306 .0264820
912.956 .0264758
913.605 .0264701
914.254 .0264643
914.903 .0264576
915.551 .0264502
916.199 .0264422
916.847 .0264337
917.494 .0264249
918.141 .0264159
918.788 .0264074
919.434 .0264002
920.079 .0263936
920.725 .0263874
921.370 .0263819
922.014 .0263765
922.658 .0263704
923.302 .0263631
923.946 .0263549
924.589 .0263455
925.231 .0263353
925.873 .0263251
926.515 .0263147
927.157 .0263047
927.798 .0262950
928.439 .0262856
929.079 .0262758
929.719 .0262649
930.359 .0262523
930.998 .0262382
931.637 .0262225
932.275 .0262058
932.913 .0261880
933.551 .0261702
934.188 .0261530
934.825 .0261364
935.462 .0261206
936.098 .0261058
936.733 .0260919
937.369 .0260790
938.004 .0260667
938.638 .0260546
939.273 .0260427
939.907 .0260320
940.540 .0260224
941.173 .0260139
941.806 .0260070
942.438 .0260019
943.070 .0259984
943.702 .0259962
944.333 .0259950
944.964 .0259945
945.594 .0259940
946.224 .0259932
946.854 .0259915
947.483 .0259893
948.112 .0259869
948.741 .0259839
949.369 .0259810
949.996 .0259779
950.624 .0259740
951.251 .0259694
951.878 .0259636
952.504 .0259563
953.130 .0259471
953.755 .0259361
954.380 .0259238
955.005 .0259102
955.629 .0258956
956.253 .0258806
956.877 .0258655
957.500 .0258506
958.123 .0258354
958.746 .0258200
959.368 .0258047
959.990 .0257892
960.611 .0257737
961.232 .0257582
961.853 .0257431
962.473 .0257290
963.093 .0257153
963.712 .0257021
964.331 .0256890
964.950 .0256764
965.569 .0256644
966.187 .0256527
966.804 .0256417
967.422 .0256316
968.039 .0256224
968.655 .0256141
969.272 .0256060
969.887 .0255983
970.503 .0255903
971.118 .0255823
971.733 .0255738
972.347 .0255645
972.961 .0255549
973.575 .0255453
974.188 .0255353
974.801 .0255254
975.414 .0255151
976.026 .0255040
976.638 .0254919
977.250 .0254786
977.861 .0254634
978.472 .0254465
979.083 .0254277
979.693 .0254070
980.303 .0253844
980.912 .0253607
981.521 .0253354
982.130 .0253095
982.738 .0252834
983.346 .0252568
983.954 .0252295
984.562 .0252021
985.169 .0251736
985.775 .0251443
986.382 .0251137
986.988 .0250820
987.594 .0250496
988.199 .0250174
988.804 .0249862
989.409 .0249566
990.013 .0249297
990.617 .0249054
991.221 .0248840
991.824 .0248657
992.427 .0248499
993.030 .0248365
993.632 .0248252
994.234 .0248155
994.836 .0248072
995.438 .0248002
996.039 .0247937
996.640 .0247880
997.240 .0247828
997.840 .0247779
998.440 .0247734
999.040 .0247686
999.639 .0247638
1000.238 .0247581
1000.836 .0247517
1001.435 .0247438
1002.033 .0247340
1002.630 .0247226
1003.228 .0247095
1003.825 .0246956
1004.422 .0246812
1005.018 .0246674
1005.614 .0246542
1006.210 .0246423
1006.806 .0246325
1007.401 .0246242
1007.996 .0246173
1008.591 .0246115
1009.186 .0246064
1009.780 .0246015
1010.374 .0245965
1010.967 .0245909
1011.561 .0245848
1012.154 .0245780
1012.746 .0245703
1013.339 .0245622
1013.931 .0245539
1014.523 .0245459
1015.115 .0245377
1015.706 .0245300
1016.298 .0245233
1016.888 .0245168
1017.479 .0245117
1018.069 .0245080
1018.660 .0245056
1019.250 .0245047
1019.839 .0245045
1020.429 .0245052
1021.018 .0245073
1021.607 .0245109
1022.195 .0245156
1022.784 .0245215
1023.372 .0245287
1023.960 .0245366
1024.547 .0245453
1025.135 .0245551
1025.722 .0245647
1026.309 .0245737
1026.896 .0245826
1027.483 .0245906
1028.069 .0245981
1028.655 .0246053
1029.241 .0246124
1029.827 .0246204
1030.412 .0246290
1030.997 .0246379
1031.582 .0246472
1032.167 .0246576
1032.752 .0246685
1033.336 .0246781
1033.921 .0246871
1034.505 .0246950
1035.089 .0247008
1035.672 .0247057
1036.256 .0247094
1036.839 .0247120
1037.422 .0247139
1038.005 .0247155
1038.588 .0247169
1039.171 .0247187
1039.753 .0247211
1040.335 .0247229
1040.918 .0247254
1041.500 .0247283
1042.081 .0247305
1042.663 .0247331
1043.244 .0247366
1043.826 .0247405
1044.407 .0247446
1044.988 .0247503
1045.569 .0247568
1046.150 .0247647
1046.730 .0247736
1047.311 .0247825
1047.891 .0247907
1048.471 .0247979
1049.052 .0248032
1049.632 .0248059
1050.211 .0248072
1050.791 .0248063
1051.371 .0248028
1051.950 .0247989
1052.530 .0247939
1053.109 .0247887
1053.688 .0247841
1054.268 .0247805
1054.847 .0247776
1055.426 .0247765
1056.005 .0247775
1056.583 .0247804
1057.162 .0247856
1057.741 .0247934
1058.319 .0248028
1058.898 .0248143
1059.476 .0248272
1060.055 .0248411
1060.633 .0248567
1061.211 .0248739
1061.790 .0248913
1062.368 .0249097
1062.946 .0249293
1063.524 .0249495
1064.102 .0249703
1064.680 .0249908
1065.258 .0250100
1065.836 .0250279
1066.414 .0250437
1066.992 .0250574
1067.570 .0250692
1068.148 .0250791
1068.726 .0250865
1069.304 .0250925
1069.882 .0250972
1070.460 .0251005
1071.038 .0251035
1071.616 .0251072
1072.194 .0251112
1072.772 .0251155
1073.350 .0251202
1073.928 .0251249
1074.506 .0251303
1075.084 .0251351
1075.662 .0251381
1076.240 .0251412
1076.819 .0251445
1077.397 .0251481
1077.976 .0251543
1078.554 .0251636
1079.133 .0251769
1079.711 .0251939
1080.290 .0252140
1080.869 .0252373
1081.448 .0252621
1082.027 .0252874
1082.606 .0253134
1083.185 .0253391
1083.764 .0253660
1084.343 .0253923
1084.923 .0254197
1085.502 .0254477
1086.082 .0254762
1086.662 .0255057
1087.242 .0255345
1087.822 .0255625
1088.402 .0255895
1088.983 .0256130
1089.563 .0256349
1090.144 .0256533
1090.725 .0256686
1091.306 .0256813
1091.887 .0256931
1092.469 .0257037
1093.050 .0257166
1093.632 .0257329
1094.214 .0257531
1094.796 .0257786
1095.379 .0258081
1095.961 .0258394
1096.544 .0258704
1097.127 .0259009
1097.710 .0259293
1098.294 .0259564
1098.877 .0259851
1099.461 .0260140
1100.046 .0260465
1100.630 .0260821
1101.215 .0261193
1101.800 .0261576
1102.385 .0261939
1102.970 .0262255
1103.556 .0262499
1104.142 .0262691
1104.728 .0262842
1105.315 .0262991
1105.902 .0263156
1106.489 .0263355
1107.077 .0263611
1107.664 .0263905
1108.253 .0264232
1108.841 .0264575
1109.430 .0264910
1110.019 .0265202
1110.609 .0265464
1111.198 .0265692
1111.789 .0265902
1112.379 .0266144
1112.970 .0266413
1113.561 .0266727
1114.153 .0267082
1114.745 .0267457
1115.338 .0267840
1115.931 .0268234
1116.524 .0268633
1117.117 .0268997
1117.712 .0269354
1118.306 .0269719
1118.901 .0270101
1119.496 .0270509
1120.092 .0270984
1120.689 .0271507
1121.285 .0272070
1121.882 .0272653
1122.480 .0273274
1123.078 .0273912
1123.677 .0274552
1124.276 .0275205
1124.875 .0275857
1125.476 .0276537
1126.076 .0277261
1126.677 .0277971
1127.279 .0278698
1127.881 .0279416
1128.484 .0280118
1129.087 .0280743
1129.691 .0281367
1130.295 .0281963
1130.900 .0282564
1131.505 .0283254
1132.111 .0284034
1132.718 .0284878
1133.325 .0285802
1133.933 .0286774
1134.541 .0287780
1135.150 .0288752
1135.760 .0289663
1136.370 .0290484
1136.981 .0291354
1137.592 .0292231
1138.204 .0293132
1138.817 .0294122
1139.431 .0295301
1140.045 .0296544
1140.660 .0297863
1141.275 .0299183
1141.891 .0300710
1142.508 .0303373
1143.126 .0302695
1143.744 .0304374
1144.363 .0305114
1144.983 .0311959
