Measurement Sequence started on: 15-12-46-377
Integration time: 28
Scans to Average: 2 
>>>>>Begin Spectral Data<<<<<
432.689 .0000100
433.621 .0000100
434.552 .0000100
435.482 .0000100
436.410 .0000100
437.337 .0000100
438.262 .0271855
439.187 .0576485
440.110 .0954369
441.031 .1380519
441.952 .1794367
442.871 .2119749
443.789 .2297613
444.705 .2307982
445.621 .2175845
446.535 .1955472
447.447 .1706290
448.359 .1325192
449.269 .1136548
450.178 .1018012
451.086 .0934080
451.993 .0869637
452.898 .0818797
453.803 .0777042
454.706 .0742123
455.608 .0712292
456.508 .0686660
457.408 .0664370
458.306 .0644674
459.204 .0627172
460.100 .0611741
460.995 .0597937
461.888 .0585393
462.781 .0573923
463.673 .0563523
464.563 .0553945
465.452 .0544938
466.340 .0536348
467.228 .0528274
468.114 .0520666
468.999 .0513614
469.882 .0507023
470.765 .0501035
471.647 .0495586
472.528 .0490619
473.407 .0486078
474.286 .0481941
475.163 .0478086
476.040 .0474521
476.915 .0471224
477.790 .0468207
478.663 .0465404
479.535 .0462862
480.407 .0460601
481.277 .0458706
482.147 .0457059
483.015 .0455635
483.883 .0454405
484.749 .0453379
485.615 .0452476
486.479 .0451733
487.343 .0451216
488.206 .0450994
489.067 .0451069
489.928 .0451370
490.788 .0451918
491.647 .0452744
492.505 .0453762
493.362 .0454922
494.218 .0456232
495.073 .0457709
495.928 .0459315
496.781 .0461060
497.634 .0463041
498.486 .0465239
499.337 .0467684
500.187 .0470289
501.036 .0473044
501.884 .0475886
502.731 .0478714
503.578 .0481508
504.424 .0484339
505.268 .0487195
506.113 .0490062
506.956 .0493073
507.798 .0496514
508.640 .0500481
509.480 .0505133
510.320 .0510639
511.160 .0517242
511.998 .0524995
512.836 .0534010
513.672 .0544355
514.508 .0556109
515.344 .0569337
516.178 .0584190
517.012 .0601035
517.845 .0620227
518.677 .0641859
519.508 .0666223
520.339 .0693965
521.169 .0725609
521.998 .0760904
522.826 .0800318
523.654 .0844125
524.481 .0892289
525.307 .0944852
526.133 .1001297
526.958 .1060950
527.782 .1123253
528.605 .1187133
529.428 .1251268
530.250 .1311764
531.072 .1367303
531.892 .1414157
532.712 .1450617
533.532 .1474662
534.350 .1484249
535.168 .1478217
535.986 .1457537
536.802 .1422724
537.618 .1375461
538.434 .1318044
539.249 .1254966
540.063 .1188234
540.876 .1121493
541.689 .1056421
542.501 .0995315
543.313 .0939471
544.124 .0889386
544.934 .0843675
545.744 .0802137
546.553 .0764294
547.361 .0729920
548.169 .0698793
548.976 .0670684
549.783 .0645555
550.589 .0623426
551.395 .0603821
552.200 .0586455
553.004 .0570794
553.808 .0556565
554.611 .0543452
555.414 .0531319
556.216 .0520102
557.018 .0509869
557.819 .0500698
558.619 .0492399
559.419 .0484891
560.218 .0478161
561.017 .0472007
561.815 .0466250
562.613 .0460781
563.410 .0455367
564.207 .0449930
565.003 .0444510
565.799 .0439112
566.594 .0433730
567.388 .0428532
568.182 .0423493
568.976 .0418566
569.769 .0413708
570.562 .0408888
571.354 .0403967
572.145 .0399072
572.936 .0394164
573.727 .0389257
574.517 .0384397
575.307 .0379629
576.096 .0374992
576.885 .0370541
577.673 .0366336
578.461 .0362384
579.248 .0358646
580.035 .0355205
580.821 .0352016
581.607 .0349074
582.392 .0346403
583.177 .0343979
583.962 .0341797
584.746 .0339876
585.529 .0338151
586.313 .0336599
587.095 .0335205
587.878 .0333958
588.660 .0332821
589.441 .0331781
590.222 .0330799
591.003 .0329876
591.783 .0329004
592.563 .0328170
593.342 .0327366
594.121 .0326592
594.899 .0325870
595.678 .0325186
596.455 .0324539
597.233 .0323917
598.009 .0323307
598.786 .0322727
599.562 .0322164
600.338 .0321617
601.113 .0321091
601.888 .0320591
602.663 .0320121
603.437 .0319687
604.211 .0319292
604.984 .0318926
605.757 .0318596
606.530 .0318291
607.302 .0318001
608.074 .0317729
608.845 .0317469
609.616 .0317221
610.387 .0316983
611.158 .0316765
611.928 .0316544
612.697 .0316317
613.467 .0316094
614.236 .0315866
615.004 .0315634
615.773 .0315399
616.541 .0315170
617.308 .0314952
618.076 .0314753
618.843 .0314565
619.609 .0314391
620.375 .0314236
621.141 .0314078
621.907 .0313911
622.672 .0313741
623.437 .0313564
624.202 .0313374
624.966 .0313182
625.730 .0312995
626.493 .0312804
627.257 .0312615
628.020 .0312424
628.782 .0312225
629.545 .0312011
630.307 .0311769
631.068 .0311499
631.830 .0311210
632.591 .0310904
633.352 .0310582
634.112 .0310265
634.872 .0309964
635.632 .0309674
636.392 .0309395
637.151 .0309137
637.910 .0308890
638.668 .0308651
639.427 .0308413
640.185 .0308175
640.943 .0307935
641.700 .0307704
642.457 .0307486
643.214 .0307284
643.971 .0307092
644.727 .0306916
645.483 .0306747
646.239 .0306584
646.994 .0306412
647.750 .0306226
648.505 .0306035
649.259 .0305842
650.014 .0305640
650.768 .0305439
651.521 .0305247
652.275 .0305073
653.028 .0304903
653.781 .0304741
654.534 .0304579
655.286 .0304415
656.039 .0304239
656.791 .0304054
657.542 .0303849
658.294 .0303632
659.045 .0303399
659.796 .0303155
660.546 .0302899
661.297 .0302634
662.047 .0302354
662.796 .0302068
663.546 .0301779
664.295 .0301488
665.044 .0301194
665.793 .0300914
666.542 .0300644
667.290 .0300385
668.038 .0300125
668.786 .0299872
669.533 .0299622
670.281 .0299376
671.028 .0299134
671.774 .0298905
672.521 .0298696
673.267 .0298514
674.013 .0298357
674.759 .0298226
675.505 .0298107
676.250 .0298003
676.995 .0297897
677.740 .0297785
678.484 .0297663
679.229 .0297534
679.973 .0297400
680.717 .0297273
681.460 .0297149
682.204 .0297031
682.947 .0296920
683.690 .0296819
684.433 .0296715
685.175 .0296603
685.917 .0296480
686.659 .0296348
687.401 .0296202
688.142 .0296053
688.884 .0295895
689.625 .0295744
690.365 .0295601
691.106 .0295466
691.846 .0295339
692.586 .0295218
693.326 .0295106
694.066 .0295001
694.805 .0294899
695.545 .0294797
696.284 .0294694
697.022 .0294594
697.761 .0294495
698.499 .0294399
699.237 .0294306
699.975 .0294216
700.713 .0294128
701.450 .0294035
702.187 .0293928
702.924 .0293803
703.661 .0293658
704.397 .0293485
705.133 .0293292
705.869 .0293076
706.605 .0292847
707.341 .0292612
708.076 .0292380
708.811 .0292151
709.546 .0291923
710.281 .0291698
711.015 .0291469
711.749 .0291229
712.483 .0290985
713.217 .0290729
713.950 .0290469
714.684 .0290207
715.417 .0289947
716.150 .0289691
716.882 .0289447
717.615 .0289214
718.347 .0288988
719.079 .0288767
719.811 .0288546
720.542 .0288320
721.273 .0288085
722.005 .0287843
722.735 .0287592
723.466 .0287337
724.196 .0287081
724.927 .0286822
725.656 .0286566
726.386 .0286316
727.116 .0286076
727.845 .0285849
728.574 .0285630
729.303 .0285422
730.031 .0285222
730.760 .0285031
731.488 .0284842
732.216 .0284661
732.944 .0284486
733.671 .0284318
734.398 .0284158
735.125 .0284008
735.852 .0283869
736.579 .0283738
737.305 .0283622
738.031 .0283515
738.757 .0283414
739.483 .0283313
740.208 .0283211
740.933 .0283111
741.658 .0283004
742.383 .0282887
743.108 .0282760
743.832 .0282621
744.556 .0282471
745.280 .0282308
746.004 .0282137
746.727 .0281964
747.450 .0281792
748.173 .0281621
748.896 .0281457
749.618 .0281301
750.340 .0281151
751.062 .0281011
751.784 .0280882
752.506 .0280764
753.227 .0280655
753.948 .0280559
754.669 .0280480
755.389 .0280421
756.110 .0280380
756.830 .0280356
757.550 .0280351
758.269 .0280360
758.989 .0280372
759.708 .0280381
760.427 .0280383
761.146 .0280373
761.864 .0280348
762.582 .0280308
763.300 .0280251
764.018 .0280185
764.736 .0280108
765.453 .0280028
766.170 .0279943
766.887 .0279859
767.603 .0279777
768.320 .0279703
769.036 .0279638
769.751 .0279583
770.467 .0279537
771.182 .0279503
771.897 .0279479
772.612 .0279460
773.327 .0279441
774.041 .0279423
774.755 .0279404
775.469 .0279384
776.183 .0279361
776.896 .0279337
777.609 .0279306
778.322 .0279273
779.035 .0279226
779.747 .0279161
780.459 .0279081
781.171 .0278983
781.882 .0278867
782.594 .0278735
783.305 .0278592
784.016 .0278441
784.726 .0278291
785.436 .0278149
786.147 .0278008
786.856 .0277877
787.566 .0277757
788.275 .0277641
788.984 .0277532
789.693 .0277426
790.401 .0277318
791.110 .0277203
791.818 .0277082
792.525 .0276944
793.233 .0276790
793.940 .0276621
794.647 .0276437
795.353 .0276236
796.060 .0276024
796.766 .0275802
797.472 .0275570
798.177 .0275330
798.883 .0275084
799.588 .0274828
800.292 .0274568
800.997 .0274303
801.701 .0274037
802.405 .0273775
803.109 .0273529
803.812 .0273295
804.515 .0273078
805.218 .0272876
805.921 .0272681
806.623 .0272489
807.325 .0272296
808.027 .0272099
808.728 .0271895
809.429 .0271682
810.130 .0271464
810.831 .0271241
811.531 .0271020
812.231 .0270796
812.931 .0270566
813.630 .0270327
814.330 .0270072
815.029 .0269799
815.727 .0269509
816.426 .0269205
817.124 .0268893
817.821 .0268580
818.519 .0268275
819.216 .0267988
819.913 .0267722
820.609 .0267482
821.306 .0267262
822.002 .0267062
822.697 .0266875
823.393 .0266695
824.088 .0266517
824.783 .0266342
825.477 .0266169
826.171 .0266002
826.865 .0265845
827.559 .0265704
828.252 .0265580
828.945 .0265475
829.638 .0265380
830.330 .0265293
831.023 .0265202
831.714 .0265107
832.406 .0264999
833.097 .0264882
833.788 .0264750
834.479 .0264609
835.169 .0264463
835.859 .0264321
836.548 .0264187
837.238 .0264067
837.927 .0263958
838.615 .0263867
839.304 .0263787
839.992 .0263718
840.680 .0263659
841.367 .0263609
842.054 .0263570
842.741 .0263543
843.428 .0263528
844.114 .0263531
844.800 .0263551
845.485 .0263594
846.170 .0263653
846.855 .0263724
847.540 .0263804
848.224 .0263891
848.908 .0263981
849.592 .0264075
850.275 .0264167
850.958 .0264262
851.641 .0264356
852.323 .0264447
853.005 .0264537
853.687 .0264626
854.368 .0264712
855.049 .0264793
855.730 .0264867
856.410 .0264927
857.090 .0264974
857.769 .0265013
858.449 .0265040
859.128 .0265060
859.806 .0265074
860.485 .0265084
861.163 .0265096
861.840 .0265117
862.518 .0265139
863.195 .0265163
863.871 .0265189
864.548 .0265209
865.224 .0265218
865.899 .0265219
866.574 .0265214
867.249 .0265203
867.924 .0265193
868.598 .0265183
869.272 .0265175
869.946 .0265174
870.619 .0265176
871.292 .0265178
871.964 .0265177
872.636 .0265167
873.308 .0265143
873.979 .0265104
874.651 .0265054
875.321 .0264993
875.992 .0264932
876.662 .0264873
877.331 .0264814
878.001 .0264756
878.670 .0264700
879.338 .0264640
880.007 .0264575
880.675 .0264503
881.342 .0264422
882.009 .0264330
882.676 .0264228
883.343 .0264118
884.009 .0264002
884.675 .0263879
885.340 .0263753
886.005 .0263623
886.670 .0263493
887.334 .0263361
887.998 .0263229
888.662 .0263100
889.325 .0262973
889.988 .0262845
890.650 .0262720
891.312 .0262596
891.974 .0262472
892.636 .0262347
893.297 .0262223
893.957 .0262099
894.618 .0261972
895.278 .0261841
895.937 .0261707
896.596 .0261570
897.255 .0261428
897.914 .0261274
898.572 .0261112
899.230 .0260940
899.887 .0260756
900.544 .0260558
901.201 .0260348
901.857 .0260125
902.513 .0259889
903.168 .0259637
903.823 .0259373
904.478 .0259100
905.132 .0258816
905.786 .0258523
906.440 .0258223
907.093 .0257914
907.746 .0257596
908.399 .0257270
909.051 .0256942
909.703 .0256607
910.354 .0256267
911.005 .0255920
911.656 .0255569
912.306 .0255216
912.956 .0254860
913.605 .0254505
914.254 .0254158
914.903 .0253818
915.551 .0253490
916.199 .0253180
916.847 .0252889
917.494 .0252617
918.141 .0252366
918.788 .0252131
919.434 .0251908
920.079 .0251686
920.725 .0251467
921.370 .0251247
922.014 .0251028
922.658 .0250810
923.302 .0250591
923.946 .0250376
924.589 .0250163
925.231 .0249949
925.873 .0249731
926.515 .0249505
927.157 .0249270
927.798 .0249016
928.439 .0248742
929.079 .0248450
929.719 .0248141
930.359 .0247822
930.998 .0247501
931.637 .0247180
932.275 .0246870
932.913 .0246571
933.551 .0246285
934.188 .0246013
934.825 .0245754
935.462 .0245510
936.098 .0245281
936.733 .0245066
937.369 .0244864
938.004 .0244675
938.638 .0244503
939.273 .0244342
939.907 .0244198
940.540 .0244068
941.173 .0243952
941.806 .0243850
942.438 .0243761
943.070 .0243676
943.702 .0243597
944.333 .0243518
944.964 .0243438
945.594 .0243352
946.224 .0243262
946.854 .0243166
947.483 .0243071
948.112 .0242982
948.741 .0242897
949.369 .0242817
949.996 .0242753
950.624 .0242694
951.251 .0242643
951.878 .0242599
952.504 .0242562
953.130 .0242530
953.755 .0242507
954.380 .0242490
955.005 .0242476
955.629 .0242471
956.253 .0242474
956.877 .0242487
957.500 .0242517
958.123 .0242558
958.746 .0242605
959.368 .0242655
959.990 .0242708
960.611 .0242755
961.232 .0242802
961.853 .0242848
962.473 .0242895
963.093 .0242946
963.712 .0242996
964.331 .0243052
964.950 .0243112
965.569 .0243181
966.187 .0243256
966.804 .0243335
967.422 .0243418
968.039 .0243501
968.655 .0243589
969.272 .0243685
969.887 .0243787
970.503 .0243898
971.118 .0244016
971.733 .0244144
972.347 .0244280
972.961 .0244419
973.575 .0244558
974.188 .0244697
974.801 .0244828
975.414 .0244949
976.026 .0245061
976.638 .0245169
977.250 .0245278
977.861 .0245386
978.472 .0245495
979.083 .0245598
979.693 .0245694
980.303 .0245780
980.912 .0245853
981.521 .0245909
982.130 .0245954
982.738 .0245986
983.346 .0246018
983.954 .0246050
984.562 .0246092
985.169 .0246146
985.775 .0246213
986.382 .0246289
986.988 .0246369
987.594 .0246453
988.199 .0246542
988.804 .0246630
989.409 .0246727
990.013 .0246828
990.617 .0246936
991.221 .0247051
991.824 .0247175
992.427 .0247306
993.030 .0247445
993.632 .0247586
994.234 .0247731
994.836 .0247877
995.438 .0248024
996.039 .0248168
996.640 .0248303
997.240 .0248427
997.840 .0248536
998.440 .0248621
999.040 .0248686
999.639 .0248731
1000.238 .0248763
1000.836 .0248786
1001.435 .0248808
1002.033 .0248833
1002.630 .0248856
1003.228 .0248883
1003.825 .0248908
1004.422 .0248929
1005.018 .0248944
1005.614 .0248952
1006.210 .0248953
1006.806 .0248958
1007.401 .0248965
1007.996 .0248969
1008.591 .0248976
1009.186 .0248990
1009.780 .0248998
1010.374 .0248998
1010.967 .0248984
1011.561 .0248953
1012.154 .0248902
1012.746 .0248840
1013.339 .0248761
1013.931 .0248679
1014.523 .0248596
1015.115 .0248511
1015.706 .0248425
1016.298 .0248341
1016.888 .0248256
1017.479 .0248168
1018.069 .0248084
1018.660 .0247995
1019.250 .0247902
1019.839 .0247812
1020.429 .0247719
1021.018 .0247638
1021.607 .0247561
1022.195 .0247486
1022.784 .0247409
1023.372 .0247339
1023.960 .0247272
1024.547 .0247209
1025.135 .0247156
1025.722 .0247105
1026.309 .0247058
1026.896 .0247012
1027.483 .0246959
1028.069 .0246902
1028.655 .0246846
1029.241 .0246787
1029.827 .0246721
1030.412 .0246660
1030.997 .0246597
1031.582 .0246538
1032.167 .0246485
1032.752 .0246433
1033.336 .0246370
1033.921 .0246290
1034.505 .0246190
1035.089 .0246063
1035.672 .0245918
1036.256 .0245757
1036.839 .0245584
1037.422 .0245409
1038.005 .0245235
1038.588 .0245066
1039.171 .0244901
1039.753 .0244740
1040.335 .0244575
1040.918 .0244402
1041.500 .0244221
1042.081 .0244025
1042.663 .0243821
1043.244 .0243612
1043.826 .0243403
1044.407 .0243186
1044.988 .0242968
1045.569 .0242741
1046.150 .0242508
1046.730 .0242270
1047.311 .0242037
1047.891 .0241810
1048.471 .0241595
1049.052 .0241399
1049.632 .0241217
1050.211 .0241050
1050.791 .0240901
1051.371 .0240760
1051.950 .0240632
1052.530 .0240514
1053.109 .0240397
1053.688 .0240276
1054.268 .0240160
1054.847 .0240050
1055.426 .0239945
1056.005 .0239846
1056.583 .0239751
1057.162 .0239647
1057.741 .0239537
1058.319 .0239420
1058.898 .0239285
1059.476 .0239144
1060.055 .0238998
1060.633 .0238839
1061.211 .0238677
1061.790 .0238512
1062.368 .0238353
1062.946 .0238200
1063.524 .0238059
1064.102 .0237926
1064.680 .0237805
1065.258 .0237694
1065.836 .0237597
1066.414 .0237503
1066.992 .0237426
1067.570 .0237359
1068.148 .0237299
1068.726 .0237237
1069.304 .0237190
1069.882 .0237156
1070.460 .0237139
1071.038 .0237140
1071.616 .0237160
1072.194 .0237175
1072.772 .0237201
1073.350 .0237224
1073.928 .0237225
1074.506 .0237197
1075.084 .0237149
1075.662 .0237064
1076.240 .0236958
1076.819 .0236828
1077.397 .0236688
1077.976 .0236546
1078.554 .0236432
1079.133 .0236320
1079.711 .0236215
1080.290 .0236130
1080.869 .0236055
1081.448 .0235974
1082.027 .0235897
1082.606 .0235818
1083.185 .0235751
1083.764 .0235704
1084.343 .0235693
1084.923 .0235702
1085.502 .0235752
1086.082 .0235837
1086.662 .0235956
1087.242 .0236089
1087.822 .0236239
1088.402 .0236388
1088.983 .0236540
1089.563 .0236690
1090.144 .0236832
1090.725 .0236976
1091.306 .0237140
1091.887 .0237312
1092.469 .0237481
1093.050 .0237654
1093.632 .0237850
1094.214 .0238044
1094.796 .0238249
1095.379 .0238442
1095.961 .0238636
1096.544 .0238827
1097.127 .0239010
1097.710 .0239176
1098.294 .0239340
1098.877 .0239493
1099.461 .0239636
1100.046 .0239775
1100.630 .0239932
1101.215 .0240103
1101.800 .0240308
1102.385 .0240533
1102.970 .0240763
1103.556 .0240989
1104.142 .0241225
1104.728 .0241462
1105.315 .0241734
1105.902 .0242014
1106.489 .0242326
1107.077 .0242668
1107.664 .0243059
1108.253 .0243486
1108.841 .0243938
1109.430 .0244406
1110.019 .0244867
1110.609 .0245289
1111.198 .0245684
1111.789 .0246049
1112.379 .0246451
1112.970 .0246885
1113.561 .0247380
1114.153 .0247924
1114.745 .0248519
1115.338 .0249145
1115.931 .0249794
1116.524 .0250411
1117.117 .0251011
1117.712 .0251561
1118.306 .0252081
1118.901 .0252575
1119.496 .0253091
1120.092 .0253642
1120.689 .0254234
1121.285 .0254831
1121.882 .0255428
1122.480 .0255974
1123.078 .0256498
1123.677 .0256961
1124.276 .0257408
1124.875 .0257843
1125.476 .0258291
1126.076 .0258764
1126.677 .0259320
1127.279 .0259934
1127.881 .0260628
1128.484 .0261353
1129.087 .0262122
1129.691 .0262877
1130.295 .0263615
1130.900 .0264335
1131.505 .0265084
1132.111 .0265860
1132.718 .0266682
1133.325 .0267522
1133.933 .0268418
1134.541 .0269340
1135.150 .0270318
1135.760 .0271316
1136.370 .0272367
1136.981 .0273448
1137.592 .0274537
1138.204 .0275627
1138.817 .0276795
1139.431 .0278023
1140.045 .0279335
1140.660 .0280807
1141.275 .0282460
1141.891 .0284199
1142.508 .0285604
1143.126 .0287590
1143.744 .0291259
1144.363 .0293883
1144.983 .0293550
