Measurement Sequence started on: 15-12-46-377
Integration time: 28
Scans to Average: 2 
>>>>>Begin Spectral Data<<<<<
432.689 .0000100
433.621 .0000100
434.552 .0000100
435.482 .0000100
436.410 .0000100
437.337 .0000100
438.262 .0290727
439.187 .0612779
440.110 .1012361
441.031 .1462406
441.952 .1897891
442.871 .2238492
443.789 .2421974
444.705 .2427760
445.621 .2283233
446.535 .2046543
447.447 .1780735
448.359 .1374976
449.269 .1177699
450.178 .1054027
451.086 .0967047
451.993 .0901082
452.898 .0849095
453.803 .0806385
454.706 .0770718
455.608 .0739844
456.508 .0712689
457.408 .0688768
458.306 .0667483
459.204 .0648523
460.100 .0631669
460.995 .0616645
461.888 .0603117
462.781 .0590960
463.673 .0579774
464.563 .0569224
465.452 .0559304
466.340 .0549898
467.228 .0541010
468.114 .0532676
468.999 .0525012
469.882 .0517983
470.765 .0511677
471.647 .0506106
472.528 .0501118
473.407 .0496737
474.286 .0492810
475.163 .0489309
476.040 .0486288
476.915 .0483700
477.790 .0481495
478.663 .0479725
479.535 .0478419
480.407 .0477531
481.277 .0476944
482.147 .0476594
483.015 .0476421
483.883 .0476449
484.749 .0476632
485.615 .0476956
486.479 .0477418
487.343 .0478111
488.206 .0479005
489.067 .0479987
489.928 .0481023
490.788 .0482063
491.647 .0483071
492.505 .0484062
493.362 .0484919
494.218 .0485699
495.073 .0486467
495.928 .0487393
496.781 .0488439
497.634 .0489755
498.486 .0491363
499.337 .0493268
500.187 .0495502
501.036 .0498066
501.884 .0500984
502.731 .0504175
503.578 .0507774
504.424 .0511781
505.268 .0516114
506.113 .0520765
506.956 .0525686
507.798 .0531169
508.640 .0537169
509.480 .0543734
510.320 .0550982
511.160 .0559107
511.998 .0568177
512.836 .0578166
513.672 .0589191
514.508 .0601242
515.344 .0614423
516.178 .0628700
517.012 .0644552
517.845 .0662353
518.677 .0682411
519.508 .0705090
520.339 .0731100
521.169 .0761282
521.998 .0795769
522.826 .0835049
523.654 .0879400
524.481 .0929188
525.307 .0984520
526.133 .1045078
526.958 .1110352
527.782 .1179728
528.605 .1251448
529.428 .1323889
530.250 .1392347
531.072 .1454848
531.892 .1507367
532.712 .1547504
533.532 .1573246
534.350 .1583123
535.168 .1576131
535.986 .1553118
536.802 .1515275
537.618 .1465090
538.434 .1404156
539.249 .1337112
540.063 .1265574
540.876 .1193451
541.689 .1122740
542.501 .1055651
543.313 .0993853
544.124 .0938019
544.934 .0887718
545.744 .0842195
546.553 .0801055
547.361 .0764294
548.169 .0731396
548.976 .0702203
549.783 .0676279
550.589 .0653486
551.395 .0633116
552.200 .0614928
553.004 .0598579
553.808 .0583611
554.611 .0569896
555.414 .0557221
556.216 .0545659
557.018 .0535229
557.819 .0525984
558.619 .0517590
559.419 .0510085
560.218 .0503302
561.017 .0496927
561.815 .0490793
562.613 .0484671
563.410 .0478451
564.207 .0472098
565.003 .0465738
565.799 .0459391
566.594 .0453048
567.388 .0446994
568.182 .0441096
568.976 .0435430
569.769 .0429974
570.562 .0424653
571.354 .0419424
572.145 .0414307
572.936 .0409264
573.727 .0404225
574.517 .0399243
575.307 .0394400
576.096 .0389726
576.885 .0385255
577.673 .0381048
578.461 .0377122
579.248 .0373503
580.035 .0370202
580.821 .0367174
581.607 .0364391
582.392 .0361843
583.177 .0359498
583.962 .0357334
584.746 .0355351
585.529 .0353569
586.313 .0351959
587.095 .0350534
587.878 .0349280
588.660 .0348146
589.441 .0347105
590.222 .0346138
591.003 .0345220
591.783 .0344354
592.563 .0343518
593.342 .0342711
594.121 .0341914
594.899 .0341148
595.678 .0340399
596.455 .0339666
597.233 .0338973
598.009 .0338290
598.786 .0337627
599.562 .0336992
600.338 .0336372
601.113 .0335776
601.888 .0335201
602.663 .0334639
603.437 .0334095
604.211 .0333568
604.984 .0333046
605.757 .0332537
606.530 .0332062
607.302 .0331615
608.074 .0331204
608.845 .0330837
609.616 .0330511
610.387 .0330218
611.158 .0329963
611.928 .0329718
612.697 .0329478
613.467 .0329244
614.236 .0329008
615.004 .0328764
615.773 .0328526
616.541 .0328291
617.308 .0328061
618.076 .0327847
618.843 .0327643
619.609 .0327446
620.375 .0327259
621.141 .0327077
621.907 .0326901
622.672 .0326727
623.437 .0326550
624.202 .0326378
624.966 .0326218
625.730 .0326065
626.493 .0325913
627.257 .0325765
628.020 .0325620
628.782 .0325471
629.545 .0325317
630.307 .0325153
631.068 .0324977
631.830 .0324793
632.591 .0324582
633.352 .0324352
634.112 .0324102
634.872 .0323819
635.632 .0323510
636.392 .0323181
637.151 .0322833
637.910 .0322469
638.668 .0322104
639.427 .0321744
640.185 .0321389
640.943 .0321049
641.700 .0320724
642.457 .0320410
643.214 .0320110
643.971 .0319812
644.727 .0319520
645.483 .0319237
646.239 .0318957
646.994 .0318675
647.750 .0318396
648.505 .0318120
649.259 .0317840
650.014 .0317556
650.768 .0317268
651.521 .0316970
652.275 .0316660
653.028 .0316335
653.781 .0315997
654.534 .0315652
655.286 .0315302
656.039 .0314958
656.791 .0314627
657.542 .0314300
658.294 .0313984
659.045 .0313685
659.796 .0313395
660.546 .0313110
661.297 .0312826
662.047 .0312545
662.796 .0312261
663.546 .0311973
664.295 .0311680
665.044 .0311387
665.793 .0311101
666.542 .0310816
667.290 .0310532
668.038 .0310252
668.786 .0309973
669.533 .0309691
670.281 .0309415
671.028 .0309143
671.774 .0308874
672.521 .0308614
673.267 .0308373
674.013 .0308152
674.759 .0307952
675.505 .0307772
676.250 .0307609
676.995 .0307461
677.740 .0307326
678.484 .0307199
679.229 .0307083
679.973 .0306983
680.717 .0306893
681.460 .0306811
682.204 .0306743
682.947 .0306684
683.690 .0306629
684.433 .0306575
685.175 .0306522
685.917 .0306461
686.659 .0306391
687.401 .0306316
688.142 .0306237
688.884 .0306158
689.625 .0306076
690.365 .0305985
691.106 .0305887
691.846 .0305783
692.586 .0305663
693.326 .0305527
694.066 .0305385
694.805 .0305230
695.545 .0305065
696.284 .0304892
697.022 .0304717
697.761 .0304539
698.499 .0304359
699.237 .0304176
699.975 .0303987
700.713 .0303798
701.450 .0303602
702.187 .0303403
702.924 .0303208
703.661 .0303014
704.397 .0302820
705.133 .0302632
705.869 .0302451
706.605 .0302270
707.341 .0302092
708.076 .0301910
708.811 .0301724
709.546 .0301534
710.281 .0301332
711.015 .0301122
711.749 .0300908
712.483 .0300687
713.217 .0300453
713.950 .0300215
714.684 .0299968
715.417 .0299706
716.150 .0299433
716.882 .0299153
717.615 .0298863
718.347 .0298569
719.079 .0298273
719.811 .0297975
720.542 .0297680
721.273 .0297388
722.005 .0297090
722.735 .0296792
723.466 .0296494
724.196 .0296190
724.927 .0295878
725.656 .0295564
726.386 .0295249
727.116 .0294937
727.845 .0294631
728.574 .0294331
729.303 .0294035
730.031 .0293752
730.760 .0293474
731.488 .0293200
732.216 .0292929
732.944 .0292669
733.671 .0292415
734.398 .0292172
735.125 .0291940
735.852 .0291725
736.579 .0291524
737.305 .0291342
738.031 .0291177
738.757 .0291025
739.483 .0290883
740.208 .0290754
740.933 .0290631
741.658 .0290519
742.383 .0290407
743.108 .0290300
743.832 .0290197
744.556 .0290104
745.280 .0290013
746.004 .0289929
746.727 .0289855
747.450 .0289791
748.173 .0289729
748.896 .0289671
749.618 .0289613
750.340 .0289556
751.062 .0289502
751.784 .0289454
752.506 .0289411
753.227 .0289380
753.948 .0289356
754.669 .0289340
755.389 .0289329
756.110 .0289320
756.830 .0289306
757.550 .0289287
758.269 .0289261
758.989 .0289224
759.708 .0289181
760.427 .0289139
761.146 .0289100
761.864 .0289073
762.582 .0289053
763.300 .0289040
764.018 .0289034
764.736 .0289030
765.453 .0289023
766.170 .0289016
766.887 .0289006
767.603 .0288989
768.320 .0288966
769.036 .0288940
769.751 .0288911
770.467 .0288883
771.182 .0288855
771.897 .0288827
772.612 .0288797
773.327 .0288766
774.041 .0288724
774.755 .0288678
775.469 .0288625
776.183 .0288564
776.896 .0288495
777.609 .0288420
778.322 .0288341
779.035 .0288263
779.747 .0288193
780.459 .0288131
781.171 .0288080
781.882 .0288036
782.594 .0287995
783.305 .0287959
784.016 .0287923
784.726 .0287883
785.436 .0287834
786.147 .0287777
786.856 .0287708
787.566 .0287629
788.275 .0287541
788.984 .0287452
789.693 .0287356
790.401 .0287252
791.110 .0287140
791.818 .0287012
792.525 .0286867
793.233 .0286702
793.940 .0286519
794.647 .0286318
795.353 .0286101
796.060 .0285867
796.766 .0285624
797.472 .0285378
798.177 .0285131
798.883 .0284879
799.588 .0284630
800.292 .0284381
800.997 .0284125
801.701 .0283867
802.405 .0283610
803.109 .0283350
803.812 .0283092
804.515 .0282842
805.218 .0282595
805.921 .0282353
806.623 .0282116
807.325 .0281882
808.027 .0281652
808.728 .0281419
809.429 .0281177
810.130 .0280927
810.831 .0280675
811.531 .0280413
812.231 .0280139
812.931 .0279864
813.630 .0279582
814.330 .0279291
815.029 .0278995
815.727 .0278695
816.426 .0278394
817.124 .0278098
817.821 .0277806
818.519 .0277525
819.216 .0277259
819.913 .0277006
820.609 .0276766
821.306 .0276541
822.002 .0276331
822.697 .0276135
823.393 .0275955
824.088 .0275790
824.783 .0275635
825.477 .0275497
826.171 .0275371
826.865 .0275257
827.559 .0275154
828.252 .0275062
828.945 .0274975
829.638 .0274896
830.330 .0274816
831.023 .0274736
831.714 .0274657
832.406 .0274579
833.097 .0274499
833.788 .0274420
834.479 .0274348
835.169 .0274284
835.859 .0274236
836.548 .0274205
837.238 .0274190
837.927 .0274189
838.615 .0274198
839.304 .0274216
839.992 .0274236
840.680 .0274258
841.367 .0274283
842.054 .0274318
842.741 .0274363
843.428 .0274417
844.114 .0274484
844.800 .0274561
845.485 .0274646
846.170 .0274725
846.855 .0274801
847.540 .0274868
848.224 .0274927
848.908 .0274976
849.592 .0275018
850.275 .0275058
850.958 .0275097
851.641 .0275138
852.323 .0275174
853.005 .0275205
853.687 .0275227
854.368 .0275233
855.049 .0275234
855.730 .0275228
856.410 .0275223
857.090 .0275215
857.769 .0275211
858.449 .0275215
859.128 .0275226
859.806 .0275239
860.485 .0275261
861.163 .0275291
861.840 .0275332
862.518 .0275376
863.195 .0275429
863.871 .0275495
864.548 .0275570
865.224 .0275649
865.899 .0275733
866.574 .0275813
867.249 .0275895
867.924 .0275969
868.598 .0276041
869.272 .0276111
869.946 .0276178
870.619 .0276237
871.292 .0276293
871.964 .0276339
872.636 .0276374
873.308 .0276394
873.979 .0276406
874.651 .0276401
875.321 .0276384
875.992 .0276351
876.662 .0276306
877.331 .0276254
878.001 .0276200
878.670 .0276134
879.338 .0276073
880.007 .0276013
880.675 .0275953
881.342 .0275887
882.009 .0275820
882.676 .0275740
883.343 .0275651
884.009 .0275555
884.675 .0275449
885.340 .0275331
886.005 .0275215
886.670 .0275098
887.334 .0274985
887.998 .0274879
888.662 .0274780
889.325 .0274677
889.988 .0274579
890.650 .0274476
891.312 .0274360
891.974 .0274241
892.636 .0274115
893.297 .0273984
893.957 .0273849
894.618 .0273710
895.278 .0273565
895.937 .0273414
896.596 .0273260
897.255 .0273098
897.914 .0272926
898.572 .0272747
899.230 .0272559
899.887 .0272363
900.544 .0272157
901.201 .0271942
901.857 .0271717
902.513 .0271480
903.168 .0271230
903.823 .0270963
904.478 .0270682
905.132 .0270390
905.786 .0270088
906.440 .0269775
907.093 .0269455
907.746 .0269123
908.399 .0268780
909.051 .0268432
909.703 .0268079
910.354 .0267719
911.005 .0267355
911.656 .0266990
912.306 .0266622
912.956 .0266249
913.605 .0265877
914.254 .0265500
914.903 .0265125
915.551 .0264753
916.199 .0264385
916.847 .0264025
917.494 .0263678
918.141 .0263344
918.788 .0263020
919.434 .0262706
920.079 .0262395
920.725 .0262086
921.370 .0261782
922.014 .0261482
922.658 .0261183
923.302 .0260888
923.946 .0260598
924.589 .0260309
925.231 .0260022
925.873 .0259732
926.515 .0259436
927.157 .0259135
927.798 .0258827
928.439 .0258513
929.079 .0258196
929.719 .0257881
930.359 .0257566
930.998 .0257252
931.637 .0256942
932.275 .0256635
932.913 .0256333
933.551 .0256040
934.188 .0255757
934.825 .0255485
935.462 .0255228
936.098 .0254987
936.733 .0254762
937.369 .0254555
938.004 .0254363
938.638 .0254184
939.273 .0254019
939.907 .0253868
940.540 .0253734
941.173 .0253619
941.806 .0253525
942.438 .0253448
943.070 .0253388
943.702 .0253343
944.333 .0253303
944.964 .0253267
945.594 .0253236
946.224 .0253202
946.854 .0253173
947.483 .0253152
948.112 .0253136
948.741 .0253129
949.369 .0253128
949.996 .0253135
950.624 .0253146
951.251 .0253158
951.878 .0253172
952.504 .0253180
953.130 .0253186
953.755 .0253184
954.380 .0253178
955.005 .0253177
955.629 .0253178
956.253 .0253184
956.877 .0253202
957.500 .0253235
958.123 .0253282
958.746 .0253342
959.368 .0253414
959.990 .0253496
960.611 .0253578
961.232 .0253659
961.853 .0253736
962.473 .0253811
963.093 .0253888
963.712 .0253963
964.331 .0254041
964.950 .0254123
965.569 .0254212
966.187 .0254309
966.804 .0254413
967.422 .0254527
968.039 .0254646
968.655 .0254768
969.272 .0254893
969.887 .0255020
970.503 .0255147
971.118 .0255278
971.733 .0255415
972.347 .0255553
972.961 .0255697
973.575 .0255843
974.188 .0255987
974.801 .0256131
975.414 .0256273
976.026 .0256407
976.638 .0256539
977.250 .0256668
977.861 .0256791
978.472 .0256907
979.083 .0257016
979.693 .0257114
980.303 .0257204
980.912 .0257282
981.521 .0257348
982.130 .0257406
982.738 .0257464
983.346 .0257521
983.954 .0257581
984.562 .0257651
985.169 .0257727
985.775 .0257801
986.382 .0257871
986.988 .0257929
987.594 .0257974
988.199 .0258011
988.804 .0258042
989.409 .0258074
990.013 .0258115
990.617 .0258167
991.221 .0258230
991.824 .0258305
992.427 .0258392
993.030 .0258484
993.632 .0258578
994.234 .0258680
994.836 .0258786
995.438 .0258897
996.039 .0259021
996.640 .0259154
997.240 .0259300
997.840 .0259454
998.440 .0259604
999.040 .0259746
999.639 .0259876
1000.238 .0259986
1000.836 .0260071
1001.435 .0260144
1002.033 .0260202
1002.630 .0260246
1003.228 .0260286
1003.825 .0260327
1004.422 .0260363
1005.018 .0260402
1005.614 .0260438
1006.210 .0260462
1006.806 .0260477
1007.401 .0260478
1007.996 .0260463
1008.591 .0260447
1009.186 .0260428
1009.780 .0260411
1010.374 .0260397
1010.967 .0260395
1011.561 .0260393
1012.154 .0260386
1012.746 .0260376
1013.339 .0260356
1013.931 .0260314
1014.523 .0260258
1015.115 .0260180
1015.706 .0260091
1016.298 .0259991
1016.888 .0259887
1017.479 .0259783
1018.069 .0259683
1018.660 .0259585
1019.250 .0259492
1019.839 .0259406
1020.429 .0259333
1021.018 .0259263
1021.607 .0259203
1022.195 .0259150
1022.784 .0259100
1023.372 .0259050
1023.960 .0259003
1024.547 .0258951
1025.135 .0258902
1025.722 .0258852
1026.309 .0258797
1026.896 .0258747
1027.483 .0258702
1028.069 .0258659
1028.655 .0258617
1029.241 .0258568
1029.827 .0258507
1030.412 .0258428
1030.997 .0258344
1031.582 .0258240
1032.167 .0258130
1032.752 .0258019
1033.336 .0257900
1033.921 .0257774
1034.505 .0257648
1035.089 .0257512
1035.672 .0257368
1036.256 .0257218
1036.839 .0257054
1037.422 .0256870
1038.005 .0256689
1038.588 .0256501
1039.171 .0256322
1039.753 .0256152
1040.335 .0255990
1040.918 .0255823
1041.500 .0255662
1042.081 .0255498
1042.663 .0255324
1043.244 .0255150
1043.826 .0254983
1044.407 .0254805
1044.988 .0254633
1045.569 .0254457
1046.150 .0254280
1046.730 .0254098
1047.311 .0253909
1047.891 .0253690
1048.471 .0253449
1049.052 .0253195
1049.632 .0252923
1050.211 .0252647
1050.791 .0252376
1051.371 .0252115
1051.950 .0251869
1052.530 .0251631
1053.109 .0251405
1053.688 .0251178
1054.268 .0250970
1054.847 .0250767
1055.426 .0250569
1056.005 .0250384
1056.583 .0250207
1057.162 .0250046
1057.741 .0249902
1058.319 .0249775
1058.898 .0249659
1059.476 .0249552
1060.055 .0249461
1060.633 .0249372
1061.211 .0249281
1061.790 .0249187
1062.368 .0249107
1062.946 .0249022
1063.524 .0248943
1064.102 .0248859
1064.680 .0248783
1065.258 .0248712
1065.836 .0248647
1066.414 .0248590
1066.992 .0248538
1067.570 .0248488
1068.148 .0248428
1068.726 .0248333
1069.304 .0248231
1069.882 .0248094
1070.460 .0247940
1071.038 .0247769
1071.616 .0247599
1072.194 .0247430
1072.772 .0247276
1073.350 .0247137
1073.928 .0247018
1074.506 .0246901
1075.084 .0246782
1075.662 .0246648
1076.240 .0246510
1076.819 .0246365
1077.397 .0246227
1077.976 .0246102
1078.554 .0246001
1079.133 .0245914
1079.711 .0245836
1080.290 .0245764
1080.869 .0245698
1081.448 .0245628
1082.027 .0245548
1082.606 .0245460
1083.185 .0245391
1083.764 .0245349
1084.343 .0245340
1084.923 .0245374
1085.502 .0245445
1086.082 .0245543
1086.662 .0245656
1087.242 .0245772
1087.822 .0245882
1088.402 .0245991
1088.983 .0246111
1089.563 .0246237
1090.144 .0246386
1090.725 .0246572
1091.306 .0246789
1091.887 .0247034
1092.469 .0247301
1093.050 .0247554
1093.632 .0247770
1094.214 .0247939
1094.796 .0248060
1095.379 .0248145
1095.961 .0248214
1096.544 .0248307
1097.127 .0248440
1097.710 .0248655
1098.294 .0248957
1098.877 .0249328
1099.461 .0249768
1100.046 .0250252
1100.630 .0250745
1101.215 .0251229
1101.800 .0251688
1102.385 .0252124
1102.970 .0252521
1103.556 .0252918
1104.142 .0253319
1104.728 .0253734
1105.315 .0254152
1105.902 .0254569
1106.489 .0254948
1107.077 .0255315
1107.664 .0255633
1108.253 .0255904
1108.841 .0256119
1109.430 .0256317
1110.019 .0256482
1110.609 .0256618
1111.198 .0256739
1111.789 .0256885
1112.379 .0257044
1112.970 .0257265
1113.561 .0257508
1114.153 .0257835
1114.745 .0258255
1115.338 .0258778
1115.931 .0259357
1116.524 .0260001
1117.117 .0260672
1117.712 .0261361
1118.306 .0262039
1118.901 .0262728
1119.496 .0263381
1120.092 .0264045
1120.689 .0264729
1121.285 .0265435
1121.882 .0266156
1122.480 .0266904
1123.078 .0267659
1123.677 .0268419
1124.276 .0269136
1124.875 .0269826
1125.476 .0270469
1126.076 .0271138
1126.677 .0271815
1127.279 .0272514
1127.881 .0273246
1128.484 .0274013
1129.087 .0274797
1129.691 .0275633
1130.295 .0276511
1130.900 .0277439
1131.505 .0278389
1132.111 .0279403
1132.718 .0280467
1133.325 .0281592
1133.933 .0282762
1134.541 .0284008
1135.150 .0285315
1135.760 .0286660
1136.370 .0288001
1136.981 .0289368
1137.592 .0290726
1138.204 .0292139
1138.817 .0293550
1139.431 .0294928
1140.045 .0296366
1140.660 .0297831
1141.275 .0299233
1141.891 .0300529
1142.508 .0301697
1143.126 .0304840
1143.744 .0305718
1144.363 .0304636
1144.983 .0303916
