Measurement Sequence started on: 15-12-46-377
Integration time: 28
Scans to Average: 2 
>>>>>Begin Spectral Data<<<<<
432.689 .0000100
433.621 .0000100
434.552 .0000100
435.482 .0000100
436.410 .0000100
437.337 .0000100
438.262 .0282785
439.187 .0598581
440.110 .0990915
441.031 .1433687
441.952 .1862975
442.871 .2200719
443.789 .2385331
444.705 .2396189
445.621 .2259494
446.535 .2031428
447.447 .1773698
448.359 .1378734
449.269 .1184358
450.178 .1061994
451.086 .0975429
451.993 .0909443
452.898 .0856736
453.803 .0813435
454.706 .0777147
455.608 .0745898
456.508 .0718884
457.408 .0695295
458.306 .0674381
459.204 .0655722
460.100 .0638893
460.995 .0623694
461.888 .0610088
462.781 .0597689
463.673 .0586311
464.563 .0575824
465.452 .0566068
466.340 .0556918
467.228 .0548341
468.114 .0540394
468.999 .0533078
469.882 .0526307
470.765 .0520139
471.647 .0514510
472.528 .0509490
473.407 .0505035
474.286 .0501089
475.163 .0497655
476.040 .0494611
476.915 .0491878
477.790 .0489523
478.663 .0487473
479.535 .0485764
480.407 .0484345
481.277 .0483261
482.147 .0482400
483.015 .0481783
483.883 .0481349
484.749 .0481045
485.615 .0480819
486.479 .0480661
487.343 .0480564
488.206 .0480488
489.067 .0480514
489.928 .0480576
490.788 .0480726
491.647 .0480981
492.505 .0481274
493.362 .0481686
494.218 .0482208
495.073 .0482880
495.928 .0483766
496.781 .0484861
497.634 .0486329
498.486 .0488108
499.337 .0490298
500.187 .0492882
501.036 .0495877
501.884 .0499198
502.731 .0502962
503.578 .0507065
504.424 .0511557
505.268 .0516369
506.113 .0521593
506.956 .0527149
507.798 .0533027
508.640 .0539269
509.480 .0546024
510.320 .0553234
511.160 .0561132
511.998 .0569580
512.836 .0578915
513.672 .0589177
514.508 .0600444
515.344 .0613025
516.178 .0627220
517.012 .0643097
517.845 .0661218
518.677 .0681779
519.508 .0705160
520.339 .0731882
521.169 .0762686
521.998 .0797724
522.826 .0837830
523.654 .0883150
524.481 .0933471
525.307 .0989608
526.133 .1051632
526.958 .1118398
527.782 .1189451
528.605 .1263428
529.428 .1338110
530.250 .1408662
531.072 .1473011
531.892 .1526837
532.712 .1567558
533.532 .1593185
534.350 .1601278
535.168 .1591215
535.986 .1564775
536.802 .1523353
537.618 .1469441
538.434 .1406055
539.249 .1337115
540.063 .1264657
540.876 .1192255
541.689 .1122046
542.501 .1055806
543.313 .0994808
544.124 .0939773
544.934 .0889795
545.744 .0844566
546.553 .0803894
547.361 .0767554
548.169 .0735505
548.976 .0707022
549.783 .0681697
550.589 .0659288
551.395 .0639324
552.200 .0621611
553.004 .0605653
553.808 .0591099
554.611 .0577957
555.414 .0565972
556.216 .0555058
557.018 .0545316
557.819 .0536470
558.619 .0528423
559.419 .0520958
560.218 .0513958
561.017 .0507209
561.815 .0500493
562.613 .0493871
563.410 .0487154
564.207 .0480336
565.003 .0473492
565.799 .0466628
566.594 .0459784
567.388 .0453183
568.182 .0446744
568.976 .0440472
569.769 .0434403
570.562 .0428575
571.354 .0422881
572.145 .0417355
572.936 .0411977
573.727 .0406719
574.517 .0401596
575.307 .0396704
576.096 .0392016
576.885 .0387595
577.673 .0383516
578.461 .0379753
579.248 .0376290
580.035 .0373185
580.821 .0370315
581.607 .0367645
582.392 .0365110
583.177 .0362708
583.962 .0360367
584.746 .0358122
585.529 .0355972
586.313 .0353933
587.095 .0352034
587.878 .0350287
588.660 .0348674
589.441 .0347241
590.222 .0345960
591.003 .0344806
591.783 .0343751
592.563 .0342784
593.342 .0341872
594.121 .0341002
594.899 .0340164
595.678 .0339365
596.455 .0338591
597.233 .0337877
598.009 .0337209
598.786 .0336604
599.562 .0336061
600.338 .0335567
601.113 .0335106
601.888 .0334662
602.663 .0334210
603.437 .0333735
604.211 .0333229
604.984 .0332698
605.757 .0332152
606.530 .0331603
607.302 .0331051
608.074 .0330512
608.845 .0329991
609.616 .0329488
610.387 .0328989
611.158 .0328503
611.928 .0328015
612.697 .0327526
613.467 .0327039
614.236 .0326564
615.004 .0326109
615.773 .0325678
616.541 .0325277
617.308 .0324910
618.076 .0324582
618.843 .0324286
619.609 .0324020
620.375 .0323793
621.141 .0323587
621.907 .0323406
622.672 .0323238
623.437 .0323082
624.202 .0322928
624.966 .0322776
625.730 .0322614
626.493 .0322440
627.257 .0322261
628.020 .0322074
628.782 .0321882
629.545 .0321693
630.307 .0321498
631.068 .0321299
631.830 .0321092
632.591 .0320874
633.352 .0320640
634.112 .0320405
634.872 .0320165
635.632 .0319928
636.392 .0319703
637.151 .0319501
637.910 .0319316
638.668 .0319158
639.427 .0319014
640.185 .0318871
640.943 .0318729
641.700 .0318577
642.457 .0318407
643.214 .0318234
643.971 .0318046
644.727 .0317852
645.483 .0317657
646.239 .0317468
646.994 .0317274
647.750 .0317086
648.505 .0316903
649.259 .0316716
650.014 .0316526
650.768 .0316337
651.521 .0316140
652.275 .0315948
653.028 .0315752
653.781 .0315545
654.534 .0315332
655.286 .0315111
656.039 .0314871
656.791 .0314620
657.542 .0314356
658.294 .0314087
659.045 .0313814
659.796 .0313539
660.546 .0313258
661.297 .0312965
662.047 .0312662
662.796 .0312332
663.546 .0311982
664.295 .0311616
665.044 .0311236
665.793 .0310855
666.542 .0310479
667.290 .0310112
668.038 .0309754
668.786 .0309404
669.533 .0309059
670.281 .0308712
671.028 .0308363
671.774 .0308004
672.521 .0307646
673.267 .0307290
674.013 .0306945
674.759 .0306611
675.505 .0306293
676.250 .0305987
676.995 .0305690
677.740 .0305397
678.484 .0305098
679.229 .0304797
679.973 .0304493
680.717 .0304188
681.460 .0303890
682.204 .0303597
682.947 .0303317
683.690 .0303052
684.433 .0302802
685.175 .0302561
685.917 .0302327
686.659 .0302100
687.401 .0301874
688.142 .0301654
688.884 .0301436
689.625 .0301223
690.365 .0301015
691.106 .0300814
691.846 .0300617
692.586 .0300421
693.326 .0300221
694.066 .0300022
694.805 .0299823
695.545 .0299620
696.284 .0299415
697.022 .0299213
697.761 .0299011
698.499 .0298808
699.237 .0298605
699.975 .0298404
700.713 .0298207
701.450 .0298014
702.187 .0297826
702.924 .0297642
703.661 .0297467
704.397 .0297304
705.133 .0297156
705.869 .0297027
706.605 .0296911
707.341 .0296809
708.076 .0296719
708.811 .0296634
709.546 .0296550
710.281 .0296464
711.015 .0296380
711.749 .0296294
712.483 .0296206
713.217 .0296112
713.950 .0296015
714.684 .0295914
715.417 .0295809
716.150 .0295699
716.882 .0295585
717.615 .0295468
718.347 .0295350
719.079 .0295235
719.811 .0295121
720.542 .0295012
721.273 .0294907
722.005 .0294798
722.735 .0294687
723.466 .0294570
724.196 .0294448
724.927 .0294317
725.656 .0294183
726.386 .0294049
727.116 .0293913
727.845 .0293783
728.574 .0293659
729.303 .0293542
730.031 .0293434
730.760 .0293330
731.488 .0293225
732.216 .0293125
732.944 .0293028
733.671 .0292930
734.398 .0292831
735.125 .0292735
735.852 .0292642
736.579 .0292551
737.305 .0292467
738.031 .0292388
738.757 .0292312
739.483 .0292244
740.208 .0292172
740.933 .0292101
741.658 .0292026
742.383 .0291939
743.108 .0291840
743.832 .0291722
744.556 .0291583
745.280 .0291419
746.004 .0291233
746.727 .0291032
747.450 .0290816
748.173 .0290587
748.896 .0290353
749.618 .0290114
750.340 .0289874
751.062 .0289635
751.784 .0289394
752.506 .0289149
753.227 .0288894
753.948 .0288630
754.669 .0288358
755.389 .0288083
756.110 .0287809
756.830 .0287539
757.550 .0287280
758.269 .0287031
758.989 .0286790
759.708 .0286559
760.427 .0286332
761.146 .0286104
761.864 .0285870
762.582 .0285631
763.300 .0285380
764.018 .0285123
764.736 .0284857
765.453 .0284589
766.170 .0284316
766.887 .0284042
767.603 .0283765
768.320 .0283490
769.036 .0283216
769.751 .0282946
770.467 .0282681
771.182 .0282427
771.897 .0282179
772.612 .0281946
773.327 .0281722
774.041 .0281510
774.755 .0281306
775.469 .0281112
776.183 .0280922
776.896 .0280739
777.609 .0280561
778.322 .0280391
779.035 .0280230
779.747 .0280086
780.459 .0279953
781.171 .0279837
781.882 .0279736
782.594 .0279646
783.305 .0279564
784.016 .0279494
784.726 .0279428
785.436 .0279367
786.147 .0279308
786.856 .0279255
787.566 .0279205
788.275 .0279162
788.984 .0279124
789.693 .0279095
790.401 .0279068
791.110 .0279042
791.818 .0279009
792.525 .0278972
793.233 .0278929
793.940 .0278875
794.647 .0278812
795.353 .0278741
796.060 .0278662
796.766 .0278576
797.472 .0278481
798.177 .0278381
798.883 .0278271
799.588 .0278154
800.292 .0278030
800.997 .0277905
801.701 .0277779
802.405 .0277658
803.109 .0277544
803.812 .0277438
804.515 .0277337
805.218 .0277237
805.921 .0277135
806.623 .0277032
807.325 .0276927
808.027 .0276819
808.728 .0276707
809.429 .0276596
810.130 .0276486
810.831 .0276384
811.531 .0276290
812.231 .0276202
812.931 .0276118
813.630 .0276040
814.330 .0275960
815.029 .0275881
815.727 .0275807
816.426 .0275738
817.124 .0275676
817.821 .0275625
818.519 .0275585
819.216 .0275560
819.913 .0275548
820.609 .0275550
821.306 .0275559
822.002 .0275576
822.697 .0275599
823.393 .0275627
824.088 .0275662
824.783 .0275700
825.477 .0275738
826.171 .0275780
826.865 .0275828
827.559 .0275875
828.252 .0275925
828.945 .0275977
829.638 .0276033
830.330 .0276091
831.023 .0276152
831.714 .0276212
832.406 .0276273
833.097 .0276334
833.788 .0276390
834.479 .0276443
835.169 .0276495
835.859 .0276547
836.548 .0276603
837.238 .0276661
837.927 .0276717
838.615 .0276765
839.304 .0276807
839.992 .0276836
840.680 .0276852
841.367 .0276852
842.054 .0276839
842.741 .0276817
843.428 .0276786
844.114 .0276748
844.800 .0276702
845.485 .0276648
846.170 .0276583
846.855 .0276498
847.540 .0276400
848.224 .0276292
848.908 .0276179
849.592 .0276066
850.275 .0275954
850.958 .0275843
851.641 .0275731
852.323 .0275612
853.005 .0275481
853.687 .0275329
854.368 .0275154
855.049 .0274959
855.730 .0274749
856.410 .0274529
857.090 .0274307
857.769 .0274084
858.449 .0273867
859.128 .0273645
859.806 .0273413
860.485 .0273167
861.163 .0272909
861.840 .0272634
862.518 .0272345
863.195 .0272050
863.871 .0271754
864.548 .0271461
865.224 .0271177
865.899 .0270900
866.574 .0270629
867.249 .0270361
867.924 .0270091
868.598 .0269818
869.272 .0269547
869.946 .0269280
870.619 .0269018
871.292 .0268767
871.964 .0268526
872.636 .0268295
873.308 .0268074
873.979 .0267860
874.651 .0267650
875.321 .0267442
875.992 .0267237
876.662 .0267031
877.331 .0266828
878.001 .0266632
878.670 .0266441
879.338 .0266262
880.007 .0266093
880.675 .0265931
881.342 .0265778
882.009 .0265627
882.676 .0265479
883.343 .0265330
884.009 .0265173
884.675 .0265011
885.340 .0264846
886.005 .0264678
886.670 .0264509
887.334 .0264342
887.998 .0264182
888.662 .0264031
889.325 .0263887
889.988 .0263751
890.650 .0263619
891.312 .0263495
891.974 .0263372
892.636 .0263246
893.297 .0263123
893.957 .0263000
894.618 .0262876
895.278 .0262754
895.937 .0262632
896.596 .0262513
897.255 .0262394
897.914 .0262280
898.572 .0262164
899.230 .0262043
899.887 .0261919
900.544 .0261784
901.201 .0261637
901.857 .0261479
902.513 .0261300
903.168 .0261105
903.823 .0260893
904.478 .0260666
905.132 .0260427
905.786 .0260179
906.440 .0259927
907.093 .0259674
907.746 .0259422
908.399 .0259173
909.051 .0258927
909.703 .0258686
910.354 .0258453
911.005 .0258220
911.656 .0257997
912.306 .0257782
912.956 .0257576
913.605 .0257382
914.254 .0257198
914.903 .0257025
915.551 .0256862
916.199 .0256706
916.847 .0256559
917.494 .0256418
918.141 .0256289
918.788 .0256166
919.434 .0256050
920.079 .0255940
920.725 .0255835
921.370 .0255728
922.014 .0255620
922.658 .0255506
923.302 .0255384
923.946 .0255254
924.589 .0255115
925.231 .0254971
925.873 .0254824
926.515 .0254680
927.157 .0254538
927.798 .0254395
928.439 .0254252
929.079 .0254108
929.719 .0253959
930.359 .0253810
930.998 .0253658
931.637 .0253508
932.275 .0253363
932.913 .0253228
933.551 .0253103
934.188 .0252992
934.825 .0252892
935.462 .0252805
936.098 .0252729
936.733 .0252664
937.369 .0252607
938.004 .0252565
938.638 .0252540
939.273 .0252535
939.907 .0252548
940.540 .0252583
941.173 .0252640
941.806 .0252713
942.438 .0252801
943.070 .0252900
943.702 .0253005
944.333 .0253115
944.964 .0253227
945.594 .0253344
946.224 .0253466
946.854 .0253593
947.483 .0253724
948.112 .0253859
948.741 .0253992
949.369 .0254117
949.996 .0254230
950.624 .0254332
951.251 .0254418
951.878 .0254489
952.504 .0254553
953.130 .0254607
953.755 .0254659
954.380 .0254714
955.005 .0254764
955.629 .0254815
956.253 .0254865
956.877 .0254913
957.500 .0254962
958.123 .0255017
958.746 .0255077
959.368 .0255142
959.990 .0255215
960.611 .0255292
961.232 .0255365
961.853 .0255437
962.473 .0255501
963.093 .0255553
963.712 .0255597
964.331 .0255631
964.950 .0255662
965.569 .0255699
966.187 .0255742
966.804 .0255791
967.422 .0255847
968.039 .0255904
968.655 .0255953
969.272 .0255988
969.887 .0256013
970.503 .0256020
971.118 .0256017
971.733 .0256010
972.347 .0256005
972.961 .0256011
973.575 .0256035
974.188 .0256070
974.801 .0256120
975.414 .0256175
976.026 .0256226
976.638 .0256263
977.250 .0256290
977.861 .0256298
978.472 .0256292
979.083 .0256277
979.693 .0256252
980.303 .0256218
980.912 .0256187
981.521 .0256149
982.130 .0256109
982.738 .0256060
983.346 .0256004
983.954 .0255933
984.562 .0255849
985.169 .0255747
985.775 .0255632
986.382 .0255511
986.988 .0255392
987.594 .0255275
988.199 .0255172
988.804 .0255080
989.409 .0254999
990.013 .0254928
990.617 .0254863
991.221 .0254794
991.824 .0254731
992.427 .0254664
993.030 .0254600
993.632 .0254538
994.234 .0254488
994.836 .0254448
995.438 .0254421
996.039 .0254401
996.640 .0254380
997.240 .0254360
997.840 .0254336
998.440 .0254301
999.040 .0254261
999.639 .0254215
1000.238 .0254167
1000.836 .0254117
1001.435 .0254071
1002.033 .0254025
1002.630 .0253985
1003.228 .0253947
1003.825 .0253912
1004.422 .0253875
1005.018 .0253835
1005.614 .0253790
1006.210 .0253741
1006.806 .0253688
1007.401 .0253629
1007.996 .0253562
1008.591 .0253499
1009.186 .0253433
1009.780 .0253371
1010.374 .0253307
1010.967 .0253249
1011.561 .0253192
1012.154 .0253135
1012.746 .0253075
1013.339 .0253008
1013.931 .0252935
1014.523 .0252858
1015.115 .0252769
1015.706 .0252682
1016.298 .0252595
1016.888 .0252514
1017.479 .0252443
1018.069 .0252384
1018.660 .0252327
1019.250 .0252275
1019.839 .0252223
1020.429 .0252169
1021.018 .0252109
1021.607 .0252041
1022.195 .0251960
1022.784 .0251870
1023.372 .0251773
1023.960 .0251670
1024.547 .0251560
1025.135 .0251458
1025.722 .0251353
1026.309 .0251249
1026.896 .0251144
1027.483 .0251038
1028.069 .0250930
1028.655 .0250822
1029.241 .0250714
1029.827 .0250609
1030.412 .0250506
1030.997 .0250409
1031.582 .0250318
1032.167 .0250244
1032.752 .0250187
1033.336 .0250139
1033.921 .0250098
1034.505 .0250059
1035.089 .0250010
1035.672 .0249948
1036.256 .0249873
1036.839 .0249783
1037.422 .0249675
1038.005 .0249560
1038.588 .0249441
1039.171 .0249318
1039.753 .0249201
1040.335 .0249087
1040.918 .0248976
1041.500 .0248864
1042.081 .0248736
1042.663 .0248598
1043.244 .0248457
1043.826 .0248309
1044.407 .0248155
1044.988 .0247999
1045.569 .0247848
1046.150 .0247693
1046.730 .0247540
1047.311 .0247384
1047.891 .0247225
1048.471 .0247070
1049.052 .0246910
1049.632 .0246742
1050.211 .0246580
1050.791 .0246412
1051.371 .0246243
1051.950 .0246082
1052.530 .0245920
1053.109 .0245749
1053.688 .0245583
1054.268 .0245421
1054.847 .0245259
1055.426 .0245102
1056.005 .0244957
1056.583 .0244812
1057.162 .0244679
1057.741 .0244552
1058.319 .0244415
1058.898 .0244277
1059.476 .0244130
1060.055 .0243964
1060.633 .0243791
1061.211 .0243611
1061.790 .0243434
1062.368 .0243267
1062.946 .0243111
1063.524 .0242962
1064.102 .0242821
1064.680 .0242699
1065.258 .0242574
1065.836 .0242447
1066.414 .0242319
1066.992 .0242197
1067.570 .0242084
1068.148 .0241980
1068.726 .0241896
1069.304 .0241843
1069.882 .0241815
1070.460 .0241808
1071.038 .0241814
1071.616 .0241820
1072.194 .0241820
1072.772 .0241815
1073.350 .0241790
1073.928 .0241757
1074.506 .0241715
1075.084 .0241669
1075.662 .0241617
1076.240 .0241577
1076.819 .0241528
1077.397 .0241481
1077.976 .0241436
1078.554 .0241379
1079.133 .0241309
1079.711 .0241244
1080.290 .0241183
1080.869 .0241125
1081.448 .0241078
1082.027 .0241036
1082.606 .0240996
1083.185 .0240979
1083.764 .0240985
1084.343 .0241018
1084.923 .0241080
1085.502 .0241193
1086.082 .0241347
1086.662 .0241552
1087.242 .0241782
1087.822 .0242038
1088.402 .0242316
1088.983 .0242600
1089.563 .0242879
1090.144 .0243136
1090.725 .0243388
1091.306 .0243624
1091.887 .0243838
1092.469 .0244057
1093.050 .0244272
1093.632 .0244478
1094.214 .0244668
1094.796 .0244851
1095.379 .0244997
1095.961 .0245110
1096.544 .0245181
1097.127 .0245229
1097.710 .0245252
1098.294 .0245270
1098.877 .0245289
1099.461 .0245343
1100.046 .0245451
1100.630 .0245603
1101.215 .0245806
1101.800 .0246056
1102.385 .0246321
1102.970 .0246610
1103.556 .0246883
1104.142 .0247149
1104.728 .0247385
1105.315 .0247609
1105.902 .0247821
1106.489 .0248022
1107.077 .0248188
1107.664 .0248342
1108.253 .0248495
1108.841 .0248653
1109.430 .0248789
1110.019 .0248938
1110.609 .0249112
1111.198 .0249315
1111.789 .0249563
1112.379 .0249846
1112.970 .0250176
1113.561 .0250586
1114.153 .0251045
1114.745 .0251557
1115.338 .0252127
1115.931 .0252749
1116.524 .0253419
1117.117 .0254148
1117.712 .0254923
1118.306 .0255702
1118.901 .0256500
1119.496 .0257283
1120.092 .0258033
1120.689 .0258727
1121.285 .0259378
1121.882 .0259977
1122.480 .0260568
1123.078 .0261145
1123.677 .0261707
1124.276 .0262312
1124.875 .0262995
1125.476 .0263688
1126.076 .0264407
1126.677 .0265119
1127.279 .0265802
1127.881 .0266435
1128.484 .0267058
1129.087 .0267664
1129.691 .0268326
1130.295 .0269070
1130.900 .0269927
1131.505 .0270894
1132.111 .0272001
1132.718 .0273183
1133.325 .0274418
1133.933 .0275693
1134.541 .0276937
1135.150 .0278123
1135.760 .0279331
1136.370 .0280569
1136.981 .0281921
1137.592 .0283386
1138.204 .0284986
1138.817 .0286726
1139.431 .0288613
1140.045 .0290582
1140.660 .0292576
1141.275 .0294679
1141.891 .0297144
1142.508 .0298964
1143.126 .0300887
1143.744 .0302213
1144.363 .0306490
1144.983 .0317379
