Measurement Sequence started on: 15-12-46-377
Integration time: 28
Scans to Average: 2 
>>>>>Begin Spectral Data<<<<<
432.689 .0000100
433.621 .0000100
434.552 .0000100
435.482 .0000100
436.410 .0000100
437.337 .0000100
438.262 .0278735
439.187 .0591620
440.110 .0979352
441.031 .1415878
441.952 .1839220
442.871 .2171438
443.789 .2352273
444.705 .2361133
445.621 .2223906
446.535 .1996624
447.447 .1740276
448.359 .1348904
449.269 .1154580
450.178 .1032650
451.086 .0946369
451.993 .0879686
452.898 .0826435
453.803 .0782341
454.706 .0745544
455.608 .0714160
456.508 .0686995
457.408 .0663126
458.306 .0641947
459.204 .0622910
460.100 .0605881
460.995 .0590676
461.888 .0577109
462.781 .0564994
463.673 .0554155
464.563 .0544405
465.452 .0535419
466.340 .0527045
467.228 .0519394
468.114 .0512331
468.999 .0505968
469.882 .0500170
470.765 .0495014
471.647 .0490529
472.528 .0486684
473.407 .0483336
474.286 .0480431
475.163 .0477888
476.040 .0475613
476.915 .0473504
477.790 .0471587
478.663 .0469874
479.535 .0468340
480.407 .0467085
481.277 .0466100
482.147 .0465416
483.015 .0465029
483.883 .0464844
484.749 .0464851
485.615 .0465037
486.479 .0465285
487.343 .0465613
488.206 .0466032
489.067 .0466518
489.928 .0467011
490.788 .0467582
491.647 .0468264
492.505 .0469108
493.362 .0470080
494.218 .0471213
495.073 .0472471
495.928 .0473971
496.781 .0475594
497.634 .0477435
498.486 .0479562
499.337 .0481914
500.187 .0484486
501.036 .0487320
501.884 .0490406
502.731 .0493736
503.578 .0497289
504.424 .0501049
505.268 .0504967
506.113 .0509165
506.956 .0513571
507.798 .0518313
508.640 .0523615
509.480 .0529501
510.320 .0536004
511.160 .0543320
511.998 .0551514
512.836 .0560679
513.672 .0570956
514.508 .0582302
515.344 .0594923
516.178 .0609093
517.012 .0625081
517.845 .0643140
518.677 .0663977
519.508 .0687664
520.339 .0714733
521.169 .0745683
521.998 .0780796
522.826 .0820619
523.654 .0865577
524.481 .0915548
525.307 .0971052
526.133 .1031832
526.958 .1097412
527.782 .1167038
528.605 .1239730
529.428 .1313382
530.250 .1383809
531.072 .1448531
531.892 .1503597
532.712 .1546174
533.532 .1574307
534.350 .1585663
535.168 .1579622
535.986 .1556863
536.802 .1518512
537.618 .1467094
538.434 .1405562
539.249 .1337852
540.063 .1266126
540.876 .1193750
541.689 .1123068
542.501 .1055839
543.313 .0993732
544.124 .0937191
544.934 .0885908
545.744 .0839747
546.553 .0797922
547.361 .0760430
548.169 .0727136
548.976 .0697686
549.783 .0671713
550.589 .0648754
551.395 .0628299
552.200 .0609958
553.004 .0593356
553.808 .0578214
554.611 .0564271
555.414 .0551661
556.216 .0540038
557.018 .0529574
557.819 .0520124
558.619 .0511543
559.419 .0503617
560.218 .0496303
561.017 .0489273
561.815 .0482415
562.613 .0475422
563.410 .0468362
564.207 .0461158
565.003 .0453948
565.799 .0446859
566.594 .0439929
567.388 .0433290
568.182 .0427028
568.976 .0421114
569.769 .0415612
570.562 .0410431
571.354 .0405489
572.145 .0400714
572.936 .0396107
573.727 .0391584
574.517 .0387106
575.307 .0382739
576.096 .0378536
576.885 .0374448
577.673 .0370554
578.461 .0366851
579.248 .0363347
580.035 .0360113
580.821 .0357098
581.607 .0354345
582.392 .0351783
583.177 .0349427
583.962 .0347248
584.746 .0345270
585.529 .0343484
586.313 .0341874
587.095 .0340456
587.878 .0339200
588.660 .0338097
589.441 .0337116
590.222 .0336220
591.003 .0335432
591.783 .0334701
592.563 .0334010
593.342 .0333349
594.121 .0332715
594.899 .0332107
595.678 .0331530
596.455 .0330985
597.233 .0330454
598.009 .0329915
598.786 .0329361
599.562 .0328785
600.338 .0328197
601.113 .0327608
601.888 .0327025
602.663 .0326470
603.437 .0325961
604.211 .0325489
604.984 .0325056
605.757 .0324660
606.530 .0324293
607.302 .0323947
608.074 .0323610
608.845 .0323286
609.616 .0322972
610.387 .0322681
611.158 .0322417
611.928 .0322181
612.697 .0321971
613.467 .0321771
614.236 .0321573
615.004 .0321367
615.773 .0321146
616.541 .0320901
617.308 .0320641
618.076 .0320370
618.843 .0320090
619.609 .0319814
620.375 .0319545
621.141 .0319275
621.907 .0319010
622.672 .0318746
623.437 .0318475
624.202 .0318203
624.966 .0317930
625.730 .0317656
626.493 .0317386
627.257 .0317121
628.020 .0316862
628.782 .0316605
629.545 .0316358
630.307 .0316103
631.068 .0315848
631.830 .0315592
632.591 .0315320
633.352 .0315035
634.112 .0314745
634.872 .0314444
635.632 .0314133
636.392 .0313812
637.151 .0313486
637.910 .0313157
638.668 .0312835
639.427 .0312515
640.185 .0312213
640.943 .0311924
641.700 .0311658
642.457 .0311405
643.214 .0311166
643.971 .0310927
644.727 .0310694
645.483 .0310463
646.239 .0310230
646.994 .0309993
647.750 .0309764
648.505 .0309543
649.259 .0309344
650.014 .0309156
650.768 .0308980
651.521 .0308811
652.275 .0308645
653.028 .0308462
653.781 .0308263
654.534 .0308043
655.286 .0307800
656.039 .0307545
656.791 .0307283
657.542 .0307014
658.294 .0306747
659.045 .0306488
659.796 .0306233
660.546 .0305966
661.297 .0305686
662.047 .0305380
662.796 .0305050
663.546 .0304705
664.295 .0304344
665.044 .0303985
665.793 .0303644
666.542 .0303324
667.290 .0303023
668.038 .0302749
668.786 .0302491
669.533 .0302243
670.281 .0302001
671.028 .0301761
671.774 .0301526
672.521 .0301308
673.267 .0301113
674.013 .0300944
674.759 .0300807
675.505 .0300697
676.250 .0300602
676.995 .0300518
677.740 .0300430
678.484 .0300331
679.229 .0300219
679.973 .0300099
680.717 .0299967
681.460 .0299832
682.204 .0299700
682.947 .0299571
683.690 .0299443
684.433 .0299309
685.175 .0299165
685.917 .0299011
686.659 .0298846
687.401 .0298670
688.142 .0298486
688.884 .0298308
689.625 .0298133
690.365 .0297961
691.106 .0297794
691.846 .0297626
692.586 .0297452
693.326 .0297272
694.066 .0297086
694.805 .0296895
695.545 .0296705
696.284 .0296516
697.022 .0296335
697.761 .0296163
698.499 .0295996
699.237 .0295834
699.975 .0295682
700.713 .0295541
701.450 .0295405
702.187 .0295277
702.924 .0295164
703.661 .0295066
704.397 .0294981
705.133 .0294906
705.869 .0294839
706.605 .0294781
707.341 .0294725
708.076 .0294663
708.811 .0294598
709.546 .0294528
710.281 .0294447
711.015 .0294358
711.749 .0294255
712.483 .0294137
713.217 .0294001
713.950 .0293843
714.684 .0293667
715.417 .0293472
716.150 .0293259
716.882 .0293035
717.615 .0292802
718.347 .0292566
719.079 .0292324
719.811 .0292082
720.542 .0291845
721.273 .0291611
722.005 .0291381
722.735 .0291154
723.466 .0290933
724.196 .0290718
724.927 .0290505
725.656 .0290292
726.386 .0290082
727.116 .0289868
727.845 .0289650
728.574 .0289424
729.303 .0289199
730.031 .0288979
730.760 .0288767
731.488 .0288568
732.216 .0288382
732.944 .0288213
733.671 .0288058
734.398 .0287912
735.125 .0287775
735.852 .0287642
736.579 .0287508
737.305 .0287376
738.031 .0287247
738.757 .0287121
739.483 .0286999
740.208 .0286888
740.933 .0286787
741.658 .0286693
742.383 .0286602
743.108 .0286510
743.832 .0286408
744.556 .0286296
745.280 .0286162
746.004 .0286010
746.727 .0285842
747.450 .0285661
748.173 .0285467
748.896 .0285268
749.618 .0285067
750.340 .0284866
751.062 .0284666
751.784 .0284469
752.506 .0284267
753.227 .0284067
753.948 .0283863
754.669 .0283658
755.389 .0283450
756.110 .0283238
756.830 .0283021
757.550 .0282805
758.269 .0282584
758.989 .0282357
759.708 .0282129
760.427 .0281899
761.146 .0281666
761.864 .0281432
762.582 .0281195
763.300 .0280957
764.018 .0280718
764.736 .0280480
765.453 .0280239
766.170 .0280000
766.887 .0279764
767.603 .0279528
768.320 .0279298
769.036 .0279074
769.751 .0278859
770.467 .0278656
771.182 .0278462
771.897 .0278277
772.612 .0278099
773.327 .0277929
774.041 .0277767
774.755 .0277613
775.469 .0277471
776.183 .0277340
776.896 .0277220
777.609 .0277112
778.322 .0277016
779.035 .0276931
779.747 .0276859
780.459 .0276794
781.171 .0276732
781.882 .0276673
782.594 .0276615
783.305 .0276561
784.016 .0276514
784.726 .0276471
785.436 .0276436
786.147 .0276407
786.856 .0276383
787.566 .0276364
788.275 .0276347
788.984 .0276329
789.693 .0276305
790.401 .0276268
791.110 .0276216
791.818 .0276151
792.525 .0276075
793.233 .0275991
793.940 .0275899
794.647 .0275809
795.353 .0275718
796.060 .0275634
796.766 .0275555
797.472 .0275480
798.177 .0275412
798.883 .0275345
799.588 .0275275
800.292 .0275207
800.997 .0275138
801.701 .0275069
802.405 .0275005
803.109 .0274947
803.812 .0274897
804.515 .0274854
805.218 .0274814
805.921 .0274774
806.623 .0274727
807.325 .0274675
808.027 .0274608
808.728 .0274530
809.429 .0274444
810.130 .0274348
810.831 .0274245
811.531 .0274137
812.231 .0274022
812.931 .0273904
813.630 .0273782
814.330 .0273657
815.029 .0273526
815.727 .0273395
816.426 .0273267
817.124 .0273146
817.821 .0273036
818.519 .0272942
819.216 .0272863
819.913 .0272804
820.609 .0272754
821.306 .0272715
822.002 .0272685
822.697 .0272664
823.393 .0272653
824.088 .0272649
824.783 .0272649
825.477 .0272655
826.171 .0272667
826.865 .0272688
827.559 .0272710
828.252 .0272738
828.945 .0272772
829.638 .0272810
830.330 .0272853
831.023 .0272904
831.714 .0272961
832.406 .0273027
833.097 .0273094
833.788 .0273156
834.479 .0273210
835.169 .0273256
835.859 .0273293
836.548 .0273321
837.238 .0273342
837.927 .0273356
838.615 .0273368
839.304 .0273379
839.992 .0273386
840.680 .0273387
841.367 .0273377
842.054 .0273357
842.741 .0273320
843.428 .0273270
844.114 .0273208
844.800 .0273135
845.485 .0273058
846.170 .0272975
846.855 .0272893
847.540 .0272808
848.224 .0272729
848.908 .0272649
849.592 .0272570
850.275 .0272486
850.958 .0272395
851.641 .0272299
852.323 .0272196
853.005 .0272085
853.687 .0271964
854.368 .0271833
855.049 .0271694
855.730 .0271541
856.410 .0271381
857.090 .0271208
857.769 .0271028
858.449 .0270830
859.128 .0270623
859.806 .0270402
860.485 .0270174
861.163 .0269940
861.840 .0269705
862.518 .0269472
863.195 .0269239
863.871 .0269009
864.548 .0268781
865.224 .0268558
865.899 .0268338
866.574 .0268121
867.249 .0267908
867.924 .0267696
868.598 .0267493
869.272 .0267299
869.946 .0267120
870.619 .0266951
871.292 .0266795
871.964 .0266651
872.636 .0266509
873.308 .0266367
873.979 .0266222
874.651 .0266068
875.321 .0265908
875.992 .0265741
876.662 .0265569
877.331 .0265397
878.001 .0265228
878.670 .0265067
879.338 .0264912
880.007 .0264765
880.675 .0264619
881.342 .0264473
882.009 .0264332
882.676 .0264191
883.343 .0264050
884.009 .0263917
884.675 .0263793
885.340 .0263677
886.005 .0263569
886.670 .0263473
887.334 .0263389
887.998 .0263314
888.662 .0263245
889.325 .0263177
889.988 .0263110
890.650 .0263042
891.312 .0262969
891.974 .0262896
892.636 .0262824
893.297 .0262747
893.957 .0262669
894.618 .0262587
895.278 .0262503
895.937 .0262410
896.596 .0262312
897.255 .0262208
897.914 .0262093
898.572 .0261970
899.230 .0261834
899.887 .0261691
900.544 .0261540
901.201 .0261378
901.857 .0261205
902.513 .0261022
903.168 .0260817
903.823 .0260594
904.478 .0260350
905.132 .0260088
905.786 .0259810
906.440 .0259518
907.093 .0259218
907.746 .0258916
908.399 .0258616
909.051 .0258325
909.703 .0258037
910.354 .0257761
911.005 .0257484
911.656 .0257210
912.306 .0256939
912.956 .0256673
913.605 .0256415
914.254 .0256175
914.903 .0255950
915.551 .0255746
916.199 .0255564
916.847 .0255397
917.494 .0255235
918.141 .0255077
918.788 .0254913
919.434 .0254739
920.079 .0254551
920.725 .0254357
921.370 .0254154
922.014 .0253954
922.658 .0253755
923.302 .0253560
923.946 .0253373
924.589 .0253186
925.231 .0252996
925.873 .0252799
926.515 .0252595
927.157 .0252380
927.798 .0252160
928.439 .0251939
929.079 .0251718
929.719 .0251501
930.359 .0251288
930.998 .0251081
931.637 .0250875
932.275 .0250672
932.913 .0250470
933.551 .0250266
934.188 .0250060
934.825 .0249853
935.462 .0249653
936.098 .0249461
936.733 .0249281
937.369 .0249117
938.004 .0248973
938.638 .0248846
939.273 .0248739
939.907 .0248656
940.540 .0248597
941.173 .0248564
941.806 .0248552
942.438 .0248560
943.070 .0248586
943.702 .0248622
944.333 .0248664
944.964 .0248707
945.594 .0248755
946.224 .0248795
946.854 .0248835
947.483 .0248877
948.112 .0248917
948.741 .0248954
949.369 .0248990
949.996 .0249019
950.624 .0249042
951.251 .0249053
951.878 .0249055
952.504 .0249048
953.130 .0249037
953.755 .0249017
954.380 .0248994
955.005 .0248971
955.629 .0248948
956.253 .0248921
956.877 .0248896
957.500 .0248871
958.123 .0248850
958.746 .0248834
959.368 .0248821
959.990 .0248819
960.611 .0248825
961.232 .0248838
961.853 .0248859
962.473 .0248881
963.093 .0248904
963.712 .0248926
964.331 .0248944
964.950 .0248960
965.569 .0248978
966.187 .0249004
966.804 .0249039
967.422 .0249087
968.039 .0249147
968.655 .0249214
969.272 .0249286
969.887 .0249354
970.503 .0249412
971.118 .0249464
971.733 .0249505
972.347 .0249540
972.961 .0249570
973.575 .0249604
974.188 .0249638
974.801 .0249674
975.414 .0249708
976.026 .0249736
976.638 .0249756
977.250 .0249765
977.861 .0249765
978.472 .0249760
979.083 .0249752
979.693 .0249747
980.303 .0249750
980.912 .0249760
981.521 .0249774
982.130 .0249791
982.738 .0249807
983.346 .0249819
983.954 .0249824
984.562 .0249821
985.169 .0249813
985.775 .0249807
986.382 .0249803
986.988 .0249806
987.594 .0249822
988.199 .0249845
988.804 .0249874
989.409 .0249901
990.013 .0249922
990.617 .0249937
991.221 .0249942
991.824 .0249940
992.427 .0249936
993.030 .0249937
993.632 .0249950
994.234 .0249985
994.836 .0250045
995.438 .0250126
996.039 .0250230
996.640 .0250344
997.240 .0250462
997.840 .0250582
998.440 .0250697
999.040 .0250799
999.639 .0250894
1000.238 .0250976
1000.836 .0251044
1001.435 .0251107
1002.033 .0251162
1002.630 .0251212
1003.228 .0251262
1003.825 .0251314
1004.422 .0251364
1005.018 .0251421
1005.614 .0251484
1006.210 .0251547
1006.806 .0251615
1007.401 .0251678
1007.996 .0251723
1008.591 .0251765
1009.186 .0251801
1009.780 .0251834
1010.374 .0251874
1010.967 .0251921
1011.561 .0251984
1012.154 .0252058
1012.746 .0252139
1013.339 .0252221
1013.931 .0252297
1014.523 .0252365
1015.115 .0252412
1015.706 .0252443
1016.298 .0252465
1016.888 .0252480
1017.479 .0252505
1018.069 .0252543
1018.660 .0252595
1019.250 .0252662
1019.839 .0252742
1020.429 .0252838
1021.018 .0252941
1021.607 .0253045
1022.195 .0253149
1022.784 .0253249
1023.372 .0253341
1023.960 .0253428
1024.547 .0253507
1025.135 .0253591
1025.722 .0253679
1026.309 .0253765
1026.896 .0253860
1027.483 .0253963
1028.069 .0254076
1028.655 .0254192
1029.241 .0254310
1029.827 .0254426
1030.412 .0254528
1030.997 .0254622
1031.582 .0254705
1032.167 .0254781
1032.752 .0254852
1033.336 .0254911
1033.921 .0254958
1034.505 .0255000
1035.089 .0255023
1035.672 .0255031
1036.256 .0255029
1036.839 .0255013
1037.422 .0254983
1038.005 .0254949
1038.588 .0254915
1039.171 .0254884
1039.753 .0254858
1040.335 .0254835
1040.918 .0254810
1041.500 .0254787
1042.081 .0254760
1042.663 .0254739
1043.244 .0254733
1043.826 .0254742
1044.407 .0254762
1044.988 .0254801
1045.569 .0254850
1046.150 .0254901
1046.730 .0254944
1047.311 .0254969
1047.891 .0254971
1048.471 .0254942
1049.052 .0254887
1049.632 .0254814
1050.211 .0254740
1050.791 .0254674
1051.371 .0254621
1051.950 .0254589
1052.530 .0254567
1053.109 .0254548
1053.688 .0254526
1054.268 .0254487
1054.847 .0254426
1055.426 .0254342
1056.005 .0254240
1056.583 .0254125
1057.162 .0254005
1057.741 .0253886
1058.319 .0253773
1058.898 .0253664
1059.476 .0253549
1060.055 .0253413
1060.633 .0253259
1061.211 .0253079
1061.790 .0252875
1062.368 .0252654
1062.946 .0252430
1063.524 .0252208
1064.102 .0252002
1064.680 .0251819
1065.258 .0251655
1065.836 .0251510
1066.414 .0251383
1066.992 .0251266
1067.570 .0251162
1068.148 .0251059
1068.726 .0250963
1069.304 .0250882
1069.882 .0250817
1070.460 .0250758
1071.038 .0250702
1071.616 .0250650
1072.194 .0250601
1072.772 .0250553
1073.350 .0250507
1073.928 .0250459
1074.506 .0250416
1075.084 .0250379
1075.662 .0250336
1076.240 .0250292
1076.819 .0250259
1077.397 .0250233
1077.976 .0250220
1078.554 .0250212
1079.133 .0250208
1079.711 .0250205
1080.290 .0250217
1080.869 .0250216
1081.448 .0250204
1082.027 .0250168
1082.606 .0250120
1083.185 .0250055
1083.764 .0250000
1084.343 .0249955
1084.923 .0249921
1085.502 .0249915
1086.082 .0249905
1086.662 .0249877
1087.242 .0249842
1087.822 .0249775
1088.402 .0249687
1088.983 .0249578
1089.563 .0249471
1090.144 .0249358
1090.725 .0249282
1091.306 .0249229
1091.887 .0249197
1092.469 .0249187
1093.050 .0249172
1093.632 .0249126
1094.214 .0249055
1094.796 .0248964
1095.379 .0248857
1095.961 .0248763
1096.544 .0248690
1097.127 .0248628
1097.710 .0248622
1098.294 .0248646
1098.877 .0248698
1099.461 .0248763
1100.046 .0248846
1100.630 .0248925
1101.215 .0249004
1101.800 .0249082
1102.385 .0249152
1102.970 .0249219
1103.556 .0249275
1104.142 .0249297
1104.728 .0249316
1105.315 .0249309
1105.902 .0249294
1106.489 .0249284
1107.077 .0249286
1107.664 .0249293
1108.253 .0249328
1108.841 .0249392
1109.430 .0249490
1110.019 .0249594
1110.609 .0249708
1111.198 .0249823
1111.789 .0249966
1112.379 .0250114
1112.970 .0250279
1113.561 .0250492
1114.153 .0250763
1114.745 .0251051
1115.338 .0251389
1115.931 .0251749
1116.524 .0252116
1117.117 .0252478
1117.712 .0252813
1118.306 .0253130
1118.901 .0253437
1119.496 .0253733
1120.092 .0254036
1120.689 .0254349
1121.285 .0254671
1121.882 .0254976
1122.480 .0255298
1123.078 .0255660
1123.677 .0256063
1124.276 .0256506
1124.875 .0257012
1125.476 .0257576
1126.076 .0258206
1126.677 .0258868
1127.279 .0259553
1127.881 .0260263
1128.484 .0260975
1129.087 .0261670
1129.691 .0262366
1130.295 .0263081
1130.900 .0263849
1131.505 .0264699
1132.111 .0265612
1132.718 .0266575
1133.325 .0267563
1133.933 .0268492
1134.541 .0269362
1135.150 .0270150
1135.760 .0270856
1136.370 .0271498
1136.981 .0272158
1137.592 .0272875
1138.204 .0273640
1138.817 .0274520
1139.431 .0275513
1140.045 .0276516
1140.660 .0277532
1141.275 .0278694
1141.891 .0279887
1142.508 .0281101
1143.126 .0280358
1143.744 .0281295
1144.363 .0288587
1144.983 .0288463
