Measurement Sequence started on: 15-12-46-377
Integration time: 28
Scans to Average: 2 
>>>>>Begin Spectral Data<<<<<
432.689 .0000100
433.621 .0000100
434.552 .0000100
435.482 .0000100
436.410 .0000100
437.337 .0000100
438.262 .0280969
439.187 .0594528
440.110 .0984011
441.031 .1422984
441.952 .1847604
442.871 .2180398
443.789 .2360517
444.705 .2367422
445.621 .2227201
446.535 .1996647
447.447 .1736911
448.359 .1341452
449.269 .1146190
450.178 .1023319
451.086 .0936614
451.993 .0871187
452.898 .0819082
453.803 .0776495
454.706 .0741274
455.608 .0711547
456.508 .0685871
457.408 .0663852
458.306 .0644509
459.204 .0627156
460.100 .0611366
460.995 .0597345
461.888 .0584366
462.781 .0572657
463.673 .0561811
464.563 .0551848
465.452 .0542543
466.340 .0533868
467.228 .0525728
468.114 .0518195
468.999 .0511247
469.882 .0504798
470.765 .0498836
471.647 .0493579
472.528 .0488892
473.407 .0484823
474.286 .0481402
475.163 .0478535
476.040 .0476031
476.915 .0473910
477.790 .0472007
478.663 .0470340
479.535 .0468898
480.407 .0467706
481.277 .0466759
482.147 .0466025
483.015 .0465440
483.883 .0465046
484.749 .0464823
485.615 .0464769
486.479 .0464742
487.343 .0464817
488.206 .0465015
489.067 .0465282
489.928 .0465657
490.788 .0466149
491.647 .0466762
492.505 .0467497
493.362 .0468350
494.218 .0469287
495.073 .0470346
495.928 .0471642
496.781 .0473122
497.634 .0474895
498.486 .0476892
499.337 .0479105
500.187 .0481471
501.036 .0484079
501.884 .0486893
502.731 .0489789
503.578 .0492987
504.424 .0496442
505.268 .0500209
506.113 .0504499
506.956 .0509252
507.798 .0514613
508.640 .0520623
509.480 .0527261
510.320 .0534343
511.160 .0542078
511.998 .0550521
512.836 .0559639
513.672 .0569710
514.508 .0581006
515.344 .0593571
516.178 .0607675
517.012 .0623584
517.845 .0641287
518.677 .0661266
519.508 .0683719
520.339 .0708605
521.169 .0736956
521.998 .0768852
522.826 .0805158
523.654 .0846625
524.481 .0894127
525.307 .0947937
526.133 .1008050
526.958 .1074710
527.782 .1146352
528.605 .1220592
529.428 .1296095
530.250 .1367475
531.072 .1432757
531.892 .1488155
532.712 .1531065
533.532 .1559636
534.350 .1571957
535.168 .1566534
535.986 .1544055
536.802 .1505834
537.618 .1453991
538.434 .1390524
539.249 .1320168
540.063 .1245569
540.876 .1170750
541.689 .1098426
542.501 .1030988
543.313 .0969903
544.124 .0915588
544.934 .0866775
545.744 .0823291
546.553 .0784548
547.361 .0749941
548.169 .0719367
548.976 .0692184
549.783 .0667985
550.589 .0646599
551.395 .0627360
552.200 .0610150
553.004 .0594487
553.808 .0579917
554.611 .0566257
555.414 .0553593
556.216 .0541731
557.018 .0530816
557.819 .0520903
558.619 .0511925
559.419 .0503786
560.218 .0496340
561.017 .0489348
561.815 .0482601
562.613 .0475922
563.410 .0469199
564.207 .0462418
565.003 .0455678
565.799 .0448972
566.594 .0442421
567.388 .0436146
568.182 .0430103
568.976 .0424240
569.769 .0418600
570.562 .0413097
571.354 .0407786
572.145 .0402640
572.936 .0397577
573.727 .0392668
574.517 .0387954
575.307 .0383428
576.096 .0379121
576.885 .0375054
577.673 .0371251
578.461 .0367676
579.248 .0364373
580.035 .0361325
580.821 .0358510
581.607 .0355906
582.392 .0353510
583.177 .0351270
583.962 .0349199
584.746 .0347260
585.529 .0345475
586.313 .0343817
587.095 .0342280
587.878 .0340870
588.660 .0339585
589.441 .0338436
590.222 .0337413
591.003 .0336486
591.783 .0335663
592.563 .0334902
593.342 .0334214
594.121 .0333559
594.899 .0332967
595.678 .0332404
596.455 .0331873
597.233 .0331375
598.009 .0330895
598.786 .0330419
599.562 .0329964
600.338 .0329516
601.113 .0329066
601.888 .0328612
602.663 .0328146
603.437 .0327668
604.211 .0327193
604.984 .0326716
605.757 .0326239
606.530 .0325757
607.302 .0325277
608.074 .0324780
608.845 .0324289
609.616 .0323802
610.387 .0323325
611.158 .0322863
611.928 .0322422
612.697 .0321996
613.467 .0321600
614.236 .0321230
615.004 .0320879
615.773 .0320554
616.541 .0320253
617.308 .0319956
618.076 .0319667
618.843 .0319384
619.609 .0319109
620.375 .0318834
621.141 .0318569
621.907 .0318298
622.672 .0318034
623.437 .0317776
624.202 .0317525
624.966 .0317282
625.730 .0317043
626.493 .0316794
627.257 .0316531
628.020 .0316257
628.782 .0315966
629.545 .0315654
630.307 .0315338
631.068 .0315023
631.830 .0314717
632.591 .0314419
633.352 .0314136
634.112 .0313865
634.872 .0313606
635.632 .0313342
636.392 .0313066
637.151 .0312780
637.910 .0312483
638.668 .0312182
639.427 .0311883
640.185 .0311596
640.943 .0311320
641.700 .0311058
642.457 .0310812
643.214 .0310575
643.971 .0310341
644.727 .0310108
645.483 .0309885
646.239 .0309672
646.994 .0309470
647.750 .0309287
648.505 .0309126
649.259 .0308989
650.014 .0308869
650.768 .0308755
651.521 .0308649
652.275 .0308545
653.028 .0308438
653.781 .0308326
654.534 .0308208
655.286 .0308086
656.039 .0307959
656.791 .0307829
657.542 .0307689
658.294 .0307535
659.045 .0307374
659.796 .0307198
660.546 .0307008
661.297 .0306803
662.047 .0306586
662.796 .0306360
663.546 .0306131
664.295 .0305897
665.044 .0305666
665.793 .0305442
666.542 .0305225
667.290 .0305014
668.038 .0304806
668.786 .0304597
669.533 .0304382
670.281 .0304163
671.028 .0303936
671.774 .0303699
672.521 .0303465
673.267 .0303236
674.013 .0303016
674.759 .0302800
675.505 .0302589
676.250 .0302378
676.995 .0302165
677.740 .0301941
678.484 .0301700
679.229 .0301450
679.973 .0301193
680.717 .0300931
681.460 .0300673
682.204 .0300421
682.947 .0300184
683.690 .0299956
684.433 .0299734
685.175 .0299511
685.917 .0299284
686.659 .0299048
687.401 .0298804
688.142 .0298548
688.884 .0298282
689.625 .0298001
690.365 .0297713
691.106 .0297417
691.846 .0297116
692.586 .0296816
693.326 .0296512
694.066 .0296210
694.805 .0295908
695.545 .0295598
696.284 .0295284
697.022 .0294968
697.761 .0294653
698.499 .0294341
699.237 .0294044
699.975 .0293764
700.713 .0293508
701.450 .0293285
702.187 .0293089
702.924 .0292920
703.661 .0292769
704.397 .0292628
705.133 .0292489
705.869 .0292356
706.605 .0292220
707.341 .0292086
708.076 .0291962
708.811 .0291846
709.546 .0291737
710.281 .0291634
711.015 .0291530
711.749 .0291418
712.483 .0291297
713.217 .0291158
713.950 .0290998
714.684 .0290823
715.417 .0290634
716.150 .0290445
716.882 .0290260
717.615 .0290083
718.347 .0289920
719.079 .0289773
719.811 .0289636
720.542 .0289507
721.273 .0289381
722.005 .0289256
722.735 .0289127
723.466 .0288998
724.196 .0288865
724.927 .0288730
725.656 .0288606
726.386 .0288494
727.116 .0288400
727.845 .0288324
728.574 .0288255
729.303 .0288197
730.031 .0288141
730.760 .0288078
731.488 .0288004
732.216 .0287926
732.944 .0287846
733.671 .0287768
734.398 .0287702
735.125 .0287650
735.852 .0287616
736.579 .0287603
737.305 .0287603
738.031 .0287604
738.757 .0287598
739.483 .0287577
740.208 .0287536
740.933 .0287478
741.658 .0287401
742.383 .0287307
743.108 .0287205
743.832 .0287095
744.556 .0286980
745.280 .0286859
746.004 .0286737
746.727 .0286607
747.450 .0286467
748.173 .0286314
748.896 .0286149
749.618 .0285972
750.340 .0285789
751.062 .0285601
751.784 .0285410
752.506 .0285216
753.227 .0285023
753.948 .0284831
754.669 .0284643
755.389 .0284451
756.110 .0284258
756.830 .0284062
757.550 .0283860
758.269 .0283646
758.989 .0283422
759.708 .0283185
760.427 .0282939
761.146 .0282683
761.864 .0282422
762.582 .0282163
763.300 .0281906
764.018 .0281653
764.736 .0281403
765.453 .0281157
766.170 .0280912
766.887 .0280666
767.603 .0280424
768.320 .0280178
769.036 .0279933
769.751 .0279690
770.467 .0279452
771.182 .0279224
771.897 .0279001
772.612 .0278784
773.327 .0278568
774.041 .0278353
774.755 .0278125
775.469 .0277892
776.183 .0277654
776.896 .0277417
777.609 .0277180
778.322 .0276946
779.035 .0276722
779.747 .0276510
780.459 .0276312
781.171 .0276125
781.882 .0275944
782.594 .0275773
783.305 .0275600
784.016 .0275435
784.726 .0275277
785.436 .0275128
786.147 .0274991
786.856 .0274870
787.566 .0274763
788.275 .0274668
788.984 .0274587
789.693 .0274513
790.401 .0274447
791.110 .0274379
791.818 .0274306
792.525 .0274226
793.233 .0274141
793.940 .0274050
794.647 .0273952
795.353 .0273850
796.060 .0273744
796.766 .0273631
797.472 .0273512
798.177 .0273386
798.883 .0273254
799.588 .0273117
800.292 .0272981
800.997 .0272846
801.701 .0272722
802.405 .0272609
803.109 .0272514
803.812 .0272438
804.515 .0272380
805.218 .0272333
805.921 .0272297
806.623 .0272267
807.325 .0272240
808.027 .0272216
808.728 .0272194
809.429 .0272174
810.130 .0272160
810.831 .0272151
811.531 .0272144
812.231 .0272136
812.931 .0272124
813.630 .0272097
814.330 .0272059
815.029 .0272006
815.727 .0271942
816.426 .0271873
817.124 .0271802
817.821 .0271729
818.519 .0271664
819.216 .0271608
819.913 .0271561
820.609 .0271524
821.306 .0271500
822.002 .0271487
822.697 .0271493
823.393 .0271518
824.088 .0271561
824.783 .0271622
825.477 .0271701
826.171 .0271786
826.865 .0271877
827.559 .0271970
828.252 .0272064
828.945 .0272156
829.638 .0272251
830.330 .0272348
831.023 .0272447
831.714 .0272547
832.406 .0272645
833.097 .0272734
833.788 .0272806
834.479 .0272855
835.169 .0272879
835.859 .0272881
836.548 .0272864
837.238 .0272827
837.927 .0272784
838.615 .0272735
839.304 .0272681
839.992 .0272619
840.680 .0272551
841.367 .0272476
842.054 .0272391
842.741 .0272299
843.428 .0272202
844.114 .0272104
844.800 .0272008
845.485 .0271910
846.170 .0271812
846.855 .0271713
847.540 .0271605
848.224 .0271486
848.908 .0271358
849.592 .0271219
850.275 .0271064
850.958 .0270898
851.641 .0270719
852.323 .0270529
853.005 .0270325
853.687 .0270103
854.368 .0269867
855.049 .0269616
855.730 .0269350
856.410 .0269070
857.090 .0268782
857.769 .0268487
858.449 .0268187
859.128 .0267887
859.806 .0267588
860.485 .0267292
861.163 .0267000
861.840 .0266715
862.518 .0266436
863.195 .0266165
863.871 .0265900
864.548 .0265640
865.224 .0265387
865.899 .0265137
866.574 .0264886
867.249 .0264635
867.924 .0264382
868.598 .0264129
869.272 .0263875
869.946 .0263623
870.619 .0263371
871.292 .0263124
871.964 .0262879
872.636 .0262638
873.308 .0262397
873.979 .0262159
874.651 .0261922
875.321 .0261687
875.992 .0261452
876.662 .0261223
877.331 .0260997
878.001 .0260777
878.670 .0260558
879.338 .0260344
880.007 .0260128
880.675 .0259913
881.342 .0259695
882.009 .0259479
882.676 .0259261
883.343 .0259045
884.009 .0258830
884.675 .0258621
885.340 .0258415
886.005 .0258213
886.670 .0258014
887.334 .0257823
887.998 .0257638
888.662 .0257463
889.325 .0257303
889.988 .0257165
890.650 .0257049
891.312 .0256957
891.974 .0256887
892.636 .0256837
893.297 .0256800
893.957 .0256773
894.618 .0256753
895.278 .0256738
895.937 .0256724
896.596 .0256717
897.255 .0256712
897.914 .0256711
898.572 .0256713
899.230 .0256713
899.887 .0256706
900.544 .0256687
901.201 .0256649
901.857 .0256596
902.513 .0256530
903.168 .0256448
903.823 .0256351
904.478 .0256243
905.132 .0256129
905.786 .0256005
906.440 .0255875
907.093 .0255740
907.746 .0255600
908.399 .0255459
909.051 .0255317
909.703 .0255175
910.354 .0255037
911.005 .0254906
911.656 .0254783
912.306 .0254662
912.956 .0254543
913.605 .0254423
914.254 .0254306
914.903 .0254198
915.551 .0254099
916.199 .0254015
916.847 .0253950
917.494 .0253907
918.141 .0253883
918.788 .0253875
919.434 .0253881
920.079 .0253896
920.725 .0253915
921.370 .0253937
922.014 .0253958
922.658 .0253979
923.302 .0254006
923.946 .0254032
924.589 .0254059
925.231 .0254082
925.873 .0254100
926.515 .0254104
927.157 .0254096
927.798 .0254073
928.439 .0254028
929.079 .0253964
929.719 .0253886
930.359 .0253787
930.998 .0253682
931.637 .0253571
932.275 .0253460
932.913 .0253355
933.551 .0253261
934.188 .0253181
934.825 .0253122
935.462 .0253087
936.098 .0253076
936.733 .0253091
937.369 .0253131
938.004 .0253190
938.638 .0253259
939.273 .0253338
939.907 .0253421
940.540 .0253509
941.173 .0253601
941.806 .0253696
942.438 .0253801
943.070 .0253916
943.702 .0254035
944.333 .0254156
944.964 .0254274
945.594 .0254383
946.224 .0254481
946.854 .0254566
947.483 .0254638
948.112 .0254703
948.741 .0254758
949.369 .0254814
949.996 .0254873
950.624 .0254935
951.251 .0255003
951.878 .0255077
952.504 .0255152
953.130 .0255216
953.755 .0255268
954.380 .0255306
955.005 .0255324
955.629 .0255325
956.253 .0255303
956.877 .0255266
957.500 .0255222
958.123 .0255167
958.746 .0255105
959.368 .0255042
959.990 .0254975
960.611 .0254899
961.232 .0254818
961.853 .0254729
962.473 .0254636
963.093 .0254539
963.712 .0254445
964.331 .0254351
964.950 .0254262
965.569 .0254181
966.187 .0254107
966.804 .0254044
967.422 .0253991
968.039 .0253941
968.655 .0253895
969.272 .0253849
969.887 .0253802
970.503 .0253749
971.118 .0253701
971.733 .0253646
972.347 .0253583
972.961 .0253512
973.575 .0253430
974.188 .0253333
974.801 .0253223
975.414 .0253099
976.026 .0252957
976.638 .0252798
977.250 .0252620
977.861 .0252422
978.472 .0252212
979.083 .0251990
979.693 .0251753
980.303 .0251505
980.912 .0251249
981.521 .0250983
982.130 .0250714
982.738 .0250440
983.346 .0250164
983.954 .0249883
984.562 .0249599
985.169 .0249308
985.775 .0249011
986.382 .0248716
986.988 .0248424
987.594 .0248138
988.199 .0247856
988.804 .0247581
989.409 .0247314
990.013 .0247059
990.617 .0246813
991.221 .0246571
991.824 .0246334
992.427 .0246101
993.030 .0245874
993.632 .0245654
994.234 .0245443
994.836 .0245244
995.438 .0245062
996.039 .0244893
996.640 .0244735
997.240 .0244593
997.840 .0244465
998.440 .0244345
999.040 .0244227
999.639 .0244107
1000.238 .0243981
1000.836 .0243846
1001.435 .0243697
1002.033 .0243535
1002.630 .0243360
1003.228 .0243178
1003.825 .0242991
1004.422 .0242804
1005.018 .0242618
1005.614 .0242440
1006.210 .0242269
1006.806 .0242107
1007.401 .0241951
1007.996 .0241801
1008.591 .0241654
1009.186 .0241515
1009.780 .0241378
1010.374 .0241244
1010.967 .0241114
1011.561 .0240991
1012.154 .0240868
1012.746 .0240755
1013.339 .0240650
1013.931 .0240551
1014.523 .0240454
1015.115 .0240355
1015.706 .0240247
1016.298 .0240125
1016.888 .0239980
1017.479 .0239816
1018.069 .0239632
1018.660 .0239434
1019.250 .0239228
1019.839 .0239029
1020.429 .0238844
1021.018 .0238677
1021.607 .0238531
1022.195 .0238411
1022.784 .0238304
1023.372 .0238212
1023.960 .0238129
1024.547 .0238057
1025.135 .0238003
1025.722 .0237958
1026.309 .0237933
1026.896 .0237942
1027.483 .0237978
1028.069 .0238035
1028.655 .0238114
1029.241 .0238212
1029.827 .0238315
1030.412 .0238420
1030.997 .0238522
1031.582 .0238617
1032.167 .0238717
1032.752 .0238818
1033.336 .0238920
1033.921 .0239029
1034.505 .0239139
1035.089 .0239240
1035.672 .0239331
1036.256 .0239409
1036.839 .0239458
1037.422 .0239481
1038.005 .0239485
1038.588 .0239471
1039.171 .0239446
1039.753 .0239411
1040.335 .0239376
1040.918 .0239342
1041.500 .0239315
1042.081 .0239281
1042.663 .0239245
1043.244 .0239210
1043.826 .0239175
1044.407 .0239140
1044.988 .0239110
1045.569 .0239093
1046.150 .0239085
1046.730 .0239089
1047.311 .0239113
1047.891 .0239151
1048.471 .0239205
1049.052 .0239263
1049.632 .0239324
1050.211 .0239387
1050.791 .0239453
1051.371 .0239519
1051.950 .0239596
1052.530 .0239679
1053.109 .0239768
1053.688 .0239848
1054.268 .0239928
1054.847 .0240008
1055.426 .0240089
1056.005 .0240169
1056.583 .0240246
1057.162 .0240313
1057.741 .0240378
1058.319 .0240441
1058.898 .0240516
1059.476 .0240606
1060.055 .0240707
1060.633 .0240817
1061.211 .0240941
1061.790 .0241068
1062.368 .0241211
1062.946 .0241352
1063.524 .0241501
1064.102 .0241651
1064.680 .0241801
1065.258 .0241942
1065.836 .0242087
1066.414 .0242253
1066.992 .0242430
1067.570 .0242617
1068.148 .0242808
1068.726 .0242995
1069.304 .0243185
1069.882 .0243368
1070.460 .0243534
1071.038 .0243689
1071.616 .0243849
1072.194 .0243995
1072.772 .0244136
1073.350 .0244293
1073.928 .0244450
1074.506 .0244613
1075.084 .0244776
1075.662 .0244930
1076.240 .0245072
1076.819 .0245212
1077.397 .0245353
1077.976 .0245503
1078.554 .0245671
1079.133 .0245850
1079.711 .0246043
1080.290 .0246265
1080.869 .0246495
1081.448 .0246709
1082.027 .0246935
1082.606 .0247173
1083.185 .0247417
1083.764 .0247689
1084.343 .0247982
1084.923 .0248316
1085.502 .0248680
1086.082 .0249064
1086.662 .0249467
1087.242 .0249875
1087.822 .0250279
1088.402 .0250656
1088.983 .0251016
1089.563 .0251350
1090.144 .0251652
1090.725 .0251950
1091.306 .0252234
1091.887 .0252500
1092.469 .0252747
1093.050 .0252977
1093.632 .0253187
1094.214 .0253382
1094.796 .0253552
1095.379 .0253707
1095.961 .0253865
1096.544 .0254034
1097.127 .0254228
1097.710 .0254454
1098.294 .0254734
1098.877 .0255051
1099.461 .0255398
1100.046 .0255779
1100.630 .0256165
1101.215 .0256562
1101.800 .0256959
1102.385 .0257350
1102.970 .0257735
1103.556 .0258101
1104.142 .0258462
1104.728 .0258814
1105.315 .0259157
1105.902 .0259488
1106.489 .0259801
1107.077 .0260108
1107.664 .0260416
1108.253 .0260722
1108.841 .0261026
1109.430 .0261350
1110.019 .0261684
1110.609 .0262026
1111.198 .0262356
1111.789 .0262678
1112.379 .0263003
1112.970 .0263319
1113.561 .0263649
1114.153 .0264013
1114.745 .0264410
1115.338 .0264873
1115.931 .0265367
1116.524 .0265888
1117.117 .0266441
1117.712 .0267007
1118.306 .0267543
1118.901 .0268043
1119.496 .0268491
1120.092 .0268881
1120.689 .0269208
1121.285 .0269528
1121.882 .0269820
1122.480 .0270125
1123.078 .0270475
1123.677 .0270859
1124.276 .0271274
1124.875 .0271737
1125.476 .0272201
1126.076 .0272688
1126.677 .0273148
1127.279 .0273561
1127.881 .0273929
1128.484 .0274302
1129.087 .0274695
1129.691 .0275140
1130.295 .0275689
1130.900 .0276376
1131.505 .0277220
1132.111 .0278248
1132.718 .0279412
1133.325 .0280681
1133.933 .0282021
1134.541 .0283367
1135.150 .0284709
1135.760 .0286041
1136.370 .0287359
1136.981 .0288718
1137.592 .0290123
1138.204 .0291612
1138.817 .0293196
1139.431 .0294861
1140.045 .0296478
1140.660 .0298070
1141.275 .0299811
1141.891 .0301459
1142.508 .0303669
1143.126 .0301851
1143.744 .0304271
1144.363 .0312194
1144.983 .0310208
