Measurement Sequence started on: 15-12-46-377
Integration time: 28
Scans to Average: 2 
>>>>>Begin Spectral Data<<<<<
432.689 .0000100
433.621 .0000100
434.552 .0000100
435.482 .0000100
436.410 .0000100
437.337 .0000100
438.262 .0267580
439.187 .0565776
440.110 .0936201
441.031 .1354128
441.952 .1759852
442.871 .2079098
443.789 .2254058
444.705 .2265100
445.621 .2136946
446.535 .1922800
447.447 .1680345
448.359 .1307725
449.269 .1124639
450.178 .1008872
451.086 .0926337
451.993 .0862676
452.898 .0811787
453.803 .0769836
454.706 .0734861
455.608 .0704833
456.508 .0678727
457.408 .0656036
458.306 .0635690
459.204 .0617384
460.100 .0600700
460.995 .0585477
461.888 .0571675
462.781 .0559287
463.673 .0548037
464.563 .0537923
465.452 .0528832
466.340 .0520555
467.228 .0513014
468.114 .0506197
468.999 .0499983
469.882 .0494263
470.765 .0489136
471.647 .0484485
472.528 .0480309
473.407 .0476619
474.286 .0473261
475.163 .0470235
476.040 .0467546
476.915 .0465113
477.790 .0462963
478.663 .0461158
479.535 .0459639
480.407 .0458381
481.277 .0457355
482.147 .0456520
483.015 .0455845
483.883 .0455315
484.749 .0454899
485.615 .0454604
486.479 .0454435
487.343 .0454414
488.206 .0454566
489.067 .0454935
489.928 .0455433
490.788 .0456084
491.647 .0456830
492.505 .0457592
493.362 .0458363
494.218 .0459158
495.073 .0459899
495.928 .0460713
496.781 .0461540
497.634 .0462509
498.486 .0463633
499.337 .0464997
500.187 .0466632
501.036 .0468592
501.884 .0470925
502.731 .0473641
503.578 .0476762
504.424 .0480428
505.268 .0484455
506.113 .0488927
506.956 .0493857
507.798 .0499274
508.640 .0505325
509.480 .0512149
510.320 .0519832
511.160 .0528519
511.998 .0538200
512.836 .0549106
513.672 .0561120
514.508 .0574357
515.344 .0588881
516.178 .0604763
517.012 .0622265
517.845 .0641629
518.677 .0663079
519.508 .0687185
520.339 .0714188
521.169 .0744669
521.998 .0779065
522.826 .0817804
523.654 .0861076
524.481 .0908871
525.307 .0962245
526.133 .1020659
526.958 .1083156
527.782 .1149936
528.605 .1219162
529.428 .1289808
530.250 .1356779
531.072 .1417501
531.892 .1468237
532.712 .1506694
533.532 .1530362
534.350 .1537213
535.168 .1527472
535.986 .1502313
536.802 .1462373
537.618 .1411067
538.434 .1350664
539.249 .1285270
540.063 .1216757
540.876 .1148339
541.689 .1081695
542.501 .1018947
543.313 .0961090
544.124 .0908920
544.934 .0861924
545.744 .0819559
546.553 .0780718
547.361 .0745511
548.169 .0714015
548.976 .0685344
549.783 .0659180
550.589 .0635510
551.395 .0614193
552.200 .0595023
553.004 .0577636
553.808 .0561939
554.611 .0547927
555.414 .0535425
556.216 .0524044
557.018 .0513843
557.819 .0504620
558.619 .0496216
559.419 .0488402
560.218 .0481168
561.017 .0474324
561.815 .0467755
562.613 .0461385
563.410 .0455113
564.207 .0448995
565.003 .0442942
565.799 .0436965
566.594 .0431127
567.388 .0425473
568.182 .0420011
568.976 .0414707
569.769 .0409614
570.562 .0404641
571.354 .0399817
572.145 .0395137
572.936 .0390583
573.727 .0386219
574.517 .0382028
575.307 .0377999
576.096 .0374178
576.885 .0370546
577.673 .0367114
578.461 .0363882
579.248 .0360848
580.035 .0357941
580.821 .0355173
581.607 .0352522
582.392 .0349979
583.177 .0347590
583.962 .0345350
584.746 .0343268
585.529 .0341325
586.313 .0339538
587.095 .0337879
587.878 .0336345
588.660 .0334972
589.441 .0333711
590.222 .0332577
591.003 .0331577
591.783 .0330681
592.563 .0329882
593.342 .0329151
594.121 .0328474
594.899 .0327838
595.678 .0327234
596.455 .0326655
597.233 .0326102
598.009 .0325582
598.786 .0325102
599.562 .0324652
600.338 .0324241
601.113 .0323854
601.888 .0323475
602.663 .0323092
603.437 .0322703
604.211 .0322290
604.984 .0321853
605.757 .0321405
606.530 .0320963
607.302 .0320522
608.074 .0320105
608.845 .0319715
609.616 .0319357
610.387 .0319033
611.158 .0318729
611.928 .0318441
612.697 .0318169
613.467 .0317896
614.236 .0317631
615.004 .0317376
615.773 .0317136
616.541 .0316904
617.308 .0316690
618.076 .0316502
618.843 .0316322
619.609 .0316165
620.375 .0316025
621.141 .0315894
621.907 .0315773
622.672 .0315643
623.437 .0315498
624.202 .0315344
624.966 .0315174
625.730 .0314985
626.493 .0314780
627.257 .0314568
628.020 .0314340
628.782 .0314102
629.545 .0313860
630.307 .0313600
631.068 .0313324
631.830 .0313039
632.591 .0312725
633.352 .0312394
634.112 .0312047
634.872 .0311693
635.632 .0311346
636.392 .0311004
637.151 .0310673
637.910 .0310346
638.668 .0310029
639.427 .0309719
640.185 .0309400
640.943 .0309088
641.700 .0308778
642.457 .0308469
643.214 .0308176
643.971 .0307894
644.727 .0307631
645.483 .0307385
646.239 .0307152
646.994 .0306922
647.750 .0306683
648.505 .0306441
649.259 .0306194
650.014 .0305940
650.768 .0305691
651.521 .0305444
652.275 .0305209
653.028 .0304990
653.781 .0304782
654.534 .0304584
655.286 .0304397
656.039 .0304216
656.791 .0304034
657.542 .0303848
658.294 .0303664
659.045 .0303475
659.796 .0303286
660.546 .0303098
661.297 .0302904
662.047 .0302710
662.796 .0302514
663.546 .0302316
664.295 .0302118
665.044 .0301921
665.793 .0301726
666.542 .0301532
667.290 .0301341
668.038 .0301152
668.786 .0300959
669.533 .0300770
670.281 .0300577
671.028 .0300380
671.774 .0300186
672.521 .0299994
673.267 .0299806
674.013 .0299628
674.759 .0299456
675.505 .0299292
676.250 .0299130
676.995 .0298971
677.740 .0298809
678.484 .0298639
679.229 .0298464
679.973 .0298279
680.717 .0298094
681.460 .0297909
682.204 .0297721
682.947 .0297539
683.690 .0297365
684.433 .0297200
685.175 .0297038
685.917 .0296882
686.659 .0296730
687.401 .0296577
688.142 .0296421
688.884 .0296260
689.625 .0296095
690.365 .0295926
691.106 .0295753
691.846 .0295572
692.586 .0295395
693.326 .0295218
694.066 .0295045
694.805 .0294875
695.545 .0294711
696.284 .0294547
697.022 .0294379
697.761 .0294209
698.499 .0294035
699.237 .0293853
699.975 .0293672
700.713 .0293487
701.450 .0293306
702.187 .0293127
702.924 .0292950
703.661 .0292780
704.397 .0292616
705.133 .0292454
705.869 .0292290
706.605 .0292128
707.341 .0291973
708.076 .0291821
708.811 .0291673
709.546 .0291525
710.281 .0291377
711.015 .0291220
711.749 .0291050
712.483 .0290867
713.217 .0290676
713.950 .0290477
714.684 .0290274
715.417 .0290074
716.150 .0289880
716.882 .0289697
717.615 .0289524
718.347 .0289353
719.079 .0289180
719.811 .0288997
720.542 .0288804
721.273 .0288599
722.005 .0288385
722.735 .0288164
723.466 .0287943
724.196 .0287726
724.927 .0287514
725.656 .0287308
726.386 .0287111
727.116 .0286924
727.845 .0286743
728.574 .0286559
729.303 .0286378
730.031 .0286194
730.760 .0286015
731.488 .0285838
732.216 .0285671
732.944 .0285516
733.671 .0285375
734.398 .0285252
735.125 .0285147
735.852 .0285060
736.579 .0284991
737.305 .0284933
738.031 .0284881
738.757 .0284826
739.483 .0284760
740.208 .0284681
740.933 .0284591
741.658 .0284486
742.383 .0284369
743.108 .0284245
743.832 .0284122
744.556 .0284001
745.280 .0283882
746.004 .0283766
746.727 .0283648
747.450 .0283533
748.173 .0283412
748.896 .0283285
749.618 .0283155
750.340 .0283026
751.062 .0282899
751.784 .0282781
752.506 .0282670
753.227 .0282570
753.948 .0282475
754.669 .0282388
755.389 .0282299
756.110 .0282208
756.830 .0282109
757.550 .0282002
758.269 .0281882
758.989 .0281753
759.708 .0281607
760.427 .0281457
761.146 .0281301
761.864 .0281142
762.582 .0280980
763.300 .0280819
764.018 .0280661
764.736 .0280509
765.453 .0280363
766.170 .0280225
766.887 .0280089
767.603 .0279960
768.320 .0279825
769.036 .0279684
769.751 .0279538
770.467 .0279388
771.182 .0279233
771.897 .0279078
772.612 .0278923
773.327 .0278773
774.041 .0278633
774.755 .0278500
775.469 .0278375
776.183 .0278259
776.896 .0278149
777.609 .0278043
778.322 .0277937
779.035 .0277835
779.747 .0277734
780.459 .0277636
781.171 .0277544
781.882 .0277458
782.594 .0277379
783.305 .0277312
784.016 .0277254
784.726 .0277205
785.436 .0277158
786.147 .0277113
786.856 .0277067
787.566 .0277021
788.275 .0276968
788.984 .0276911
789.693 .0276851
790.401 .0276791
791.110 .0276728
791.818 .0276664
792.525 .0276597
793.233 .0276528
793.940 .0276452
794.647 .0276367
795.353 .0276272
796.060 .0276172
796.766 .0276061
797.472 .0275943
798.177 .0275817
798.883 .0275687
799.588 .0275547
800.292 .0275404
800.997 .0275255
801.701 .0275099
802.405 .0274938
803.109 .0274773
803.812 .0274605
804.515 .0274437
805.218 .0274268
805.921 .0274103
806.623 .0273937
807.325 .0273774
808.027 .0273610
808.728 .0273448
809.429 .0273290
810.130 .0273135
810.831 .0272985
811.531 .0272842
812.231 .0272707
812.931 .0272576
813.630 .0272449
814.330 .0272329
815.029 .0272214
815.727 .0272102
816.426 .0271995
817.124 .0271888
817.821 .0271781
818.519 .0271674
819.216 .0271567
819.913 .0271459
820.609 .0271351
821.306 .0271244
822.002 .0271141
822.697 .0271042
823.393 .0270951
824.088 .0270865
824.783 .0270786
825.477 .0270711
826.171 .0270636
826.865 .0270562
827.559 .0270493
828.252 .0270429
828.945 .0270375
829.638 .0270330
830.330 .0270300
831.023 .0270280
831.714 .0270271
832.406 .0270266
833.097 .0270265
833.788 .0270258
834.479 .0270244
835.169 .0270225
835.859 .0270206
836.548 .0270185
837.238 .0270169
837.927 .0270156
838.615 .0270146
839.304 .0270135
839.992 .0270122
840.680 .0270105
841.367 .0270086
842.054 .0270062
842.741 .0270038
843.428 .0270017
844.114 .0270000
844.800 .0269986
845.485 .0269973
846.170 .0269958
846.855 .0269930
847.540 .0269888
848.224 .0269832
848.908 .0269760
849.592 .0269676
850.275 .0269582
850.958 .0269482
851.641 .0269378
852.323 .0269270
853.005 .0269157
853.687 .0269037
854.368 .0268911
855.049 .0268773
855.730 .0268621
856.410 .0268457
857.090 .0268288
857.769 .0268112
858.449 .0267937
859.128 .0267765
859.806 .0267598
860.485 .0267438
861.163 .0267282
861.840 .0267130
862.518 .0266977
863.195 .0266820
863.871 .0266656
864.548 .0266483
865.224 .0266305
865.899 .0266119
866.574 .0265930
867.249 .0265745
867.924 .0265566
868.598 .0265391
869.272 .0265221
869.946 .0265053
870.619 .0264888
871.292 .0264722
871.964 .0264548
872.636 .0264373
873.308 .0264192
873.979 .0264014
874.651 .0263837
875.321 .0263666
875.992 .0263508
876.662 .0263363
877.331 .0263231
878.001 .0263109
878.670 .0262991
879.338 .0262877
880.007 .0262767
880.675 .0262662
881.342 .0262560
882.009 .0262462
882.676 .0262369
883.343 .0262286
884.009 .0262212
884.675 .0262147
885.340 .0262087
886.005 .0262034
886.670 .0261988
887.334 .0261943
887.998 .0261901
888.662 .0261864
889.325 .0261833
889.988 .0261809
890.650 .0261789
891.312 .0261773
891.974 .0261758
892.636 .0261744
893.297 .0261728
893.957 .0261706
894.618 .0261680
895.278 .0261650
895.937 .0261617
896.596 .0261587
897.255 .0261554
897.914 .0261521
898.572 .0261484
899.230 .0261441
899.887 .0261388
900.544 .0261317
901.201 .0261230
901.857 .0261122
902.513 .0260997
903.168 .0260855
903.823 .0260697
904.478 .0260528
905.132 .0260349
905.786 .0260162
906.440 .0259968
907.093 .0259766
907.746 .0259558
908.399 .0259347
909.051 .0259132
909.703 .0258913
910.354 .0258691
911.005 .0258470
911.656 .0258259
912.306 .0258050
912.956 .0257854
913.605 .0257668
914.254 .0257490
914.903 .0257322
915.551 .0257162
916.199 .0257013
916.847 .0256876
917.494 .0256750
918.141 .0256635
918.788 .0256527
919.434 .0256431
920.079 .0256336
920.725 .0256245
921.370 .0256154
922.014 .0256058
922.658 .0255951
923.302 .0255839
923.946 .0255718
924.589 .0255587
925.231 .0255452
925.873 .0255313
926.515 .0255171
927.157 .0255027
927.798 .0254877
928.439 .0254726
929.079 .0254568
929.719 .0254406
930.359 .0254235
930.998 .0254066
931.637 .0253899
932.275 .0253736
932.913 .0253585
933.551 .0253451
934.188 .0253331
934.825 .0253230
935.462 .0253143
936.098 .0253072
936.733 .0253016
937.369 .0252974
938.004 .0252945
938.638 .0252925
939.273 .0252914
939.907 .0252913
940.540 .0252914
941.173 .0252922
941.806 .0252931
942.438 .0252943
943.070 .0252955
943.702 .0252962
944.333 .0252962
944.964 .0252956
945.594 .0252946
946.224 .0252928
946.854 .0252903
947.483 .0252876
948.112 .0252845
948.741 .0252810
949.369 .0252773
949.996 .0252734
950.624 .0252691
951.251 .0252642
951.878 .0252584
952.504 .0252519
953.130 .0252446
953.755 .0252367
954.380 .0252285
955.005 .0252204
955.629 .0252124
956.253 .0252047
956.877 .0251978
957.500 .0251914
958.123 .0251850
958.746 .0251788
959.368 .0251722
959.990 .0251652
960.611 .0251574
961.232 .0251495
961.853 .0251421
962.473 .0251358
963.093 .0251307
963.712 .0251264
964.331 .0251235
964.950 .0251216
965.569 .0251205
966.187 .0251199
966.804 .0251197
967.422 .0251197
968.039 .0251198
968.655 .0251198
969.272 .0251196
969.887 .0251193
970.503 .0251187
971.118 .0251178
971.733 .0251159
972.347 .0251129
972.961 .0251091
973.575 .0251041
974.188 .0250985
974.801 .0250919
975.414 .0250848
976.026 .0250770
976.638 .0250693
977.250 .0250612
977.861 .0250528
978.472 .0250440
979.083 .0250349
979.693 .0250249
980.303 .0250143
980.912 .0250030
981.521 .0249907
982.130 .0249786
982.738 .0249669
983.346 .0249550
983.954 .0249435
984.562 .0249322
985.169 .0249209
985.775 .0249093
986.382 .0248974
986.988 .0248851
987.594 .0248728
988.199 .0248606
988.804 .0248490
989.409 .0248379
990.013 .0248279
990.617 .0248193
991.221 .0248117
991.824 .0248056
992.427 .0248006
993.030 .0247965
993.632 .0247935
994.234 .0247917
994.836 .0247912
995.438 .0247911
996.039 .0247918
996.640 .0247921
997.240 .0247917
997.840 .0247903
998.440 .0247880
999.040 .0247840
999.639 .0247794
1000.238 .0247738
1000.836 .0247672
1001.435 .0247598
1002.033 .0247519
1002.630 .0247432
1003.228 .0247341
1003.825 .0247244
1004.422 .0247143
1005.018 .0247035
1005.614 .0246937
1006.210 .0246837
1006.806 .0246748
1007.401 .0246665
1007.996 .0246586
1008.591 .0246514
1009.186 .0246454
1009.780 .0246396
1010.374 .0246346
1010.967 .0246299
1011.561 .0246256
1012.154 .0246209
1012.746 .0246156
1013.339 .0246090
1013.931 .0246014
1014.523 .0245930
1015.115 .0245834
1015.706 .0245729
1016.298 .0245625
1016.888 .0245521
1017.479 .0245424
1018.069 .0245336
1018.660 .0245256
1019.250 .0245181
1019.839 .0245108
1020.429 .0245036
1021.018 .0244957
1021.607 .0244878
1022.195 .0244800
1022.784 .0244730
1023.372 .0244674
1023.960 .0244642
1024.547 .0244628
1025.135 .0244641
1025.722 .0244673
1026.309 .0244718
1026.896 .0244769
1027.483 .0244820
1028.069 .0244862
1028.655 .0244895
1029.241 .0244921
1029.827 .0244944
1030.412 .0244965
1030.997 .0244992
1031.582 .0245019
1032.167 .0245052
1032.752 .0245082
1033.336 .0245111
1033.921 .0245139
1034.505 .0245164
1035.089 .0245179
1035.672 .0245185
1036.256 .0245181
1036.839 .0245166
1037.422 .0245143
1038.005 .0245115
1038.588 .0245079
1039.171 .0245040
1039.753 .0245000
1040.335 .0244961
1040.918 .0244928
1041.500 .0244909
1042.081 .0244901
1042.663 .0244899
1043.244 .0244901
1043.826 .0244890
1044.407 .0244858
1044.988 .0244809
1045.569 .0244745
1046.150 .0244665
1046.730 .0244582
1047.311 .0244502
1047.891 .0244438
1048.471 .0244398
1049.052 .0244386
1049.632 .0244391
1050.211 .0244421
1050.791 .0244460
1051.371 .0244498
1051.950 .0244527
1052.530 .0244553
1053.109 .0244572
1053.688 .0244583
1054.268 .0244593
1054.847 .0244602
1055.426 .0244608
1056.005 .0244619
1056.583 .0244624
1057.162 .0244622
1057.741 .0244607
1058.319 .0244572
1058.898 .0244518
1059.476 .0244454
1060.055 .0244379
1060.633 .0244296
1061.211 .0244217
1061.790 .0244161
1062.368 .0244124
1062.946 .0244110
1063.524 .0244122
1064.102 .0244163
1064.680 .0244236
1065.258 .0244327
1065.836 .0244431
1066.414 .0244548
1066.992 .0244674
1067.570 .0244803
1068.148 .0244927
1068.726 .0245045
1069.304 .0245168
1069.882 .0245295
1070.460 .0245436
1071.038 .0245589
1071.616 .0245750
1072.194 .0245922
1072.772 .0246092
1073.350 .0246255
1073.928 .0246400
1074.506 .0246514
1075.084 .0246612
1075.662 .0246687
1076.240 .0246758
1076.819 .0246834
1077.397 .0246932
1077.976 .0247068
1078.554 .0247246
1079.133 .0247459
1079.711 .0247677
1080.290 .0247888
1080.869 .0248073
1081.448 .0248211
1082.027 .0248298
1082.606 .0248346
1083.185 .0248382
1083.764 .0248427
1084.343 .0248497
1084.923 .0248583
1085.502 .0248705
1086.082 .0248853
1086.662 .0249002
1087.242 .0249122
1087.822 .0249192
1088.402 .0249220
1088.983 .0249201
1089.563 .0249162
1090.144 .0249119
1090.725 .0249108
1091.306 .0249132
1091.887 .0249192
1092.469 .0249288
1093.050 .0249399
1093.632 .0249522
1094.214 .0249648
1094.796 .0249783
1095.379 .0249930
1095.961 .0250091
1096.544 .0250288
1097.127 .0250523
1097.710 .0250810
1098.294 .0251119
1098.877 .0251433
1099.461 .0251741
1100.046 .0252024
1100.630 .0252277
1101.215 .0252510
1101.800 .0252737
1102.385 .0252966
1102.970 .0253201
1103.556 .0253442
1104.142 .0253688
1104.728 .0253930
1105.315 .0254177
1105.902 .0254410
1106.489 .0254630
1107.077 .0254839
1107.664 .0255044
1108.253 .0255259
1108.841 .0255494
1109.430 .0255755
1110.019 .0256036
1110.609 .0256345
1111.198 .0256685
1111.789 .0257049
1112.379 .0257450
1112.970 .0257870
1113.561 .0258304
1114.153 .0258765
1114.745 .0259235
1115.338 .0259696
1115.931 .0260166
1116.524 .0260633
1117.117 .0261115
1117.712 .0261603
1118.306 .0262081
1118.901 .0262577
1119.496 .0263076
1120.092 .0263589
1120.689 .0264103
1121.285 .0264624
1121.882 .0265148
1122.480 .0265660
1123.078 .0266205
1123.677 .0266747
1124.276 .0267294
1124.875 .0267872
1125.476 .0268450
1126.076 .0269032
1126.677 .0269600
1127.279 .0270136
1127.881 .0270657
1128.484 .0271187
1129.087 .0271662
1129.691 .0272137
1130.295 .0272636
1130.900 .0273160
1131.505 .0273731
1132.111 .0274359
1132.718 .0275032
1133.325 .0275746
1133.933 .0276543
1134.541 .0277379
1135.150 .0278252
1135.760 .0279236
1136.370 .0280277
1136.981 .0281418
1137.592 .0282666
1138.204 .0283990
1138.817 .0285447
1139.431 .0287016
1140.045 .0288721
1140.660 .0290584
1141.275 .0292602
1141.891 .0294620
1142.508 .0296045
1143.126 .0299109
1143.744 .0302813
1144.363 .0304629
1144.983 .0302782
