Measurement Sequence started on: 15-12-46-377
Integration time: 28
Scans to Average: 2 
>>>>>Begin Spectral Data<<<<<
432.689 .0000100
433.621 .0000100
434.552 .0000100
435.482 .0000100
436.410 .0000100
437.337 .0000100
438.262 .0284945
439.187 .0603868
440.110 .1000636
441.031 .1447732
441.952 .1881781
442.871 .2223724
443.789 .2411299
444.705 .2423280
445.621 .2285875
446.535 .2055996
447.447 .1795658
448.359 .1396761
449.269 .1199151
450.178 .1074031
451.086 .0985691
451.993 .0917629
452.898 .0863216
453.803 .0818710
454.706 .0781877
455.608 .0750581
456.508 .0723768
457.408 .0700677
458.306 .0680257
459.204 .0662097
460.100 .0645550
460.995 .0630389
461.888 .0616438
462.781 .0603426
463.673 .0591175
464.563 .0579834
465.452 .0569197
466.340 .0559056
467.228 .0549526
468.114 .0540650
468.999 .0532518
469.882 .0525051
470.765 .0518384
471.647 .0512482
472.528 .0507298
473.407 .0502818
474.286 .0498855
475.163 .0495431
476.040 .0492490
476.915 .0489836
477.790 .0487483
478.663 .0485375
479.535 .0483535
480.407 .0481985
481.277 .0480756
482.147 .0479815
483.015 .0479142
483.883 .0478622
484.749 .0478222
485.615 .0477902
486.479 .0477694
487.343 .0477553
488.206 .0477552
489.067 .0477698
489.928 .0477979
490.788 .0478426
491.647 .0479128
492.505 .0480055
493.362 .0481265
494.218 .0482698
495.073 .0484417
495.928 .0486455
496.781 .0488853
497.634 .0491610
498.486 .0494736
499.337 .0498227
500.187 .0501928
501.036 .0505754
501.884 .0509729
502.731 .0513748
503.578 .0517914
504.424 .0522281
505.268 .0526841
506.113 .0531721
506.956 .0536987
507.798 .0542704
508.640 .0548938
509.480 .0555693
510.320 .0563114
511.160 .0571135
511.998 .0580024
512.836 .0589814
513.672 .0600635
514.508 .0612830
515.344 .0626488
516.178 .0641939
517.012 .0659539
517.845 .0679459
518.677 .0701978
519.508 .0727338
520.339 .0755926
521.169 .0788106
521.998 .0824306
522.826 .0865137
523.654 .0911195
524.481 .0962472
525.307 .1019573
526.133 .1082124
526.958 .1150043
527.782 .1222883
528.605 .1298045
529.428 .1374408
530.250 .1445882
531.072 .1510133
531.892 .1563416
532.712 .1602692
533.532 .1626672
534.350 .1633426
535.168 .1623113
535.986 .1596348
536.802 .1554843
537.618 .1501397
538.434 .1437659
539.249 .1368592
540.063 .1295225
540.876 .1220892
541.689 .1148224
542.501 .1079568
543.313 .1016788
544.124 .0960459
544.934 .0910232
545.744 .0865310
546.553 .0825349
547.361 .0789624
548.169 .0757849
548.976 .0729333
549.783 .0703727
550.589 .0680756
551.395 .0659667
552.200 .0640421
553.004 .0622806
553.808 .0606673
554.611 .0591859
555.414 .0578348
556.216 .0565971
557.018 .0554493
557.819 .0544012
558.619 .0534159
559.419 .0524925
560.218 .0516284
561.017 .0508026
561.815 .0500027
562.613 .0492344
563.410 .0484883
564.207 .0477559
565.003 .0470519
565.799 .0463788
566.594 .0457213
567.388 .0450910
568.182 .0444771
568.976 .0438728
569.769 .0432868
570.562 .0427241
571.354 .0421692
572.145 .0416333
572.936 .0411147
573.727 .0406094
574.517 .0401236
575.307 .0396595
576.096 .0392164
576.885 .0387968
577.673 .0384043
578.461 .0380379
579.248 .0376946
580.035 .0373821
580.821 .0370918
581.607 .0368229
582.392 .0365741
583.177 .0363386
583.962 .0361166
584.746 .0359144
585.529 .0357315
586.313 .0355670
587.095 .0354198
587.878 .0352905
588.660 .0351770
589.441 .0350773
590.222 .0349874
591.003 .0349067
591.783 .0348318
592.563 .0347606
593.342 .0346902
594.121 .0346213
594.899 .0345550
595.678 .0344902
596.455 .0344282
597.233 .0343695
598.009 .0343117
598.786 .0342556
599.562 .0341997
600.338 .0341440
601.113 .0340878
601.888 .0340302
602.663 .0339721
603.437 .0339156
604.211 .0338609
604.984 .0338088
605.757 .0337600
606.530 .0337128
607.302 .0336665
608.074 .0336197
608.845 .0335725
609.616 .0335235
610.387 .0334734
611.158 .0334233
611.928 .0333734
612.697 .0333255
613.467 .0332803
614.236 .0332379
615.004 .0331986
615.773 .0331605
616.541 .0331230
617.308 .0330852
618.076 .0330475
618.843 .0330094
619.609 .0329721
620.375 .0329361
621.141 .0329020
621.907 .0328695
622.672 .0328381
623.437 .0328077
624.202 .0327770
624.966 .0327448
625.730 .0327107
626.493 .0326745
627.257 .0326364
628.020 .0325969
628.782 .0325567
629.545 .0325154
630.307 .0324733
631.068 .0324309
631.830 .0323873
632.591 .0323426
633.352 .0322974
634.112 .0322515
634.872 .0322058
635.632 .0321620
636.392 .0321205
637.151 .0320825
637.910 .0320479
638.668 .0320170
639.427 .0319882
640.185 .0319622
640.943 .0319382
641.700 .0319163
642.457 .0318970
643.214 .0318795
643.971 .0318634
644.727 .0318498
645.483 .0318387
646.239 .0318289
646.994 .0318201
647.750 .0318124
648.505 .0318046
649.259 .0317969
650.014 .0317885
650.768 .0317797
651.521 .0317704
652.275 .0317610
653.028 .0317506
653.781 .0317391
654.534 .0317270
655.286 .0317139
656.039 .0316996
656.791 .0316845
657.542 .0316686
658.294 .0316521
659.045 .0316357
659.796 .0316193
660.546 .0316023
661.297 .0315848
662.047 .0315658
662.796 .0315450
663.546 .0315228
664.295 .0314993
665.044 .0314746
665.793 .0314496
666.542 .0314250
667.290 .0314009
668.038 .0313775
668.786 .0313546
669.533 .0313315
670.281 .0313082
671.028 .0312844
671.774 .0312591
672.521 .0312332
673.267 .0312070
674.013 .0311806
674.759 .0311537
675.505 .0311266
676.250 .0310985
676.995 .0310700
677.740 .0310409
678.484 .0310112
679.229 .0309811
679.973 .0309512
680.717 .0309214
681.460 .0308920
682.204 .0308636
682.947 .0308357
683.690 .0308080
684.433 .0307805
685.175 .0307532
685.917 .0307259
686.659 .0306987
687.401 .0306721
688.142 .0306464
688.884 .0306221
689.625 .0305979
690.365 .0305739
691.106 .0305497
691.846 .0305244
692.586 .0304974
693.326 .0304684
694.066 .0304380
694.805 .0304064
695.545 .0303737
696.284 .0303405
697.022 .0303073
697.761 .0302742
698.499 .0302405
699.237 .0302069
699.975 .0301736
700.713 .0301402
701.450 .0301070
702.187 .0300749
702.924 .0300444
703.661 .0300154
704.397 .0299881
705.133 .0299623
705.869 .0299385
706.605 .0299159
707.341 .0298939
708.076 .0298728
708.811 .0298526
709.546 .0298331
710.281 .0298142
711.015 .0297958
711.749 .0297783
712.483 .0297612
713.217 .0297442
713.950 .0297273
714.684 .0297099
715.417 .0296918
716.150 .0296729
716.882 .0296536
717.615 .0296337
718.347 .0296133
719.079 .0295931
719.811 .0295729
720.542 .0295531
721.273 .0295338
722.005 .0295145
722.735 .0294951
723.466 .0294766
724.196 .0294582
724.927 .0294395
725.656 .0294216
726.386 .0294047
727.116 .0293889
727.845 .0293740
728.574 .0293600
729.303 .0293470
730.031 .0293354
730.760 .0293251
731.488 .0293157
732.216 .0293085
732.944 .0293034
733.671 .0292998
734.398 .0292982
735.125 .0292981
735.852 .0292984
736.579 .0292988
737.305 .0292995
738.031 .0292994
738.757 .0292989
739.483 .0292981
740.208 .0292976
740.933 .0292979
741.658 .0292988
742.383 .0292999
743.108 .0293008
743.832 .0293016
744.556 .0293012
745.280 .0292988
746.004 .0292951
746.727 .0292901
747.450 .0292840
748.173 .0292774
748.896 .0292709
749.618 .0292643
750.340 .0292578
751.062 .0292513
751.784 .0292444
752.506 .0292367
753.227 .0292285
753.948 .0292195
754.669 .0292096
755.389 .0291994
756.110 .0291882
756.830 .0291763
757.550 .0291639
758.269 .0291504
758.989 .0291358
759.708 .0291203
760.427 .0291043
761.146 .0290879
761.864 .0290710
762.582 .0290545
763.300 .0290378
764.018 .0290213
764.736 .0290047
765.453 .0289875
766.170 .0289694
766.887 .0289505
767.603 .0289307
768.320 .0289099
769.036 .0288883
769.751 .0288666
770.467 .0288448
771.182 .0288235
771.897 .0288028
772.612 .0287828
773.327 .0287635
774.041 .0287449
774.755 .0287269
775.469 .0287094
776.183 .0286923
776.896 .0286749
777.609 .0286576
778.322 .0286401
779.035 .0286227
779.747 .0286053
780.459 .0285887
781.171 .0285730
781.882 .0285582
782.594 .0285445
783.305 .0285319
784.016 .0285202
784.726 .0285091
785.436 .0284977
786.147 .0284861
786.856 .0284739
787.566 .0284610
788.275 .0284476
788.984 .0284347
789.693 .0284218
790.401 .0284088
791.110 .0283959
791.818 .0283828
792.525 .0283688
793.233 .0283535
793.940 .0283364
794.647 .0283176
795.353 .0282974
796.060 .0282759
796.766 .0282535
797.472 .0282310
798.177 .0282086
798.883 .0281859
799.588 .0281632
800.292 .0281407
800.997 .0281174
801.701 .0280941
802.405 .0280707
803.109 .0280471
803.812 .0280241
804.515 .0280015
805.218 .0279792
805.921 .0279571
806.623 .0279352
807.325 .0279132
808.027 .0278912
808.728 .0278693
809.429 .0278475
810.130 .0278259
810.831 .0278052
811.531 .0277850
812.231 .0277650
812.931 .0277452
813.630 .0277252
814.330 .0277049
815.029 .0276847
815.727 .0276645
816.426 .0276453
817.124 .0276273
817.821 .0276112
818.519 .0275966
819.216 .0275839
819.913 .0275727
820.609 .0275626
821.306 .0275533
822.002 .0275444
822.697 .0275359
823.393 .0275283
824.088 .0275219
824.783 .0275170
825.477 .0275135
826.171 .0275121
826.865 .0275124
827.559 .0275143
828.252 .0275173
828.945 .0275212
829.638 .0275258
830.330 .0275312
831.023 .0275368
831.714 .0275428
832.406 .0275492
833.097 .0275560
833.788 .0275631
834.479 .0275705
835.169 .0275783
835.859 .0275865
836.548 .0275948
837.238 .0276029
837.927 .0276110
838.615 .0276187
839.304 .0276260
839.992 .0276331
840.680 .0276399
841.367 .0276465
842.054 .0276533
842.741 .0276604
843.428 .0276680
844.114 .0276762
844.800 .0276847
845.485 .0276930
846.170 .0277006
846.855 .0277069
847.540 .0277116
848.224 .0277154
848.908 .0277190
849.592 .0277218
850.275 .0277248
850.958 .0277276
851.641 .0277304
852.323 .0277325
853.005 .0277337
853.687 .0277329
854.368 .0277303
855.049 .0277256
855.730 .0277189
856.410 .0277107
857.090 .0277022
857.769 .0276935
858.449 .0276853
859.128 .0276775
859.806 .0276698
860.485 .0276622
861.163 .0276547
861.840 .0276468
862.518 .0276387
863.195 .0276297
863.871 .0276201
864.548 .0276099
865.224 .0275993
865.899 .0275888
866.574 .0275783
867.249 .0275685
867.924 .0275591
868.598 .0275503
869.272 .0275418
869.946 .0275334
870.619 .0275249
871.292 .0275158
871.964 .0275053
872.636 .0274930
873.308 .0274790
873.979 .0274638
874.651 .0274479
875.321 .0274319
875.992 .0274166
876.662 .0274025
877.331 .0273896
878.001 .0273783
878.670 .0273676
879.338 .0273576
880.007 .0273478
880.675 .0273379
881.342 .0273281
882.009 .0273186
882.676 .0273099
883.343 .0273025
884.009 .0272966
884.675 .0272915
885.340 .0272869
886.005 .0272823
886.670 .0272773
887.334 .0272712
887.998 .0272643
888.662 .0272564
889.325 .0272479
889.988 .0272394
890.650 .0272313
891.312 .0272237
891.974 .0272175
892.636 .0272114
893.297 .0272056
893.957 .0271991
894.618 .0271920
895.278 .0271840
895.937 .0271756
896.596 .0271671
897.255 .0271584
897.914 .0271502
898.572 .0271424
899.230 .0271344
899.887 .0271260
900.544 .0271161
901.201 .0271044
901.857 .0270898
902.513 .0270724
903.168 .0270517
903.823 .0270281
904.478 .0270022
905.132 .0269743
905.786 .0269444
906.440 .0269126
907.093 .0268793
907.746 .0268444
908.399 .0268084
909.051 .0267716
909.703 .0267338
910.354 .0266954
911.005 .0266568
911.656 .0266180
912.306 .0265788
912.956 .0265401
913.605 .0265015
914.254 .0264634
914.903 .0264263
915.551 .0263901
916.199 .0263557
916.847 .0263230
917.494 .0262922
918.141 .0262632
918.788 .0262355
919.434 .0262093
920.079 .0261835
920.725 .0261581
921.370 .0261331
922.014 .0261083
922.658 .0260833
923.302 .0260582
923.946 .0260330
924.589 .0260074
925.231 .0259811
925.873 .0259539
926.515 .0259254
927.157 .0258958
927.798 .0258650
928.439 .0258330
929.079 .0258003
929.719 .0257676
930.359 .0257348
930.998 .0257027
931.637 .0256711
932.275 .0256403
932.913 .0256104
933.551 .0255813
934.188 .0255530
934.825 .0255256
935.462 .0254994
936.098 .0254745
936.733 .0254514
937.369 .0254301
938.004 .0254106
938.638 .0253930
939.273 .0253772
939.907 .0253629
940.540 .0253497
941.173 .0253376
941.806 .0253267
942.438 .0253172
943.070 .0253087
943.702 .0253009
944.333 .0252939
944.964 .0252877
945.594 .0252819
946.224 .0252756
946.854 .0252698
947.483 .0252640
948.112 .0252583
948.741 .0252525
949.369 .0252472
949.996 .0252426
950.624 .0252390
951.251 .0252359
951.878 .0252326
952.504 .0252297
953.130 .0252268
953.755 .0252237
954.380 .0252210
955.005 .0252189
955.629 .0252177
956.253 .0252177
956.877 .0252190
957.500 .0252211
958.123 .0252243
958.746 .0252279
959.368 .0252313
959.990 .0252343
960.611 .0252365
961.232 .0252377
961.853 .0252385
962.473 .0252397
963.093 .0252404
963.712 .0252411
964.331 .0252418
964.950 .0252420
965.569 .0252420
966.187 .0252416
966.804 .0252409
967.422 .0252407
968.039 .0252411
968.655 .0252421
969.272 .0252444
969.887 .0252488
970.503 .0252552
971.118 .0252628
971.733 .0252715
972.347 .0252805
972.961 .0252896
973.575 .0252986
974.188 .0253071
974.801 .0253153
975.414 .0253235
976.026 .0253315
976.638 .0253394
977.250 .0253477
977.861 .0253560
978.472 .0253645
979.083 .0253727
979.693 .0253804
980.303 .0253869
980.912 .0253922
981.521 .0253968
982.130 .0254007
982.738 .0254046
983.346 .0254080
983.954 .0254114
984.562 .0254156
985.169 .0254197
985.775 .0254242
986.382 .0254288
986.988 .0254340
987.594 .0254392
988.199 .0254443
988.804 .0254494
989.409 .0254546
990.013 .0254601
990.617 .0254655
991.221 .0254707
991.824 .0254764
992.427 .0254834
993.030 .0254914
993.632 .0255010
994.234 .0255124
994.836 .0255251
995.438 .0255386
996.039 .0255518
996.640 .0255644
997.240 .0255759
997.840 .0255866
998.440 .0255965
999.040 .0256059
999.639 .0256161
1000.238 .0256272
1000.836 .0256391
1001.435 .0256513
1002.033 .0256635
1002.630 .0256742
1003.228 .0256834
1003.825 .0256909
1004.422 .0256972
1005.018 .0257027
1005.614 .0257090
1006.210 .0257168
1006.806 .0257263
1007.401 .0257380
1007.996 .0257511
1008.591 .0257655
1009.186 .0257800
1009.780 .0257931
1010.374 .0258049
1010.967 .0258158
1011.561 .0258264
1012.154 .0258364
1012.746 .0258470
1013.339 .0258580
1013.931 .0258702
1014.523 .0258826
1015.115 .0258949
1015.706 .0259071
1016.298 .0259191
1016.888 .0259304
1017.479 .0259403
1018.069 .0259491
1018.660 .0259572
1019.250 .0259647
1019.839 .0259721
1020.429 .0259789
1021.018 .0259862
1021.607 .0259937
1022.195 .0260015
1022.784 .0260098
1023.372 .0260187
1023.960 .0260276
1024.547 .0260367
1025.135 .0260460
1025.722 .0260549
1026.309 .0260637
1026.896 .0260733
1027.483 .0260831
1028.069 .0260933
1028.655 .0261037
1029.241 .0261131
1029.827 .0261213
1030.412 .0261279
1030.997 .0261319
1031.582 .0261332
1032.167 .0261327
1032.752 .0261304
1033.336 .0261269
1033.921 .0261237
1034.505 .0261204
1035.089 .0261169
1035.672 .0261130
1036.256 .0261078
1036.839 .0261010
1037.422 .0260934
1038.005 .0260850
1038.588 .0260765
1039.171 .0260699
1039.753 .0260655
1040.335 .0260637
1040.918 .0260650
1041.500 .0260684
1042.081 .0260726
1042.663 .0260764
1043.244 .0260788
1043.826 .0260775
1044.407 .0260737
1044.988 .0260672
1045.569 .0260587
1046.150 .0260477
1046.730 .0260353
1047.311 .0260208
1047.891 .0260053
1048.471 .0259881
1049.052 .0259692
1049.632 .0259481
1050.211 .0259266
1050.791 .0259036
1051.371 .0258809
1051.950 .0258584
1052.530 .0258378
1053.109 .0258193
1053.688 .0258029
1054.268 .0257874
1054.847 .0257728
1055.426 .0257585
1056.005 .0257455
1056.583 .0257329
1057.162 .0257212
1057.741 .0257094
1058.319 .0256988
1058.898 .0256887
1059.476 .0256795
1060.055 .0256707
1060.633 .0256619
1061.211 .0256526
1061.790 .0256443
1062.368 .0256365
1062.946 .0256282
1063.524 .0256209
1064.102 .0256146
1064.680 .0256080
1065.258 .0256004
1065.836 .0255911
1066.414 .0255796
1066.992 .0255665
1067.570 .0255514
1068.148 .0255323
1068.726 .0255113
1069.304 .0254891
1069.882 .0254647
1070.460 .0254392
1071.038 .0254127
1071.616 .0253849
1072.194 .0253554
1072.772 .0253263
1073.350 .0252970
1073.928 .0252683
1074.506 .0252430
1075.084 .0252200
1075.662 .0252004
1076.240 .0251852
1076.819 .0251720
1077.397 .0251622
1077.976 .0251551
1078.554 .0251496
1079.133 .0251453
1079.711 .0251430
1080.290 .0251433
1080.869 .0251470
1081.448 .0251539
1082.027 .0251641
1082.606 .0251743
1083.185 .0251854
1083.764 .0251951
1084.343 .0252016
1084.923 .0252064
1085.502 .0252068
1086.082 .0252045
1086.662 .0251999
1087.242 .0251920
1087.822 .0251846
1088.402 .0251763
1088.983 .0251685
1089.563 .0251589
1090.144 .0251480
1090.725 .0251358
1091.306 .0251208
1091.887 .0251047
1092.469 .0250878
1093.050 .0250698
1093.632 .0250531
1094.214 .0250376
1094.796 .0250242
1095.379 .0250150
1095.961 .0250092
1096.544 .0250069
1097.127 .0250094
1097.710 .0250142
1098.294 .0250210
1098.877 .0250295
1099.461 .0250418
1100.046 .0250548
1100.630 .0250683
1101.215 .0250836
1101.800 .0250997
1102.385 .0251193
1102.970 .0251413
1103.556 .0251650
1104.142 .0251897
1104.728 .0252136
1105.315 .0252353
1105.902 .0252526
1106.489 .0252669
1107.077 .0252771
1107.664 .0252859
1108.253 .0252957
1108.841 .0253056
1109.430 .0253167
1110.019 .0253293
1110.609 .0253433
1111.198 .0253562
1111.789 .0253661
1112.379 .0253724
1112.970 .0253787
1113.561 .0253861
1114.153 .0253976
1114.745 .0254155
1115.338 .0254402
1115.931 .0254698
1116.524 .0255024
1117.117 .0255367
1117.712 .0255683
1118.306 .0255967
1118.901 .0256235
1119.496 .0256470
1120.092 .0256726
1120.689 .0257012
1121.285 .0257355
1121.882 .0257788
1122.480 .0258321
1123.078 .0258879
1123.677 .0259443
1124.276 .0260016
1124.875 .0260590
1125.476 .0261156
1126.076 .0261767
1126.677 .0262438
1127.279 .0263166
1127.881 .0263986
1128.484 .0264845
1129.087 .0265711
1129.691 .0266583
1130.295 .0267402
1130.900 .0268123
1131.505 .0268807
1132.111 .0269462
1132.718 .0270113
1133.325 .0270842
1133.933 .0271709
1134.541 .0272696
1135.150 .0273809
1135.760 .0275086
1136.370 .0276491
1136.981 .0278022
1137.592 .0279669
1138.204 .0281432
1138.817 .0283395
1139.431 .0285643
1140.045 .0288063
1140.660 .0290654
1141.275 .0293426
1141.891 .0296108
1142.508 .0301970
1143.126 .0302919
1143.744 .0304513
1144.363 .0307453
1144.983 .0304184
