Measurement Sequence started on: 15-12-46-377
Integration time: 28
Scans to Average: 2 
>>>>>Begin Spectral Data<<<<<
432.689 .0000100
433.621 .0000100
434.552 .0000100
435.482 .0000100
436.410 .0000100
437.337 .0000100
438.262 .0274028
439.187 .0577437
440.110 .0954441
441.031 .1378779
441.952 .1789362
442.871 .2110970
443.789 .2284686
444.705 .2291164
445.621 .2155935
446.535 .1933763
447.447 .1683812
448.359 .1301159
449.269 .1114292
450.178 .0995810
451.086 .0911732
451.993 .0847185
452.898 .0795799
453.803 .0754082
454.706 .0719861
455.608 .0691229
456.508 .0667044
457.408 .0646560
458.306 .0628895
459.204 .0613311
460.100 .0599298
460.995 .0586746
461.888 .0575456
462.781 .0565142
463.673 .0555810
464.563 .0547372
465.452 .0539722
466.340 .0532570
467.228 .0525856
468.114 .0519427
468.999 .0513112
469.882 .0506809
470.765 .0500729
471.647 .0494812
472.528 .0489249
473.407 .0484165
474.286 .0479616
475.163 .0475547
476.040 .0471974
476.915 .0468798
477.790 .0466013
478.663 .0463537
479.535 .0461435
480.407 .0459658
481.277 .0458306
482.147 .0457363
483.015 .0456741
483.883 .0456453
484.749 .0456495
485.615 .0456662
486.479 .0456933
487.343 .0457326
488.206 .0457769
489.067 .0458272
489.928 .0458865
490.788 .0459565
491.647 .0460273
492.505 .0461056
493.362 .0461891
494.218 .0462691
495.073 .0463550
495.928 .0464447
496.781 .0465382
497.634 .0466589
498.486 .0468081
499.337 .0469891
500.187 .0472065
501.036 .0474727
501.884 .0477684
502.731 .0481000
503.578 .0484580
504.424 .0488408
505.268 .0492416
506.113 .0496751
506.956 .0501337
507.798 .0506416
508.640 .0512092
509.480 .0518429
510.320 .0525606
511.160 .0533588
511.998 .0542305
512.836 .0551774
513.672 .0562122
514.508 .0573322
515.344 .0585293
516.178 .0598542
517.012 .0613292
517.845 .0630168
518.677 .0649603
519.508 .0671939
520.339 .0697478
521.169 .0726548
521.998 .0759087
522.826 .0795147
523.654 .0834911
524.481 .0878574
525.307 .0926808
526.133 .0979475
526.958 .1036684
527.782 .1098570
528.605 .1163480
529.428 .1230582
530.250 .1295443
531.072 .1354725
531.892 .1404981
532.712 .1443940
533.532 .1469417
534.350 .1479736
535.168 .1474786
535.986 .1455333
536.802 .1422469
537.618 .1378851
538.434 .1325668
539.249 .1266555
540.063 .1203739
540.876 .1139524
541.689 .1075371
542.501 .1014038
543.313 .0956947
544.124 .0904936
544.934 .0857882
545.744 .0815361
546.553 .0776749
547.361 .0742213
548.169 .0711343
548.976 .0683655
549.783 .0658712
550.589 .0636720
551.395 .0616798
552.200 .0598941
553.004 .0582966
553.808 .0568335
554.611 .0555142
555.414 .0543252
556.216 .0532195
557.018 .0522134
557.819 .0512859
558.619 .0504295
559.419 .0496312
560.218 .0489006
561.017 .0482190
561.815 .0475765
562.613 .0469639
563.410 .0463712
564.207 .0457860
565.003 .0452106
565.799 .0446303
566.594 .0440460
567.388 .0434658
568.182 .0428875
568.976 .0423122
569.769 .0417575
570.562 .0412129
571.354 .0406868
572.145 .0401772
572.936 .0396792
573.727 .0391855
574.517 .0386977
575.307 .0382191
576.096 .0377493
576.885 .0372968
577.673 .0368683
578.461 .0364684
579.248 .0361026
580.035 .0357684
580.821 .0354648
581.607 .0351883
582.392 .0349336
583.177 .0346966
583.962 .0344753
584.746 .0342713
585.529 .0340802
586.313 .0339064
587.095 .0337505
587.878 .0336137
588.660 .0334936
589.441 .0333894
590.222 .0332977
591.003 .0332174
591.783 .0331450
592.563 .0330793
593.342 .0330176
594.121 .0329588
594.899 .0329037
595.678 .0328497
596.455 .0327980
597.233 .0327487
598.009 .0327007
598.786 .0326560
599.562 .0326127
600.338 .0325713
601.113 .0325310
601.888 .0324903
602.663 .0324486
603.437 .0324060
604.211 .0323620
604.984 .0323165
605.757 .0322698
606.530 .0322233
607.302 .0321780
608.074 .0321348
608.845 .0320944
609.616 .0320562
610.387 .0320207
611.158 .0319873
611.928 .0319552
612.697 .0319236
613.467 .0318925
614.236 .0318623
615.004 .0318334
615.773 .0318062
616.541 .0317804
617.308 .0317561
618.076 .0317333
618.843 .0317114
619.609 .0316891
620.375 .0316660
621.141 .0316417
621.907 .0316160
622.672 .0315893
623.437 .0315615
624.202 .0315331
624.966 .0315042
625.730 .0314757
626.493 .0314466
627.257 .0314169
628.020 .0313874
628.782 .0313575
629.545 .0313275
630.307 .0312969
631.068 .0312668
631.830 .0312368
632.591 .0312075
633.352 .0311796
634.112 .0311517
634.872 .0311243
635.632 .0310966
636.392 .0310684
637.151 .0310399
637.910 .0310111
638.668 .0309819
639.427 .0309527
640.185 .0309243
640.943 .0308959
641.700 .0308677
642.457 .0308406
643.214 .0308138
643.971 .0307866
644.727 .0307591
645.483 .0307312
646.239 .0307023
646.994 .0306748
647.750 .0306485
648.505 .0306239
649.259 .0306018
650.014 .0305824
650.768 .0305650
651.521 .0305499
652.275 .0305362
653.028 .0305231
653.781 .0305101
654.534 .0304972
655.286 .0304827
656.039 .0304677
656.791 .0304529
657.542 .0304378
658.294 .0304228
659.045 .0304091
659.796 .0303959
660.546 .0303833
661.297 .0303708
662.047 .0303588
662.796 .0303456
663.546 .0303317
664.295 .0303159
665.044 .0302988
665.793 .0302810
666.542 .0302628
667.290 .0302447
668.038 .0302280
668.786 .0302129
669.533 .0301993
670.281 .0301866
671.028 .0301748
671.774 .0301624
672.521 .0301492
673.267 .0301350
674.013 .0301204
674.759 .0301048
675.505 .0300890
676.250 .0300729
676.995 .0300574
677.740 .0300426
678.484 .0300277
679.229 .0300128
679.973 .0299975
680.717 .0299814
681.460 .0299642
682.204 .0299454
682.947 .0299261
683.690 .0299061
684.433 .0298859
685.175 .0298648
685.917 .0298434
686.659 .0298218
687.401 .0297993
688.142 .0297764
688.884 .0297533
689.625 .0297297
690.365 .0297058
691.106 .0296815
691.846 .0296568
692.586 .0296321
693.326 .0296073
694.066 .0295823
694.805 .0295576
695.545 .0295336
696.284 .0295100
697.022 .0294872
697.761 .0294654
698.499 .0294443
699.237 .0294234
699.975 .0294034
700.713 .0293833
701.450 .0293635
702.187 .0293438
702.924 .0293242
703.661 .0293049
704.397 .0292865
705.133 .0292685
705.869 .0292509
706.605 .0292339
707.341 .0292173
708.076 .0292001
708.811 .0291830
709.546 .0291656
710.281 .0291480
711.015 .0291299
711.749 .0291111
712.483 .0290915
713.217 .0290720
713.950 .0290523
714.684 .0290323
715.417 .0290127
716.150 .0289931
716.882 .0289728
717.615 .0289524
718.347 .0289317
719.079 .0289105
719.811 .0288885
720.542 .0288659
721.273 .0288423
722.005 .0288179
722.735 .0287925
723.466 .0287660
724.196 .0287394
724.927 .0287130
725.656 .0286861
726.386 .0286596
727.116 .0286347
727.845 .0286109
728.574 .0285881
729.303 .0285675
730.031 .0285481
730.760 .0285299
731.488 .0285129
732.216 .0284971
732.944 .0284828
733.671 .0284704
734.398 .0284595
735.125 .0284508
735.852 .0284448
736.579 .0284408
737.305 .0284378
738.031 .0284360
738.757 .0284342
739.483 .0284313
740.208 .0284269
740.933 .0284208
741.658 .0284129
742.383 .0284041
743.108 .0283949
743.832 .0283856
744.556 .0283770
745.280 .0283686
746.004 .0283603
746.727 .0283526
747.450 .0283445
748.173 .0283359
748.896 .0283268
749.618 .0283173
750.340 .0283074
751.062 .0282975
751.784 .0282878
752.506 .0282788
753.227 .0282707
753.948 .0282630
754.669 .0282556
755.389 .0282484
756.110 .0282409
756.830 .0282330
757.550 .0282248
758.269 .0282158
758.989 .0282057
759.708 .0281953
760.427 .0281846
761.146 .0281738
761.864 .0281634
762.582 .0281534
763.300 .0281439
764.018 .0281346
764.736 .0281251
765.453 .0281156
766.170 .0281059
766.887 .0280962
767.603 .0280860
768.320 .0280758
769.036 .0280660
769.751 .0280568
770.467 .0280484
771.182 .0280411
771.897 .0280343
772.612 .0280280
773.327 .0280214
774.041 .0280150
774.755 .0280082
775.469 .0280016
776.183 .0279954
776.896 .0279898
777.609 .0279851
778.322 .0279812
779.035 .0279782
779.747 .0279758
780.459 .0279736
781.171 .0279715
781.882 .0279689
782.594 .0279659
783.305 .0279629
784.016 .0279598
784.726 .0279567
785.436 .0279535
786.147 .0279503
786.856 .0279463
787.566 .0279415
788.275 .0279354
788.984 .0279283
789.693 .0279198
790.401 .0279102
791.110 .0278991
791.818 .0278871
792.525 .0278746
793.233 .0278615
793.940 .0278479
794.647 .0278346
795.353 .0278209
796.060 .0278070
796.766 .0277928
797.472 .0277790
798.177 .0277650
798.883 .0277509
799.588 .0277370
800.292 .0277232
800.997 .0277091
801.701 .0276947
802.405 .0276796
803.109 .0276642
803.812 .0276482
804.515 .0276312
805.218 .0276127
805.921 .0275933
806.623 .0275726
807.325 .0275504
808.027 .0275272
808.728 .0275033
809.429 .0274781
810.130 .0274521
810.831 .0274256
811.531 .0273982
812.231 .0273705
812.931 .0273426
813.630 .0273143
814.330 .0272860
815.029 .0272578
815.727 .0272295
816.426 .0272018
817.124 .0271746
817.821 .0271478
818.519 .0271211
819.216 .0270952
819.913 .0270698
820.609 .0270450
821.306 .0270211
822.002 .0269985
822.697 .0269775
823.393 .0269580
824.088 .0269396
824.783 .0269225
825.477 .0269064
826.171 .0268909
826.865 .0268759
827.559 .0268615
828.252 .0268478
828.945 .0268350
829.638 .0268227
830.330 .0268115
831.023 .0268015
831.714 .0267924
832.406 .0267840
833.097 .0267760
833.788 .0267678
834.479 .0267589
835.169 .0267493
835.859 .0267389
836.548 .0267278
837.238 .0267163
837.927 .0267044
838.615 .0266926
839.304 .0266811
839.992 .0266697
840.680 .0266585
841.367 .0266481
842.054 .0266381
842.741 .0266281
843.428 .0266187
844.114 .0266097
844.800 .0266014
845.485 .0265934
846.170 .0265857
846.855 .0265787
847.540 .0265718
848.224 .0265649
848.908 .0265581
849.592 .0265515
850.275 .0265448
850.958 .0265379
851.641 .0265309
852.323 .0265233
853.005 .0265150
853.687 .0265054
854.368 .0264945
855.049 .0264825
855.730 .0264695
856.410 .0264552
857.090 .0264403
857.769 .0264257
858.449 .0264112
859.128 .0263976
859.806 .0263849
860.485 .0263732
861.163 .0263623
861.840 .0263519
862.518 .0263415
863.195 .0263310
863.871 .0263204
864.548 .0263098
865.224 .0262993
865.899 .0262893
866.574 .0262804
867.249 .0262726
867.924 .0262660
868.598 .0262610
869.272 .0262569
869.946 .0262538
870.619 .0262511
871.292 .0262488
871.964 .0262463
872.636 .0262436
873.308 .0262413
873.979 .0262392
874.651 .0262381
875.321 .0262381
875.992 .0262391
876.662 .0262419
877.331 .0262457
878.001 .0262500
878.670 .0262545
879.338 .0262591
880.007 .0262635
880.675 .0262675
881.342 .0262712
882.009 .0262749
882.676 .0262789
883.343 .0262836
884.009 .0262891
884.675 .0262953
885.340 .0263027
886.005 .0263109
886.670 .0263196
887.334 .0263286
887.998 .0263377
888.662 .0263465
889.325 .0263549
889.988 .0263625
890.650 .0263694
891.312 .0263754
891.974 .0263813
892.636 .0263869
893.297 .0263929
893.957 .0263993
894.618 .0264061
895.278 .0264133
895.937 .0264208
896.596 .0264280
897.255 .0264348
897.914 .0264407
898.572 .0264458
899.230 .0264500
899.887 .0264534
900.544 .0264558
901.201 .0264582
901.857 .0264600
902.513 .0264614
903.168 .0264620
903.823 .0264617
904.478 .0264602
905.132 .0264575
905.786 .0264532
906.440 .0264475
907.093 .0264403
907.746 .0264318
908.399 .0264216
909.051 .0264104
909.703 .0263983
910.354 .0263854
911.005 .0263724
911.656 .0263599
912.306 .0263475
912.956 .0263360
913.605 .0263246
914.254 .0263133
914.903 .0263015
915.551 .0262886
916.199 .0262747
916.847 .0262597
917.494 .0262445
918.141 .0262291
918.788 .0262144
919.434 .0262011
920.079 .0261884
920.725 .0261766
921.370 .0261648
922.014 .0261521
922.658 .0261377
923.302 .0261214
923.946 .0261032
924.589 .0260837
925.231 .0260636
925.873 .0260438
926.515 .0260247
927.157 .0260069
927.798 .0259897
928.439 .0259728
929.079 .0259551
929.719 .0259359
930.359 .0259147
930.998 .0258918
931.637 .0258670
932.275 .0258412
932.913 .0258153
933.551 .0257900
934.188 .0257654
934.825 .0257418
935.462 .0257189
936.098 .0256969
936.733 .0256755
937.369 .0256540
938.004 .0256323
938.638 .0256108
939.273 .0255896
939.907 .0255692
940.540 .0255501
941.173 .0255326
941.806 .0255169
942.438 .0255029
943.070 .0254903
943.702 .0254784
944.333 .0254669
944.964 .0254557
945.594 .0254440
946.224 .0254317
946.854 .0254186
947.483 .0254048
948.112 .0253901
948.741 .0253746
949.369 .0253581
949.996 .0253402
950.624 .0253215
951.251 .0253021
951.878 .0252820
952.504 .0252619
953.130 .0252420
953.755 .0252224
954.380 .0252030
955.005 .0251834
955.629 .0251631
956.253 .0251418
956.877 .0251197
957.500 .0250965
958.123 .0250729
958.746 .0250496
959.368 .0250266
959.990 .0250045
960.611 .0249838
961.232 .0249639
961.853 .0249446
962.473 .0249256
963.093 .0249057
963.712 .0248852
964.331 .0248638
964.950 .0248417
965.569 .0248195
966.187 .0247977
966.804 .0247767
967.422 .0247564
968.039 .0247366
968.655 .0247171
969.272 .0246979
969.887 .0246787
970.503 .0246592
971.118 .0246396
971.733 .0246196
972.347 .0245996
972.961 .0245797
973.575 .0245600
974.188 .0245398
974.801 .0245197
975.414 .0244992
976.026 .0244787
976.638 .0244584
977.250 .0244385
977.861 .0244192
978.472 .0244008
979.083 .0243825
979.693 .0243642
980.303 .0243453
980.912 .0243258
981.521 .0243051
982.130 .0242837
982.738 .0242617
983.346 .0242393
983.954 .0242172
984.562 .0241956
985.169 .0241738
985.775 .0241521
986.382 .0241301
986.988 .0241079
987.594 .0240851
988.199 .0240623
988.804 .0240399
989.409 .0240189
990.013 .0239994
990.617 .0239815
991.221 .0239653
991.824 .0239515
992.427 .0239390
993.030 .0239278
993.632 .0239179
994.234 .0239093
994.836 .0239020
995.438 .0238956
996.039 .0238900
996.640 .0238850
997.240 .0238801
997.840 .0238762
998.440 .0238724
999.040 .0238697
999.639 .0238676
1000.238 .0238661
1000.836 .0238661
1001.435 .0238670
1002.033 .0238682
1002.630 .0238701
1003.228 .0238726
1003.825 .0238753
1004.422 .0238782
1005.018 .0238816
1005.614 .0238859
1006.210 .0238916
1006.806 .0238988
1007.401 .0239074
1007.996 .0239167
1008.591 .0239271
1009.186 .0239374
1009.780 .0239472
1010.374 .0239563
1010.967 .0239634
1011.561 .0239689
1012.154 .0239726
1012.746 .0239747
1013.339 .0239751
1013.931 .0239745
1014.523 .0239738
1015.115 .0239727
1015.706 .0239720
1016.298 .0239720
1016.888 .0239727
1017.479 .0239744
1018.069 .0239771
1018.660 .0239806
1019.250 .0239854
1019.839 .0239915
1020.429 .0239994
1021.018 .0240091
1021.607 .0240206
1022.195 .0240337
1022.784 .0240484
1023.372 .0240640
1023.960 .0240804
1024.547 .0240971
1025.135 .0241138
1025.722 .0241307
1026.309 .0241488
1026.896 .0241674
1027.483 .0241874
1028.069 .0242087
1028.655 .0242302
1029.241 .0242515
1029.827 .0242727
1030.412 .0242926
1030.997 .0243107
1031.582 .0243278
1032.167 .0243442
1032.752 .0243600
1033.336 .0243760
1033.921 .0243925
1034.505 .0244090
1035.089 .0244257
1035.672 .0244419
1036.256 .0244564
1036.839 .0244700
1037.422 .0244829
1038.005 .0244953
1038.588 .0245077
1039.171 .0245211
1039.753 .0245352
1040.335 .0245505
1040.918 .0245676
1041.500 .0245854
1042.081 .0246032
1042.663 .0246204
1043.244 .0246367
1043.826 .0246514
1044.407 .0246649
1044.988 .0246772
1045.569 .0246888
1046.150 .0246993
1046.730 .0247087
1047.311 .0247169
1047.891 .0247240
1048.471 .0247301
1049.052 .0247356
1049.632 .0247412
1050.211 .0247473
1050.791 .0247538
1051.371 .0247622
1051.950 .0247725
1052.530 .0247859
1053.109 .0248014
1053.688 .0248192
1054.268 .0248388
1054.847 .0248612
1055.426 .0248844
1056.005 .0249082
1056.583 .0249330
1057.162 .0249572
1057.741 .0249798
1058.319 .0250006
1058.898 .0250192
1059.476 .0250352
1060.055 .0250492
1060.633 .0250613
1061.211 .0250709
1061.790 .0250803
1062.368 .0250898
1062.946 .0251001
1063.524 .0251107
1064.102 .0251220
1064.680 .0251320
1065.258 .0251408
1065.836 .0251488
1066.414 .0251545
1066.992 .0251597
1067.570 .0251654
1068.148 .0251721
1068.726 .0251791
1069.304 .0251878
1069.882 .0251977
1070.460 .0252073
1071.038 .0252169
1071.616 .0252249
1072.194 .0252311
1072.772 .0252348
1073.350 .0252375
1073.928 .0252394
1074.506 .0252411
1075.084 .0252442
1075.662 .0252481
1076.240 .0252549
1076.819 .0252637
1077.397 .0252754
1077.976 .0252900
1078.554 .0253084
1079.133 .0253299
1079.711 .0253517
1080.290 .0253756
1080.869 .0254006
1081.448 .0254256
1082.027 .0254505
1082.606 .0254762
1083.185 .0255032
1083.764 .0255310
1084.343 .0255598
1084.923 .0255895
1085.502 .0256198
1086.082 .0256501
1086.662 .0256784
1087.242 .0257042
1087.822 .0257266
1088.402 .0257460
1088.983 .0257622
1089.563 .0257789
1090.144 .0257965
1090.725 .0258165
1091.306 .0258377
1091.887 .0258601
1092.469 .0258831
1093.050 .0259055
1093.632 .0259277
1094.214 .0259490
1094.796 .0259686
1095.379 .0259859
1095.961 .0260011
1096.544 .0260143
1097.127 .0260262
1097.710 .0260370
1098.294 .0260467
1098.877 .0260567
1099.461 .0260675
1100.046 .0260799
1100.630 .0260955
1101.215 .0261137
1101.800 .0261337
1102.385 .0261532
1102.970 .0261727
1103.556 .0261888
1104.142 .0262032
1104.728 .0262180
1105.315 .0262358
1105.902 .0262549
1106.489 .0262782
1107.077 .0263032
1107.664 .0263315
1108.253 .0263602
1108.841 .0263869
1109.430 .0264101
1110.019 .0264291
1110.609 .0264445
1111.198 .0264569
1111.789 .0264716
1112.379 .0264918
1112.970 .0265168
1113.561 .0265489
1114.153 .0265872
1114.745 .0266296
1115.338 .0266736
1115.931 .0267212
1116.524 .0267714
1117.117 .0268243
1117.712 .0268793
1118.306 .0269384
1118.901 .0270031
1119.496 .0270711
1120.092 .0271427
1120.689 .0272120
1121.285 .0272822
1121.882 .0273466
1122.480 .0274043
1123.078 .0274574
1123.677 .0275048
1124.276 .0275486
1124.875 .0275900
1125.476 .0276301
1126.076 .0276658
1126.677 .0276996
1127.279 .0277318
1127.881 .0277641
1128.484 .0277986
1129.087 .0278356
1129.691 .0278778
1130.295 .0279240
1130.900 .0279756
1131.505 .0280291
1132.111 .0280899
1132.718 .0281540
1133.325 .0282184
1133.933 .0282865
1134.541 .0283573
1135.150 .0284315
1135.760 .0285129
1136.370 .0286036
1136.981 .0287041
1137.592 .0288095
1138.204 .0289148
1138.817 .0290170
1139.431 .0291235
1140.045 .0292250
1140.660 .0293220
1141.275 .0294219
1141.891 .0295350
1142.508 .0296726
1143.126 .0297027
1143.744 .0297831
1144.363 .0300783
1144.983 .0303949
