Measurement Sequence started on: 15-12-46-377
Integration time: 28
Scans to Average: 2 
>>>>>Begin Spectral Data<<<<<
432.689 .0000100
433.621 .0000100
434.552 .0000100
435.482 .0000100
436.410 .0000100
437.337 .0000100
438.262 .0271387
439.187 .0573163
440.110 .0948117
441.031 .1370950
441.952 .1781213
442.871 .2103278
443.789 .2278670
444.705 .2287524
445.621 .2154929
446.535 .1934830
447.447 .1685940
448.359 .1305052
449.269 .1117324
450.178 .0998132
451.086 .0913444
451.993 .0848652
452.898 .0797830
453.803 .0756537
454.706 .0722460
455.608 .0693466
456.508 .0668407
457.408 .0646624
458.306 .0627324
459.204 .0609976
460.100 .0594470
460.995 .0580642
461.888 .0568262
462.781 .0557217
463.673 .0547198
464.563 .0538084
465.452 .0529582
466.340 .0521621
467.228 .0514081
468.114 .0506884
468.999 .0500176
469.882 .0493934
470.765 .0488211
471.647 .0483104
472.528 .0478465
473.407 .0474369
474.286 .0470661
475.163 .0467318
476.040 .0464261
476.915 .0461501
477.790 .0458997
478.663 .0456811
479.535 .0454987
480.407 .0453567
481.277 .0452447
482.147 .0451680
483.015 .0451230
483.883 .0451007
484.749 .0450973
485.615 .0451108
486.479 .0451346
487.343 .0451774
488.206 .0452243
489.067 .0452776
489.928 .0453305
490.788 .0453847
491.647 .0454423
492.505 .0455038
493.362 .0455754
494.218 .0456557
495.073 .0457461
495.928 .0458651
496.781 .0460003
497.634 .0461601
498.486 .0463438
499.337 .0465572
500.187 .0468014
501.036 .0470799
501.884 .0473942
502.731 .0477611
503.578 .0481762
504.424 .0486446
505.268 .0491438
506.113 .0496750
506.956 .0502380
507.798 .0508300
508.640 .0514628
509.480 .0521466
510.320 .0528920
511.160 .0537268
511.998 .0546505
512.836 .0556832
513.672 .0568281
514.508 .0580826
515.344 .0594591
516.178 .0609725
517.012 .0626380
517.845 .0645031
518.677 .0666169
519.508 .0690256
520.339 .0717656
521.169 .0749049
521.998 .0784633
522.826 .0824150
523.654 .0868127
524.481 .0916476
525.307 .0969419
526.133 .1027247
526.958 .1089443
527.782 .1155355
528.605 .1223820
529.428 .1293063
530.250 .1357978
531.072 .1416663
531.892 .1465149
532.712 .1500961
533.532 .1522919
534.350 .1529629
535.168 .1520366
535.986 .1496211
536.802 .1459071
537.618 .1410825
538.434 .1352957
539.249 .1289770
540.063 .1222469
540.876 .1154729
541.689 .1088209
542.501 .1024791
543.313 .0966262
544.124 .0913694
544.934 .0866330
545.744 .0823358
546.553 .0784364
547.361 .0749806
548.169 .0718753
548.976 .0690857
549.783 .0665876
550.589 .0643306
551.395 .0622736
552.200 .0604067
553.004 .0586737
553.808 .0570717
554.611 .0555945
555.414 .0542465
556.216 .0529990
557.018 .0518597
557.819 .0508189
558.619 .0498704
559.419 .0490175
560.218 .0482478
561.017 .0475311
561.815 .0468643
562.613 .0462297
563.410 .0456083
564.207 .0450094
565.003 .0444310
565.799 .0438775
566.594 .0433495
567.388 .0428472
568.182 .0423614
568.976 .0418876
569.769 .0414217
570.562 .0409578
571.354 .0404902
572.145 .0400167
572.936 .0395383
573.727 .0390631
574.517 .0385950
575.307 .0381405
576.096 .0377049
576.885 .0372924
577.673 .0368977
578.461 .0365253
579.248 .0361715
580.035 .0358400
580.821 .0355311
581.607 .0352436
582.392 .0349779
583.177 .0347372
583.962 .0345188
584.746 .0343275
585.529 .0341579
586.313 .0340057
587.095 .0338671
587.878 .0337411
588.660 .0336243
589.441 .0335151
590.222 .0334114
591.003 .0333171
591.783 .0332298
592.563 .0331501
593.342 .0330775
594.121 .0330102
594.899 .0329481
595.678 .0328875
596.455 .0328276
597.233 .0327684
598.009 .0327081
598.786 .0326479
599.562 .0325892
600.338 .0325321
601.113 .0324758
601.888 .0324210
602.663 .0323681
603.437 .0323170
604.211 .0322671
604.984 .0322182
605.757 .0321711
606.530 .0321264
607.302 .0320844
608.074 .0320442
608.845 .0320080
609.616 .0319757
610.387 .0319465
611.158 .0319205
611.928 .0318970
612.697 .0318754
613.467 .0318554
614.236 .0318367
615.004 .0318193
615.773 .0318032
616.541 .0317881
617.308 .0317735
618.076 .0317593
618.843 .0317445
619.609 .0317286
620.375 .0317115
621.141 .0316933
621.907 .0316742
622.672 .0316543
623.437 .0316336
624.202 .0316120
624.966 .0315904
625.730 .0315685
626.493 .0315456
627.257 .0315215
628.020 .0314953
628.782 .0314667
629.545 .0314364
630.307 .0314041
631.068 .0313711
631.830 .0313387
632.591 .0313066
633.352 .0312752
634.112 .0312449
634.872 .0312154
635.632 .0311860
636.392 .0311571
637.151 .0311280
637.910 .0310975
638.668 .0310657
639.427 .0310332
640.185 .0310007
640.943 .0309694
641.700 .0309391
642.457 .0309105
643.214 .0308839
643.971 .0308585
644.727 .0308338
645.483 .0308099
646.239 .0307866
646.994 .0307643
647.750 .0307424
648.505 .0307204
649.259 .0306986
650.014 .0306770
650.768 .0306555
651.521 .0306340
652.275 .0306122
653.028 .0305904
653.781 .0305683
654.534 .0305470
655.286 .0305254
656.039 .0305039
656.791 .0304831
657.542 .0304624
658.294 .0304415
659.045 .0304204
659.796 .0303983
660.546 .0303761
661.297 .0303529
662.047 .0303297
662.796 .0303061
663.546 .0302831
664.295 .0302610
665.044 .0302399
665.793 .0302200
666.542 .0302014
667.290 .0301841
668.038 .0301679
668.786 .0301518
669.533 .0301358
670.281 .0301191
671.028 .0301023
671.774 .0300856
672.521 .0300691
673.267 .0300528
674.013 .0300377
674.759 .0300235
675.505 .0300101
676.250 .0299979
676.995 .0299860
677.740 .0299749
678.484 .0299638
679.229 .0299527
679.973 .0299410
680.717 .0299287
681.460 .0299163
682.204 .0299029
682.947 .0298894
683.690 .0298757
684.433 .0298613
685.175 .0298472
685.917 .0298330
686.659 .0298189
687.401 .0298047
688.142 .0297906
688.884 .0297760
689.625 .0297604
690.365 .0297436
691.106 .0297256
691.846 .0297062
692.586 .0296860
693.326 .0296648
694.066 .0296435
694.805 .0296222
695.545 .0296009
696.284 .0295797
697.022 .0295583
697.761 .0295364
698.499 .0295140
699.237 .0294905
699.975 .0294664
700.713 .0294422
701.450 .0294184
702.187 .0293952
702.924 .0293733
703.661 .0293526
704.397 .0293329
705.133 .0293142
705.869 .0292961
706.605 .0292777
707.341 .0292594
708.076 .0292411
708.811 .0292218
709.546 .0292022
710.281 .0291822
711.015 .0291616
711.749 .0291405
712.483 .0291187
713.217 .0290957
713.950 .0290717
714.684 .0290471
715.417 .0290215
716.150 .0289951
716.882 .0289688
717.615 .0289419
718.347 .0289152
719.079 .0288892
719.811 .0288637
720.542 .0288390
721.273 .0288154
722.005 .0287924
722.735 .0287698
723.466 .0287477
724.196 .0287260
724.927 .0287048
725.656 .0286841
726.386 .0286641
727.116 .0286447
727.845 .0286266
728.574 .0286093
729.303 .0285925
730.031 .0285764
730.760 .0285606
731.488 .0285445
732.216 .0285285
732.944 .0285124
733.671 .0284965
734.398 .0284813
735.125 .0284671
735.852 .0284541
736.579 .0284424
737.305 .0284319
738.031 .0284226
738.757 .0284140
739.483 .0284060
740.208 .0283978
740.933 .0283897
741.658 .0283817
742.383 .0283733
743.108 .0283649
743.832 .0283571
744.556 .0283499
745.280 .0283432
746.004 .0283370
746.727 .0283309
747.450 .0283254
748.173 .0283198
748.896 .0283140
749.618 .0283081
750.340 .0283023
751.062 .0282964
751.784 .0282902
752.506 .0282845
753.227 .0282791
753.948 .0282741
754.669 .0282697
755.389 .0282654
756.110 .0282609
756.830 .0282561
757.550 .0282508
758.269 .0282448
758.989 .0282381
759.708 .0282304
760.427 .0282221
761.146 .0282138
761.864 .0282047
762.582 .0281950
763.300 .0281848
764.018 .0281743
764.736 .0281628
765.453 .0281506
766.170 .0281375
766.887 .0281240
767.603 .0281107
768.320 .0280975
769.036 .0280843
769.751 .0280715
770.467 .0280591
771.182 .0280467
771.897 .0280338
772.612 .0280207
773.327 .0280066
774.041 .0279922
774.755 .0279774
775.469 .0279627
776.183 .0279484
776.896 .0279350
777.609 .0279221
778.322 .0279100
779.035 .0278982
779.747 .0278868
780.459 .0278754
781.171 .0278640
781.882 .0278527
782.594 .0278413
783.305 .0278305
784.016 .0278206
784.726 .0278115
785.436 .0278034
786.147 .0277954
786.856 .0277878
787.566 .0277794
788.275 .0277704
788.984 .0277605
789.693 .0277490
790.401 .0277361
791.110 .0277218
791.818 .0277060
792.525 .0276893
793.233 .0276718
793.940 .0276537
794.647 .0276350
795.353 .0276159
796.060 .0275960
796.766 .0275751
797.472 .0275536
798.177 .0275314
798.883 .0275083
799.588 .0274851
800.292 .0274614
800.997 .0274378
801.701 .0274148
802.405 .0273923
803.109 .0273704
803.812 .0273491
804.515 .0273282
805.218 .0273073
805.921 .0272862
806.623 .0272649
807.325 .0272431
808.027 .0272213
808.728 .0271993
809.429 .0271773
810.130 .0271558
810.831 .0271348
811.531 .0271144
812.231 .0270944
812.931 .0270742
813.630 .0270534
814.330 .0270321
815.029 .0270097
815.727 .0269867
816.426 .0269630
817.124 .0269391
817.821 .0269151
818.519 .0268919
819.216 .0268695
819.913 .0268482
820.609 .0268282
821.306 .0268092
822.002 .0267911
822.697 .0267744
823.393 .0267584
824.088 .0267444
824.783 .0267318
825.477 .0267212
826.171 .0267126
826.865 .0267068
827.559 .0267033
828.252 .0267020
828.945 .0267031
829.638 .0267059
830.330 .0267097
831.023 .0267146
831.714 .0267198
832.406 .0267253
833.097 .0267305
833.788 .0267350
834.479 .0267388
835.169 .0267419
835.859 .0267446
836.548 .0267464
837.238 .0267481
837.927 .0267498
838.615 .0267510
839.304 .0267520
839.992 .0267531
840.680 .0267540
841.367 .0267547
842.054 .0267557
842.741 .0267572
843.428 .0267589
844.114 .0267613
844.800 .0267642
845.485 .0267672
846.170 .0267703
846.855 .0267731
847.540 .0267750
848.224 .0267767
848.908 .0267781
849.592 .0267786
850.275 .0267787
850.958 .0267785
851.641 .0267776
852.323 .0267758
853.005 .0267732
853.687 .0267692
854.368 .0267638
855.049 .0267575
855.730 .0267506
856.410 .0267431
857.090 .0267364
857.769 .0267298
858.449 .0267237
859.128 .0267177
859.806 .0267119
860.485 .0267057
861.163 .0266993
861.840 .0266927
862.518 .0266857
863.195 .0266782
863.871 .0266709
864.548 .0266638
865.224 .0266570
865.899 .0266502
866.574 .0266434
867.249 .0266360
867.924 .0266283
868.598 .0266199
869.272 .0266109
869.946 .0266018
870.619 .0265931
871.292 .0265848
871.964 .0265773
872.636 .0265707
873.308 .0265646
873.979 .0265591
874.651 .0265536
875.321 .0265476
875.992 .0265413
876.662 .0265347
877.331 .0265281
878.001 .0265214
878.670 .0265153
879.338 .0265096
880.007 .0265046
880.675 .0265002
881.342 .0264958
882.009 .0264910
882.676 .0264856
883.343 .0264792
884.009 .0264718
884.675 .0264635
885.340 .0264542
886.005 .0264442
886.670 .0264338
887.334 .0264229
887.998 .0264116
888.662 .0264000
889.325 .0263881
889.988 .0263754
890.650 .0263623
891.312 .0263485
891.974 .0263339
892.636 .0263191
893.297 .0263040
893.957 .0262890
894.618 .0262746
895.278 .0262604
895.937 .0262469
896.596 .0262344
897.255 .0262227
897.914 .0262112
898.572 .0261997
899.230 .0261881
899.887 .0261756
900.544 .0261618
901.201 .0261465
901.857 .0261297
902.513 .0261114
903.168 .0260913
903.823 .0260699
904.478 .0260473
905.132 .0260236
905.786 .0259985
906.440 .0259724
907.093 .0259450
907.746 .0259166
908.399 .0258871
909.051 .0258566
909.703 .0258254
910.354 .0257932
911.005 .0257603
911.656 .0257271
912.306 .0256940
912.956 .0256610
913.605 .0256283
914.254 .0255965
914.903 .0255654
915.551 .0255350
916.199 .0255052
916.847 .0254762
917.494 .0254478
918.141 .0254198
918.788 .0253919
919.434 .0253644
920.079 .0253372
920.725 .0253106
921.370 .0252848
922.014 .0252600
922.658 .0252362
923.302 .0252130
923.946 .0251902
924.589 .0251676
925.231 .0251446
925.873 .0251212
926.515 .0250973
927.157 .0250729
927.798 .0250476
928.439 .0250215
929.079 .0249949
929.719 .0249682
930.359 .0249417
930.998 .0249156
931.637 .0248899
932.275 .0248652
932.913 .0248415
933.551 .0248186
934.188 .0247967
934.825 .0247761
935.462 .0247565
936.098 .0247385
936.733 .0247218
937.369 .0247068
938.004 .0246936
938.638 .0246822
939.273 .0246723
939.907 .0246632
940.540 .0246549
941.173 .0246472
941.806 .0246401
942.438 .0246340
943.070 .0246284
943.702 .0246236
944.333 .0246198
944.964 .0246166
945.594 .0246143
946.224 .0246125
946.854 .0246116
947.483 .0246116
948.112 .0246122
948.741 .0246138
949.369 .0246164
949.996 .0246200
950.624 .0246250
951.251 .0246309
951.878 .0246372
952.504 .0246437
953.130 .0246502
953.755 .0246564
954.380 .0246616
955.005 .0246664
955.629 .0246707
956.253 .0246746
956.877 .0246789
957.500 .0246828
958.123 .0246870
958.746 .0246916
959.368 .0246957
959.990 .0246993
960.611 .0247025
961.232 .0247053
961.853 .0247081
962.473 .0247109
963.093 .0247143
963.712 .0247180
964.331 .0247225
964.950 .0247274
965.569 .0247329
966.187 .0247390
966.804 .0247456
967.422 .0247522
968.039 .0247596
968.655 .0247671
969.272 .0247747
969.887 .0247825
970.503 .0247905
971.118 .0247988
971.733 .0248070
972.347 .0248151
972.961 .0248232
973.575 .0248313
974.188 .0248390
974.801 .0248460
975.414 .0248526
976.026 .0248587
976.638 .0248639
977.250 .0248686
977.861 .0248729
978.472 .0248772
979.083 .0248816
979.693 .0248859
980.303 .0248901
980.912 .0248941
981.521 .0248974
982.130 .0248998
982.738 .0249013
983.346 .0249020
983.954 .0249019
984.562 .0249020
985.169 .0249026
985.775 .0249036
986.382 .0249057
986.988 .0249089
987.594 .0249126
988.199 .0249167
988.804 .0249207
989.409 .0249236
990.013 .0249258
990.617 .0249273
991.221 .0249276
991.824 .0249280
992.427 .0249292
993.030 .0249309
993.632 .0249337
994.234 .0249388
994.836 .0249446
995.438 .0249515
996.039 .0249591
996.640 .0249659
997.240 .0249722
997.840 .0249777
998.440 .0249818
999.040 .0249849
999.639 .0249878
1000.238 .0249897
1000.836 .0249911
1001.435 .0249929
1002.033 .0249943
1002.630 .0249948
1003.228 .0249951
1003.825 .0249943
1004.422 .0249923
1005.018 .0249897
1005.614 .0249860
1006.210 .0249814
1006.806 .0249771
1007.401 .0249723
1007.996 .0249674
1008.591 .0249636
1009.186 .0249609
1009.780 .0249587
1010.374 .0249574
1010.967 .0249572
1011.561 .0249571
1012.154 .0249570
1012.746 .0249567
1013.339 .0249555
1013.931 .0249534
1014.523 .0249496
1015.115 .0249441
1015.706 .0249378
1016.298 .0249307
1016.888 .0249228
1017.479 .0249149
1018.069 .0249073
1018.660 .0248996
1019.250 .0248921
1019.839 .0248844
1020.429 .0248767
1021.018 .0248684
1021.607 .0248592
1022.195 .0248489
1022.784 .0248378
1023.372 .0248256
1023.960 .0248133
1024.547 .0248011
1025.135 .0247894
1025.722 .0247782
1026.309 .0247683
1026.896 .0247591
1027.483 .0247511
1028.069 .0247436
1028.655 .0247363
1029.241 .0247287
1029.827 .0247209
1030.412 .0247122
1030.997 .0247028
1031.582 .0246932
1032.167 .0246836
1032.752 .0246748
1033.336 .0246672
1033.921 .0246604
1034.505 .0246547
1035.089 .0246493
1035.672 .0246438
1036.256 .0246373
1036.839 .0246297
1037.422 .0246203
1038.005 .0246093
1038.588 .0245977
1039.171 .0245863
1039.753 .0245755
1040.335 .0245660
1040.918 .0245577
1041.500 .0245503
1042.081 .0245437
1042.663 .0245369
1043.244 .0245300
1043.826 .0245218
1044.407 .0245118
1044.988 .0245001
1045.569 .0244859
1046.150 .0244705
1046.730 .0244531
1047.311 .0244340
1047.891 .0244141
1048.471 .0243925
1049.052 .0243688
1049.632 .0243435
1050.211 .0243171
1050.791 .0242895
1051.371 .0242612
1051.950 .0242337
1052.530 .0242069
1053.109 .0241825
1053.688 .0241611
1054.268 .0241432
1054.847 .0241291
1055.426 .0241195
1056.005 .0241128
1056.583 .0241086
1057.162 .0241067
1057.741 .0241050
1058.319 .0241032
1058.898 .0241020
1059.476 .0241002
1060.055 .0240981
1060.633 .0240959
1061.211 .0240930
1061.790 .0240900
1062.368 .0240867
1062.946 .0240826
1063.524 .0240771
1064.102 .0240708
1064.680 .0240637
1065.258 .0240548
1065.836 .0240454
1066.414 .0240359
1066.992 .0240252
1067.570 .0240157
1068.148 .0240052
1068.726 .0239951
1069.304 .0239862
1069.882 .0239784
1070.460 .0239723
1071.038 .0239684
1071.616 .0239655
1072.194 .0239635
1072.772 .0239612
1073.350 .0239589
1073.928 .0239546
1074.506 .0239488
1075.084 .0239408
1075.662 .0239311
1076.240 .0239220
1076.819 .0239147
1077.397 .0239088
1077.976 .0239078
1078.554 .0239098
1079.133 .0239150
1079.711 .0239229
1080.290 .0239336
1080.869 .0239459
1081.448 .0239597
1082.027 .0239743
1082.606 .0239880
1083.185 .0240013
1083.764 .0240141
1084.343 .0240265
1084.923 .0240397
1085.502 .0240526
1086.082 .0240657
1086.662 .0240793
1087.242 .0240946
1087.822 .0241107
1088.402 .0241283
1088.983 .0241468
1089.563 .0241642
1090.144 .0241779
1090.725 .0241877
1091.306 .0241927
1091.887 .0241936
1092.469 .0241909
1093.050 .0241878
1093.632 .0241861
1094.214 .0241862
1094.796 .0241891
1095.379 .0241969
1095.961 .0242074
1096.544 .0242206
1097.127 .0242347
1097.710 .0242484
1098.294 .0242613
1098.877 .0242722
1099.461 .0242818
1100.046 .0242945
1100.630 .0243114
1101.215 .0243336
1101.800 .0243614
1102.385 .0243967
1102.970 .0244372
1103.556 .0244802
1104.142 .0245252
1104.728 .0245704
1105.315 .0246135
1105.902 .0246537
1106.489 .0246903
1107.077 .0247242
1107.664 .0247576
1108.253 .0247906
1108.841 .0248244
1109.430 .0248589
1110.019 .0248929
1110.609 .0249266
1111.198 .0249604
1111.789 .0249964
1112.379 .0250355
1112.970 .0250775
1113.561 .0251246
1114.153 .0251760
1114.745 .0252305
1115.338 .0252863
1115.931 .0253433
1116.524 .0254024
1117.117 .0254603
1117.712 .0255151
1118.306 .0255676
1118.901 .0256200
1119.496 .0256728
1120.092 .0257257
1120.689 .0257774
1121.285 .0258286
1121.882 .0258766
1122.480 .0259192
1123.078 .0259570
1123.677 .0259937
1124.276 .0260293
1124.875 .0260666
1125.476 .0261087
1126.076 .0261585
1126.677 .0262140
1127.279 .0262758
1127.881 .0263443
1128.484 .0264148
1129.087 .0264827
1129.691 .0265512
1130.295 .0266229
1130.900 .0267026
1131.505 .0267907
1132.111 .0268892
1132.718 .0270011
1133.325 .0271240
1133.933 .0272489
1134.541 .0273748
1135.150 .0274994
1135.760 .0276177
1136.370 .0277262
1136.981 .0278281
1137.592 .0279260
1138.204 .0280284
1138.817 .0281354
1139.431 .0282410
1140.045 .0283537
1140.660 .0284632
1141.275 .0285695
1141.891 .0287004
1142.508 .0287182
1143.126 .0289368
1143.744 .0288262
1144.363 .0290366
1144.983 .0299451
