Measurement Sequence started on: 15-12-46-377
Integration time: 28
Scans to Average: 2 
>>>>>Begin Spectral Data<<<<<
432.689 .0000100
433.621 .0000100
434.552 .0000100
435.482 .0000100
436.410 .0000100
437.337 .0000100
438.262 .0284862
439.187 .0603781
440.110 .1000003
441.031 .1446105
441.952 .1878715
442.871 .2218040
443.789 .2402403
444.705 .2410658
445.621 .2269439
446.535 .2036429
447.447 .1773652
448.359 .1373481
449.269 .1176095
450.178 .1052541
451.086 .0966507
451.993 .0901192
452.898 .0850147
453.803 .0808658
454.706 .0774715
455.608 .0746152
456.508 .0721744
457.408 .0701133
458.306 .0682978
459.204 .0666522
460.100 .0651529
460.995 .0637539
461.888 .0624270
462.781 .0611646
463.673 .0599730
464.563 .0588543
465.452 .0578170
466.340 .0568370
467.228 .0559314
468.114 .0550913
468.999 .0543180
469.882 .0535923
470.765 .0529213
471.647 .0523039
472.528 .0517303
473.407 .0512113
474.286 .0507516
475.163 .0503439
476.040 .0500018
476.915 .0497051
477.790 .0494524
478.663 .0492299
479.535 .0490368
480.407 .0488603
481.277 .0487092
482.147 .0485744
483.015 .0484603
483.883 .0483659
484.749 .0482926
485.615 .0482357
486.479 .0481980
487.343 .0481778
488.206 .0481781
489.067 .0481899
489.928 .0482202
490.788 .0482630
491.647 .0483335
492.505 .0484247
493.362 .0485403
494.218 .0486768
495.073 .0488392
495.928 .0490235
496.781 .0492259
497.634 .0494412
498.486 .0496781
499.337 .0499360
500.187 .0502137
501.036 .0505070
501.884 .0508219
502.731 .0511590
503.578 .0515207
504.424 .0519056
505.268 .0523107
506.113 .0527492
506.956 .0532271
507.798 .0537521
508.640 .0543373
509.480 .0549807
510.320 .0557010
511.160 .0565065
511.998 .0573932
512.836 .0583622
513.672 .0594140
514.508 .0605558
515.344 .0618047
516.178 .0631856
517.012 .0647195
517.845 .0664615
518.677 .0684549
519.508 .0707252
520.339 .0733066
521.169 .0762719
521.998 .0796328
522.826 .0834415
523.654 .0877407
524.481 .0924909
525.307 .0977938
526.133 .1036509
526.958 .1100134
527.782 .1168515
528.605 .1240710
529.428 .1315259
530.250 .1386926
531.072 .1453416
531.892 .1510094
532.712 .1553896
533.532 .1582789
534.350 .1593635
535.168 .1585430
535.986 .1559712
536.802 .1517785
537.618 .1462415
538.434 .1396642
539.249 .1325466
540.063 .1250858
540.876 .1176540
541.689 .1104531
542.501 .1036770
543.313 .0974940
544.124 .0919616
544.934 .0869733
545.744 .0825251
546.553 .0785419
547.361 .0750353
548.169 .0719691
548.976 .0693003
549.783 .0669737
550.589 .0649415
551.395 .0631277
552.200 .0615095
553.004 .0600382
553.808 .0586831
554.611 .0574301
555.414 .0562883
556.216 .0552275
557.018 .0542630
557.819 .0533818
558.619 .0525712
559.419 .0518183
560.218 .0511203
561.017 .0504417
561.815 .0497816
562.613 .0491283
563.410 .0484772
564.207 .0478260
565.003 .0471835
565.799 .0465455
566.594 .0459132
567.388 .0453041
568.182 .0447097
568.976 .0441288
569.769 .0435693
570.562 .0430263
571.354 .0424939
572.145 .0419745
572.936 .0414614
573.727 .0409466
574.517 .0404348
575.307 .0399269
576.096 .0394307
576.885 .0389575
577.673 .0385109
578.461 .0380957
579.248 .0377179
580.035 .0373764
580.821 .0370653
581.607 .0367802
582.392 .0365168
583.177 .0362707
583.962 .0360395
584.746 .0358263
585.529 .0356301
586.313 .0354568
587.095 .0353062
587.878 .0351753
588.660 .0350652
589.441 .0349693
590.222 .0348817
591.003 .0348004
591.783 .0347207
592.563 .0346400
593.342 .0345594
594.121 .0344765
594.899 .0343931
595.678 .0343106
596.455 .0342317
597.233 .0341555
598.009 .0340833
598.786 .0340152
599.562 .0339489
600.338 .0338844
601.113 .0338212
601.888 .0337569
602.663 .0336923
603.437 .0336271
604.211 .0335607
604.984 .0334942
605.757 .0334287
606.530 .0333648
607.302 .0333046
608.074 .0332485
608.845 .0331965
609.616 .0331487
610.387 .0331047
611.158 .0330638
611.928 .0330244
612.697 .0329863
613.467 .0329494
614.236 .0329136
615.004 .0328793
615.773 .0328477
616.541 .0328194
617.308 .0327951
618.076 .0327738
618.843 .0327562
619.609 .0327409
620.375 .0327276
621.141 .0327148
621.907 .0327014
622.672 .0326866
623.437 .0326705
624.202 .0326531
624.966 .0326354
625.730 .0326180
626.493 .0326007
627.257 .0325845
628.020 .0325693
628.782 .0325539
629.545 .0325381
630.307 .0325207
631.068 .0325022
631.830 .0324810
632.591 .0324567
633.352 .0324298
634.112 .0324013
634.872 .0323723
635.632 .0323433
636.392 .0323145
637.151 .0322863
637.910 .0322588
638.668 .0322314
639.427 .0322038
640.185 .0321763
640.943 .0321484
641.700 .0321211
642.457 .0320943
643.214 .0320690
643.971 .0320446
644.727 .0320224
645.483 .0320015
646.239 .0319816
646.994 .0319615
647.750 .0319408
648.505 .0319191
649.259 .0318972
650.014 .0318752
650.768 .0318533
651.521 .0318321
652.275 .0318113
653.028 .0317897
653.781 .0317671
654.534 .0317412
655.286 .0317120
656.039 .0316791
656.791 .0316428
657.542 .0316027
658.294 .0315611
659.045 .0315195
659.796 .0314787
660.546 .0314390
661.297 .0313999
662.047 .0313605
662.796 .0313202
663.546 .0312779
664.295 .0312333
665.044 .0311872
665.793 .0311406
666.542 .0310941
667.290 .0310497
668.038 .0310084
668.786 .0309706
669.533 .0309366
670.281 .0309056
671.028 .0308769
671.774 .0308493
672.521 .0308221
673.267 .0307953
674.013 .0307691
674.759 .0307441
675.505 .0307203
676.250 .0306982
676.995 .0306779
677.740 .0306590
678.484 .0306413
679.229 .0306246
679.973 .0306085
680.717 .0305925
681.460 .0305765
682.204 .0305604
682.947 .0305448
683.690 .0305299
684.433 .0305155
685.175 .0305011
685.917 .0304869
686.659 .0304728
687.401 .0304579
688.142 .0304425
688.884 .0304272
689.625 .0304121
690.365 .0303970
691.106 .0303821
691.846 .0303675
692.586 .0303529
693.326 .0303382
694.066 .0303228
694.805 .0303062
695.545 .0302885
696.284 .0302694
697.022 .0302490
697.761 .0302281
698.499 .0302071
699.237 .0301866
699.975 .0301670
700.713 .0301491
701.450 .0301320
702.187 .0301155
702.924 .0301000
703.661 .0300851
704.397 .0300705
705.133 .0300566
705.869 .0300441
706.605 .0300325
707.341 .0300226
708.076 .0300145
708.811 .0300076
709.546 .0300021
710.281 .0299973
711.015 .0299924
711.749 .0299867
712.483 .0299803
713.217 .0299723
713.950 .0299627
714.684 .0299519
715.417 .0299392
716.150 .0299249
716.882 .0299094
717.615 .0298922
718.347 .0298736
719.079 .0298544
719.811 .0298346
720.542 .0298141
721.273 .0297938
722.005 .0297734
722.735 .0297533
723.466 .0297333
724.196 .0297135
724.927 .0296933
725.656 .0296730
726.386 .0296523
727.116 .0296311
727.845 .0296100
728.574 .0295885
729.303 .0295665
730.031 .0295446
730.760 .0295222
731.488 .0294992
732.216 .0294759
732.944 .0294529
733.671 .0294297
734.398 .0294068
735.125 .0293841
735.852 .0293620
736.579 .0293400
737.305 .0293184
738.031 .0292969
738.757 .0292757
739.483 .0292548
740.208 .0292342
740.933 .0292147
741.658 .0291961
742.383 .0291786
743.108 .0291617
743.832 .0291452
744.556 .0291288
745.280 .0291112
746.004 .0290922
746.727 .0290719
747.450 .0290504
748.173 .0290277
748.896 .0290047
749.618 .0289820
750.340 .0289596
751.062 .0289382
751.784 .0289172
752.506 .0288966
753.227 .0288760
753.948 .0288551
754.669 .0288337
755.389 .0288121
756.110 .0287903
756.830 .0287685
757.550 .0287472
758.269 .0287269
758.989 .0287071
759.708 .0286878
760.427 .0286690
761.146 .0286506
761.864 .0286321
762.582 .0286136
763.300 .0285945
764.018 .0285757
764.736 .0285567
765.453 .0285378
766.170 .0285194
766.887 .0285019
767.603 .0284855
768.320 .0284701
769.036 .0284555
769.751 .0284425
770.467 .0284302
771.182 .0284187
771.897 .0284075
772.612 .0283962
773.327 .0283847
774.041 .0283731
774.755 .0283614
775.469 .0283503
776.183 .0283403
776.896 .0283319
777.609 .0283252
778.322 .0283206
779.035 .0283174
779.747 .0283154
780.459 .0283145
781.171 .0283139
781.882 .0283136
782.594 .0283135
783.305 .0283138
784.016 .0283149
784.726 .0283176
785.436 .0283217
786.147 .0283271
786.856 .0283337
787.566 .0283409
788.275 .0283478
788.984 .0283534
789.693 .0283572
790.401 .0283594
791.110 .0283598
791.818 .0283583
792.525 .0283554
793.233 .0283519
793.940 .0283482
794.647 .0283447
795.353 .0283413
796.060 .0283381
796.766 .0283350
797.472 .0283316
798.177 .0283281
798.883 .0283250
799.588 .0283225
800.292 .0283206
800.997 .0283197
801.701 .0283202
802.405 .0283211
803.109 .0283226
803.812 .0283246
804.515 .0283264
805.218 .0283277
805.921 .0283277
806.623 .0283263
807.325 .0283240
808.027 .0283206
808.728 .0283157
809.429 .0283095
810.130 .0283020
810.831 .0282926
811.531 .0282809
812.231 .0282676
812.931 .0282521
813.630 .0282348
814.330 .0282164
815.029 .0281974
815.727 .0281785
816.426 .0281600
817.124 .0281425
817.821 .0281258
818.519 .0281101
819.216 .0280946
819.913 .0280791
820.609 .0280640
821.306 .0280489
822.002 .0280335
822.697 .0280184
823.393 .0280041
824.088 .0279901
824.783 .0279769
825.477 .0279642
826.171 .0279516
826.865 .0279393
827.559 .0279272
828.252 .0279150
828.945 .0279031
829.638 .0278916
830.330 .0278801
831.023 .0278693
831.714 .0278592
832.406 .0278494
833.097 .0278400
833.788 .0278305
834.479 .0278204
835.169 .0278095
835.859 .0277979
836.548 .0277855
837.238 .0277726
837.927 .0277591
838.615 .0277446
839.304 .0277296
839.992 .0277136
840.680 .0276963
841.367 .0276774
842.054 .0276574
842.741 .0276355
843.428 .0276125
844.114 .0275889
844.800 .0275650
845.485 .0275414
846.170 .0275187
846.855 .0274966
847.540 .0274749
848.224 .0274536
848.908 .0274325
849.592 .0274107
850.275 .0273886
850.958 .0273654
851.641 .0273416
852.323 .0273169
853.005 .0272914
853.687 .0272651
854.368 .0272383
855.049 .0272110
855.730 .0271833
856.410 .0271549
857.090 .0271266
857.769 .0270976
858.449 .0270687
859.128 .0270400
859.806 .0270116
860.485 .0269838
861.163 .0269571
861.840 .0269317
862.518 .0269076
863.195 .0268847
863.871 .0268629
864.548 .0268426
865.224 .0268232
865.899 .0268046
866.574 .0267868
867.249 .0267698
867.924 .0267537
868.598 .0267377
869.272 .0267221
869.946 .0267066
870.619 .0266905
871.292 .0266739
871.964 .0266564
872.636 .0266385
873.308 .0266199
873.979 .0266017
874.651 .0265842
875.321 .0265679
875.992 .0265530
876.662 .0265399
877.331 .0265287
878.001 .0265192
878.670 .0265113
879.338 .0265051
880.007 .0265006
880.675 .0264980
881.342 .0264973
882.009 .0264986
882.676 .0265019
883.343 .0265072
884.009 .0265137
884.675 .0265209
885.340 .0265284
886.005 .0265358
886.670 .0265429
887.334 .0265500
887.998 .0265570
888.662 .0265642
889.325 .0265719
889.988 .0265801
890.650 .0265884
891.312 .0265964
891.974 .0266045
892.636 .0266118
893.297 .0266185
893.957 .0266249
894.618 .0266315
895.278 .0266389
895.937 .0266476
896.596 .0266575
897.255 .0266689
897.914 .0266814
898.572 .0266941
899.230 .0267068
899.887 .0267196
900.544 .0267312
901.201 .0267417
901.857 .0267516
902.513 .0267606
903.168 .0267685
903.823 .0267758
904.478 .0267824
905.132 .0267878
905.786 .0267921
906.440 .0267948
907.093 .0267956
907.746 .0267950
908.399 .0267927
909.051 .0267888
909.703 .0267838
910.354 .0267781
911.005 .0267714
911.656 .0267647
912.306 .0267581
912.956 .0267512
913.605 .0267444
914.254 .0267377
914.903 .0267314
915.551 .0267252
916.199 .0267189
916.847 .0267125
917.494 .0267064
918.141 .0266998
918.788 .0266930
919.434 .0266861
920.079 .0266792
920.725 .0266723
921.370 .0266656
922.014 .0266590
922.658 .0266523
923.302 .0266453
923.946 .0266380
924.589 .0266295
925.231 .0266203
925.873 .0266094
926.515 .0265977
927.157 .0265855
927.798 .0265728
928.439 .0265593
929.079 .0265457
929.719 .0265316
930.359 .0265173
930.998 .0265022
931.637 .0264868
932.275 .0264706
932.913 .0264541
933.551 .0264371
934.188 .0264199
934.825 .0264032
935.462 .0263879
936.098 .0263737
936.733 .0263611
937.369 .0263499
938.004 .0263401
938.638 .0263315
939.273 .0263240
939.907 .0263171
940.540 .0263106
941.173 .0263045
941.806 .0262990
942.438 .0262938
943.070 .0262888
943.702 .0262837
944.333 .0262776
944.964 .0262700
945.594 .0262604
946.224 .0262482
946.854 .0262341
947.483 .0262186
948.112 .0262019
948.741 .0261847
949.369 .0261674
949.996 .0261506
950.624 .0261345
951.251 .0261189
951.878 .0261033
952.504 .0260873
953.130 .0260709
953.755 .0260540
954.380 .0260366
955.005 .0260197
955.629 .0260034
956.253 .0259877
956.877 .0259730
957.500 .0259585
958.123 .0259443
958.746 .0259295
959.368 .0259136
959.990 .0258963
960.611 .0258770
961.232 .0258560
961.853 .0258339
962.473 .0258110
963.093 .0257880
963.712 .0257652
964.331 .0257424
964.950 .0257199
965.569 .0256978
966.187 .0256759
966.804 .0256542
967.422 .0256327
968.039 .0256119
968.655 .0255913
969.272 .0255710
969.887 .0255509
970.503 .0255305
971.118 .0255108
971.733 .0254911
972.347 .0254710
972.961 .0254509
973.575 .0254299
974.188 .0254079
974.801 .0253846
975.414 .0253600
976.026 .0253337
976.638 .0253065
977.250 .0252787
977.861 .0252504
978.472 .0252220
979.083 .0251945
979.693 .0251672
980.303 .0251403
980.912 .0251137
981.521 .0250863
982.130 .0250587
982.738 .0250311
983.346 .0250034
983.954 .0249758
984.562 .0249487
985.169 .0249226
985.775 .0248969
986.382 .0248716
986.988 .0248463
987.594 .0248205
988.199 .0247948
988.804 .0247687
989.409 .0247421
990.013 .0247158
990.617 .0246904
991.221 .0246660
991.824 .0246429
992.427 .0246213
993.030 .0246015
993.632 .0245835
994.234 .0245672
994.836 .0245518
995.438 .0245374
996.039 .0245241
996.640 .0245116
997.240 .0244997
997.840 .0244895
998.440 .0244805
999.040 .0244729
999.639 .0244665
1000.238 .0244612
1000.836 .0244558
1001.435 .0244506
1002.033 .0244447
1002.630 .0244377
1003.228 .0244295
1003.825 .0244203
1004.422 .0244111
1005.018 .0244027
1005.614 .0243951
1006.210 .0243886
1006.806 .0243832
1007.401 .0243791
1007.996 .0243747
1008.591 .0243706
1009.186 .0243668
1009.780 .0243631
1010.374 .0243601
1010.967 .0243583
1011.561 .0243576
1012.154 .0243593
1012.746 .0243629
1013.339 .0243680
1013.931 .0243736
1014.523 .0243798
1015.115 .0243858
1015.706 .0243917
1016.298 .0243980
1016.888 .0244052
1017.479 .0244134
1018.069 .0244242
1018.660 .0244360
1019.250 .0244492
1019.839 .0244634
1020.429 .0244780
1021.018 .0244918
1021.607 .0245051
1022.195 .0245174
1022.784 .0245286
1023.372 .0245389
1023.960 .0245499
1024.547 .0245605
1025.135 .0245723
1025.722 .0245852
1026.309 .0245995
1026.896 .0246147
1027.483 .0246305
1028.069 .0246463
1028.655 .0246624
1029.241 .0246782
1029.827 .0246936
1030.412 .0247086
1030.997 .0247247
1031.582 .0247416
1032.167 .0247595
1032.752 .0247798
1033.336 .0248022
1033.921 .0248259
1034.505 .0248508
1035.089 .0248758
1035.672 .0248998
1036.256 .0249223
1036.839 .0249425
1037.422 .0249607
1038.005 .0249771
1038.588 .0249923
1039.171 .0250065
1039.753 .0250214
1040.335 .0250371
1040.918 .0250538
1041.500 .0250710
1042.081 .0250886
1042.663 .0251051
1043.244 .0251205
1043.826 .0251346
1044.407 .0251468
1044.988 .0251585
1045.569 .0251706
1046.150 .0251826
1046.730 .0251966
1047.311 .0252119
1047.891 .0252288
1048.471 .0252474
1049.052 .0252673
1049.632 .0252877
1050.211 .0253087
1050.791 .0253295
1051.371 .0253502
1051.950 .0253715
1052.530 .0253938
1053.109 .0254164
1053.688 .0254389
1054.268 .0254625
1054.847 .0254854
1055.426 .0255076
1056.005 .0255289
1056.583 .0255480
1057.162 .0255652
1057.741 .0255792
1058.319 .0255900
1058.898 .0255984
1059.476 .0256041
1060.055 .0256080
1060.633 .0256103
1061.211 .0256112
1061.790 .0256112
1062.368 .0256114
1062.946 .0256117
1063.524 .0256135
1064.102 .0256156
1064.680 .0256189
1065.258 .0256235
1065.836 .0256298
1066.414 .0256381
1066.992 .0256483
1067.570 .0256620
1068.148 .0256781
1068.726 .0256962
1069.304 .0257161
1069.882 .0257362
1070.460 .0257575
1071.038 .0257791
1071.616 .0257995
1072.194 .0258177
1072.772 .0258338
1073.350 .0258468
1073.928 .0258581
1074.506 .0258678
1075.084 .0258765
1075.662 .0258852
1076.240 .0258938
1076.819 .0259041
1077.397 .0259162
1077.976 .0259300
1078.554 .0259454
1079.133 .0259615
1079.711 .0259776
1080.290 .0259915
1080.869 .0260037
1081.448 .0260148
1082.027 .0260245
1082.606 .0260348
1083.185 .0260457
1083.764 .0260589
1084.343 .0260755
1084.923 .0260945
1085.502 .0261158
1086.082 .0261399
1086.662 .0261647
1087.242 .0261882
1087.822 .0262095
1088.402 .0262285
1088.983 .0262447
1089.563 .0262593
1090.144 .0262739
1090.725 .0262905
1091.306 .0263090
1091.887 .0263311
1092.469 .0263569
1093.050 .0263864
1093.632 .0264177
1094.214 .0264497
1094.796 .0264812
1095.379 .0265096
1095.961 .0265345
1096.544 .0265575
1097.127 .0265789
1097.710 .0266005
1098.294 .0266235
1098.877 .0266489
1099.461 .0266777
1100.046 .0267085
1100.630 .0267385
1101.215 .0267674
1101.800 .0267939
1102.385 .0268149
1102.970 .0268295
1103.556 .0268402
1104.142 .0268464
1104.728 .0268505
1105.315 .0268552
1105.902 .0268600
1106.489 .0268648
1107.077 .0268702
1107.664 .0268767
1108.253 .0268823
1108.841 .0268873
1109.430 .0268910
1110.019 .0268932
1110.609 .0268974
1111.198 .0269018
1111.789 .0269093
1112.379 .0269231
1112.970 .0269432
1113.561 .0269675
1114.153 .0269938
1114.745 .0270215
1115.338 .0270486
1115.931 .0270737
1116.524 .0270940
1117.117 .0271116
1117.712 .0271285
1118.306 .0271447
1118.901 .0271630
1119.496 .0271834
1120.092 .0272073
1120.689 .0272317
1121.285 .0272552
1121.882 .0272748
1122.480 .0272923
1123.078 .0273121
1123.677 .0273298
1124.276 .0273528
1124.875 .0273864
1125.476 .0274267
1126.076 .0274779
1126.677 .0275363
1127.279 .0275985
1127.881 .0276602
1128.484 .0277188
1129.087 .0277691
1129.691 .0278140
1130.295 .0278562
1130.900 .0278985
1131.505 .0279471
1132.111 .0280074
1132.718 .0280752
1133.325 .0281488
1133.933 .0282320
1134.541 .0283179
1135.150 .0284009
1135.760 .0284854
1136.370 .0285654
1136.981 .0286492
1137.592 .0287333
1138.204 .0288221
1138.817 .0289201
1139.431 .0290283
1140.045 .0291455
1140.660 .0292619
1141.275 .0293777
1141.891 .0294626
1142.508 .0296778
1143.126 .0298064
1143.744 .0297978
1144.363 .0298258
1144.983 .0291053
