Measurement Sequence started on: 15-12-46-377
Integration time: 28
Scans to Average: 2 
>>>>>Begin Spectral Data<<<<<
432.689 .0000100
433.621 .0000100
434.552 .0000100
435.482 .0000100
436.410 .0000100
437.337 .0000100
438.262 .0250808
439.187 .0529376
440.110 .0876381
441.031 .1266862
441.952 .1646015
442.871 .1944212
443.789 .2107403
444.705 .2117314
445.621 .1997020
446.535 .1796397
447.447 .1569319
448.359 .1220046
449.269 .1048825
450.178 .0939497
451.086 .0862159
451.993 .0802035
452.898 .0754163
453.803 .0715000
454.706 .0682691
455.608 .0655294
456.508 .0631825
457.408 .0611556
458.306 .0593542
459.204 .0577185
460.100 .0562166
460.995 .0548335
461.888 .0535639
462.781 .0524062
463.673 .0513590
464.563 .0504121
465.452 .0495646
466.340 .0487847
467.228 .0480835
468.114 .0474371
468.999 .0468414
469.882 .0462848
470.765 .0457677
471.647 .0452879
472.528 .0448466
473.407 .0444548
474.286 .0441113
475.163 .0438123
476.040 .0435497
476.915 .0433188
477.790 .0431077
478.663 .0429100
479.535 .0427290
480.407 .0425581
481.277 .0423999
482.147 .0422530
483.015 .0421170
483.883 .0419940
484.749 .0418870
485.615 .0418002
486.479 .0417320
487.343 .0416852
488.206 .0416541
489.067 .0416366
489.928 .0416304
490.788 .0416397
491.647 .0416583
492.505 .0417003
493.362 .0417616
494.218 .0418350
495.073 .0419242
495.928 .0420416
496.781 .0421765
497.634 .0423357
498.486 .0425225
499.337 .0427329
500.187 .0429676
501.036 .0432282
501.884 .0435145
502.731 .0438326
503.578 .0441841
504.424 .0445612
505.268 .0449562
506.113 .0453793
506.956 .0458193
507.798 .0462887
508.640 .0468091
509.480 .0473905
510.320 .0480371
511.160 .0487788
511.998 .0496119
512.836 .0505610
513.672 .0516377
514.508 .0528263
515.344 .0541363
516.178 .0555751
517.012 .0571456
517.845 .0588797
518.677 .0608356
519.508 .0630523
520.339 .0655882
521.169 .0685345
521.998 .0718889
522.826 .0757105
523.654 .0800164
524.481 .0847848
525.307 .0900011
526.133 .0956618
526.958 .1016848
527.782 .1080007
528.605 .1145471
529.428 .1211712
530.250 .1274671
531.072 .1332468
531.892 .1381521
532.712 .1419580
533.532 .1444257
534.350 .1453819
535.168 .1446769
535.986 .1424473
536.802 .1388108
537.618 .1339661
538.434 .1281939
539.249 .1219095
540.063 .1153109
540.876 .1086761
541.689 .1022081
542.501 .0961248
543.313 .0905315
544.124 .0854971
544.934 .0809347
545.744 .0768339
546.553 .0731571
547.361 .0698818
548.169 .0669637
548.976 .0643508
549.783 .0620115
550.589 .0598819
551.395 .0579253
552.200 .0561362
553.004 .0545180
553.808 .0530388
554.611 .0516984
555.414 .0504925
556.216 .0493799
557.018 .0483738
557.819 .0474508
558.619 .0466007
559.419 .0458200
560.218 .0451011
561.017 .0444436
561.815 .0438270
562.613 .0432481
563.410 .0426849
564.207 .0421312
565.003 .0415884
565.799 .0410381
566.594 .0404805
567.388 .0399392
568.182 .0394165
568.976 .0389132
569.769 .0384332
570.562 .0379808
571.354 .0375521
572.145 .0371374
572.936 .0367334
573.727 .0363314
574.517 .0359331
575.307 .0355395
576.096 .0351515
576.885 .0347761
577.673 .0344220
578.461 .0340877
579.248 .0337768
580.035 .0334896
580.821 .0332229
581.607 .0329704
582.392 .0327322
583.177 .0325094
583.962 .0322993
584.746 .0321040
585.529 .0319282
586.313 .0317697
587.095 .0316309
587.878 .0315085
588.660 .0314006
589.441 .0313045
590.222 .0312182
591.003 .0311412
591.783 .0310713
592.563 .0310092
593.342 .0309537
594.121 .0309018
594.899 .0308549
595.678 .0308111
596.455 .0307683
597.233 .0307265
598.009 .0306848
598.786 .0306418
599.562 .0305989
600.338 .0305559
601.113 .0305145
601.888 .0304740
602.663 .0304358
603.437 .0303995
604.211 .0303634
604.984 .0303277
605.757 .0302916
606.530 .0302547
607.302 .0302179
608.074 .0301805
608.845 .0301428
609.616 .0301061
610.387 .0300708
611.158 .0300369
611.928 .0300047
612.697 .0299745
613.467 .0299458
614.236 .0299180
615.004 .0298912
615.773 .0298643
616.541 .0298377
617.308 .0298123
618.076 .0297870
618.843 .0297625
619.609 .0297395
620.375 .0297175
621.141 .0296971
621.907 .0296785
622.672 .0296611
623.437 .0296448
624.202 .0296295
624.966 .0296142
625.730 .0295986
626.493 .0295825
627.257 .0295654
628.020 .0295481
628.782 .0295305
629.545 .0295122
630.307 .0294929
631.068 .0294744
631.830 .0294562
632.591 .0294381
633.352 .0294209
634.112 .0294044
634.872 .0293888
635.632 .0293740
636.392 .0293590
637.151 .0293445
637.910 .0293304
638.668 .0293160
639.427 .0293014
640.185 .0292872
640.943 .0292735
641.700 .0292610
642.457 .0292499
643.214 .0292404
643.971 .0292315
644.727 .0292237
645.483 .0292164
646.239 .0292090
646.994 .0292011
647.750 .0291919
648.505 .0291817
649.259 .0291715
650.014 .0291610
650.768 .0291500
651.521 .0291397
652.275 .0291296
653.028 .0291203
653.781 .0291106
654.534 .0291008
655.286 .0290907
656.039 .0290802
656.791 .0290683
657.542 .0290539
658.294 .0290372
659.045 .0290185
659.796 .0289977
660.546 .0289756
661.297 .0289519
662.047 .0289275
662.796 .0289025
663.546 .0288779
664.295 .0288527
665.044 .0288282
665.793 .0288030
666.542 .0287775
667.290 .0287509
668.038 .0287230
668.786 .0286940
669.533 .0286648
670.281 .0286366
671.028 .0286093
671.774 .0285828
672.521 .0285585
673.267 .0285359
674.013 .0285151
674.759 .0284953
675.505 .0284767
676.250 .0284583
676.995 .0284400
677.740 .0284213
678.484 .0284024
679.229 .0283836
679.973 .0283652
680.717 .0283471
681.460 .0283294
682.204 .0283121
682.947 .0282948
683.690 .0282778
684.433 .0282612
685.175 .0282442
685.917 .0282264
686.659 .0282085
687.401 .0281906
688.142 .0281727
688.884 .0281547
689.625 .0281371
690.365 .0281198
691.106 .0281030
691.846 .0280862
692.586 .0280700
693.326 .0280538
694.066 .0280381
694.805 .0280222
695.545 .0280064
696.284 .0279905
697.022 .0279748
697.761 .0279601
698.499 .0279464
699.237 .0279335
699.975 .0279217
700.713 .0279109
701.450 .0279013
702.187 .0278921
702.924 .0278832
703.661 .0278744
704.397 .0278657
705.133 .0278571
705.869 .0278490
706.605 .0278413
707.341 .0278341
708.076 .0278277
708.811 .0278214
709.546 .0278146
710.281 .0278067
711.015 .0277980
711.749 .0277881
712.483 .0277771
713.217 .0277648
713.950 .0277519
714.684 .0277390
715.417 .0277264
716.150 .0277140
716.882 .0277024
717.615 .0276911
718.347 .0276800
719.079 .0276684
719.811 .0276567
720.542 .0276443
721.273 .0276309
722.005 .0276165
722.735 .0276014
723.466 .0275858
724.196 .0275694
724.927 .0275526
725.656 .0275357
726.386 .0275184
727.116 .0275009
727.845 .0274829
728.574 .0274643
729.303 .0274454
730.031 .0274260
730.760 .0274061
731.488 .0273860
732.216 .0273665
732.944 .0273475
733.671 .0273298
734.398 .0273137
735.125 .0272985
735.852 .0272839
736.579 .0272701
737.305 .0272560
738.031 .0272415
738.757 .0272262
739.483 .0272102
740.208 .0271930
740.933 .0271754
741.658 .0271570
742.383 .0271379
743.108 .0271188
743.832 .0270996
744.556 .0270800
745.280 .0270601
746.004 .0270395
746.727 .0270183
747.450 .0269966
748.173 .0269741
748.896 .0269509
749.618 .0269274
750.340 .0269035
751.062 .0268792
751.784 .0268552
752.506 .0268314
753.227 .0268082
753.948 .0267859
754.669 .0267646
755.389 .0267438
756.110 .0267239
756.830 .0267040
757.550 .0266846
758.269 .0266655
758.989 .0266465
759.708 .0266274
760.427 .0266085
761.146 .0265901
761.864 .0265715
762.582 .0265529
763.300 .0265343
764.018 .0265153
764.736 .0264967
765.453 .0264775
766.170 .0264584
766.887 .0264400
767.603 .0264228
768.320 .0264070
769.036 .0263925
769.751 .0263797
770.467 .0263683
771.182 .0263580
771.897 .0263489
772.612 .0263410
773.327 .0263347
774.041 .0263302
774.755 .0263276
775.469 .0263271
776.183 .0263284
776.896 .0263310
777.609 .0263343
778.322 .0263375
779.035 .0263401
779.747 .0263411
780.459 .0263406
781.171 .0263391
781.882 .0263366
782.594 .0263334
783.305 .0263301
784.016 .0263275
784.726 .0263255
785.436 .0263234
786.147 .0263217
786.856 .0263205
787.566 .0263194
788.275 .0263190
788.984 .0263194
789.693 .0263206
790.401 .0263232
791.110 .0263265
791.818 .0263303
792.525 .0263343
793.233 .0263385
793.940 .0263422
794.647 .0263454
795.353 .0263484
796.060 .0263503
796.766 .0263511
797.472 .0263510
798.177 .0263492
798.883 .0263457
799.588 .0263403
800.292 .0263332
800.997 .0263239
801.701 .0263137
802.405 .0263023
803.109 .0262906
803.812 .0262790
804.515 .0262676
805.218 .0262560
805.921 .0262443
806.623 .0262325
807.325 .0262206
808.027 .0262088
808.728 .0261971
809.429 .0261854
810.130 .0261741
810.831 .0261633
811.531 .0261526
812.231 .0261419
812.931 .0261313
813.630 .0261198
814.330 .0261071
815.029 .0260930
815.727 .0260772
816.426 .0260602
817.124 .0260418
817.821 .0260224
818.519 .0260022
819.216 .0259818
819.913 .0259613
820.609 .0259406
821.306 .0259200
822.002 .0258996
822.697 .0258792
823.393 .0258591
824.088 .0258390
824.783 .0258193
825.477 .0257999
826.171 .0257811
826.865 .0257627
827.559 .0257452
828.252 .0257284
828.945 .0257125
829.638 .0256973
830.330 .0256828
831.023 .0256687
831.714 .0256549
832.406 .0256413
833.097 .0256274
833.788 .0256128
834.479 .0255969
835.169 .0255795
835.859 .0255610
836.548 .0255409
837.238 .0255194
837.927 .0254972
838.615 .0254747
839.304 .0254521
839.992 .0254296
840.680 .0254076
841.367 .0253858
842.054 .0253641
842.741 .0253422
843.428 .0253196
844.114 .0252965
844.800 .0252729
845.485 .0252485
846.170 .0252239
846.855 .0251995
847.540 .0251750
848.224 .0251514
848.908 .0251295
849.592 .0251084
850.275 .0250886
850.958 .0250697
851.641 .0250515
852.323 .0250336
853.005 .0250158
853.687 .0249976
854.368 .0249789
855.049 .0249606
855.730 .0249425
856.410 .0249245
857.090 .0249083
857.769 .0248934
858.449 .0248799
859.128 .0248679
859.806 .0248568
860.485 .0248461
861.163 .0248363
861.840 .0248268
862.518 .0248176
863.195 .0248087
863.871 .0248004
864.548 .0247928
865.224 .0247866
865.899 .0247818
866.574 .0247774
867.249 .0247741
867.924 .0247719
868.598 .0247702
869.272 .0247693
869.946 .0247694
870.619 .0247703
871.292 .0247724
871.964 .0247750
872.636 .0247778
873.308 .0247809
873.979 .0247842
874.651 .0247869
875.321 .0247891
875.992 .0247909
876.662 .0247927
877.331 .0247947
878.001 .0247979
878.670 .0248021
879.338 .0248075
880.007 .0248140
880.675 .0248216
881.342 .0248297
882.009 .0248382
882.676 .0248465
883.343 .0248546
884.009 .0248628
884.675 .0248712
885.340 .0248794
886.005 .0248881
886.670 .0248974
887.334 .0249071
887.998 .0249167
888.662 .0249262
889.325 .0249350
889.988 .0249435
890.650 .0249514
891.312 .0249586
891.974 .0249653
892.636 .0249721
893.297 .0249791
893.957 .0249865
894.618 .0249940
895.278 .0250018
895.937 .0250094
896.596 .0250170
897.255 .0250241
897.914 .0250305
898.572 .0250364
899.230 .0250417
899.887 .0250464
900.544 .0250503
901.201 .0250535
901.857 .0250561
902.513 .0250578
903.168 .0250584
903.823 .0250575
904.478 .0250548
905.132 .0250507
905.786 .0250451
906.440 .0250381
907.093 .0250299
907.746 .0250207
908.399 .0250105
909.051 .0249992
909.703 .0249869
910.354 .0249735
911.005 .0249587
911.656 .0249431
912.306 .0249261
912.956 .0249081
913.605 .0248896
914.254 .0248708
914.903 .0248520
915.551 .0248332
916.199 .0248146
916.847 .0247961
917.494 .0247773
918.141 .0247585
918.788 .0247396
919.434 .0247212
920.079 .0247031
920.725 .0246850
921.370 .0246673
922.014 .0246497
922.658 .0246319
923.302 .0246136
923.946 .0245943
924.589 .0245739
925.231 .0245520
925.873 .0245289
926.515 .0245050
927.157 .0244806
927.798 .0244563
928.439 .0244320
929.079 .0244077
929.719 .0243833
930.359 .0243585
930.998 .0243330
931.637 .0243073
932.275 .0242811
932.913 .0242545
933.551 .0242277
934.188 .0242012
934.825 .0241747
935.462 .0241487
936.098 .0241228
936.733 .0240970
937.369 .0240709
938.004 .0240446
938.638 .0240177
939.273 .0239907
939.907 .0239634
940.540 .0239361
941.173 .0239089
941.806 .0238825
942.438 .0238567
943.070 .0238312
943.702 .0238062
944.333 .0237815
944.964 .0237566
945.594 .0237319
946.224 .0237071
946.854 .0236835
947.483 .0236606
948.112 .0236390
948.741 .0236183
949.369 .0235986
949.996 .0235800
950.624 .0235618
951.251 .0235435
951.878 .0235249
952.504 .0235055
953.130 .0234853
953.755 .0234646
954.380 .0234439
955.005 .0234233
955.629 .0234032
956.253 .0233838
956.877 .0233648
957.500 .0233458
958.123 .0233266
958.746 .0233067
959.368 .0232861
959.990 .0232647
960.611 .0232421
961.232 .0232190
961.853 .0231962
962.473 .0231741
963.093 .0231528
963.712 .0231321
964.331 .0231124
964.950 .0230933
965.569 .0230746
966.187 .0230564
966.804 .0230390
967.422 .0230229
968.039 .0230080
968.655 .0229945
969.272 .0229825
969.887 .0229719
970.503 .0229626
971.118 .0229541
971.733 .0229462
972.347 .0229386
972.961 .0229311
973.575 .0229238
974.188 .0229173
974.801 .0229112
975.414 .0229054
976.026 .0229004
976.638 .0228957
977.250 .0228914
977.861 .0228869
978.472 .0228826
979.083 .0228784
979.693 .0228738
980.303 .0228693
980.912 .0228647
981.521 .0228606
982.130 .0228569
982.738 .0228535
983.346 .0228508
983.954 .0228486
984.562 .0228472
985.169 .0228457
985.775 .0228448
986.382 .0228441
986.988 .0228434
987.594 .0228429
988.199 .0228423
988.804 .0228416
989.409 .0228409
990.013 .0228407
990.617 .0228407
991.221 .0228412
991.824 .0228429
992.427 .0228457
993.030 .0228507
993.632 .0228576
994.234 .0228666
994.836 .0228778
995.438 .0228912
996.039 .0229053
996.640 .0229206
997.240 .0229369
997.840 .0229537
998.440 .0229714
999.040 .0229900
999.639 .0230095
1000.238 .0230298
1000.836 .0230502
1001.435 .0230704
1002.033 .0230901
1002.630 .0231091
1003.228 .0231261
1003.825 .0231422
1004.422 .0231577
1005.018 .0231725
1005.614 .0231870
1006.210 .0232021
1006.806 .0232171
1007.401 .0232328
1007.996 .0232481
1008.591 .0232632
1009.186 .0232779
1009.780 .0232926
1010.374 .0233067
1010.967 .0233211
1011.561 .0233365
1012.154 .0233523
1012.746 .0233688
1013.339 .0233868
1013.931 .0234053
1014.523 .0234243
1015.115 .0234435
1015.706 .0234628
1016.298 .0234818
1016.888 .0235010
1017.479 .0235197
1018.069 .0235380
1018.660 .0235562
1019.250 .0235746
1019.839 .0235930
1020.429 .0236114
1021.018 .0236299
1021.607 .0236483
1022.195 .0236668
1022.784 .0236850
1023.372 .0237028
1023.960 .0237201
1024.547 .0237369
1025.135 .0237534
1025.722 .0237697
1026.309 .0237857
1026.896 .0238026
1027.483 .0238199
1028.069 .0238376
1028.655 .0238555
1029.241 .0238728
1029.827 .0238891
1030.412 .0239048
1030.997 .0239192
1031.582 .0239320
1032.167 .0239433
1032.752 .0239538
1033.336 .0239630
1033.921 .0239715
1034.505 .0239788
1035.089 .0239855
1035.672 .0239912
1036.256 .0239962
1036.839 .0239999
1037.422 .0240029
1038.005 .0240057
1038.588 .0240086
1039.171 .0240119
1039.753 .0240158
1040.335 .0240205
1040.918 .0240266
1041.500 .0240327
1042.081 .0240392
1042.663 .0240444
1043.244 .0240488
1043.826 .0240510
1044.407 .0240510
1044.988 .0240490
1045.569 .0240447
1046.150 .0240384
1046.730 .0240310
1047.311 .0240224
1047.891 .0240138
1048.471 .0240048
1049.052 .0239960
1049.632 .0239868
1050.211 .0239782
1050.791 .0239690
1051.371 .0239600
1051.950 .0239516
1052.530 .0239449
1053.109 .0239390
1053.688 .0239342
1054.268 .0239311
1054.847 .0239288
1055.426 .0239277
1056.005 .0239270
1056.583 .0239250
1057.162 .0239225
1057.741 .0239179
1058.319 .0239124
1058.898 .0239048
1059.476 .0238962
1060.055 .0238863
1060.633 .0238757
1061.211 .0238650
1061.790 .0238539
1062.368 .0238435
1062.946 .0238347
1063.524 .0238285
1064.102 .0238249
1064.680 .0238230
1065.258 .0238231
1065.836 .0238244
1066.414 .0238273
1066.992 .0238296
1067.570 .0238320
1068.148 .0238333
1068.726 .0238342
1069.304 .0238356
1069.882 .0238362
1070.460 .0238368
1071.038 .0238370
1071.616 .0238363
1072.194 .0238335
1072.772 .0238269
1073.350 .0238170
1073.928 .0238031
1074.506 .0237853
1075.084 .0237640
1075.662 .0237390
1076.240 .0237134
1076.819 .0236875
1077.397 .0236628
1077.976 .0236395
1078.554 .0236179
1079.133 .0235980
1079.711 .0235805
1080.290 .0235647
1080.869 .0235506
1081.448 .0235377
1082.027 .0235252
1082.606 .0235145
1083.185 .0235055
1083.764 .0234980
1084.343 .0234932
1084.923 .0234902
1085.502 .0234897
1086.082 .0234895
1086.662 .0234909
1087.242 .0234911
1087.822 .0234907
1088.402 .0234900
1088.983 .0234881
1089.563 .0234843
1090.144 .0234795
1090.725 .0234735
1091.306 .0234679
1091.887 .0234616
1092.469 .0234548
1093.050 .0234481
1093.632 .0234435
1094.214 .0234389
1094.796 .0234362
1095.379 .0234350
1095.961 .0234371
1096.544 .0234405
1097.127 .0234455
1097.710 .0234506
1098.294 .0234580
1098.877 .0234655
1099.461 .0234730
1100.046 .0234799
1100.630 .0234863
1101.215 .0234907
1101.800 .0234959
1102.385 .0234999
1102.970 .0235018
1103.556 .0235013
1104.142 .0235012
1104.728 .0235006
1105.315 .0235008
1105.902 .0235008
1106.489 .0235022
1107.077 .0235066
1107.664 .0235130
1108.253 .0235190
1108.841 .0235271
1109.430 .0235383
1110.019 .0235493
1110.609 .0235618
1111.198 .0235751
1111.789 .0235910
1112.379 .0236120
1112.970 .0236376
1113.561 .0236691
1114.153 .0237067
1114.745 .0237499
1115.338 .0237985
1115.931 .0238497
1116.524 .0239039
1117.117 .0239581
1117.712 .0240144
1118.306 .0240715
1118.901 .0241291
1119.496 .0241851
1120.092 .0242409
1120.689 .0242963
1121.285 .0243496
1121.882 .0243963
1122.480 .0244364
1123.078 .0244703
1123.677 .0244969
1124.276 .0245161
1124.875 .0245315
1125.476 .0245440
1126.076 .0245607
1126.677 .0245803
1127.279 .0246035
1127.881 .0246303
1128.484 .0246592
1129.087 .0246875
1129.691 .0247175
1130.295 .0247488
1130.900 .0247808
1131.505 .0248154
1132.111 .0248593
1132.718 .0249111
1133.325 .0249727
1133.933 .0250445
1134.541 .0251261
1135.150 .0252126
1135.760 .0253046
1136.370 .0253932
1136.981 .0254832
1137.592 .0255719
1138.204 .0256621
1138.817 .0257474
1139.431 .0258413
1140.045 .0259395
1140.660 .0260464
1141.275 .0261587
1141.891 .0262786
1142.508 .0265025
1143.126 .0265398
1143.744 .0266934
1144.363 .0267719
1144.983 .0268695
