Measurement Sequence started on: 15-12-46-377
Integration time: 28
Scans to Average: 2 
>>>>>Begin Spectral Data<<<<<
432.689 .0000100
433.621 .0000100
434.552 .0000100
435.482 .0000100
436.410 .0000100
437.337 .0000100
438.262 .0260074
439.187 .0551332
440.110 .0912786
441.031 .1320007
441.952 .1715246
442.871 .2025779
443.789 .2195353
444.705 .2204729
445.621 .2078192
446.535 .1867623
447.447 .1629750
448.359 .1265799
449.269 .1086147
450.178 .0973556
451.086 .0894425
451.993 .0833730
452.898 .0785916
453.803 .0746930
454.706 .0714836
455.608 .0687709
456.508 .0664723
457.408 .0644924
458.306 .0627671
459.204 .0612319
460.100 .0598652
460.995 .0586337
461.888 .0575284
462.781 .0565131
463.673 .0555716
464.563 .0547049
465.452 .0538909
466.340 .0531261
467.228 .0524268
468.114 .0517712
468.999 .0511721
469.882 .0506180
470.765 .0501100
471.647 .0496391
472.528 .0492094
473.407 .0488179
474.286 .0484643
475.163 .0481498
476.040 .0478756
476.915 .0476348
477.790 .0474256
478.663 .0472432
479.535 .0470812
480.407 .0469442
481.277 .0468214
482.147 .0467102
483.015 .0466210
483.883 .0465526
484.749 .0465084
485.615 .0464879
486.479 .0464900
487.343 .0465132
488.206 .0465481
489.067 .0465874
489.928 .0466260
490.788 .0466699
491.647 .0467209
492.505 .0467817
493.362 .0468662
494.218 .0469773
495.073 .0471058
495.928 .0472671
496.781 .0474457
497.634 .0476390
498.486 .0478452
499.337 .0480653
500.187 .0482996
501.036 .0485562
501.884 .0488445
502.731 .0491683
503.578 .0495345
504.424 .0499448
505.268 .0503756
506.113 .0508345
506.956 .0513180
507.798 .0518182
508.640 .0523403
509.480 .0529054
510.320 .0535316
511.160 .0542434
511.998 .0550566
512.836 .0559911
513.672 .0570423
514.508 .0582203
515.344 .0595250
516.178 .0609490
517.012 .0625088
517.845 .0642360
518.677 .0661859
519.508 .0683998
520.339 .0709552
521.169 .0739127
521.998 .0772965
522.826 .0811878
523.654 .0856227
524.481 .0905518
525.307 .0960787
526.133 .1021651
526.958 .1087636
527.782 .1158450
528.605 .1232738
529.428 .1308759
530.250 .1381776
531.072 .1449688
531.892 .1507913
532.712 .1553309
533.532 .1584242
534.350 .1597370
535.168 .1592301
535.986 .1569828
536.802 .1530739
537.618 .1477859
538.434 .1414012
539.249 .1343755
540.063 .1268930
540.876 .1193517
541.689 .1119976
542.501 .1050306
543.313 .0986390
544.124 .0928663
544.934 .0876537
545.744 .0829972
546.553 .0788178
547.361 .0750824
548.169 .0717704
548.976 .0688273
549.783 .0662130
550.589 .0638888
551.395 .0618038
552.200 .0599303
553.004 .0582320
553.808 .0566905
554.611 .0552825
555.414 .0540096
556.216 .0528458
557.018 .0517955
557.819 .0508503
558.619 .0499961
559.419 .0492203
560.218 .0485104
561.017 .0478532
561.815 .0472171
562.613 .0465878
563.410 .0459558
564.207 .0453243
565.003 .0447039
565.799 .0441034
566.594 .0435193
567.388 .0429677
568.182 .0424437
568.976 .0419436
569.769 .0414610
570.562 .0409952
571.354 .0405365
572.145 .0400844
572.936 .0396321
573.727 .0391806
574.517 .0387324
575.307 .0383035
576.096 .0378924
576.885 .0375075
577.673 .0371477
578.461 .0368152
579.248 .0365011
580.035 .0362077
580.821 .0359260
581.607 .0356548
582.392 .0353913
583.177 .0351354
583.962 .0348907
584.746 .0346609
585.529 .0344476
586.313 .0342539
587.095 .0340794
587.878 .0339232
588.660 .0337816
589.441 .0336555
590.222 .0335405
591.003 .0334389
591.783 .0333477
592.563 .0332657
593.342 .0331914
594.121 .0331238
594.899 .0330615
595.678 .0330016
596.455 .0329458
597.233 .0328925
598.009 .0328409
598.786 .0327926
599.562 .0327451
600.338 .0326996
601.113 .0326553
601.888 .0326126
602.663 .0325702
603.437 .0325284
604.211 .0324862
604.984 .0324436
605.757 .0324014
606.530 .0323589
607.302 .0323169
608.074 .0322760
608.845 .0322367
609.616 .0321987
610.387 .0321619
611.158 .0321264
611.928 .0320918
612.697 .0320595
613.467 .0320280
614.236 .0319978
615.004 .0319689
615.773 .0319411
616.541 .0319148
617.308 .0318900
618.076 .0318662
618.843 .0318433
619.609 .0318218
620.375 .0318011
621.141 .0317803
621.907 .0317595
622.672 .0317377
623.437 .0317155
624.202 .0316931
624.966 .0316701
625.730 .0316473
626.493 .0316250
627.257 .0316038
628.020 .0315825
628.782 .0315608
629.545 .0315380
630.307 .0315139
631.068 .0314882
631.830 .0314599
632.591 .0314294
633.352 .0313970
634.112 .0313630
634.872 .0313290
635.632 .0312951
636.392 .0312619
637.151 .0312294
637.910 .0311978
638.668 .0311662
639.427 .0311350
640.185 .0311030
640.943 .0310710
641.700 .0310388
642.457 .0310064
643.214 .0309736
643.971 .0309409
644.727 .0309103
645.483 .0308813
646.239 .0308540
646.994 .0308294
647.750 .0308064
648.505 .0307852
649.259 .0307646
650.014 .0307447
650.768 .0307247
651.521 .0307045
652.275 .0306838
653.028 .0306630
653.781 .0306427
654.534 .0306231
655.286 .0306037
656.039 .0305848
656.791 .0305658
657.542 .0305452
658.294 .0305236
659.045 .0305008
659.796 .0304762
660.546 .0304505
661.297 .0304233
662.047 .0303955
662.796 .0303670
663.546 .0303381
664.295 .0303087
665.044 .0302791
665.793 .0302494
666.542 .0302196
667.290 .0301899
668.038 .0301614
668.786 .0301341
669.533 .0301082
670.281 .0300841
671.028 .0300610
671.774 .0300391
672.521 .0300185
673.267 .0299992
674.013 .0299818
674.759 .0299656
675.505 .0299511
676.250 .0299375
676.995 .0299247
677.740 .0299120
678.484 .0298984
679.229 .0298837
679.973 .0298674
680.717 .0298492
681.460 .0298290
682.204 .0298076
682.947 .0297857
683.690 .0297639
684.433 .0297423
685.175 .0297210
685.917 .0296999
686.659 .0296788
687.401 .0296570
688.142 .0296350
688.884 .0296126
689.625 .0295900
690.365 .0295671
691.106 .0295440
691.846 .0295215
692.586 .0295000
693.326 .0294796
694.066 .0294606
694.805 .0294424
695.545 .0294246
696.284 .0294067
697.022 .0293889
697.761 .0293711
698.499 .0293531
699.237 .0293351
699.975 .0293171
700.713 .0292986
701.450 .0292804
702.187 .0292628
702.924 .0292455
703.661 .0292288
704.397 .0292118
705.133 .0291946
705.869 .0291773
706.605 .0291602
707.341 .0291430
708.076 .0291262
708.811 .0291100
709.546 .0290940
710.281 .0290782
711.015 .0290630
711.749 .0290476
712.483 .0290326
713.217 .0290176
713.950 .0290023
714.684 .0289862
715.417 .0289704
716.150 .0289544
716.882 .0289389
717.615 .0289234
718.347 .0289081
719.079 .0288924
719.811 .0288770
720.542 .0288613
721.273 .0288450
722.005 .0288287
722.735 .0288119
723.466 .0287945
724.196 .0287768
724.927 .0287584
725.656 .0287395
726.386 .0287201
727.116 .0287009
727.845 .0286813
728.574 .0286619
729.303 .0286431
730.031 .0286253
730.760 .0286089
731.488 .0285935
732.216 .0285793
732.944 .0285661
733.671 .0285540
734.398 .0285422
735.125 .0285302
735.852 .0285187
736.579 .0285071
737.305 .0284957
738.031 .0284848
738.757 .0284746
739.483 .0284648
740.208 .0284551
740.933 .0284457
741.658 .0284362
742.383 .0284263
743.108 .0284160
743.832 .0284048
744.556 .0283932
745.280 .0283815
746.004 .0283690
746.727 .0283566
747.450 .0283447
748.173 .0283323
748.896 .0283200
749.618 .0283079
750.340 .0282960
751.062 .0282844
751.784 .0282740
752.506 .0282644
753.227 .0282555
753.948 .0282473
754.669 .0282390
755.389 .0282304
756.110 .0282215
756.830 .0282116
757.550 .0282006
758.269 .0281888
758.989 .0281758
759.708 .0281616
760.427 .0281464
761.146 .0281304
761.864 .0281136
762.582 .0280963
763.300 .0280778
764.018 .0280587
764.736 .0280391
765.453 .0280199
766.170 .0280010
766.887 .0279828
767.603 .0279653
768.320 .0279487
769.036 .0279325
769.751 .0279172
770.467 .0279022
771.182 .0278881
771.897 .0278742
772.612 .0278608
773.327 .0278479
774.041 .0278355
774.755 .0278235
775.469 .0278126
776.183 .0278021
776.896 .0277921
777.609 .0277821
778.322 .0277720
779.035 .0277613
779.747 .0277505
780.459 .0277396
781.171 .0277284
781.882 .0277171
782.594 .0277064
783.305 .0276961
784.016 .0276873
784.726 .0276800
785.436 .0276735
786.147 .0276681
786.856 .0276633
787.566 .0276582
788.275 .0276528
788.984 .0276472
789.693 .0276416
790.401 .0276359
791.110 .0276302
791.818 .0276243
792.525 .0276180
793.233 .0276119
793.940 .0276051
794.647 .0275975
795.353 .0275891
796.060 .0275793
796.766 .0275685
797.472 .0275566
798.177 .0275433
798.883 .0275292
799.588 .0275145
800.292 .0274990
800.997 .0274828
801.701 .0274662
802.405 .0274497
803.109 .0274333
803.812 .0274176
804.515 .0274023
805.218 .0273871
805.921 .0273721
806.623 .0273571
807.325 .0273420
808.027 .0273272
808.728 .0273124
809.429 .0272977
810.130 .0272831
810.831 .0272689
811.531 .0272546
812.231 .0272402
812.931 .0272257
813.630 .0272104
814.330 .0271939
815.029 .0271766
815.727 .0271582
816.426 .0271390
817.124 .0271195
817.821 .0270999
818.519 .0270805
819.216 .0270617
819.913 .0270435
820.609 .0270258
821.306 .0270090
822.002 .0269936
822.697 .0269789
823.393 .0269654
824.088 .0269530
824.783 .0269413
825.477 .0269304
826.171 .0269198
826.865 .0269101
827.559 .0269008
828.252 .0268928
828.945 .0268857
829.638 .0268799
830.330 .0268755
831.023 .0268718
831.714 .0268685
832.406 .0268656
833.097 .0268620
833.788 .0268572
834.479 .0268510
835.169 .0268441
835.859 .0268365
836.548 .0268289
837.238 .0268211
837.927 .0268139
838.615 .0268073
839.304 .0268014
839.992 .0267951
840.680 .0267891
841.367 .0267827
842.054 .0267760
842.741 .0267688
843.428 .0267613
844.114 .0267537
844.800 .0267465
845.485 .0267396
846.170 .0267327
846.855 .0267261
847.540 .0267195
848.224 .0267125
848.908 .0267055
849.592 .0266983
850.275 .0266904
850.958 .0266825
851.641 .0266744
852.323 .0266660
853.005 .0266573
853.687 .0266478
854.368 .0266372
855.049 .0266260
855.730 .0266138
856.410 .0266007
857.090 .0265870
857.769 .0265735
858.449 .0265596
859.128 .0265457
859.806 .0265316
860.485 .0265171
861.163 .0265021
861.840 .0264866
862.518 .0264699
863.195 .0264530
863.871 .0264358
864.548 .0264188
865.224 .0264025
865.899 .0263877
866.574 .0263742
867.249 .0263621
867.924 .0263515
868.598 .0263421
869.272 .0263336
869.946 .0263261
870.619 .0263188
871.292 .0263123
871.964 .0263061
872.636 .0263001
873.308 .0262945
873.979 .0262893
874.651 .0262840
875.321 .0262787
875.992 .0262732
876.662 .0262672
877.331 .0262608
878.001 .0262541
878.670 .0262470
879.338 .0262396
880.007 .0262326
880.675 .0262256
881.342 .0262189
882.009 .0262130
882.676 .0262076
883.343 .0262030
884.009 .0261991
884.675 .0261956
885.340 .0261924
886.005 .0261892
886.670 .0261862
887.334 .0261833
887.998 .0261810
888.662 .0261796
889.325 .0261790
889.988 .0261797
890.650 .0261813
891.312 .0261838
891.974 .0261871
892.636 .0261904
893.297 .0261941
893.957 .0261977
894.618 .0262011
895.278 .0262043
895.937 .0262077
896.596 .0262112
897.255 .0262149
897.914 .0262184
898.572 .0262218
899.230 .0262244
899.887 .0262261
900.544 .0262263
901.201 .0262249
901.857 .0262223
902.513 .0262181
903.168 .0262123
903.823 .0262056
904.478 .0261976
905.132 .0261886
905.786 .0261788
906.440 .0261682
907.093 .0261568
907.746 .0261441
908.399 .0261304
909.051 .0261159
909.703 .0261008
910.354 .0260852
911.005 .0260692
911.656 .0260533
912.306 .0260374
912.956 .0260214
913.605 .0260058
914.254 .0259905
914.903 .0259758
915.551 .0259616
916.199 .0259481
916.847 .0259352
917.494 .0259229
918.141 .0259112
918.788 .0259005
919.434 .0258903
920.079 .0258804
920.725 .0258704
921.370 .0258607
922.014 .0258509
922.658 .0258407
923.302 .0258302
923.946 .0258191
924.589 .0258069
925.231 .0257932
925.873 .0257778
926.515 .0257604
927.157 .0257412
927.798 .0257205
928.439 .0256984
929.079 .0256757
929.719 .0256528
930.359 .0256301
930.998 .0256082
931.637 .0255873
932.275 .0255668
932.913 .0255466
933.551 .0255268
934.188 .0255070
934.825 .0254872
935.462 .0254679
936.098 .0254496
936.733 .0254328
937.369 .0254177
938.004 .0254046
938.638 .0253930
939.273 .0253831
939.907 .0253741
940.540 .0253655
941.173 .0253568
941.806 .0253477
942.438 .0253383
943.070 .0253287
943.702 .0253194
944.333 .0253105
944.964 .0253023
945.594 .0252951
946.224 .0252887
946.854 .0252833
947.483 .0252784
948.112 .0252740
948.741 .0252692
949.369 .0252645
949.996 .0252592
950.624 .0252535
951.251 .0252474
951.878 .0252410
952.504 .0252343
953.130 .0252272
953.755 .0252195
954.380 .0252111
955.005 .0252021
955.629 .0251926
956.253 .0251820
956.877 .0251712
957.500 .0251601
958.123 .0251492
958.746 .0251379
959.368 .0251264
959.990 .0251147
960.611 .0251025
961.232 .0250902
961.853 .0250775
962.473 .0250649
963.093 .0250531
963.712 .0250416
964.331 .0250310
964.950 .0250213
965.569 .0250125
966.187 .0250042
966.804 .0249962
967.422 .0249886
968.039 .0249809
968.655 .0249730
969.272 .0249655
969.887 .0249584
970.503 .0249514
971.118 .0249447
971.733 .0249381
972.347 .0249318
972.961 .0249257
973.575 .0249193
974.188 .0249124
974.801 .0249046
975.414 .0248959
976.026 .0248855
976.638 .0248733
977.250 .0248598
977.861 .0248441
978.472 .0248268
979.083 .0248081
979.693 .0247879
980.303 .0247669
980.912 .0247455
981.521 .0247239
982.130 .0247022
982.738 .0246806
983.346 .0246590
983.954 .0246378
984.562 .0246176
985.169 .0245984
985.775 .0245798
986.382 .0245623
986.988 .0245458
987.594 .0245300
988.199 .0245151
988.804 .0245012
989.409 .0244886
990.013 .0244772
990.617 .0244674
991.221 .0244589
991.824 .0244518
992.427 .0244467
993.030 .0244425
993.632 .0244391
994.234 .0244361
994.836 .0244328
995.438 .0244287
996.039 .0244242
996.640 .0244194
997.240 .0244139
997.840 .0244094
998.440 .0244054
999.040 .0244022
999.639 .0243996
1000.238 .0243972
1000.836 .0243946
1001.435 .0243915
1002.033 .0243871
1002.630 .0243811
1003.228 .0243744
1003.825 .0243675
1004.422 .0243609
1005.018 .0243553
1005.614 .0243515
1006.210 .0243497
1006.806 .0243495
1007.401 .0243506
1007.996 .0243515
1008.591 .0243527
1009.186 .0243530
1009.780 .0243526
1010.374 .0243516
1010.967 .0243500
1011.561 .0243483
1012.154 .0243463
1012.746 .0243444
1013.339 .0243419
1013.931 .0243387
1014.523 .0243347
1015.115 .0243294
1015.706 .0243232
1016.298 .0243164
1016.888 .0243096
1017.479 .0243046
1018.069 .0243011
1018.660 .0242983
1019.250 .0242967
1019.839 .0242952
1020.429 .0242933
1021.018 .0242908
1021.607 .0242879
1022.195 .0242855
1022.784 .0242838
1023.372 .0242837
1023.960 .0242856
1024.547 .0242897
1025.135 .0242966
1025.722 .0243042
1026.309 .0243124
1026.896 .0243204
1027.483 .0243274
1028.069 .0243339
1028.655 .0243410
1029.241 .0243487
1029.827 .0243577
1030.412 .0243683
1030.997 .0243810
1031.582 .0243943
1032.167 .0244079
1032.752 .0244217
1033.336 .0244350
1033.921 .0244471
1034.505 .0244576
1035.089 .0244656
1035.672 .0244726
1036.256 .0244779
1036.839 .0244814
1037.422 .0244835
1038.005 .0244843
1038.588 .0244844
1039.171 .0244832
1039.753 .0244812
1040.335 .0244788
1040.918 .0244760
1041.500 .0244735
1042.081 .0244715
1042.663 .0244698
1043.244 .0244694
1043.826 .0244708
1044.407 .0244731
1044.988 .0244767
1045.569 .0244810
1046.150 .0244854
1046.730 .0244892
1047.311 .0244924
1047.891 .0244951
1048.471 .0244958
1049.052 .0244967
1049.632 .0244973
1050.211 .0244981
1050.791 .0244995
1051.371 .0245004
1051.950 .0245014
1052.530 .0245010
1053.109 .0244989
1053.688 .0244938
1054.268 .0244882
1054.847 .0244822
1055.426 .0244759
1056.005 .0244718
1056.583 .0244712
1057.162 .0244735
1057.741 .0244796
1058.319 .0244887
1058.898 .0244996
1059.476 .0245116
1060.055 .0245226
1060.633 .0245314
1061.211 .0245405
1061.790 .0245479
1062.368 .0245546
1062.946 .0245602
1063.524 .0245666
1064.102 .0245713
1064.680 .0245760
1065.258 .0245808
1065.836 .0245838
1066.414 .0245867
1066.992 .0245887
1067.570 .0245883
1068.148 .0245866
1068.726 .0245839
1069.304 .0245808
1069.882 .0245774
1070.460 .0245736
1071.038 .0245685
1071.616 .0245647
1072.194 .0245628
1072.772 .0245625
1073.350 .0245642
1073.928 .0245681
1074.506 .0245736
1075.084 .0245786
1075.662 .0245845
1076.240 .0245898
1076.819 .0245953
1077.397 .0246023
1077.976 .0246102
1078.554 .0246191
1079.133 .0246290
1079.711 .0246403
1080.290 .0246537
1080.869 .0246671
1081.448 .0246799
1082.027 .0246913
1082.606 .0247034
1083.185 .0247160
1083.764 .0247296
1084.343 .0247437
1084.923 .0247599
1085.502 .0247770
1086.082 .0247941
1086.662 .0248115
1087.242 .0248284
1087.822 .0248463
1088.402 .0248654
1088.983 .0248856
1089.563 .0249067
1090.144 .0249284
1090.725 .0249521
1091.306 .0249745
1091.887 .0249951
1092.469 .0250117
1093.050 .0250239
1093.632 .0250324
1094.214 .0250374
1094.796 .0250394
1095.379 .0250398
1095.961 .0250411
1096.544 .0250417
1097.127 .0250430
1097.710 .0250461
1098.294 .0250498
1098.877 .0250547
1099.461 .0250622
1100.046 .0250727
1100.630 .0250868
1101.215 .0251067
1101.800 .0251324
1102.385 .0251618
1102.970 .0251957
1103.556 .0252314
1104.142 .0252673
1104.728 .0253041
1105.315 .0253410
1105.902 .0253741
1106.489 .0254083
1107.077 .0254408
1107.664 .0254698
1108.253 .0254970
1108.841 .0255221
1109.430 .0255423
1110.019 .0255560
1110.609 .0255637
1111.198 .0255644
1111.789 .0255608
1112.379 .0255569
1112.970 .0255501
1113.561 .0255479
1114.153 .0255521
1114.745 .0255612
1115.338 .0255788
1115.931 .0256043
1116.524 .0256350
1117.117 .0256729
1117.712 .0257151
1118.306 .0257595
1118.901 .0258079
1119.496 .0258586
1120.092 .0259137
1120.689 .0259703
1121.285 .0260279
1121.882 .0260828
1122.480 .0261382
1123.078 .0261966
1123.677 .0262520
1124.276 .0263101
1124.875 .0263726
1125.476 .0264345
1126.076 .0265021
1126.677 .0265694
1127.279 .0266384
1127.881 .0267106
1128.484 .0267871
1129.087 .0268652
1129.691 .0269496
1130.295 .0270428
1130.900 .0271479
1131.505 .0272649
1132.111 .0273959
1132.718 .0275319
1133.325 .0276728
1133.933 .0278155
1134.541 .0279533
1135.150 .0280837
1135.760 .0282073
1136.370 .0283227
1136.981 .0284328
1137.592 .0285317
1138.204 .0286256
1138.817 .0287149
1139.431 .0287939
1140.045 .0288633
1140.660 .0289207
1141.275 .0289704
1141.891 .0290287
1142.508 .0289789
1143.126 .0290497
1143.744 .0290745
1144.363 .0291893
1144.983 .0296697
