Measurement Sequence started on: 15-12-46-377
Integration time: 28
Scans to Average: 2 
>>>>>Begin Spectral Data<<<<<
432.689 .0000100
433.621 .0000100
434.552 .0000100
435.482 .0000100
436.410 .0000100
437.337 .0000100
438.262 .0267614
439.187 .0567622
440.110 .0940768
441.031 .1361890
441.952 .1771112
442.871 .2093916
443.789 .2271435
444.705 .2283390
445.621 .2154556
446.535 .1938204
447.447 .1692907
448.359 .1317213
449.269 .1130940
450.178 .1013783
451.086 .0931587
451.993 .0869144
452.898 .0819901
453.803 .0779875
454.706 .0746505
455.608 .0717428
456.508 .0691844
457.408 .0669226
458.306 .0649072
459.204 .0630938
460.100 .0614658
460.995 .0600167
461.888 .0587321
462.781 .0575654
463.673 .0565080
464.563 .0555408
465.452 .0546350
466.340 .0537820
467.228 .0529802
468.114 .0522348
468.999 .0515433
469.882 .0509128
470.765 .0503476
471.647 .0498405
472.528 .0493924
473.407 .0489921
474.286 .0486373
475.163 .0483250
476.040 .0480419
476.915 .0477793
477.790 .0475361
478.663 .0473129
479.535 .0471048
480.407 .0469150
481.277 .0467397
482.147 .0465822
483.015 .0464407
483.883 .0463172
484.749 .0462083
485.615 .0461188
486.479 .0460481
487.343 .0460008
488.206 .0459746
489.067 .0459721
489.928 .0459921
490.788 .0460337
491.647 .0460871
492.505 .0461553
493.362 .0462308
494.218 .0463158
495.073 .0464143
495.928 .0465379
496.781 .0466859
497.634 .0468752
498.486 .0471041
499.337 .0473643
500.187 .0476573
501.036 .0479762
501.884 .0483072
502.731 .0486545
503.578 .0490187
504.424 .0494056
505.268 .0498190
506.113 .0502820
506.956 .0507948
507.798 .0513792
508.640 .0520425
509.480 .0527821
510.320 .0535968
511.160 .0545009
511.998 .0554831
512.836 .0565427
513.672 .0577142
514.508 .0589923
515.344 .0603954
516.178 .0619686
517.012 .0637363
517.845 .0657507
518.677 .0680247
519.508 .0705821
520.339 .0734627
521.169 .0767026
521.998 .0803170
522.826 .0843316
523.654 .0888118
524.481 .0937924
525.307 .0993050
526.133 .1053288
526.958 .1118712
527.782 .1188166
528.605 .1260186
529.428 .1333131
530.250 .1401103
531.072 .1461540
531.892 .1510459
532.712 .1545418
533.532 .1564911
534.350 .1566869
535.168 .1551516
535.986 .1519597
536.802 .1473633
537.618 .1415799
538.434 .1348344
539.249 .1276276
540.063 .1201297
540.876 .1126618
541.689 .1054390
542.501 .0986828
543.313 .0925991
544.124 .0872141
544.934 .0824612
545.744 .0782361
546.553 .0744976
547.361 .0711943
548.169 .0683201
548.976 .0657663
549.783 .0635155
550.589 .0615279
551.395 .0597380
552.200 .0581323
553.004 .0566608
553.808 .0553037
554.611 .0540692
555.414 .0529293
556.216 .0518915
557.018 .0509507
557.819 .0501170
558.619 .0493652
559.419 .0486911
560.218 .0480794
561.017 .0474994
561.815 .0469215
562.613 .0463501
563.410 .0457704
564.207 .0451893
565.003 .0446195
565.799 .0440595
566.594 .0435194
567.388 .0430112
568.182 .0425222
568.976 .0420489
569.769 .0415905
570.562 .0411358
571.354 .0406691
572.145 .0402007
572.936 .0397245
573.727 .0392406
574.517 .0387639
575.307 .0382988
576.096 .0378529
576.885 .0374358
577.673 .0370497
578.461 .0366915
579.248 .0363630
580.035 .0360607
580.821 .0357751
581.607 .0355028
582.392 .0352448
583.177 .0349928
583.962 .0347546
584.746 .0345327
585.529 .0343283
586.313 .0341429
587.095 .0339777
587.878 .0338328
588.660 .0337079
589.441 .0335985
590.222 .0335011
591.003 .0334105
591.783 .0333273
592.563 .0332469
593.342 .0331702
594.121 .0330953
594.899 .0330254
595.678 .0329599
596.455 .0328986
597.233 .0328415
598.009 .0327881
598.786 .0327382
599.562 .0326915
600.338 .0326471
601.113 .0326034
601.888 .0325590
602.663 .0325147
603.437 .0324684
604.211 .0324206
604.984 .0323713
605.757 .0323208
606.530 .0322700
607.302 .0322201
608.074 .0321716
608.845 .0321247
609.616 .0320813
610.387 .0320409
611.158 .0320036
611.928 .0319682
612.697 .0319343
613.467 .0319015
614.236 .0318698
615.004 .0318390
615.773 .0318091
616.541 .0317810
617.308 .0317549
618.076 .0317303
618.843 .0317074
619.609 .0316861
620.375 .0316656
621.141 .0316451
621.907 .0316244
622.672 .0316025
623.437 .0315799
624.202 .0315561
624.966 .0315317
625.730 .0315068
626.493 .0314814
627.257 .0314557
628.020 .0314299
628.782 .0314039
629.545 .0313776
630.307 .0313514
631.068 .0313260
631.830 .0313006
632.591 .0312747
633.352 .0312488
634.112 .0312231
634.872 .0311975
635.632 .0311717
636.392 .0311448
637.151 .0311181
637.910 .0310905
638.668 .0310618
639.427 .0310317
640.185 .0310001
640.943 .0309677
641.700 .0309342
642.457 .0308998
643.214 .0308651
643.971 .0308303
644.727 .0307969
645.483 .0307647
646.239 .0307336
646.994 .0307036
647.750 .0306753
648.505 .0306486
649.259 .0306237
650.014 .0305999
650.768 .0305775
651.521 .0305568
652.275 .0305373
653.028 .0305187
653.781 .0304998
654.534 .0304810
655.286 .0304623
656.039 .0304435
656.791 .0304245
657.542 .0304045
658.294 .0303845
659.045 .0303650
659.796 .0303454
660.546 .0303256
661.297 .0303052
662.047 .0302848
662.796 .0302639
663.546 .0302419
664.295 .0302195
665.044 .0301971
665.793 .0301749
666.542 .0301533
667.290 .0301325
668.038 .0301123
668.786 .0300926
669.533 .0300736
670.281 .0300550
671.028 .0300370
671.774 .0300191
672.521 .0300018
673.267 .0299852
674.013 .0299690
674.759 .0299528
675.505 .0299370
676.250 .0299217
676.995 .0299065
677.740 .0298914
678.484 .0298761
679.229 .0298606
679.973 .0298447
680.717 .0298285
681.460 .0298119
682.204 .0297948
682.947 .0297774
683.690 .0297592
684.433 .0297408
685.175 .0297221
685.917 .0297030
686.659 .0296842
687.401 .0296653
688.142 .0296463
688.884 .0296269
689.625 .0296071
690.365 .0295873
691.106 .0295671
691.846 .0295469
692.586 .0295266
693.326 .0295068
694.066 .0294874
694.805 .0294686
695.545 .0294508
696.284 .0294335
697.022 .0294161
697.761 .0293984
698.499 .0293802
699.237 .0293619
699.975 .0293431
700.713 .0293245
701.450 .0293064
702.187 .0292892
702.924 .0292725
703.661 .0292567
704.397 .0292414
705.133 .0292272
705.869 .0292126
706.605 .0291979
707.341 .0291824
708.076 .0291669
708.811 .0291507
709.546 .0291341
710.281 .0291170
711.015 .0290995
711.749 .0290812
712.483 .0290628
713.217 .0290430
713.950 .0290227
714.684 .0290013
715.417 .0289792
716.150 .0289563
716.882 .0289335
717.615 .0289105
718.347 .0288882
719.079 .0288664
719.811 .0288451
720.542 .0288239
721.273 .0288029
722.005 .0287817
722.735 .0287604
723.466 .0287393
724.196 .0287184
724.927 .0286979
725.656 .0286785
726.386 .0286598
727.116 .0286417
727.845 .0286244
728.574 .0286075
729.303 .0285910
730.031 .0285747
730.760 .0285586
731.488 .0285427
732.216 .0285277
732.944 .0285134
733.671 .0285004
734.398 .0284885
735.125 .0284773
735.852 .0284671
736.579 .0284574
737.305 .0284483
738.031 .0284395
738.757 .0284310
739.483 .0284227
740.208 .0284143
740.933 .0284060
741.658 .0283970
742.383 .0283875
743.108 .0283773
743.832 .0283662
744.556 .0283541
745.280 .0283409
746.004 .0283272
746.727 .0283133
747.450 .0283003
748.173 .0282870
748.896 .0282738
749.618 .0282606
750.340 .0282470
751.062 .0282329
751.784 .0282182
752.506 .0282032
753.227 .0281880
753.948 .0281730
754.669 .0281588
755.389 .0281451
756.110 .0281325
756.830 .0281203
757.550 .0281085
758.269 .0280963
758.989 .0280830
759.708 .0280684
760.427 .0280529
761.146 .0280365
761.864 .0280189
762.582 .0280006
763.300 .0279820
764.018 .0279638
764.736 .0279460
765.453 .0279284
766.170 .0279116
766.887 .0278949
767.603 .0278784
768.320 .0278622
769.036 .0278465
769.751 .0278315
770.467 .0278176
771.182 .0278054
771.897 .0277940
772.612 .0277835
773.327 .0277737
774.041 .0277640
774.755 .0277541
775.469 .0277435
776.183 .0277319
776.896 .0277196
777.609 .0277068
778.322 .0276939
779.035 .0276811
779.747 .0276691
780.459 .0276575
781.171 .0276462
781.882 .0276347
782.594 .0276228
783.305 .0276107
784.016 .0275988
784.726 .0275872
785.436 .0275761
786.147 .0275661
786.856 .0275576
787.566 .0275506
788.275 .0275452
788.984 .0275409
789.693 .0275373
790.401 .0275337
791.110 .0275297
791.818 .0275248
792.525 .0275189
793.233 .0275122
793.940 .0275045
794.647 .0274958
795.353 .0274858
796.060 .0274747
796.766 .0274626
797.472 .0274496
798.177 .0274359
798.883 .0274213
799.588 .0274067
800.292 .0273923
800.997 .0273784
801.701 .0273654
802.405 .0273534
803.109 .0273423
803.812 .0273320
804.515 .0273226
805.218 .0273133
805.921 .0273046
806.623 .0272963
807.325 .0272883
808.027 .0272808
808.728 .0272735
809.429 .0272659
810.130 .0272579
810.831 .0272493
811.531 .0272390
812.231 .0272265
812.931 .0272120
813.630 .0271954
814.330 .0271767
815.029 .0271564
815.727 .0271346
816.426 .0271118
817.124 .0270889
817.821 .0270657
818.519 .0270429
819.216 .0270210
819.913 .0270003
820.609 .0269807
821.306 .0269626
822.002 .0269465
822.697 .0269325
823.393 .0269208
824.088 .0269116
824.783 .0269043
825.477 .0268987
826.171 .0268946
826.865 .0268920
827.559 .0268910
828.252 .0268909
828.945 .0268915
829.638 .0268925
830.330 .0268937
831.023 .0268948
831.714 .0268954
832.406 .0268956
833.097 .0268950
833.788 .0268933
834.479 .0268906
835.169 .0268872
835.859 .0268832
836.548 .0268788
837.238 .0268740
837.927 .0268682
838.615 .0268617
839.304 .0268545
839.992 .0268468
840.680 .0268388
841.367 .0268305
842.054 .0268217
842.741 .0268130
843.428 .0268043
844.114 .0267955
844.800 .0267870
845.485 .0267786
846.170 .0267699
846.855 .0267614
847.540 .0267529
848.224 .0267442
848.908 .0267356
849.592 .0267271
850.275 .0267179
850.958 .0267084
851.641 .0266982
852.323 .0266873
853.005 .0266759
853.687 .0266642
854.368 .0266517
855.049 .0266390
855.730 .0266263
856.410 .0266135
857.090 .0266009
857.769 .0265886
858.449 .0265764
859.128 .0265645
859.806 .0265529
860.485 .0265420
861.163 .0265317
861.840 .0265225
862.518 .0265139
863.195 .0265060
863.871 .0264982
864.548 .0264905
865.224 .0264830
865.899 .0264751
866.574 .0264670
867.249 .0264585
867.924 .0264500
868.598 .0264412
869.272 .0264321
869.946 .0264229
870.619 .0264135
871.292 .0264038
871.964 .0263935
872.636 .0263833
873.308 .0263733
873.979 .0263638
874.651 .0263552
875.321 .0263478
875.992 .0263413
876.662 .0263353
877.331 .0263297
878.001 .0263243
878.670 .0263191
879.338 .0263133
880.007 .0263074
880.675 .0263018
881.342 .0262958
882.009 .0262896
882.676 .0262830
883.343 .0262762
884.009 .0262692
884.675 .0262618
885.340 .0262540
886.005 .0262457
886.670 .0262380
887.334 .0262306
887.998 .0262236
888.662 .0262177
889.325 .0262127
889.988 .0262081
890.650 .0262042
891.312 .0262008
891.974 .0261974
892.636 .0261945
893.297 .0261926
893.957 .0261914
894.618 .0261910
895.278 .0261914
895.937 .0261922
896.596 .0261933
897.255 .0261942
897.914 .0261937
898.572 .0261918
899.230 .0261890
899.887 .0261849
900.544 .0261802
901.201 .0261754
901.857 .0261710
902.513 .0261666
903.168 .0261623
903.823 .0261574
904.478 .0261510
905.132 .0261431
905.786 .0261334
906.440 .0261213
907.093 .0261074
907.746 .0260921
908.399 .0260759
909.051 .0260596
909.703 .0260435
910.354 .0260272
911.005 .0260111
911.656 .0259948
912.306 .0259773
912.956 .0259588
913.605 .0259398
914.254 .0259201
914.903 .0259003
915.551 .0258810
916.199 .0258628
916.847 .0258458
917.494 .0258302
918.141 .0258155
918.788 .0258013
919.434 .0257878
920.079 .0257737
920.725 .0257591
921.370 .0257444
922.014 .0257294
922.658 .0257138
923.302 .0256978
923.946 .0256816
924.589 .0256646
925.231 .0256472
925.873 .0256293
926.515 .0256105
927.157 .0255911
927.798 .0255706
928.439 .0255493
929.079 .0255273
929.719 .0255049
930.359 .0254816
930.998 .0254586
931.637 .0254358
932.275 .0254134
932.913 .0253917
933.551 .0253707
934.188 .0253509
934.825 .0253322
935.462 .0253142
936.098 .0252970
936.733 .0252806
937.369 .0252650
938.004 .0252499
938.638 .0252351
939.273 .0252209
939.907 .0252071
940.540 .0251937
941.173 .0251813
941.806 .0251697
942.438 .0251589
943.070 .0251485
943.702 .0251381
944.333 .0251277
944.964 .0251169
945.594 .0251057
946.224 .0250943
946.854 .0250833
947.483 .0250726
948.112 .0250623
948.741 .0250524
949.369 .0250433
949.996 .0250346
950.624 .0250258
951.251 .0250167
951.878 .0250072
952.504 .0249978
953.130 .0249883
953.755 .0249791
954.380 .0249702
955.005 .0249614
955.629 .0249525
956.253 .0249428
956.877 .0249323
957.500 .0249209
958.123 .0249088
958.746 .0248961
959.368 .0248831
959.990 .0248704
960.611 .0248576
961.232 .0248459
961.853 .0248350
962.473 .0248249
963.093 .0248151
963.712 .0248056
964.331 .0247964
964.950 .0247871
965.569 .0247787
966.187 .0247707
966.804 .0247637
967.422 .0247580
968.039 .0247525
968.655 .0247472
969.272 .0247419
969.887 .0247360
970.503 .0247288
971.118 .0247201
971.733 .0247098
972.347 .0246982
972.961 .0246853
973.575 .0246715
974.188 .0246574
974.801 .0246428
975.414 .0246284
976.026 .0246133
976.638 .0245979
977.250 .0245823
977.861 .0245660
978.472 .0245493
979.083 .0245320
979.693 .0245147
980.303 .0244973
980.912 .0244806
981.521 .0244655
982.130 .0244513
982.738 .0244386
983.346 .0244271
983.954 .0244163
984.562 .0244057
985.169 .0243946
985.775 .0243826
986.382 .0243706
986.988 .0243585
987.594 .0243464
988.199 .0243348
988.804 .0243245
989.409 .0243152
990.013 .0243066
990.617 .0242992
991.221 .0242920
991.824 .0242853
992.427 .0242795
993.030 .0242742
993.632 .0242700
994.234 .0242667
994.836 .0242637
995.438 .0242613
996.039 .0242592
996.640 .0242564
997.240 .0242534
997.840 .0242507
998.440 .0242484
999.040 .0242466
999.639 .0242457
1000.238 .0242455
1000.836 .0242456
1001.435 .0242457
1002.033 .0242453
1002.630 .0242442
1003.228 .0242424
1003.825 .0242399
1004.422 .0242382
1005.018 .0242375
1005.614 .0242379
1006.210 .0242404
1006.806 .0242447
1007.401 .0242499
1007.996 .0242548
1008.591 .0242587
1009.186 .0242614
1009.780 .0242634
1010.374 .0242646
1010.967 .0242652
1011.561 .0242669
1012.154 .0242695
1012.746 .0242725
1013.339 .0242765
1013.931 .0242804
1014.523 .0242832
1015.115 .0242848
1015.706 .0242854
1016.298 .0242847
1016.888 .0242833
1017.479 .0242822
1018.069 .0242822
1018.660 .0242833
1019.250 .0242864
1019.839 .0242903
1020.429 .0242963
1021.018 .0243037
1021.607 .0243124
1022.195 .0243216
1022.784 .0243315
1023.372 .0243421
1023.960 .0243530
1024.547 .0243637
1025.135 .0243753
1025.722 .0243868
1026.309 .0243987
1026.896 .0244108
1027.483 .0244233
1028.069 .0244355
1028.655 .0244482
1029.241 .0244599
1029.827 .0244703
1030.412 .0244790
1030.997 .0244862
1031.582 .0244909
1032.167 .0244952
1032.752 .0244992
1033.336 .0245029
1033.921 .0245074
1034.505 .0245130
1035.089 .0245187
1035.672 .0245250
1036.256 .0245311
1036.839 .0245369
1037.422 .0245420
1038.005 .0245483
1038.588 .0245550
1039.171 .0245632
1039.753 .0245741
1040.335 .0245859
1040.918 .0245989
1041.500 .0246121
1042.081 .0246238
1042.663 .0246333
1043.244 .0246408
1043.826 .0246464
1044.407 .0246496
1044.988 .0246521
1045.569 .0246548
1046.150 .0246568
1046.730 .0246595
1047.311 .0246616
1047.891 .0246632
1048.471 .0246636
1049.052 .0246631
1049.632 .0246604
1050.211 .0246575
1050.791 .0246542
1051.371 .0246507
1051.950 .0246479
1052.530 .0246467
1053.109 .0246463
1053.688 .0246471
1054.268 .0246500
1054.847 .0246536
1055.426 .0246563
1056.005 .0246599
1056.583 .0246622
1057.162 .0246638
1057.741 .0246632
1058.319 .0246607
1058.898 .0246567
1059.476 .0246521
1060.055 .0246473
1060.633 .0246426
1061.211 .0246405
1061.790 .0246407
1062.368 .0246424
1062.946 .0246457
1063.524 .0246497
1064.102 .0246545
1064.680 .0246592
1065.258 .0246643
1065.836 .0246694
1066.414 .0246749
1066.992 .0246816
1067.570 .0246904
1068.148 .0247010
1068.726 .0247129
1069.304 .0247261
1069.882 .0247392
1070.460 .0247502
1071.038 .0247583
1071.616 .0247629
1072.194 .0247643
1072.772 .0247628
1073.350 .0247602
1073.928 .0247564
1074.506 .0247535
1075.084 .0247521
1075.662 .0247519
1076.240 .0247537
1076.819 .0247571
1077.397 .0247613
1077.976 .0247674
1078.554 .0247753
1079.133 .0247853
1079.711 .0247987
1080.290 .0248166
1080.869 .0248390
1081.448 .0248634
1082.027 .0248898
1082.606 .0249166
1083.185 .0249417
1083.764 .0249647
1084.343 .0249848
1084.923 .0250020
1085.502 .0250175
1086.082 .0250306
1086.662 .0250426
1087.242 .0250526
1087.822 .0250613
1088.402 .0250668
1088.983 .0250681
1089.563 .0250633
1090.144 .0250540
1090.725 .0250417
1091.306 .0250289
1091.887 .0250155
1092.469 .0250056
1093.050 .0250003
1093.632 .0250001
1094.214 .0250061
1094.796 .0250166
1095.379 .0250304
1095.961 .0250476
1096.544 .0250657
1097.127 .0250863
1097.710 .0251077
1098.294 .0251324
1098.877 .0251591
1099.461 .0251885
1100.046 .0252200
1100.630 .0252511
1101.215 .0252827
1101.800 .0253141
1102.385 .0253420
1102.970 .0253662
1103.556 .0253868
1104.142 .0254047
1104.728 .0254211
1105.315 .0254368
1105.902 .0254532
1106.489 .0254716
1107.077 .0254913
1107.664 .0255148
1108.253 .0255405
1108.841 .0255701
1109.430 .0256024
1110.019 .0256355
1110.609 .0256686
1111.198 .0257011
1111.789 .0257362
1112.379 .0257741
1112.970 .0258134
1113.561 .0258567
1114.153 .0259031
1114.745 .0259527
1115.338 .0260040
1115.931 .0260549
1116.524 .0261050
1117.117 .0261521
1117.712 .0261955
1118.306 .0262337
1118.901 .0262706
1119.496 .0263096
1120.092 .0263480
1120.689 .0263889
1121.285 .0264331
1121.882 .0264789
1122.480 .0265235
1123.078 .0265683
1123.677 .0266100
1124.276 .0266459
1124.875 .0266808
1125.476 .0267153
1126.076 .0267530
1126.677 .0267953
1127.279 .0268433
1127.881 .0268955
1128.484 .0269540
1129.087 .0270137
1129.691 .0270722
1130.295 .0271369
1130.900 .0272030
1131.505 .0272726
1132.111 .0273491
1132.718 .0274352
1133.325 .0275326
1133.933 .0276376
1134.541 .0277485
1135.150 .0278600
1135.760 .0279731
1136.370 .0280833
1136.981 .0281920
1137.592 .0283059
1138.204 .0284248
1138.817 .0285536
1139.431 .0286930
1140.045 .0288334
1140.660 .0289791
1141.275 .0291412
1141.891 .0293043
1142.508 .0295535
1143.126 .0294197
1143.744 .0296095
1144.363 .0302016
1144.983 .0302091
