Measurement Sequence started on: 15-12-46-377
Integration time: 28
Scans to Average: 2 
>>>>>Begin Spectral Data<<<<<
432.689 .0000100
433.621 .0000100
434.552 .0000100
435.482 .0000100
436.410 .0000100
437.337 .0000100
438.262 .0299499
439.187 .0633320
440.110 .1049140
441.031 .1517701
441.952 .1972134
442.871 .2328883
443.789 .2523251
444.705 .2532780
445.621 .2385010
446.535 .2139750
447.447 .1862242
448.359 .1439003
449.269 .1228680
450.178 .1094102
451.086 .0998978
451.993 .0926258
452.898 .0868826
453.803 .0821794
454.706 .0783075
455.608 .0750202
456.508 .0721990
457.408 .0697675
458.306 .0676311
459.204 .0657211
460.100 .0640282
460.995 .0625123
461.888 .0611529
462.781 .0599312
463.673 .0588050
464.563 .0577539
465.452 .0567727
466.340 .0558362
467.228 .0549455
468.114 .0541021
468.999 .0533173
469.882 .0525718
470.765 .0518883
471.647 .0512728
472.528 .0507080
473.407 .0502094
474.286 .0497737
475.163 .0493892
476.040 .0490530
476.915 .0487620
477.790 .0485127
478.663 .0483083
479.535 .0481439
480.407 .0480144
481.277 .0479193
482.147 .0478618
483.015 .0478288
483.883 .0478128
484.749 .0478133
485.615 .0478234
486.479 .0478352
487.343 .0478543
488.206 .0478705
489.067 .0478902
489.928 .0479049
490.788 .0479253
491.647 .0479568
492.505 .0480038
493.362 .0480719
494.218 .0481598
495.073 .0482758
495.928 .0484216
496.781 .0485820
497.634 .0487747
498.486 .0490024
499.337 .0492697
500.187 .0495711
501.036 .0499147
501.884 .0503066
502.731 .0507478
503.578 .0512447
504.424 .0517971
505.268 .0523970
506.113 .0530496
506.956 .0537404
507.798 .0544852
508.640 .0552889
509.480 .0561424
510.320 .0570518
511.160 .0580332
511.998 .0590905
512.836 .0602171
513.672 .0614327
514.508 .0627505
515.344 .0641729
516.178 .0657290
517.012 .0674422
517.845 .0693190
518.677 .0714153
519.508 .0737536
520.339 .0763785
521.169 .0793699
521.998 .0827484
522.826 .0866270
523.654 .0910469
524.481 .0960291
525.307 .1016543
526.133 .1078438
526.958 .1145880
527.782 .1217687
528.605 .1292122
529.428 .1368309
530.250 .1441487
531.072 .1509477
531.892 .1568244
532.712 .1614977
533.532 .1647191
534.350 .1661501
535.168 .1657126
535.986 .1633841
536.802 .1592798
537.618 .1537021
538.434 .1468745
539.249 .1393633
540.063 .1314897
540.876 .1236195
541.689 .1160248
542.501 .1089035
543.313 .1024089
544.124 .0965575
544.934 .0912799
545.744 .0865225
546.553 .0822144
547.361 .0783777
548.169 .0749914
548.976 .0719771
549.783 .0693222
550.589 .0670028
551.395 .0649515
552.200 .0631391
553.004 .0615068
553.808 .0600204
554.611 .0586651
555.414 .0574291
556.216 .0562894
557.018 .0552353
557.819 .0542706
558.619 .0533674
559.419 .0525116
560.218 .0516983
561.017 .0509085
561.815 .0501485
562.613 .0494141
563.410 .0486904
564.207 .0479760
565.003 .0472799
565.799 .0466101
566.594 .0459630
567.388 .0453468
568.182 .0447538
568.976 .0441784
569.769 .0436233
570.562 .0430760
571.354 .0425304
572.145 .0419931
572.936 .0414606
573.727 .0409351
574.517 .0404184
575.307 .0399149
576.096 .0394278
576.885 .0389626
577.673 .0385231
578.461 .0381069
579.248 .0377167
580.035 .0373509
580.821 .0370061
581.607 .0366888
582.392 .0363928
583.177 .0361225
583.962 .0358758
584.746 .0356542
585.529 .0354546
586.313 .0352796
587.095 .0351245
587.878 .0349852
588.660 .0348593
589.441 .0347435
590.222 .0346354
591.003 .0345371
591.783 .0344455
592.563 .0343607
593.342 .0342825
594.121 .0342097
594.899 .0341393
595.678 .0340732
596.455 .0340099
597.233 .0339487
598.009 .0338894
598.786 .0338318
599.562 .0337751
600.338 .0337202
601.113 .0336682
601.888 .0336187
602.663 .0335718
603.437 .0335274
604.211 .0334840
604.984 .0334425
605.757 .0334024
606.530 .0333643
607.302 .0333281
608.074 .0332948
608.845 .0332643
609.616 .0332369
610.387 .0332119
611.158 .0331894
611.928 .0331692
612.697 .0331504
613.467 .0331326
614.236 .0331154
615.004 .0330987
615.773 .0330828
616.541 .0330671
617.308 .0330523
618.076 .0330379
618.843 .0330238
619.609 .0330091
620.375 .0329939
621.141 .0329777
621.907 .0329607
622.672 .0329427
623.437 .0329235
624.202 .0329031
624.966 .0328821
625.730 .0328598
626.493 .0328367
627.257 .0328131
628.020 .0327882
628.782 .0327616
629.545 .0327337
630.307 .0327034
631.068 .0326710
631.830 .0326369
632.591 .0326011
633.352 .0325641
634.112 .0325266
634.872 .0324882
635.632 .0324489
636.392 .0324101
637.151 .0323709
637.910 .0323311
638.668 .0322912
639.427 .0322513
640.185 .0322111
640.943 .0321716
641.700 .0321331
642.457 .0320962
643.214 .0320610
643.971 .0320277
644.727 .0319952
645.483 .0319636
646.239 .0319316
646.994 .0318981
647.750 .0318634
648.505 .0318273
649.259 .0317901
650.014 .0317527
650.768 .0317154
651.521 .0316793
652.275 .0316443
653.028 .0316110
653.781 .0315791
654.534 .0315482
655.286 .0315182
656.039 .0314885
656.791 .0314592
657.542 .0314302
658.294 .0314015
659.045 .0313738
659.796 .0313469
660.546 .0313208
661.297 .0312953
662.047 .0312703
662.796 .0312459
663.546 .0312214
664.295 .0311960
665.044 .0311698
665.793 .0311424
666.542 .0311138
667.290 .0310842
668.038 .0310535
668.786 .0310221
669.533 .0309906
670.281 .0309594
671.028 .0309288
671.774 .0308998
672.521 .0308734
673.267 .0308493
674.013 .0308282
674.759 .0308093
675.505 .0307918
676.250 .0307755
676.995 .0307603
677.740 .0307453
678.484 .0307307
679.229 .0307174
679.973 .0307054
680.717 .0306953
681.460 .0306877
682.204 .0306817
682.947 .0306777
683.690 .0306752
684.433 .0306726
685.175 .0306688
685.917 .0306639
686.659 .0306574
687.401 .0306490
688.142 .0306397
688.884 .0306301
689.625 .0306203
690.365 .0306111
691.106 .0306024
691.846 .0305934
692.586 .0305843
693.326 .0305743
694.066 .0305629
694.805 .0305503
695.545 .0305357
696.284 .0305195
697.022 .0305023
697.761 .0304847
698.499 .0304671
699.237 .0304495
699.975 .0304331
700.713 .0304175
701.450 .0304028
702.187 .0303885
702.924 .0303748
703.661 .0303617
704.397 .0303488
705.133 .0303358
705.869 .0303228
706.605 .0303098
707.341 .0302967
708.076 .0302836
708.811 .0302703
709.546 .0302564
710.281 .0302416
711.015 .0302253
711.749 .0302074
712.483 .0301879
713.217 .0301669
713.950 .0301447
714.684 .0301214
715.417 .0300970
716.150 .0300718
716.882 .0300456
717.615 .0300189
718.347 .0299916
719.079 .0299640
719.811 .0299361
720.542 .0299082
721.273 .0298808
722.005 .0298541
722.735 .0298280
723.466 .0298033
724.196 .0297791
724.927 .0297553
725.656 .0297313
726.386 .0297071
727.116 .0296823
727.845 .0296571
728.574 .0296311
729.303 .0296049
730.031 .0295787
730.760 .0295532
731.488 .0295275
732.216 .0295026
732.944 .0294785
733.671 .0294548
734.398 .0294313
735.125 .0294082
735.852 .0293852
736.579 .0293625
737.305 .0293404
738.031 .0293195
738.757 .0292995
739.483 .0292808
740.208 .0292634
740.933 .0292466
741.658 .0292301
742.383 .0292130
743.108 .0291946
743.832 .0291755
744.556 .0291555
745.280 .0291344
746.004 .0291126
746.727 .0290917
747.450 .0290719
748.173 .0290528
748.896 .0290350
749.618 .0290172
750.340 .0289990
751.062 .0289803
751.784 .0289602
752.506 .0289389
753.227 .0289171
753.948 .0288947
754.669 .0288727
755.389 .0288515
756.110 .0288309
756.830 .0288109
757.550 .0287920
758.269 .0287730
758.989 .0287532
759.708 .0287323
760.427 .0287106
761.146 .0286882
761.864 .0286663
762.582 .0286449
763.300 .0286243
764.018 .0286057
764.736 .0285886
765.453 .0285727
766.170 .0285579
766.887 .0285441
767.603 .0285312
768.320 .0285189
769.036 .0285072
769.751 .0284959
770.467 .0284855
771.182 .0284761
771.897 .0284671
772.612 .0284585
773.327 .0284505
774.041 .0284429
774.755 .0284354
775.469 .0284291
776.183 .0284240
776.896 .0284204
777.609 .0284189
778.322 .0284193
779.035 .0284216
779.747 .0284255
780.459 .0284307
781.171 .0284367
781.882 .0284436
782.594 .0284511
783.305 .0284589
784.016 .0284673
784.726 .0284766
785.436 .0284867
786.147 .0284971
786.856 .0285079
787.566 .0285186
788.275 .0285287
788.984 .0285377
789.693 .0285450
790.401 .0285510
791.110 .0285555
791.818 .0285592
792.525 .0285622
793.233 .0285649
793.940 .0285675
794.647 .0285700
795.353 .0285724
796.060 .0285744
796.766 .0285761
797.472 .0285766
798.177 .0285762
798.883 .0285748
799.588 .0285724
800.292 .0285692
800.997 .0285657
801.701 .0285621
802.405 .0285582
803.109 .0285541
803.812 .0285492
804.515 .0285432
805.218 .0285364
805.921 .0285280
806.623 .0285186
807.325 .0285086
808.027 .0284986
808.728 .0284881
809.429 .0284774
810.130 .0284665
810.831 .0284553
811.531 .0284431
812.231 .0284297
812.931 .0284147
813.630 .0283984
814.330 .0283809
815.029 .0283625
815.727 .0283438
816.426 .0283255
817.124 .0283071
817.821 .0282888
818.519 .0282706
819.216 .0282530
819.913 .0282354
820.609 .0282189
821.306 .0282033
822.002 .0281891
822.697 .0281763
823.393 .0281649
824.088 .0281546
824.783 .0281456
825.477 .0281370
826.171 .0281288
826.865 .0281209
827.559 .0281135
828.252 .0281062
828.945 .0280999
829.638 .0280939
830.330 .0280878
831.023 .0280811
831.714 .0280732
832.406 .0280634
833.097 .0280515
833.788 .0280374
834.479 .0280214
835.169 .0280041
835.859 .0279865
836.548 .0279683
837.238 .0279505
837.927 .0279331
838.615 .0279156
839.304 .0278978
839.992 .0278797
840.680 .0278609
841.367 .0278417
842.054 .0278223
842.741 .0278026
843.428 .0277831
844.114 .0277642
844.800 .0277459
845.485 .0277280
846.170 .0277104
846.855 .0276925
847.540 .0276737
848.224 .0276543
848.908 .0276337
849.592 .0276122
850.275 .0275898
850.958 .0275667
851.641 .0275426
852.323 .0275177
853.005 .0274919
853.687 .0274652
854.368 .0274377
855.049 .0274091
855.730 .0273788
856.410 .0273474
857.090 .0273149
857.769 .0272815
858.449 .0272476
859.128 .0272138
859.806 .0271799
860.485 .0271464
861.163 .0271130
861.840 .0270800
862.518 .0270470
863.195 .0270146
863.871 .0269823
864.548 .0269504
865.224 .0269192
865.899 .0268890
866.574 .0268605
867.249 .0268347
867.924 .0268108
868.598 .0267895
869.272 .0267705
869.946 .0267536
870.619 .0267378
871.292 .0267229
871.964 .0267084
872.636 .0266940
873.308 .0266796
873.979 .0266653
874.651 .0266510
875.321 .0266374
875.992 .0266247
876.662 .0266127
877.331 .0266013
878.001 .0265906
878.670 .0265800
879.338 .0265693
880.007 .0265585
880.675 .0265478
881.342 .0265373
882.009 .0265278
882.676 .0265195
883.343 .0265123
884.009 .0265068
884.675 .0265028
885.340 .0265004
886.005 .0264993
886.670 .0264993
887.334 .0265001
887.998 .0265015
888.662 .0265039
889.325 .0265070
889.988 .0265108
890.650 .0265157
891.312 .0265210
891.974 .0265263
892.636 .0265315
893.297 .0265364
893.957 .0265408
894.618 .0265446
895.278 .0265484
895.937 .0265517
896.596 .0265550
897.255 .0265586
897.914 .0265624
898.572 .0265666
899.230 .0265716
899.887 .0265763
900.544 .0265807
901.201 .0265848
901.857 .0265886
902.513 .0265913
903.168 .0265932
903.823 .0265938
904.478 .0265932
905.132 .0265917
905.786 .0265896
906.440 .0265868
907.093 .0265842
907.746 .0265811
908.399 .0265771
909.051 .0265718
909.703 .0265652
910.354 .0265570
911.005 .0265474
911.656 .0265368
912.306 .0265257
912.956 .0265150
913.605 .0265052
914.254 .0264972
914.903 .0264913
915.551 .0264875
916.199 .0264854
916.847 .0264847
917.494 .0264851
918.141 .0264863
918.788 .0264878
919.434 .0264901
920.079 .0264934
920.725 .0264978
921.370 .0265031
922.014 .0265094
922.658 .0265163
923.302 .0265231
923.946 .0265293
924.589 .0265339
925.231 .0265367
925.873 .0265374
926.515 .0265363
927.157 .0265335
927.798 .0265290
928.439 .0265231
929.079 .0265160
929.719 .0265078
930.359 .0264983
930.998 .0264874
931.637 .0264757
932.275 .0264637
932.913 .0264514
933.551 .0264393
934.188 .0264280
934.825 .0264177
935.462 .0264088
936.098 .0264008
936.733 .0263937
937.369 .0263874
938.004 .0263816
938.638 .0263763
939.273 .0263713
939.907 .0263668
940.540 .0263630
941.173 .0263605
941.806 .0263596
942.438 .0263597
943.070 .0263611
943.702 .0263635
944.333 .0263664
944.964 .0263691
945.594 .0263713
946.224 .0263727
946.854 .0263738
947.483 .0263747
948.112 .0263755
948.741 .0263765
949.369 .0263782
949.996 .0263804
950.624 .0263829
951.251 .0263860
951.878 .0263891
952.504 .0263919
953.130 .0263942
953.755 .0263952
954.380 .0263949
955.005 .0263938
955.629 .0263914
956.253 .0263881
956.877 .0263841
957.500 .0263795
958.123 .0263744
958.746 .0263687
959.368 .0263626
959.990 .0263558
960.611 .0263484
961.232 .0263406
961.853 .0263321
962.473 .0263235
963.093 .0263150
963.712 .0263066
964.331 .0262984
964.950 .0262898
965.569 .0262811
966.187 .0262717
966.804 .0262623
967.422 .0262526
968.039 .0262426
968.655 .0262329
969.272 .0262233
969.887 .0262138
970.503 .0262043
971.118 .0261944
971.733 .0261836
972.347 .0261718
972.961 .0261584
973.575 .0261431
974.188 .0261258
974.801 .0261066
975.414 .0260858
976.026 .0260631
976.638 .0260392
977.250 .0260141
977.861 .0259886
978.472 .0259629
979.083 .0259365
979.693 .0259099
980.303 .0258824
980.912 .0258541
981.521 .0258247
982.130 .0257940
982.738 .0257624
983.346 .0257306
983.954 .0256987
984.562 .0256674
985.169 .0256373
985.775 .0256085
986.382 .0255817
986.988 .0255563
987.594 .0255322
988.199 .0255091
988.804 .0254867
989.409 .0254648
990.013 .0254432
990.617 .0254223
991.221 .0254019
991.824 .0253825
992.427 .0253642
993.030 .0253470
993.632 .0253306
994.234 .0253147
994.836 .0252992
995.438 .0252835
996.039 .0252667
996.640 .0252484
997.240 .0252294
997.840 .0252095
998.440 .0251892
999.040 .0251690
999.639 .0251491
1000.238 .0251300
1000.836 .0251116
1001.435 .0250934
1002.033 .0250756
1002.630 .0250580
1003.228 .0250405
1003.825 .0250232
1004.422 .0250064
1005.018 .0249897
1005.614 .0249736
1006.210 .0249586
1006.806 .0249449
1007.401 .0249318
1007.996 .0249193
1008.591 .0249072
1009.186 .0248959
1009.780 .0248847
1010.374 .0248731
1010.967 .0248620
1011.561 .0248513
1012.154 .0248406
1012.746 .0248302
1013.339 .0248192
1013.931 .0248080
1014.523 .0247965
1015.115 .0247844
1015.706 .0247713
1016.298 .0247581
1016.888 .0247445
1017.479 .0247309
1018.069 .0247175
1018.660 .0247050
1019.250 .0246931
1019.839 .0246821
1020.429 .0246721
1021.018 .0246623
1021.607 .0246531
1022.195 .0246450
1022.784 .0246370
1023.372 .0246300
1023.960 .0246239
1024.547 .0246187
1025.135 .0246148
1025.722 .0246127
1026.309 .0246122
1026.896 .0246133
1027.483 .0246154
1028.069 .0246181
1028.655 .0246203
1029.241 .0246217
1029.827 .0246221
1030.412 .0246216
1030.997 .0246203
1031.582 .0246187
1032.167 .0246171
1032.752 .0246165
1033.336 .0246162
1033.921 .0246169
1034.505 .0246179
1035.089 .0246187
1035.672 .0246198
1036.256 .0246205
1036.839 .0246214
1037.422 .0246229
1038.005 .0246249
1038.588 .0246275
1039.171 .0246309
1039.753 .0246352
1040.335 .0246401
1040.918 .0246457
1041.500 .0246516
1042.081 .0246571
1042.663 .0246622
1043.244 .0246671
1043.826 .0246711
1044.407 .0246750
1044.988 .0246790
1045.569 .0246817
1046.150 .0246838
1046.730 .0246841
1047.311 .0246824
1047.891 .0246799
1048.471 .0246752
1049.052 .0246692
1049.632 .0246626
1050.211 .0246565
1050.791 .0246507
1051.371 .0246455
1051.950 .0246416
1052.530 .0246382
1053.109 .0246351
1053.688 .0246313
1054.268 .0246265
1054.847 .0246227
1055.426 .0246198
1056.005 .0246190
1056.583 .0246216
1057.162 .0246277
1057.741 .0246367
1058.319 .0246491
1058.898 .0246621
1059.476 .0246744
1060.055 .0246851
1060.633 .0246929
1061.211 .0246975
1061.790 .0247005
1062.368 .0247034
1062.946 .0247077
1063.524 .0247154
1064.102 .0247263
1064.680 .0247385
1065.258 .0247523
1065.836 .0247655
1066.414 .0247759
1066.992 .0247830
1067.570 .0247883
1068.148 .0247921
1068.726 .0247958
1069.304 .0248022
1069.882 .0248109
1070.460 .0248231
1071.038 .0248383
1071.616 .0248548
1072.194 .0248712
1072.772 .0248865
1073.350 .0249014
1073.928 .0249151
1074.506 .0249282
1075.084 .0249406
1075.662 .0249525
1076.240 .0249655
1076.819 .0249794
1077.397 .0249938
1077.976 .0250090
1078.554 .0250263
1079.133 .0250450
1079.711 .0250644
1080.290 .0250862
1080.869 .0251100
1081.448 .0251355
1082.027 .0251616
1082.606 .0251883
1083.185 .0252142
1083.764 .0252404
1084.343 .0252651
1084.923 .0252887
1085.502 .0253113
1086.082 .0253330
1086.662 .0253540
1087.242 .0253742
1087.822 .0253947
1088.402 .0254149
1088.983 .0254343
1089.563 .0254542
1090.144 .0254723
1090.725 .0254896
1091.306 .0255038
1091.887 .0255171
1092.469 .0255299
1093.050 .0255415
1093.632 .0255544
1094.214 .0255699
1094.796 .0255894
1095.379 .0256133
1095.961 .0256413
1096.544 .0256748
1097.127 .0257130
1097.710 .0257530
1098.294 .0257924
1098.877 .0258288
1099.461 .0258627
1100.046 .0258915
1100.630 .0259171
1101.215 .0259414
1101.800 .0259653
1102.385 .0259896
1102.970 .0260149
1103.556 .0260386
1104.142 .0260626
1104.728 .0260849
1105.315 .0261060
1105.902 .0261230
1106.489 .0261388
1107.077 .0261524
1107.664 .0261674
1108.253 .0261872
1108.841 .0262121
1109.430 .0262422
1110.019 .0262810
1110.609 .0263263
1111.198 .0263770
1111.789 .0264338
1112.379 .0264944
1112.970 .0265564
1113.561 .0266217
1114.153 .0266881
1114.745 .0267518
1115.338 .0268127
1115.931 .0268733
1116.524 .0269274
1117.117 .0269757
1117.712 .0270187
1118.306 .0270566
1118.901 .0270942
1119.496 .0271294
1120.092 .0271620
1120.689 .0271941
1121.285 .0272273
1121.882 .0272589
1122.480 .0272902
1123.078 .0273265
1123.677 .0273647
1124.276 .0274068
1124.875 .0274579
1125.476 .0275145
1126.076 .0275822
1126.677 .0276565
1127.279 .0277396
1127.881 .0278271
1128.484 .0279175
1129.087 .0280055
1129.691 .0280976
1130.295 .0281927
1130.900 .0282882
1131.505 .0283816
1132.111 .0284776
1132.718 .0285692
1133.325 .0286637
1133.933 .0287575
1134.541 .0288519
1135.150 .0289497
1135.760 .0290532
1136.370 .0291572
1136.981 .0292702
1137.592 .0293859
1138.204 .0295082
1138.817 .0296348
1139.431 .0297684
1140.045 .0299087
1140.660 .0300502
1141.275 .0302159
1141.891 .0304043
1142.508 .0305174
1143.126 .0308173
1143.744 .0307817
1144.363 .0314185
1144.983 .0318308
