Measurement Sequence started on: 15-12-46-377
Integration time: 28
Scans to Average: 2 
>>>>>Begin Spectral Data<<<<<
432.689 .0000100
433.621 .0000100
434.552 .0000100
435.482 .0000100
436.410 .0000100
437.337 .0000100
438.262 .0285188
439.187 .0605030
440.110 .1003022
441.031 .1452218
441.952 .1889287
442.871 .2234449
443.789 .2425165
444.705 .2439401
445.621 .2303197
446.535 .2073319
447.447 .1811786
448.359 .1410685
449.269 .1210549
450.178 .1083298
451.086 .0993363
451.993 .0924504
452.898 .0870135
453.803 .0825950
454.706 .0789522
455.608 .0758225
456.508 .0730941
457.408 .0707075
458.306 .0685839
459.204 .0666920
460.100 .0650067
460.995 .0634826
461.888 .0621116
462.781 .0608891
463.673 .0597705
464.563 .0587443
465.452 .0577944
466.340 .0568978
467.228 .0560648
468.114 .0552955
468.999 .0545918
469.882 .0539479
470.765 .0533667
471.647 .0528419
472.528 .0523648
473.407 .0519439
474.286 .0515693
475.163 .0512376
476.040 .0509535
476.915 .0507105
477.790 .0504980
478.663 .0503117
479.535 .0501586
480.407 .0500269
481.277 .0499079
482.147 .0497979
483.015 .0496931
483.883 .0495933
484.749 .0494883
485.615 .0493880
486.479 .0492936
487.343 .0492130
488.206 .0491455
489.067 .0490854
489.928 .0490422
490.788 .0490158
491.647 .0490014
492.505 .0490044
493.362 .0490292
494.218 .0490708
495.073 .0491318
495.928 .0492188
496.781 .0493355
497.634 .0494817
498.486 .0496564
499.337 .0498673
500.187 .0501156
501.036 .0504028
501.884 .0507257
502.731 .0510859
503.578 .0514935
504.424 .0519402
505.268 .0524147
506.113 .0529238
506.956 .0534691
507.798 .0540566
508.640 .0546790
509.480 .0553484
510.320 .0560887
511.160 .0569154
511.998 .0578430
512.836 .0588879
513.672 .0600778
514.508 .0614273
515.344 .0629277
516.178 .0646031
517.012 .0664532
517.845 .0685326
518.677 .0708398
519.508 .0734208
520.339 .0763151
521.169 .0795908
521.998 .0832832
522.826 .0874794
523.654 .0922462
524.481 .0975748
525.307 .1034960
526.133 .1100167
526.958 .1170287
527.782 .1244349
528.605 .1319720
529.428 .1395398
530.250 .1465352
531.072 .1527362
531.892 .1577289
532.712 .1612710
533.532 .1632499
534.350 .1634722
535.168 .1618766
535.986 .1585995
536.802 .1538179
537.618 .1478016
538.434 .1407302
539.249 .1331476
540.063 .1252361
540.876 .1173954
541.689 .1098710
542.501 .1028831
543.313 .0965876
544.124 .0910774
544.934 .0862570
545.744 .0820192
546.553 .0782883
547.361 .0749963
548.169 .0720896
548.976 .0694974
549.783 .0671773
550.589 .0651090
551.395 .0632521
552.200 .0616246
553.004 .0601439
553.808 .0588152
554.611 .0576297
555.414 .0565474
556.216 .0555408
557.018 .0546048
557.819 .0537194
558.619 .0528710
559.419 .0520641
560.218 .0513017
561.017 .0505645
561.815 .0498660
562.613 .0491866
563.410 .0485144
564.207 .0478574
565.003 .0472150
565.799 .0465762
566.594 .0459579
567.388 .0453654
568.182 .0447932
568.976 .0442410
569.769 .0437138
570.562 .0432056
571.354 .0427128
572.145 .0422321
572.936 .0417562
573.727 .0412870
574.517 .0408302
575.307 .0403746
576.096 .0399323
576.885 .0395052
577.673 .0390858
578.461 .0386789
579.248 .0382866
580.035 .0379075
580.821 .0375447
581.607 .0371970
582.392 .0368700
583.177 .0365645
583.962 .0362829
584.746 .0360274
585.529 .0357980
586.313 .0355946
587.095 .0354134
587.878 .0352489
588.660 .0351026
589.441 .0349695
590.222 .0348477
591.003 .0347388
591.783 .0346409
592.563 .0345547
593.342 .0344779
594.121 .0344094
594.899 .0343494
595.678 .0342952
596.455 .0342465
597.233 .0342004
598.009 .0341564
598.786 .0341153
599.562 .0340749
600.338 .0340362
601.113 .0339992
601.888 .0339636
602.663 .0339279
603.437 .0338936
604.211 .0338592
604.984 .0338242
605.757 .0337884
606.530 .0337520
607.302 .0337137
608.074 .0336754
608.845 .0336366
609.616 .0335982
610.387 .0335607
611.158 .0335251
611.928 .0334901
612.697 .0334565
613.467 .0334240
614.236 .0333929
615.004 .0333630
615.773 .0333353
616.541 .0333085
617.308 .0332839
618.076 .0332607
618.843 .0332389
619.609 .0332184
620.375 .0331992
621.141 .0331797
621.907 .0331594
622.672 .0331371
623.437 .0331132
624.202 .0330867
624.966 .0330580
625.730 .0330275
626.493 .0329951
627.257 .0329605
628.020 .0329240
628.782 .0328858
629.545 .0328467
630.307 .0328061
631.068 .0327652
631.830 .0327237
632.591 .0326817
633.352 .0326398
634.112 .0325977
634.872 .0325556
635.632 .0325138
636.392 .0324717
637.151 .0324301
637.910 .0323894
638.668 .0323501
639.427 .0323129
640.185 .0322779
640.943 .0322449
641.700 .0322126
642.457 .0321802
643.214 .0321474
643.971 .0321135
644.727 .0320787
645.483 .0320434
646.239 .0320082
646.994 .0319737
647.750 .0319406
648.505 .0319094
649.259 .0318803
650.014 .0318520
650.768 .0318238
651.521 .0317955
652.275 .0317652
653.028 .0317336
653.781 .0317009
654.534 .0316679
655.286 .0316354
656.039 .0316046
656.791 .0315757
657.542 .0315480
658.294 .0315228
659.045 .0314989
659.796 .0314752
660.546 .0314521
661.297 .0314288
662.047 .0314054
662.796 .0313825
663.546 .0313603
664.295 .0313393
665.044 .0313203
665.793 .0313039
666.542 .0312891
667.290 .0312763
668.038 .0312656
668.786 .0312554
669.533 .0312456
670.281 .0312360
671.028 .0312258
671.774 .0312141
672.521 .0312021
673.267 .0311897
674.013 .0311773
674.759 .0311650
675.505 .0311533
676.250 .0311419
676.995 .0311305
677.740 .0311186
678.484 .0311055
679.229 .0310914
679.973 .0310768
680.717 .0310606
681.460 .0310436
682.204 .0310266
682.947 .0310102
683.690 .0309940
684.433 .0309786
685.175 .0309635
685.917 .0309477
686.659 .0309313
687.401 .0309138
688.142 .0308946
688.884 .0308746
689.625 .0308536
690.365 .0308319
691.106 .0308097
691.846 .0307876
692.586 .0307647
693.326 .0307411
694.066 .0307170
694.805 .0306912
695.545 .0306637
696.284 .0306347
697.022 .0306049
697.761 .0305749
698.499 .0305454
699.237 .0305165
699.975 .0304884
700.713 .0304618
701.450 .0304358
702.187 .0304101
702.924 .0303848
703.661 .0303596
704.397 .0303341
705.133 .0303084
705.869 .0302825
706.605 .0302569
707.341 .0302319
708.076 .0302074
708.811 .0301828
709.546 .0301583
710.281 .0301337
711.015 .0301086
711.749 .0300832
712.483 .0300573
713.217 .0300304
713.950 .0300027
714.684 .0299744
715.417 .0299451
716.150 .0299152
716.882 .0298852
717.615 .0298553
718.347 .0298256
719.079 .0297964
719.811 .0297677
720.542 .0297395
721.273 .0297121
722.005 .0296847
722.735 .0296569
723.466 .0296289
724.196 .0295999
724.927 .0295700
725.656 .0295393
726.386 .0295079
727.116 .0294763
727.845 .0294452
728.574 .0294151
729.303 .0293863
730.031 .0293597
730.760 .0293356
731.488 .0293131
732.216 .0292926
732.944 .0292741
733.671 .0292569
734.398 .0292418
735.125 .0292288
735.852 .0292180
736.579 .0292101
737.305 .0292048
738.031 .0292017
738.757 .0292010
739.483 .0292017
740.208 .0292029
740.933 .0292040
741.658 .0292051
742.383 .0292053
743.108 .0292049
743.832 .0292043
744.556 .0292035
745.280 .0292025
746.004 .0292011
746.727 .0291991
747.450 .0291962
748.173 .0291924
748.896 .0291871
749.618 .0291810
750.340 .0291747
751.062 .0291683
751.784 .0291623
752.506 .0291574
753.227 .0291532
753.948 .0291492
754.669 .0291448
755.389 .0291398
756.110 .0291335
756.830 .0291261
757.550 .0291177
758.269 .0291090
758.989 .0291003
759.708 .0290915
760.427 .0290828
761.146 .0290748
761.864 .0290669
762.582 .0290590
763.300 .0290506
764.018 .0290422
764.736 .0290335
765.453 .0290246
766.170 .0290154
766.887 .0290062
767.603 .0289971
768.320 .0289877
769.036 .0289783
769.751 .0289687
770.467 .0289588
771.182 .0289488
771.897 .0289387
772.612 .0289288
773.327 .0289190
774.041 .0289099
774.755 .0289015
775.469 .0288941
776.183 .0288875
776.896 .0288816
777.609 .0288766
778.322 .0288723
779.035 .0288691
779.747 .0288668
780.459 .0288659
781.171 .0288664
781.882 .0288680
782.594 .0288708
783.305 .0288744
784.016 .0288781
784.726 .0288812
785.436 .0288834
786.147 .0288839
786.856 .0288826
787.566 .0288793
788.275 .0288745
788.984 .0288681
789.693 .0288603
790.401 .0288510
791.110 .0288398
791.818 .0288270
792.525 .0288122
793.233 .0287950
793.940 .0287760
794.647 .0287551
795.353 .0287329
796.060 .0287100
796.766 .0286869
797.472 .0286637
798.177 .0286407
798.883 .0286178
799.588 .0285951
800.292 .0285723
800.997 .0285495
801.701 .0285267
802.405 .0285040
803.109 .0284813
803.812 .0284582
804.515 .0284348
805.218 .0284111
805.921 .0283863
806.623 .0283606
807.325 .0283340
808.027 .0283069
808.728 .0282791
809.429 .0282510
810.130 .0282222
810.831 .0281930
811.531 .0281627
812.231 .0281314
812.931 .0280989
813.630 .0280654
814.330 .0280313
815.029 .0279969
815.727 .0279629
816.426 .0279296
817.124 .0278969
817.821 .0278655
818.519 .0278352
819.216 .0278063
819.913 .0277786
820.609 .0277525
821.306 .0277282
822.002 .0277061
822.697 .0276864
823.393 .0276696
824.088 .0276553
824.783 .0276431
825.477 .0276322
826.171 .0276222
826.865 .0276130
827.559 .0276040
828.252 .0275957
828.945 .0275880
829.638 .0275814
830.330 .0275760
831.023 .0275717
831.714 .0275683
832.406 .0275651
833.097 .0275615
833.788 .0275567
834.479 .0275502
835.169 .0275422
835.859 .0275331
836.548 .0275237
837.238 .0275145
837.927 .0275065
838.615 .0274998
839.304 .0274948
839.992 .0274909
840.680 .0274880
841.367 .0274855
842.054 .0274829
842.741 .0274801
843.428 .0274775
844.114 .0274753
844.800 .0274738
845.485 .0274733
846.170 .0274739
846.855 .0274754
847.540 .0274775
848.224 .0274792
848.908 .0274808
849.592 .0274811
850.275 .0274803
850.958 .0274781
851.641 .0274755
852.323 .0274726
853.005 .0274696
853.687 .0274663
854.368 .0274624
855.049 .0274576
855.730 .0274518
856.410 .0274448
857.090 .0274372
857.769 .0274291
858.449 .0274210
859.128 .0274135
859.806 .0274071
860.485 .0274023
861.163 .0273991
861.840 .0273972
862.518 .0273961
863.195 .0273953
863.871 .0273941
864.548 .0273930
865.224 .0273917
865.899 .0273901
866.574 .0273886
867.249 .0273868
867.924 .0273848
868.598 .0273829
869.272 .0273808
869.946 .0273791
870.619 .0273772
871.292 .0273757
871.964 .0273737
872.636 .0273720
873.308 .0273702
873.979 .0273686
874.651 .0273666
875.321 .0273647
875.992 .0273622
876.662 .0273598
877.331 .0273574
878.001 .0273558
878.670 .0273549
879.338 .0273555
880.007 .0273571
880.675 .0273604
881.342 .0273646
882.009 .0273701
882.676 .0273756
883.343 .0273819
884.009 .0273880
884.675 .0273940
885.340 .0273997
886.005 .0274057
886.670 .0274118
887.334 .0274190
887.998 .0274267
888.662 .0274356
889.325 .0274449
889.988 .0274551
890.650 .0274649
891.312 .0274741
891.974 .0274824
892.636 .0274900
893.297 .0274963
893.957 .0275019
894.618 .0275067
895.278 .0275116
895.937 .0275164
896.596 .0275216
897.255 .0275268
897.914 .0275318
898.572 .0275363
899.230 .0275399
899.887 .0275418
900.544 .0275419
901.201 .0275400
901.857 .0275367
902.513 .0275316
903.168 .0275247
903.823 .0275156
904.478 .0275046
905.132 .0274913
905.786 .0274754
906.440 .0274569
907.093 .0274353
907.746 .0274107
908.399 .0273833
909.051 .0273531
909.703 .0273210
910.354 .0272877
911.005 .0272540
911.656 .0272204
912.306 .0271868
912.956 .0271538
913.605 .0271212
914.254 .0270896
914.903 .0270584
915.551 .0270273
916.199 .0269966
916.847 .0269664
917.494 .0269364
918.141 .0269071
918.788 .0268789
919.434 .0268525
920.079 .0268271
920.725 .0268025
921.370 .0267781
922.014 .0267532
922.658 .0267271
923.302 .0266997
923.946 .0266704
924.589 .0266393
925.231 .0266058
925.873 .0265712
926.515 .0265356
927.157 .0264994
927.798 .0264625
928.439 .0264250
929.079 .0263870
929.719 .0263483
930.359 .0263081
930.998 .0262673
931.637 .0262265
932.275 .0261859
932.913 .0261458
933.551 .0261067
934.188 .0260686
934.825 .0260320
935.462 .0259968
936.098 .0259629
936.733 .0259301
937.369 .0258990
938.004 .0258690
938.638 .0258400
939.273 .0258128
939.907 .0257869
940.540 .0257626
941.173 .0257401
941.806 .0257191
942.438 .0256985
943.070 .0256791
943.702 .0256603
944.333 .0256421
944.964 .0256250
945.594 .0256092
946.224 .0255947
946.854 .0255819
947.483 .0255707
948.112 .0255605
948.741 .0255511
949.369 .0255425
949.996 .0255332
950.624 .0255237
951.251 .0255135
951.878 .0255026
952.504 .0254909
953.130 .0254790
953.755 .0254668
954.380 .0254547
955.005 .0254422
955.629 .0254294
956.253 .0254158
956.877 .0254017
957.500 .0253871
958.123 .0253714
958.746 .0253548
959.368 .0253376
959.990 .0253197
960.611 .0253021
961.232 .0252843
961.853 .0252670
962.473 .0252502
963.093 .0252343
963.712 .0252190
964.331 .0252043
964.950 .0251904
965.569 .0251775
966.187 .0251654
966.804 .0251544
967.422 .0251442
968.039 .0251348
968.655 .0251261
969.272 .0251176
969.887 .0251096
970.503 .0251014
971.118 .0250932
971.733 .0250851
972.347 .0250771
972.961 .0250697
973.575 .0250625
974.188 .0250559
974.801 .0250496
975.414 .0250434
976.026 .0250370
976.638 .0250301
977.250 .0250227
977.861 .0250149
978.472 .0250066
979.083 .0249980
979.693 .0249895
980.303 .0249813
980.912 .0249739
981.521 .0249671
982.130 .0249612
982.738 .0249560
983.346 .0249516
983.954 .0249478
984.562 .0249443
985.169 .0249408
985.775 .0249370
986.382 .0249332
986.988 .0249297
987.594 .0249261
988.199 .0249226
988.804 .0249196
989.409 .0249180
990.013 .0249177
990.617 .0249189
991.221 .0249221
991.824 .0249274
992.427 .0249343
993.030 .0249425
993.632 .0249514
994.234 .0249614
994.836 .0249718
995.438 .0249818
996.039 .0249915
996.640 .0250015
997.240 .0250118
997.840 .0250227
998.440 .0250349
999.040 .0250485
999.639 .0250629
1000.238 .0250779
1000.836 .0250928
1001.435 .0251076
1002.033 .0251218
1002.630 .0251346
1003.228 .0251464
1003.825 .0251578
1004.422 .0251684
1005.018 .0251794
1005.614 .0251916
1006.210 .0252053
1006.806 .0252200
1007.401 .0252354
1007.996 .0252510
1008.591 .0252668
1009.186 .0252827
1009.780 .0252985
1010.374 .0253141
1010.967 .0253300
1011.561 .0253459
1012.154 .0253615
1012.746 .0253779
1013.339 .0253952
1013.931 .0254133
1014.523 .0254322
1015.115 .0254515
1015.706 .0254720
1016.298 .0254931
1016.888 .0255147
1017.479 .0255367
1018.069 .0255593
1018.660 .0255819
1019.250 .0256042
1019.839 .0256263
1020.429 .0256490
1021.018 .0256720
1021.607 .0256952
1022.195 .0257187
1022.784 .0257430
1023.372 .0257671
1023.960 .0257913
1024.547 .0258156
1025.135 .0258402
1025.722 .0258641
1026.309 .0258876
1026.896 .0259111
1027.483 .0259341
1028.069 .0259565
1028.655 .0259778
1029.241 .0259978
1029.827 .0260173
1030.412 .0260347
1030.997 .0260509
1031.582 .0260664
1032.167 .0260819
1032.752 .0260970
1033.336 .0261122
1033.921 .0261284
1034.505 .0261444
1035.089 .0261597
1035.672 .0261741
1036.256 .0261869
1036.839 .0261978
1037.422 .0262071
1038.005 .0262157
1038.588 .0262244
1039.171 .0262334
1039.753 .0262430
1040.335 .0262542
1040.918 .0262662
1041.500 .0262782
1042.081 .0262898
1042.663 .0263004
1043.244 .0263097
1043.826 .0263159
1044.407 .0263211
1044.988 .0263253
1045.569 .0263298
1046.150 .0263340
1046.730 .0263387
1047.311 .0263448
1047.891 .0263510
1048.471 .0263574
1049.052 .0263633
1049.632 .0263684
1050.211 .0263732
1050.791 .0263766
1051.371 .0263797
1051.950 .0263828
1052.530 .0263856
1053.109 .0263880
1053.688 .0263906
1054.268 .0263929
1054.847 .0263934
1055.426 .0263931
1056.005 .0263924
1056.583 .0263901
1057.162 .0263860
1057.741 .0263814
1058.319 .0263753
1058.898 .0263688
1059.476 .0263615
1060.055 .0263529
1060.633 .0263442
1061.211 .0263351
1061.790 .0263243
1062.368 .0263132
1062.946 .0263025
1063.524 .0262913
1064.102 .0262792
1064.680 .0262678
1065.258 .0262554
1065.836 .0262423
1066.414 .0262288
1066.992 .0262148
1067.570 .0262002
1068.148 .0261847
1068.726 .0261687
1069.304 .0261523
1069.882 .0261365
1070.460 .0261206
1071.038 .0261043
1071.616 .0260895
1072.194 .0260758
1072.772 .0260621
1073.350 .0260497
1073.928 .0260387
1074.506 .0260284
1075.084 .0260175
1075.662 .0260072
1076.240 .0259975
1076.819 .0259877
1077.397 .0259777
1077.976 .0259690
1078.554 .0259609
1079.133 .0259545
1079.711 .0259491
1080.290 .0259430
1080.869 .0259376
1081.448 .0259306
1082.027 .0259212
1082.606 .0259101
1083.185 .0258975
1083.764 .0258841
1084.343 .0258703
1084.923 .0258584
1085.502 .0258487
1086.082 .0258402
1086.662 .0258349
1087.242 .0258312
1087.822 .0258295
1088.402 .0258289
1088.983 .0258274
1089.563 .0258252
1090.144 .0258228
1090.725 .0258198
1091.306 .0258170
1091.887 .0258147
1092.469 .0258144
1093.050 .0258162
1093.632 .0258201
1094.214 .0258271
1094.796 .0258360
1095.379 .0258462
1095.961 .0258585
1096.544 .0258707
1097.127 .0258820
1097.710 .0258928
1098.294 .0259038
1098.877 .0259142
1099.461 .0259234
1100.046 .0259326
1100.630 .0259397
1101.215 .0259457
1101.800 .0259505
1102.385 .0259518
1102.970 .0259496
1103.556 .0259422
1104.142 .0259292
1104.728 .0259135
1105.315 .0258964
1105.902 .0258769
1106.489 .0258574
1107.077 .0258418
1107.664 .0258279
1108.253 .0258163
1108.841 .0258090
1109.430 .0258039
1110.019 .0258025
1110.609 .0258064
1111.198 .0258137
1111.789 .0258259
1112.379 .0258451
1112.970 .0258718
1113.561 .0259050
1114.153 .0259476
1114.745 .0259947
1115.338 .0260466
1115.931 .0261059
1116.524 .0261676
1117.117 .0262287
1117.712 .0262908
1118.306 .0263504
1118.901 .0264052
1119.496 .0264568
1120.092 .0265044
1120.689 .0265466
1121.285 .0265887
1121.882 .0266316
1122.480 .0266760
1123.078 .0267250
1123.677 .0267815
1124.276 .0268425
1124.875 .0269107
1125.476 .0269815
1126.076 .0270499
1126.677 .0271184
1127.279 .0271842
1127.881 .0272449
1128.484 .0273036
1129.087 .0273636
1129.691 .0274301
1130.295 .0275034
1130.900 .0275854
1131.505 .0276726
1132.111 .0277651
1132.718 .0278580
1133.325 .0279470
1133.933 .0280307
1134.541 .0281109
1135.150 .0281842
1135.760 .0282535
1136.370 .0283236
1136.981 .0283999
1137.592 .0284850
1138.204 .0285823
1138.817 .0286869
1139.431 .0288068
1140.045 .0289412
1140.660 .0290816
1141.275 .0292276
1141.891 .0294232
1142.508 .0295753
1143.126 .0298016
1143.744 .0297771
1144.363 .0299609
1144.983 .0313583
