Measurement Sequence started on: 15-12-46-377
Integration time: 28
Scans to Average: 2 
>>>>>Begin Spectral Data<<<<<
432.689 .0000100
433.621 .0000100
434.552 .0000100
435.482 .0000100
436.410 .0000100
437.337 .0000100
438.262 .0278853
439.187 .0591297
440.110 .0979950
441.031 .1418343
441.952 .1844495
442.871 .2180399
443.789 .2365378
444.705 .2378426
445.621 .2244935
446.535 .2020396
447.447 .1765345
448.359 .1373931
449.269 .1178992
450.178 .1054841
451.086 .0966220
451.993 .0897308
452.898 .0842105
453.803 .0796522
454.706 .0758356
455.608 .0725813
456.508 .0697905
457.408 .0673968
458.306 .0652981
459.204 .0634325
460.100 .0617591
460.995 .0602615
461.888 .0589099
462.781 .0576759
463.673 .0565409
464.563 .0555241
465.452 .0545871
466.340 .0537154
467.228 .0529186
468.114 .0521905
468.999 .0515200
469.882 .0508971
470.765 .0503165
471.647 .0497849
472.528 .0492997
473.407 .0488672
474.286 .0484877
475.163 .0481621
476.040 .0478837
476.915 .0476339
477.790 .0474087
478.663 .0472072
479.535 .0470189
480.407 .0468488
481.277 .0466946
482.147 .0465596
483.015 .0464452
483.883 .0463512
484.749 .0462825
485.615 .0462350
486.479 .0462006
487.343 .0461751
488.206 .0461559
489.067 .0461349
489.928 .0461150
490.788 .0461000
491.647 .0461012
492.505 .0461277
493.362 .0461788
494.218 .0462548
495.073 .0463652
495.928 .0465137
496.781 .0466881
497.634 .0468894
498.486 .0471255
499.337 .0473773
500.187 .0476551
501.036 .0479584
501.884 .0482890
502.731 .0486530
503.578 .0490561
504.424 .0494886
505.268 .0499486
506.113 .0504471
506.956 .0509765
507.798 .0515505
508.640 .0521753
509.480 .0528386
510.320 .0535650
511.160 .0543650
511.998 .0552451
512.836 .0562103
513.672 .0572900
514.508 .0584756
515.344 .0597629
516.178 .0611779
517.012 .0627444
517.845 .0645152
518.677 .0665398
519.508 .0688607
520.339 .0715349
521.169 .0746191
521.998 .0780966
522.826 .0820478
523.654 .0865253
524.481 .0915001
525.307 .0970371
526.133 .1030568
526.958 .1095905
527.782 .1165676
528.605 .1238370
529.428 .1313443
530.250 .1385529
531.072 .1452349
531.892 .1508739
532.712 .1552352
533.532 .1581075
534.350 .1592134
535.168 .1585456
535.986 .1561569
536.802 .1522179
537.618 .1470113
538.434 .1407672
539.249 .1339794
540.063 .1268289
540.876 .1196320
541.689 .1125455
542.501 .1058267
543.313 .0996157
544.124 .0939918
544.934 .0888922
545.744 .0843156
546.553 .0801864
547.361 .0764504
548.169 .0731123
548.976 .0700922
549.783 .0673832
550.589 .0649456
551.395 .0627197
552.200 .0607252
553.004 .0589117
553.808 .0572733
554.611 .0557971
555.414 .0544870
556.216 .0533176
557.018 .0522950
557.819 .0513986
558.619 .0506072
559.419 .0498998
560.218 .0492655
561.017 .0486740
561.815 .0480989
562.613 .0475283
563.410 .0469541
564.207 .0463725
565.003 .0457959
565.799 .0452152
566.594 .0446388
567.388 .0440665
568.182 .0435006
568.976 .0429344
569.769 .0423726
570.562 .0418111
571.354 .0412509
572.145 .0406951
572.936 .0401527
573.727 .0396269
574.517 .0391272
575.307 .0386610
576.096 .0382286
576.885 .0378262
577.673 .0374546
578.461 .0371054
579.248 .0367727
580.035 .0364527
580.821 .0361473
581.607 .0358482
582.392 .0355624
583.177 .0352893
583.962 .0350331
584.746 .0348001
585.529 .0345928
586.313 .0344097
587.095 .0342502
587.878 .0341125
588.660 .0339909
589.441 .0338798
590.222 .0337750
591.003 .0336736
591.783 .0335735
592.563 .0334757
593.342 .0333820
594.121 .0332917
594.899 .0332083
595.678 .0331320
596.455 .0330620
597.233 .0329976
598.009 .0329369
598.786 .0328778
599.562 .0328182
600.338 .0327582
601.113 .0326970
601.888 .0326354
602.663 .0325745
603.437 .0325162
604.211 .0324611
604.984 .0324110
605.757 .0323662
606.530 .0323251
607.302 .0322874
608.074 .0322525
608.845 .0322186
609.616 .0321855
610.387 .0321532
611.158 .0321214
611.928 .0320903
612.697 .0320603
613.467 .0320312
614.236 .0320027
615.004 .0319753
615.773 .0319487
616.541 .0319219
617.308 .0318952
618.076 .0318683
618.843 .0318419
619.609 .0318169
620.375 .0317938
621.141 .0317717
621.907 .0317513
622.672 .0317321
623.437 .0317131
624.202 .0316946
624.966 .0316759
625.730 .0316572
626.493 .0316379
627.257 .0316180
628.020 .0315979
628.782 .0315784
629.545 .0315597
630.307 .0315414
631.068 .0315233
631.830 .0315044
632.591 .0314842
633.352 .0314630
634.112 .0314406
634.872 .0314168
635.632 .0313920
636.392 .0313668
637.151 .0313405
637.910 .0313145
638.668 .0312888
639.427 .0312642
640.185 .0312412
640.943 .0312186
641.700 .0311965
642.457 .0311750
643.214 .0311534
643.971 .0311316
644.727 .0311092
645.483 .0310866
646.239 .0310632
646.994 .0310397
647.750 .0310165
648.505 .0309939
649.259 .0309727
650.014 .0309525
650.768 .0309326
651.521 .0309133
652.275 .0308934
653.028 .0308733
653.781 .0308533
654.534 .0308326
655.286 .0308106
656.039 .0307883
656.791 .0307655
657.542 .0307423
658.294 .0307186
659.045 .0306947
659.796 .0306701
660.546 .0306450
661.297 .0306191
662.047 .0305913
662.796 .0305624
663.546 .0305331
664.295 .0305028
665.044 .0304723
665.793 .0304422
666.542 .0304129
667.290 .0303851
668.038 .0303591
668.786 .0303346
669.533 .0303111
670.281 .0302883
671.028 .0302660
671.774 .0302435
672.521 .0302208
673.267 .0301980
674.013 .0301749
674.759 .0301522
675.505 .0301297
676.250 .0301068
676.995 .0300838
677.740 .0300611
678.484 .0300378
679.229 .0300137
679.973 .0299885
680.717 .0299619
681.460 .0299342
682.204 .0299058
682.947 .0298773
683.690 .0298490
684.433 .0298217
685.175 .0297957
685.917 .0297710
686.659 .0297484
687.401 .0297272
688.142 .0297077
688.884 .0296900
689.625 .0296735
690.365 .0296577
691.106 .0296424
691.846 .0296276
692.586 .0296132
693.326 .0295993
694.066 .0295856
694.805 .0295718
695.545 .0295577
696.284 .0295429
697.022 .0295274
697.761 .0295105
698.499 .0294920
699.237 .0294720
699.975 .0294506
700.713 .0294278
701.450 .0294042
702.187 .0293803
702.924 .0293561
703.661 .0293326
704.397 .0293094
705.133 .0292868
705.869 .0292653
706.605 .0292444
707.341 .0292240
708.076 .0292049
708.811 .0291867
709.546 .0291688
710.281 .0291520
711.015 .0291363
711.749 .0291206
712.483 .0291055
713.217 .0290909
713.950 .0290765
714.684 .0290620
715.417 .0290470
716.150 .0290310
716.882 .0290139
717.615 .0289960
718.347 .0289767
719.079 .0289567
719.811 .0289372
720.542 .0289174
721.273 .0288983
722.005 .0288802
722.735 .0288634
723.466 .0288476
724.196 .0288329
724.927 .0288182
725.656 .0288035
726.386 .0287883
727.116 .0287731
727.845 .0287580
728.574 .0287436
729.303 .0287300
730.031 .0287176
730.760 .0287067
731.488 .0286965
732.216 .0286866
732.944 .0286770
733.671 .0286670
734.398 .0286565
735.125 .0286450
735.852 .0286329
736.579 .0286206
737.305 .0286089
738.031 .0285974
738.757 .0285863
739.483 .0285760
740.208 .0285658
740.933 .0285558
741.658 .0285456
742.383 .0285348
743.108 .0285236
743.832 .0285125
744.556 .0285012
745.280 .0284897
746.004 .0284784
746.727 .0284673
747.450 .0284567
748.173 .0284459
748.896 .0284351
749.618 .0284237
750.340 .0284124
751.062 .0284008
751.784 .0283886
752.506 .0283761
753.227 .0283638
753.948 .0283515
754.669 .0283391
755.389 .0283268
756.110 .0283148
756.830 .0283028
757.550 .0282912
758.269 .0282796
758.989 .0282680
759.708 .0282560
760.427 .0282439
761.146 .0282310
761.864 .0282178
762.582 .0282037
763.300 .0281886
764.018 .0281734
764.736 .0281580
765.453 .0281421
766.170 .0281264
766.887 .0281109
767.603 .0280957
768.320 .0280803
769.036 .0280648
769.751 .0280490
770.467 .0280329
771.182 .0280168
771.897 .0280004
772.612 .0279843
773.327 .0279689
774.041 .0279544
774.755 .0279412
775.469 .0279295
776.183 .0279183
776.896 .0279081
777.609 .0278984
778.322 .0278887
779.035 .0278789
779.747 .0278691
780.459 .0278590
781.171 .0278489
781.882 .0278387
782.594 .0278289
783.305 .0278193
784.016 .0278105
784.726 .0278020
785.436 .0277940
786.147 .0277864
786.856 .0277790
787.566 .0277719
788.275 .0277650
788.984 .0277577
789.693 .0277498
790.401 .0277409
791.110 .0277307
791.818 .0277188
792.525 .0277056
793.233 .0276913
793.940 .0276760
794.647 .0276601
795.353 .0276436
796.060 .0276267
796.766 .0276090
797.472 .0275901
798.177 .0275698
798.883 .0275483
799.588 .0275258
800.292 .0275030
800.997 .0274804
801.701 .0274589
802.405 .0274394
803.109 .0274223
803.812 .0274078
804.515 .0273956
805.218 .0273844
805.921 .0273740
806.623 .0273637
807.325 .0273530
808.027 .0273416
808.728 .0273299
809.429 .0273178
810.130 .0273051
810.831 .0272922
811.531 .0272785
812.231 .0272635
812.931 .0272473
813.630 .0272295
814.330 .0272093
815.029 .0271872
815.727 .0271635
816.426 .0271386
817.124 .0271135
817.821 .0270883
818.519 .0270639
819.216 .0270410
819.913 .0270199
820.609 .0270007
821.306 .0269834
822.002 .0269687
822.697 .0269561
823.393 .0269457
824.088 .0269374
824.783 .0269310
825.477 .0269262
826.171 .0269232
826.865 .0269217
827.559 .0269216
828.252 .0269223
828.945 .0269237
829.638 .0269250
830.330 .0269258
831.023 .0269256
831.714 .0269243
832.406 .0269219
833.097 .0269184
833.788 .0269134
834.479 .0269080
835.169 .0269022
835.859 .0268963
836.548 .0268906
837.238 .0268852
837.927 .0268800
838.615 .0268747
839.304 .0268694
839.992 .0268643
840.680 .0268595
841.367 .0268551
842.054 .0268511
842.741 .0268478
843.428 .0268454
844.114 .0268435
844.800 .0268423
845.485 .0268414
846.170 .0268403
846.855 .0268385
847.540 .0268359
848.224 .0268321
848.908 .0268273
849.592 .0268212
850.275 .0268140
850.958 .0268058
851.641 .0267966
852.323 .0267867
853.005 .0267762
853.687 .0267656
854.368 .0267541
855.049 .0267422
855.730 .0267298
856.410 .0267170
857.090 .0267037
857.769 .0266903
858.449 .0266771
859.128 .0266641
859.806 .0266517
860.485 .0266395
861.163 .0266281
861.840 .0266178
862.518 .0266081
863.195 .0265990
863.871 .0265905
864.548 .0265827
865.224 .0265749
865.899 .0265672
866.574 .0265594
867.249 .0265511
867.924 .0265427
868.598 .0265340
869.272 .0265259
869.946 .0265181
870.619 .0265109
871.292 .0265040
871.964 .0264976
872.636 .0264910
873.308 .0264841
873.979 .0264769
874.651 .0264695
875.321 .0264618
875.992 .0264539
876.662 .0264461
877.331 .0264394
878.001 .0264334
878.670 .0264283
879.338 .0264239
880.007 .0264206
880.675 .0264175
881.342 .0264145
882.009 .0264114
882.676 .0264078
883.343 .0264035
884.009 .0263988
884.675 .0263933
885.340 .0263878
886.005 .0263826
886.670 .0263784
887.334 .0263755
887.998 .0263741
888.662 .0263741
889.325 .0263750
889.988 .0263769
890.650 .0263788
891.312 .0263802
891.974 .0263808
892.636 .0263806
893.297 .0263799
893.957 .0263794
894.618 .0263792
895.278 .0263802
895.937 .0263827
896.596 .0263861
897.255 .0263894
897.914 .0263917
898.572 .0263923
899.230 .0263905
899.887 .0263860
900.544 .0263792
901.201 .0263705
901.857 .0263613
902.513 .0263514
903.168 .0263415
903.823 .0263315
904.478 .0263210
905.132 .0263095
905.786 .0262967
906.440 .0262823
907.093 .0262660
907.746 .0262483
908.399 .0262300
909.051 .0262112
909.703 .0261925
910.354 .0261742
911.005 .0261562
911.656 .0261385
912.306 .0261207
912.956 .0261025
913.605 .0260839
914.254 .0260649
914.903 .0260457
915.551 .0260267
916.199 .0260089
916.847 .0259924
917.494 .0259773
918.141 .0259639
918.788 .0259520
919.434 .0259407
920.079 .0259296
920.725 .0259183
921.370 .0259064
922.014 .0258933
922.658 .0258789
923.302 .0258633
923.946 .0258469
924.589 .0258297
925.231 .0258119
925.873 .0257937
926.515 .0257750
927.157 .0257550
927.798 .0257340
928.439 .0257113
929.079 .0256871
929.719 .0256610
930.359 .0256335
930.998 .0256049
931.637 .0255760
932.275 .0255473
932.913 .0255195
933.551 .0254926
934.188 .0254673
934.825 .0254430
935.462 .0254202
936.098 .0253993
936.733 .0253795
937.369 .0253614
938.004 .0253452
938.638 .0253299
939.273 .0253157
939.907 .0253021
940.540 .0252894
941.173 .0252769
941.806 .0252648
942.438 .0252528
943.070 .0252409
943.702 .0252293
944.333 .0252175
944.964 .0252050
945.594 .0251920
946.224 .0251782
946.854 .0251633
947.483 .0251477
948.112 .0251311
948.741 .0251139
949.369 .0250968
949.996 .0250796
950.624 .0250625
951.251 .0250457
951.878 .0250293
952.504 .0250126
953.130 .0249954
953.755 .0249779
954.380 .0249598
955.005 .0249417
955.629 .0249243
956.253 .0249077
956.877 .0248929
957.500 .0248791
958.123 .0248664
958.746 .0248541
959.368 .0248415
959.990 .0248280
960.611 .0248134
961.232 .0247979
961.853 .0247817
962.473 .0247655
963.093 .0247503
963.712 .0247366
964.331 .0247245
964.950 .0247137
965.569 .0247042
966.187 .0246953
966.804 .0246864
967.422 .0246767
968.039 .0246672
968.655 .0246574
969.272 .0246470
969.887 .0246367
970.503 .0246268
971.118 .0246175
971.733 .0246091
972.347 .0246012
972.961 .0245945
973.575 .0245879
974.188 .0245812
974.801 .0245734
975.414 .0245645
976.026 .0245541
976.638 .0245416
977.250 .0245270
977.861 .0245110
978.472 .0244933
979.083 .0244750
979.693 .0244562
980.303 .0244379
980.912 .0244203
981.521 .0244034
982.130 .0243869
982.738 .0243710
983.346 .0243546
983.954 .0243386
984.562 .0243228
985.169 .0243077
985.775 .0242937
986.382 .0242811
986.988 .0242701
987.594 .0242610
988.199 .0242534
988.804 .0242472
989.409 .0242418
990.013 .0242378
990.617 .0242338
991.221 .0242301
991.824 .0242271
992.427 .0242247
993.030 .0242236
993.632 .0242237
994.234 .0242247
994.836 .0242266
995.438 .0242292
996.039 .0242313
996.640 .0242323
997.240 .0242332
997.840 .0242338
998.440 .0242342
999.040 .0242345
999.639 .0242348
1000.238 .0242356
1000.836 .0242371
1001.435 .0242384
1002.033 .0242388
1002.630 .0242393
1003.228 .0242391
1003.825 .0242379
1004.422 .0242368
1005.018 .0242364
1005.614 .0242372
1006.210 .0242399
1006.806 .0242443
1007.401 .0242494
1007.996 .0242553
1008.591 .0242612
1009.186 .0242664
1009.780 .0242713
1010.374 .0242754
1010.967 .0242786
1011.561 .0242819
1012.154 .0242860
1012.746 .0242904
1013.339 .0242950
1013.931 .0243002
1014.523 .0243053
1015.115 .0243101
1015.706 .0243141
1016.298 .0243176
1016.888 .0243212
1017.479 .0243259
1018.069 .0243317
1018.660 .0243387
1019.250 .0243476
1019.839 .0243574
1020.429 .0243678
1021.018 .0243778
1021.607 .0243876
1022.195 .0243966
1022.784 .0244047
1023.372 .0244121
1023.960 .0244197
1024.547 .0244278
1025.135 .0244369
1025.722 .0244476
1026.309 .0244599
1026.896 .0244739
1027.483 .0244886
1028.069 .0245030
1028.655 .0245174
1029.241 .0245316
1029.827 .0245466
1030.412 .0245618
1030.997 .0245789
1031.582 .0245977
1032.167 .0246184
1032.752 .0246414
1033.336 .0246650
1033.921 .0246894
1034.505 .0247135
1035.089 .0247354
1035.672 .0247549
1036.256 .0247714
1036.839 .0247851
1037.422 .0247969
1038.005 .0248081
1038.588 .0248188
1039.171 .0248295
1039.753 .0248405
1040.335 .0248524
1040.918 .0248643
1041.500 .0248758
1042.081 .0248861
1042.663 .0248941
1043.244 .0249017
1043.826 .0249064
1044.407 .0249099
1044.988 .0249135
1045.569 .0249166
1046.150 .0249201
1046.730 .0249236
1047.311 .0249277
1047.891 .0249322
1048.471 .0249366
1049.052 .0249407
1049.632 .0249434
1050.211 .0249455
1050.791 .0249461
1051.371 .0249455
1051.950 .0249451
1052.530 .0249446
1053.109 .0249441
1053.688 .0249448
1054.268 .0249475
1054.847 .0249506
1055.426 .0249559
1056.005 .0249621
1056.583 .0249693
1057.162 .0249762
1057.741 .0249826
1058.319 .0249890
1058.898 .0249959
1059.476 .0250033
1060.055 .0250100
1060.633 .0250171
1061.211 .0250252
1061.790 .0250327
1062.368 .0250410
1062.946 .0250491
1063.524 .0250574
1064.102 .0250649
1064.680 .0250725
1065.258 .0250797
1065.836 .0250877
1066.414 .0250966
1066.992 .0251057
1067.570 .0251155
1068.148 .0251255
1068.726 .0251345
1069.304 .0251448
1069.882 .0251559
1070.460 .0251678
1071.038 .0251800
1071.616 .0251933
1072.194 .0252067
1072.772 .0252215
1073.350 .0252364
1073.928 .0252500
1074.506 .0252636
1075.084 .0252775
1075.662 .0252898
1076.240 .0253030
1076.819 .0253170
1077.397 .0253319
1077.976 .0253481
1078.554 .0253655
1079.133 .0253812
1079.711 .0253968
1080.290 .0254126
1080.869 .0254261
1081.448 .0254376
1082.027 .0254482
1082.606 .0254551
1083.185 .0254608
1083.764 .0254658
1084.343 .0254689
1084.923 .0254713
1085.502 .0254739
1086.082 .0254757
1086.662 .0254778
1087.242 .0254808
1087.822 .0254840
1088.402 .0254871
1088.983 .0254910
1089.563 .0254928
1090.144 .0254915
1090.725 .0254905
1091.306 .0254881
1091.887 .0254864
1092.469 .0254870
1093.050 .0254907
1093.632 .0254971
1094.214 .0255065
1094.796 .0255156
1095.379 .0255267
1095.961 .0255383
1096.544 .0255501
1097.127 .0255610
1097.710 .0255729
1098.294 .0255867
1098.877 .0256041
1099.461 .0256237
1100.046 .0256472
1100.630 .0256712
1101.215 .0256980
1101.800 .0257227
1102.385 .0257462
1102.970 .0257689
1103.556 .0257924
1104.142 .0258165
1104.728 .0258435
1105.315 .0258699
1105.902 .0258964
1106.489 .0259226
1107.077 .0259476
1107.664 .0259688
1108.253 .0259878
1108.841 .0260034
1109.430 .0260187
1110.019 .0260336
1110.609 .0260520
1111.198 .0260708
1111.789 .0260934
1112.379 .0261207
1112.970 .0261486
1113.561 .0261778
1114.153 .0262074
1114.745 .0262360
1115.338 .0262660
1115.931 .0262940
1116.524 .0263208
1117.117 .0263480
1117.712 .0263779
1118.306 .0264063
1118.901 .0264360
1119.496 .0264679
1120.092 .0265014
1120.689 .0265331
1121.285 .0265643
1121.882 .0265932
1122.480 .0266190
1123.078 .0266432
1123.677 .0266622
1124.276 .0266815
1124.875 .0267046
1125.476 .0267274
1126.076 .0267563
1126.677 .0267937
1127.279 .0268391
1127.881 .0268903
1128.484 .0269512
1129.087 .0270189
1129.691 .0270895
1130.295 .0271612
1130.900 .0272317
1131.505 .0273033
1132.111 .0273751
1132.718 .0274465
1133.325 .0275165
1133.933 .0275926
1134.541 .0276703
1135.150 .0277467
1135.760 .0278234
1136.370 .0278987
1136.981 .0279697
1137.592 .0280328
1138.204 .0280881
1138.817 .0281353
1139.431 .0281851
1140.045 .0282364
1140.660 .0282835
1141.275 .0283327
1141.891 .0283969
1142.508 .0285709
1143.126 .0286037
1143.744 .0285165
1144.363 .0285280
1144.983 .0289747
