Measurement Sequence started on: 15-12-46-377
Integration time: 28
Scans to Average: 2 
>>>>>Begin Spectral Data<<<<<
432.689 .0000100
433.621 .0000100
434.552 .0000100
435.482 .0000100
436.410 .0000100
437.337 .0000100
438.262 .0268510
439.187 .0568540
440.110 .0941485
441.031 .1362392
441.952 .1770484
442.871 .2090907
443.789 .2265429
444.705 .2274107
445.621 .2141588
446.535 .1921844
447.447 .1673624
448.359 .1295456
449.269 .1108382
450.178 .0990664
451.086 .0907840
451.993 .0845409
452.898 .0796496
453.803 .0756635
454.706 .0723532
455.608 .0695494
456.508 .0671477
457.408 .0650870
458.306 .0632878
459.204 .0617057
460.100 .0602940
460.995 .0590294
461.888 .0578640
462.781 .0567775
463.673 .0557487
464.563 .0547905
465.452 .0538868
466.340 .0530345
467.228 .0522535
468.114 .0515368
468.999 .0508824
469.882 .0502833
470.765 .0497327
471.647 .0492266
472.528 .0487566
473.407 .0483235
474.286 .0479212
475.163 .0475509
476.040 .0472229
476.915 .0469426
477.790 .0467103
478.663 .0465325
479.535 .0464026
480.407 .0463198
481.277 .0462747
482.147 .0462515
483.015 .0462459
483.883 .0462514
484.749 .0462573
485.615 .0462676
486.479 .0462765
487.343 .0462974
488.206 .0463344
489.067 .0463924
489.928 .0464717
490.788 .0465675
491.647 .0466816
492.505 .0468064
493.362 .0469296
494.218 .0470537
495.073 .0471739
495.928 .0473099
496.781 .0474584
497.634 .0476268
498.486 .0478275
499.337 .0480646
500.187 .0483305
501.036 .0486247
501.884 .0489421
502.731 .0492831
503.578 .0496385
504.424 .0500090
505.268 .0503941
506.113 .0508074
506.956 .0512611
507.798 .0517690
508.640 .0523342
509.480 .0529702
510.320 .0536621
511.160 .0544252
511.998 .0552646
512.836 .0561908
513.672 .0572092
514.508 .0583377
515.344 .0595903
516.178 .0610037
517.012 .0626093
517.845 .0644553
518.677 .0665695
519.508 .0689948
520.339 .0717365
521.169 .0748322
521.998 .0783211
522.826 .0822347
523.654 .0866092
524.481 .0914486
525.307 .0968369
526.133 .1027861
526.958 .1091954
527.782 .1160911
528.605 .1232961
529.428 .1306564
530.250 .1376279
531.072 .1438921
531.892 .1490944
532.712 .1529701
533.532 .1553254
534.350 .1559552
535.168 .1548255
535.986 .1521206
536.802 .1479079
537.618 .1424767
538.434 .1361018
539.249 .1292192
540.063 .1220216
540.876 .1148350
541.689 .1078370
542.501 .1012970
543.313 .0953395
544.124 .0900189
544.934 .0852643
545.744 .0810202
546.553 .0772210
547.361 .0738245
548.169 .0708349
548.976 .0682009
549.783 .0658229
550.589 .0637202
551.395 .0617894
552.200 .0600234
553.004 .0583927
553.808 .0568597
554.611 .0554394
555.414 .0541431
556.216 .0529370
557.018 .0518440
557.819 .0508530
558.619 .0499668
559.419 .0491530
560.218 .0484165
561.017 .0477315
561.815 .0470817
562.613 .0464522
563.410 .0458391
564.207 .0452372
565.003 .0446622
565.799 .0440993
566.594 .0435571
567.388 .0430553
568.182 .0425770
568.976 .0421109
569.769 .0416642
570.562 .0412157
571.354 .0407633
572.145 .0402983
572.936 .0398261
573.727 .0393461
574.517 .0388666
575.307 .0383947
576.096 .0379398
576.885 .0375112
577.673 .0371108
578.461 .0367394
579.248 .0364022
580.035 .0360925
580.821 .0358031
581.607 .0355320
582.392 .0352767
583.177 .0350360
583.962 .0348113
584.746 .0346006
585.529 .0344073
586.313 .0342314
587.095 .0340698
587.878 .0339233
588.660 .0337916
589.441 .0336714
590.222 .0335604
591.003 .0334585
591.783 .0333629
592.563 .0332728
593.342 .0331885
594.121 .0331075
594.899 .0330317
595.678 .0329614
596.455 .0328950
597.233 .0328348
598.009 .0327807
598.786 .0327310
599.562 .0326850
600.338 .0326414
601.113 .0325990
601.888 .0325561
602.663 .0325128
603.437 .0324685
604.211 .0324234
604.984 .0323788
605.757 .0323348
606.530 .0322928
607.302 .0322539
608.074 .0322173
608.845 .0321828
609.616 .0321499
610.387 .0321168
611.158 .0320833
611.928 .0320490
612.697 .0320141
613.467 .0319793
614.236 .0319452
615.004 .0319126
615.773 .0318818
616.541 .0318535
617.308 .0318279
618.076 .0318044
618.843 .0317827
619.609 .0317615
620.375 .0317405
621.141 .0317187
621.907 .0316962
622.672 .0316731
623.437 .0316494
624.202 .0316261
624.966 .0316035
625.730 .0315812
626.493 .0315594
627.257 .0315378
628.020 .0315162
628.782 .0314941
629.545 .0314712
630.307 .0314468
631.068 .0314216
631.830 .0313957
632.591 .0313692
633.352 .0313422
634.112 .0313160
634.872 .0312892
635.632 .0312625
636.392 .0312356
637.151 .0312082
637.910 .0311808
638.668 .0311538
639.427 .0311275
640.185 .0311024
640.943 .0310777
641.700 .0310540
642.457 .0310311
643.214 .0310089
643.971 .0309864
644.727 .0309637
645.483 .0309407
646.239 .0309168
646.994 .0308918
647.750 .0308676
648.505 .0308436
649.259 .0308212
650.014 .0308002
650.768 .0307798
651.521 .0307607
652.275 .0307415
653.028 .0307211
653.781 .0306999
654.534 .0306777
655.286 .0306541
656.039 .0306291
656.791 .0306050
657.542 .0305806
658.294 .0305563
659.045 .0305330
659.796 .0305094
660.546 .0304847
661.297 .0304590
662.047 .0304316
662.796 .0304028
663.546 .0303731
664.295 .0303427
665.044 .0303116
665.793 .0302824
666.542 .0302539
667.290 .0302261
668.038 .0301991
668.786 .0301725
669.533 .0301450
670.281 .0301169
671.028 .0300879
671.774 .0300582
672.521 .0300290
673.267 .0300006
674.013 .0299728
674.759 .0299464
675.505 .0299211
676.250 .0298967
676.995 .0298732
677.740 .0298504
678.484 .0298270
679.229 .0298042
679.973 .0297818
680.717 .0297596
681.460 .0297385
682.204 .0297181
682.947 .0296990
683.690 .0296813
684.433 .0296646
685.175 .0296485
685.917 .0296337
686.659 .0296200
687.401 .0296071
688.142 .0295949
688.884 .0295832
689.625 .0295712
690.365 .0295591
691.106 .0295463
691.846 .0295326
692.586 .0295182
693.326 .0295035
694.066 .0294878
694.805 .0294719
695.545 .0294555
696.284 .0294392
697.022 .0294231
697.761 .0294068
698.499 .0293898
699.237 .0293725
699.975 .0293546
700.713 .0293361
701.450 .0293174
702.187 .0292997
702.924 .0292828
703.661 .0292671
704.397 .0292529
705.133 .0292398
705.869 .0292278
706.605 .0292167
707.341 .0292062
708.076 .0291960
708.811 .0291860
709.546 .0291758
710.281 .0291654
711.015 .0291551
711.749 .0291445
712.483 .0291336
713.217 .0291220
713.950 .0291091
714.684 .0290946
715.417 .0290782
716.150 .0290607
716.882 .0290423
717.615 .0290236
718.347 .0290050
719.079 .0289867
719.811 .0289694
720.542 .0289524
721.273 .0289358
722.005 .0289191
722.735 .0289020
723.466 .0288841
724.196 .0288654
724.927 .0288459
725.656 .0288268
726.386 .0288084
727.116 .0287911
727.845 .0287751
728.574 .0287598
729.303 .0287450
730.031 .0287299
730.760 .0287143
731.488 .0286976
732.216 .0286798
732.944 .0286611
733.671 .0286415
734.398 .0286218
735.125 .0286025
735.852 .0285839
736.579 .0285664
737.305 .0285500
738.031 .0285339
738.757 .0285182
739.483 .0285023
740.208 .0284856
740.933 .0284686
741.658 .0284510
742.383 .0284332
743.108 .0284151
743.832 .0283974
744.556 .0283801
745.280 .0283630
746.004 .0283464
746.727 .0283300
747.450 .0283134
748.173 .0282969
748.896 .0282803
749.618 .0282636
750.340 .0282469
751.062 .0282306
751.784 .0282144
752.506 .0281987
753.227 .0281827
753.948 .0281661
754.669 .0281491
755.389 .0281313
756.110 .0281124
756.830 .0280926
757.550 .0280725
758.269 .0280526
758.989 .0280330
759.708 .0280138
760.427 .0279951
761.146 .0279768
761.864 .0279587
762.582 .0279404
763.300 .0279219
764.018 .0279032
764.736 .0278840
765.453 .0278648
766.170 .0278463
766.887 .0278282
767.603 .0278107
768.320 .0277940
769.036 .0277782
769.751 .0277627
770.467 .0277477
771.182 .0277333
771.897 .0277200
772.612 .0277074
773.327 .0276956
774.041 .0276846
774.755 .0276744
775.469 .0276648
776.183 .0276559
776.896 .0276477
777.609 .0276401
778.322 .0276332
779.035 .0276269
779.747 .0276217
780.459 .0276179
781.171 .0276155
781.882 .0276145
782.594 .0276147
783.305 .0276153
784.016 .0276157
784.726 .0276157
785.436 .0276153
786.147 .0276140
786.856 .0276121
787.566 .0276097
788.275 .0276070
788.984 .0276044
789.693 .0276018
790.401 .0275991
791.110 .0275962
791.818 .0275925
792.525 .0275878
793.233 .0275817
793.940 .0275747
794.647 .0275664
795.353 .0275575
796.060 .0275483
796.766 .0275389
797.472 .0275291
798.177 .0275197
798.883 .0275104
799.588 .0275012
800.292 .0274924
800.997 .0274840
801.701 .0274763
802.405 .0274695
803.109 .0274636
803.812 .0274586
804.515 .0274546
805.218 .0274508
805.921 .0274469
806.623 .0274428
807.325 .0274384
808.027 .0274335
808.728 .0274284
809.429 .0274230
810.130 .0274176
810.831 .0274123
811.531 .0274072
812.231 .0274018
812.931 .0273965
813.630 .0273903
814.330 .0273836
815.029 .0273762
815.727 .0273678
816.426 .0273580
817.124 .0273476
817.821 .0273362
818.519 .0273243
819.216 .0273119
819.913 .0272999
820.609 .0272881
821.306 .0272772
822.002 .0272672
822.697 .0272583
823.393 .0272507
824.088 .0272446
824.783 .0272394
825.477 .0272348
826.171 .0272304
826.865 .0272265
827.559 .0272226
828.252 .0272193
828.945 .0272163
829.638 .0272136
830.330 .0272117
831.023 .0272107
831.714 .0272105
832.406 .0272107
833.097 .0272112
833.788 .0272112
834.479 .0272101
835.169 .0272077
835.859 .0272037
836.548 .0271985
837.238 .0271923
837.927 .0271854
838.615 .0271784
839.304 .0271718
839.992 .0271658
840.680 .0271604
841.367 .0271555
842.054 .0271505
842.741 .0271449
843.428 .0271381
844.114 .0271304
844.800 .0271215
845.485 .0271115
846.170 .0271003
846.855 .0270883
847.540 .0270749
848.224 .0270602
848.908 .0270440
849.592 .0270267
850.275 .0270078
850.958 .0269876
851.641 .0269659
852.323 .0269433
853.005 .0269202
853.687 .0268964
854.368 .0268721
855.049 .0268472
855.730 .0268219
856.410 .0267958
857.090 .0267694
857.769 .0267430
858.449 .0267170
859.128 .0266920
859.806 .0266677
860.485 .0266450
861.163 .0266233
861.840 .0266027
862.518 .0265828
863.195 .0265632
863.871 .0265435
864.548 .0265233
865.224 .0265031
865.899 .0264826
866.574 .0264620
867.249 .0264415
867.924 .0264214
868.598 .0264017
869.272 .0263820
869.946 .0263624
870.619 .0263426
871.292 .0263226
871.964 .0263020
872.636 .0262810
873.308 .0262598
873.979 .0262386
874.651 .0262175
875.321 .0261966
875.992 .0261768
876.662 .0261583
877.331 .0261406
878.001 .0261244
878.670 .0261095
879.338 .0260956
880.007 .0260825
880.675 .0260704
881.342 .0260585
882.009 .0260470
882.676 .0260360
883.343 .0260253
884.009 .0260153
884.675 .0260059
885.340 .0259969
886.005 .0259887
886.670 .0259813
887.334 .0259739
887.998 .0259663
888.662 .0259588
889.325 .0259508
889.988 .0259421
890.650 .0259334
891.312 .0259248
891.974 .0259168
892.636 .0259098
893.297 .0259040
893.957 .0258998
894.618 .0258970
895.278 .0258954
895.937 .0258948
896.596 .0258948
897.255 .0258949
897.914 .0258947
898.572 .0258940
899.230 .0258926
899.887 .0258907
900.544 .0258884
901.201 .0258860
901.857 .0258833
902.513 .0258803
903.168 .0258767
903.823 .0258725
904.478 .0258667
905.132 .0258589
905.786 .0258494
906.440 .0258375
907.093 .0258233
907.746 .0258073
908.399 .0257903
909.051 .0257727
909.703 .0257551
910.354 .0257376
911.005 .0257206
911.656 .0257039
912.306 .0256875
912.956 .0256707
913.605 .0256541
914.254 .0256375
914.903 .0256211
915.551 .0256056
916.199 .0255921
916.847 .0255803
917.494 .0255706
918.141 .0255634
918.788 .0255581
919.434 .0255540
920.079 .0255506
920.725 .0255470
921.370 .0255432
922.014 .0255390
922.658 .0255342
923.302 .0255290
923.946 .0255242
924.589 .0255194
925.231 .0255146
925.873 .0255100
926.515 .0255052
927.157 .0254995
927.798 .0254926
928.439 .0254844
929.079 .0254741
929.719 .0254620
930.359 .0254488
930.998 .0254345
931.637 .0254202
932.275 .0254068
932.913 .0253945
933.551 .0253839
934.188 .0253751
934.825 .0253677
935.462 .0253608
936.098 .0253549
936.733 .0253491
937.369 .0253432
938.004 .0253380
938.638 .0253337
939.273 .0253305
939.907 .0253293
940.540 .0253305
941.173 .0253339
941.806 .0253395
942.438 .0253468
943.070 .0253547
943.702 .0253631
944.333 .0253713
944.964 .0253789
945.594 .0253858
946.224 .0253924
946.854 .0253987
947.483 .0254048
948.112 .0254109
948.741 .0254168
949.369 .0254223
949.996 .0254274
950.624 .0254318
951.251 .0254352
951.878 .0254375
952.504 .0254390
953.130 .0254396
953.755 .0254394
954.380 .0254385
955.005 .0254363
955.629 .0254334
956.253 .0254294
956.877 .0254246
957.500 .0254188
958.123 .0254128
958.746 .0254066
959.368 .0254002
959.990 .0253939
960.611 .0253877
961.232 .0253823
961.853 .0253775
962.473 .0253735
963.093 .0253705
963.712 .0253684
964.331 .0253673
964.950 .0253666
965.569 .0253665
966.187 .0253668
966.804 .0253677
967.422 .0253689
968.039 .0253700
968.655 .0253713
969.272 .0253720
969.887 .0253721
970.503 .0253716
971.118 .0253706
971.733 .0253690
972.347 .0253667
972.961 .0253635
973.575 .0253593
974.188 .0253538
974.801 .0253467
975.414 .0253382
976.026 .0253287
976.638 .0253179
977.250 .0253060
977.861 .0252941
978.472 .0252825
979.083 .0252712
979.693 .0252601
980.303 .0252489
980.912 .0252374
981.521 .0252246
982.130 .0252103
982.738 .0251950
983.346 .0251794
983.954 .0251634
984.562 .0251471
985.169 .0251311
985.775 .0251155
986.382 .0251000
986.988 .0250851
987.594 .0250705
988.199 .0250563
988.804 .0250423
989.409 .0250280
990.013 .0250143
990.617 .0250015
991.221 .0249892
991.824 .0249775
992.427 .0249671
993.030 .0249576
993.632 .0249484
994.234 .0249407
994.836 .0249345
995.438 .0249299
996.039 .0249270
996.640 .0249250
997.240 .0249229
997.840 .0249211
998.440 .0249180
999.040 .0249127
999.639 .0249066
1000.238 .0248993
1000.836 .0248910
1001.435 .0248825
1002.033 .0248745
1002.630 .0248668
1003.228 .0248594
1003.825 .0248523
1004.422 .0248441
1005.018 .0248350
1005.614 .0248238
1006.210 .0248100
1006.806 .0247949
1007.401 .0247789
1007.996 .0247624
1008.591 .0247465
1009.186 .0247323
1009.780 .0247197
1010.374 .0247086
1010.967 .0246986
1011.561 .0246895
1012.154 .0246809
1012.746 .0246712
1013.339 .0246606
1013.931 .0246492
1014.523 .0246375
1015.115 .0246248
1015.706 .0246126
1016.298 .0246010
1016.888 .0245901
1017.479 .0245798
1018.069 .0245699
1018.660 .0245602
1019.250 .0245506
1019.839 .0245401
1020.429 .0245291
1021.018 .0245174
1021.607 .0245054
1022.195 .0244923
1022.784 .0244803
1023.372 .0244686
1023.960 .0244579
1024.547 .0244484
1025.135 .0244409
1025.722 .0244349
1026.309 .0244309
1026.896 .0244281
1027.483 .0244270
1028.069 .0244267
1028.655 .0244270
1029.241 .0244268
1029.827 .0244267
1030.412 .0244261
1030.997 .0244244
1031.582 .0244219
1032.167 .0244186
1032.752 .0244145
1033.336 .0244099
1033.921 .0244045
1034.505 .0243981
1035.089 .0243904
1035.672 .0243812
1036.256 .0243710
1036.839 .0243595
1037.422 .0243479
1038.005 .0243367
1038.588 .0243270
1039.171 .0243192
1039.753 .0243141
1040.335 .0243115
1040.918 .0243115
1041.500 .0243132
1042.081 .0243157
1042.663 .0243180
1043.244 .0243204
1043.826 .0243222
1044.407 .0243234
1044.988 .0243243
1045.569 .0243245
1046.150 .0243245
1046.730 .0243237
1047.311 .0243212
1047.891 .0243170
1048.471 .0243113
1049.052 .0243034
1049.632 .0242937
1050.211 .0242830
1050.791 .0242727
1051.371 .0242626
1051.950 .0242544
1052.530 .0242463
1053.109 .0242403
1053.688 .0242353
1054.268 .0242313
1054.847 .0242278
1055.426 .0242261
1056.005 .0242258
1056.583 .0242268
1057.162 .0242292
1057.741 .0242327
1058.319 .0242365
1058.898 .0242410
1059.476 .0242436
1060.055 .0242452
1060.633 .0242452
1061.211 .0242442
1061.790 .0242429
1062.368 .0242421
1062.946 .0242420
1063.524 .0242425
1064.102 .0242439
1064.680 .0242460
1065.258 .0242480
1065.836 .0242497
1066.414 .0242511
1066.992 .0242537
1067.570 .0242569
1068.148 .0242598
1068.726 .0242634
1069.304 .0242683
1069.882 .0242729
1070.460 .0242766
1071.038 .0242787
1071.616 .0242794
1072.194 .0242805
1072.772 .0242808
1073.350 .0242821
1073.928 .0242866
1074.506 .0242938
1075.084 .0243030
1075.662 .0243148
1076.240 .0243286
1076.819 .0243418
1077.397 .0243561
1077.976 .0243702
1078.554 .0243840
1079.133 .0243981
1079.711 .0244107
1080.290 .0244247
1080.869 .0244391
1081.448 .0244530
1082.027 .0244653
1082.606 .0244757
1083.185 .0244855
1083.764 .0244922
1084.343 .0244981
1084.923 .0245034
1085.502 .0245083
1086.082 .0245141
1086.662 .0245202
1087.242 .0245273
1087.822 .0245353
1088.402 .0245444
1088.983 .0245557
1089.563 .0245689
1090.144 .0245828
1090.725 .0245980
1091.306 .0246137
1091.887 .0246304
1092.469 .0246474
1093.050 .0246632
1093.632 .0246794
1094.214 .0246959
1094.796 .0247128
1095.379 .0247297
1095.961 .0247484
1096.544 .0247689
1097.127 .0247910
1097.710 .0248150
1098.294 .0248399
1098.877 .0248647
1099.461 .0248897
1100.046 .0249146
1100.630 .0249393
1101.215 .0249639
1101.800 .0249890
1102.385 .0250137
1102.970 .0250399
1103.556 .0250647
1104.142 .0250875
1104.728 .0251084
1105.315 .0251264
1105.902 .0251404
1106.489 .0251514
1107.077 .0251607
1107.664 .0251701
1108.253 .0251817
1108.841 .0251979
1109.430 .0252194
1110.019 .0252455
1110.609 .0252757
1111.198 .0253083
1111.789 .0253438
1112.379 .0253821
1112.970 .0254205
1113.561 .0254620
1114.153 .0255071
1114.745 .0255538
1115.338 .0256015
1115.931 .0256491
1116.524 .0256972
1117.117 .0257436
1117.712 .0257878
1118.306 .0258318
1118.901 .0258760
1119.496 .0259220
1120.092 .0259710
1120.689 .0260236
1121.285 .0260791
1121.882 .0261359
1122.480 .0261968
1123.078 .0262597
1123.677 .0263244
1124.276 .0263899
1124.875 .0264587
1125.476 .0265319
1126.076 .0266093
1126.677 .0266867
1127.279 .0267654
1127.881 .0268489
1128.484 .0269287
1129.087 .0270010
1129.691 .0270732
1130.295 .0271430
1130.900 .0272125
1131.505 .0272836
1132.111 .0273592
1132.718 .0274371
1133.325 .0275210
1133.933 .0276080
1134.541 .0276982
1135.150 .0277956
1135.760 .0278998
1136.370 .0280094
1136.981 .0281309
1137.592 .0282605
1138.204 .0283997
1138.817 .0285478
1139.431 .0287072
1140.045 .0288739
1140.660 .0290520
1141.275 .0292378
1141.891 .0294268
1142.508 .0295836
1143.126 .0298534
1143.744 .0301675
1144.363 .0303311
1144.983 .0302740
