Measurement Sequence started on: 15-12-46-377
Integration time: 28
Scans to Average: 2 
>>>>>Begin Spectral Data<<<<<
432.689 .0000100
433.621 .0000100
434.552 .0000100
435.482 .0000100
436.410 .0000100
437.337 .0000100
438.262 .0286607
439.187 .0607239
440.110 .1005889
441.031 .1455602
441.952 .1892324
442.871 .2235888
443.789 .2424083
444.705 .2435648
445.621 .2296915
446.535 .2065033
447.447 .1802398
448.359 .1400297
449.269 .1201149
450.178 .1075229
451.086 .0986147
451.993 .0917892
452.898 .0864004
453.803 .0819972
454.706 .0783389
455.608 .0752328
456.508 .0725735
457.408 .0702826
458.306 .0682551
459.204 .0664236
460.100 .0647573
460.995 .0632450
461.888 .0618566
462.781 .0605726
463.673 .0593789
464.563 .0582816
465.452 .0572576
466.340 .0562984
467.228 .0554088
468.114 .0545898
468.999 .0538391
469.882 .0531515
470.765 .0525246
471.647 .0519683
472.528 .0514699
473.407 .0510291
474.286 .0506435
475.163 .0503025
476.040 .0499976
476.915 .0497278
477.790 .0494891
478.663 .0492818
479.535 .0490976
480.407 .0489364
481.277 .0488042
482.147 .0486988
483.015 .0486222
483.883 .0485650
484.749 .0485275
485.615 .0485099
486.479 .0485012
487.343 .0485009
488.206 .0485101
489.067 .0485248
489.928 .0485446
490.788 .0485693
491.647 .0486032
492.505 .0486452
493.362 .0487035
494.218 .0487784
495.073 .0488648
495.928 .0489587
496.781 .0490603
497.634 .0491597
498.486 .0492705
499.337 .0493923
500.187 .0495230
501.036 .0496717
501.884 .0498466
502.731 .0500573
503.578 .0503115
504.424 .0506205
505.268 .0509773
506.113 .0513900
506.956 .0518616
507.798 .0523943
508.640 .0529940
509.480 .0536721
510.320 .0544500
511.160 .0553280
511.998 .0563204
512.836 .0574308
513.672 .0586585
514.508 .0600045
515.344 .0614534
516.178 .0630405
517.012 .0647555
517.845 .0666552
518.677 .0687694
519.508 .0711552
520.339 .0738498
521.169 .0769400
521.998 .0804378
522.826 .0844148
523.654 .0889184
524.481 .0939338
525.307 .0995128
526.133 .1056115
526.958 .1122325
527.782 .1193533
528.605 .1268307
529.428 .1346363
530.250 .1420892
531.072 .1490725
531.892 .1550599
532.712 .1597538
533.532 .1629105
534.350 .1642702
535.168 .1637250
535.986 .1612846
536.802 .1571571
537.618 .1516390
538.434 .1449411
539.249 .1376842
540.063 .1299839
540.876 .1222763
541.689 .1147627
542.501 .1077042
543.313 .1012450
544.124 .0955150
544.934 .0904077
545.744 .0858138
546.553 .0816843
547.361 .0780212
548.169 .0747887
548.976 .0719201
549.783 .0693932
550.589 .0671638
551.395 .0651546
552.200 .0633640
553.004 .0617139
553.808 .0601894
554.611 .0587769
555.414 .0574621
556.216 .0562228
557.018 .0550698
557.819 .0540005
558.619 .0530163
559.419 .0521177
560.218 .0512889
561.017 .0504959
561.815 .0497355
562.613 .0489884
563.410 .0482497
564.207 .0475133
565.003 .0467850
565.799 .0460628
566.594 .0453580
567.388 .0446844
568.182 .0440375
568.976 .0434214
569.769 .0428445
570.562 .0422977
571.354 .0417826
572.145 .0412900
572.936 .0408229
573.727 .0403776
574.517 .0399493
575.307 .0395326
576.096 .0391345
576.885 .0387526
577.673 .0383886
578.461 .0380474
579.248 .0377306
580.035 .0374351
580.821 .0371622
581.607 .0369097
582.392 .0366733
583.177 .0364509
583.962 .0362393
584.746 .0360382
585.529 .0358473
586.313 .0356668
587.095 .0354935
587.878 .0353345
588.660 .0351844
589.441 .0350448
590.222 .0349141
591.003 .0347938
591.783 .0346819
592.563 .0345781
593.342 .0344821
594.121 .0343919
594.899 .0343065
595.678 .0342248
596.455 .0341463
597.233 .0340717
598.009 .0339977
598.786 .0339261
599.562 .0338562
600.338 .0337894
601.113 .0337243
601.888 .0336624
602.663 .0336017
603.437 .0335430
604.211 .0334854
604.984 .0334284
605.757 .0333729
606.530 .0333187
607.302 .0332662
608.074 .0332158
608.845 .0331672
609.616 .0331206
610.387 .0330759
611.158 .0330337
611.928 .0329930
612.697 .0329535
613.467 .0329160
614.236 .0328804
615.004 .0328469
615.773 .0328160
616.541 .0327880
617.308 .0327631
618.076 .0327416
618.843 .0327220
619.609 .0327051
620.375 .0326897
621.141 .0326755
621.907 .0326627
622.672 .0326504
623.437 .0326385
624.202 .0326273
624.966 .0326167
625.730 .0326064
626.493 .0325951
627.257 .0325835
628.020 .0325708
628.782 .0325571
629.545 .0325420
630.307 .0325248
631.068 .0325059
631.830 .0324859
632.591 .0324633
633.352 .0324393
634.112 .0324141
634.872 .0323880
635.632 .0323617
636.392 .0323353
637.151 .0323099
637.910 .0322852
638.668 .0322618
639.427 .0322396
640.185 .0322177
640.943 .0321966
641.700 .0321754
642.457 .0321533
643.214 .0321309
643.971 .0321079
644.727 .0320845
645.483 .0320612
646.239 .0320389
646.994 .0320169
647.750 .0319955
648.505 .0319745
649.259 .0319533
650.014 .0319314
650.768 .0319082
651.521 .0318831
652.275 .0318555
653.028 .0318255
653.781 .0317931
654.534 .0317587
655.286 .0317231
656.039 .0316870
656.791 .0316501
657.542 .0316127
658.294 .0315753
659.045 .0315372
659.796 .0314987
660.546 .0314597
661.297 .0314196
662.047 .0313783
662.796 .0313356
663.546 .0312922
664.295 .0312486
665.044 .0312056
665.793 .0311642
666.542 .0311244
667.290 .0310861
668.038 .0310495
668.786 .0310141
669.533 .0309802
670.281 .0309471
671.028 .0309150
671.774 .0308838
672.521 .0308537
673.267 .0308246
674.013 .0307970
674.759 .0307713
675.505 .0307475
676.250 .0307244
676.995 .0307017
677.740 .0306794
678.484 .0306565
679.229 .0306330
679.973 .0306088
680.717 .0305839
681.460 .0305587
682.204 .0305331
682.947 .0305079
683.690 .0304838
684.433 .0304606
685.175 .0304386
685.917 .0304174
686.659 .0303971
687.401 .0303776
688.142 .0303587
688.884 .0303407
689.625 .0303239
690.365 .0303083
691.106 .0302938
691.846 .0302803
692.586 .0302687
693.326 .0302580
694.066 .0302478
694.805 .0302379
695.545 .0302273
696.284 .0302158
697.022 .0302032
697.761 .0301890
698.499 .0301736
699.237 .0301581
699.975 .0301425
700.713 .0301269
701.450 .0301124
702.187 .0300994
702.924 .0300874
703.661 .0300764
704.397 .0300663
705.133 .0300569
705.869 .0300481
706.605 .0300394
707.341 .0300307
708.076 .0300222
708.811 .0300137
709.546 .0300053
710.281 .0299970
711.015 .0299889
711.749 .0299803
712.483 .0299711
713.217 .0299612
713.950 .0299503
714.684 .0299383
715.417 .0299252
716.150 .0299111
716.882 .0298966
717.615 .0298816
718.347 .0298666
719.079 .0298523
719.811 .0298386
720.542 .0298247
721.273 .0298106
722.005 .0297958
722.735 .0297801
723.466 .0297635
724.196 .0297460
724.927 .0297278
725.656 .0297089
726.386 .0296898
727.116 .0296704
727.845 .0296512
728.574 .0296328
729.303 .0296148
730.031 .0295970
730.760 .0295796
731.488 .0295622
732.216 .0295449
732.944 .0295283
733.671 .0295125
734.398 .0294974
735.125 .0294830
735.852 .0294689
736.579 .0294554
737.305 .0294419
738.031 .0294285
738.757 .0294146
739.483 .0293997
740.208 .0293836
740.933 .0293659
741.658 .0293469
742.383 .0293268
743.108 .0293058
743.832 .0292847
744.556 .0292631
745.280 .0292417
746.004 .0292206
746.727 .0291997
747.450 .0291794
748.173 .0291593
748.896 .0291389
749.618 .0291182
750.340 .0290971
751.062 .0290759
751.784 .0290548
752.506 .0290340
753.227 .0290132
753.948 .0289921
754.669 .0289713
755.389 .0289495
756.110 .0289266
756.830 .0289028
757.550 .0288779
758.269 .0288517
758.989 .0288247
759.708 .0287966
760.427 .0287684
761.146 .0287405
761.864 .0287128
762.582 .0286850
763.300 .0286573
764.018 .0286297
764.736 .0286018
765.453 .0285742
766.170 .0285475
766.887 .0285211
767.603 .0284960
768.320 .0284718
769.036 .0284488
769.751 .0284269
770.467 .0284061
771.182 .0283861
771.897 .0283666
772.612 .0283477
773.327 .0283290
774.041 .0283109
774.755 .0282939
775.469 .0282779
776.183 .0282631
776.896 .0282489
777.609 .0282354
778.322 .0282223
779.035 .0282098
779.747 .0281977
780.459 .0281863
781.171 .0281759
781.882 .0281664
782.594 .0281582
783.305 .0281515
784.016 .0281465
784.726 .0281427
785.436 .0281399
786.147 .0281380
786.856 .0281369
787.566 .0281369
788.275 .0281376
788.984 .0281394
789.693 .0281424
790.401 .0281461
791.110 .0281502
791.818 .0281540
792.525 .0281573
793.233 .0281597
793.940 .0281609
794.647 .0281609
795.353 .0281599
796.060 .0281580
796.766 .0281561
797.472 .0281544
798.177 .0281531
798.883 .0281524
799.588 .0281520
800.292 .0281524
800.997 .0281531
801.701 .0281533
802.405 .0281531
803.109 .0281526
803.812 .0281523
804.515 .0281516
805.218 .0281507
805.921 .0281500
806.623 .0281495
807.325 .0281494
808.027 .0281491
808.728 .0281481
809.429 .0281462
810.130 .0281431
810.831 .0281384
811.531 .0281320
812.231 .0281237
812.931 .0281144
813.630 .0281043
814.330 .0280939
815.029 .0280834
815.727 .0280734
816.426 .0280645
817.124 .0280564
817.821 .0280488
818.519 .0280419
819.216 .0280360
819.913 .0280312
820.609 .0280273
821.306 .0280245
822.002 .0280230
822.697 .0280229
823.393 .0280238
824.088 .0280256
824.783 .0280280
825.477 .0280309
826.171 .0280338
826.865 .0280369
827.559 .0280404
828.252 .0280443
828.945 .0280483
829.638 .0280527
830.330 .0280569
831.023 .0280603
831.714 .0280627
832.406 .0280639
833.097 .0280636
833.788 .0280616
834.479 .0280585
835.169 .0280548
835.859 .0280511
836.548 .0280478
837.238 .0280448
837.927 .0280422
838.615 .0280391
839.304 .0280349
839.992 .0280294
840.680 .0280224
841.367 .0280136
842.054 .0280034
842.741 .0279924
843.428 .0279811
844.114 .0279697
844.800 .0279585
845.485 .0279477
846.170 .0279364
846.855 .0279241
847.540 .0279104
848.224 .0278948
848.908 .0278776
849.592 .0278590
850.275 .0278395
850.958 .0278193
851.641 .0277991
852.323 .0277788
853.005 .0277584
853.687 .0277379
854.368 .0277168
855.049 .0276947
855.730 .0276713
856.410 .0276468
857.090 .0276208
857.769 .0275938
858.449 .0275663
859.128 .0275383
859.806 .0275100
860.485 .0274818
861.163 .0274537
861.840 .0274254
862.518 .0273975
863.195 .0273696
863.871 .0273416
864.548 .0273138
865.224 .0272860
865.899 .0272579
866.574 .0272298
867.249 .0272018
867.924 .0271736
868.598 .0271454
869.272 .0271172
869.946 .0270893
870.619 .0270617
871.292 .0270344
871.964 .0270072
872.636 .0269801
873.308 .0269530
873.979 .0269251
874.651 .0268967
875.321 .0268678
875.992 .0268389
876.662 .0268102
877.331 .0267821
878.001 .0267551
878.670 .0267295
879.338 .0267055
880.007 .0266830
880.675 .0266623
881.342 .0266427
882.009 .0266238
882.676 .0266059
883.343 .0265885
884.009 .0265719
884.675 .0265561
885.340 .0265419
886.005 .0265286
886.670 .0265165
887.334 .0265055
887.998 .0264952
888.662 .0264857
889.325 .0264763
889.988 .0264667
890.650 .0264573
891.312 .0264477
891.974 .0264385
892.636 .0264297
893.297 .0264221
893.957 .0264151
894.618 .0264087
895.278 .0264028
895.937 .0263974
896.596 .0263923
897.255 .0263877
897.914 .0263831
898.572 .0263787
899.230 .0263744
899.887 .0263700
900.544 .0263656
901.201 .0263611
901.857 .0263560
902.513 .0263501
903.168 .0263427
903.823 .0263334
904.478 .0263221
905.132 .0263092
905.786 .0262944
906.440 .0262780
907.093 .0262603
907.746 .0262416
908.399 .0262224
909.051 .0262026
909.703 .0261825
910.354 .0261621
911.005 .0261414
911.656 .0261206
912.306 .0261001
912.956 .0260802
913.605 .0260612
914.254 .0260441
914.903 .0260287
915.551 .0260154
916.199 .0260042
916.847 .0259950
917.494 .0259877
918.141 .0259818
918.788 .0259767
919.434 .0259721
920.079 .0259680
920.725 .0259643
921.370 .0259604
922.014 .0259566
922.658 .0259526
923.302 .0259485
923.946 .0259439
924.589 .0259388
925.231 .0259325
925.873 .0259255
926.515 .0259175
927.157 .0259086
927.798 .0258989
928.439 .0258886
929.079 .0258778
929.719 .0258669
930.359 .0258556
930.998 .0258445
931.637 .0258337
932.275 .0258241
932.913 .0258153
933.551 .0258079
934.188 .0258018
934.825 .0257973
935.462 .0257940
936.098 .0257919
936.733 .0257911
937.369 .0257914
938.004 .0257928
938.638 .0257957
939.273 .0257996
939.907 .0258048
940.540 .0258115
941.173 .0258198
941.806 .0258296
942.438 .0258405
943.070 .0258521
943.702 .0258639
944.333 .0258758
944.964 .0258874
945.594 .0258980
946.224 .0259085
946.854 .0259187
947.483 .0259286
948.112 .0259387
948.741 .0259490
949.369 .0259600
949.996 .0259718
950.624 .0259839
951.251 .0259958
951.878 .0260072
952.504 .0260176
953.130 .0260267
953.755 .0260345
954.380 .0260414
955.005 .0260476
955.629 .0260534
956.253 .0260595
956.877 .0260658
957.500 .0260728
958.123 .0260804
958.746 .0260877
959.368 .0260943
959.990 .0260999
960.611 .0261043
961.232 .0261077
961.853 .0261106
962.473 .0261132
963.093 .0261158
963.712 .0261185
964.331 .0261212
964.950 .0261237
965.569 .0261259
966.187 .0261282
966.804 .0261303
967.422 .0261326
968.039 .0261353
968.655 .0261385
969.272 .0261423
969.887 .0261461
970.503 .0261492
971.118 .0261514
971.733 .0261522
972.347 .0261515
972.961 .0261493
973.575 .0261462
974.188 .0261423
974.801 .0261382
975.414 .0261338
976.026 .0261291
976.638 .0261242
977.250 .0261186
977.861 .0261118
978.472 .0261033
979.083 .0260930
979.693 .0260810
980.303 .0260676
980.912 .0260533
981.521 .0260381
982.130 .0260226
982.738 .0260070
983.346 .0259920
983.954 .0259771
984.562 .0259627
985.169 .0259484
985.775 .0259340
986.382 .0259190
986.988 .0259031
987.594 .0258866
988.199 .0258694
988.804 .0258518
989.409 .0258339
990.013 .0258159
990.617 .0257989
991.221 .0257826
991.824 .0257674
992.427 .0257535
993.030 .0257408
993.632 .0257288
994.234 .0257175
994.836 .0257064
995.438 .0256949
996.039 .0256831
996.640 .0256707
997.240 .0256579
997.840 .0256450
998.440 .0256320
999.040 .0256189
999.639 .0256064
1000.238 .0255944
1000.836 .0255821
1001.435 .0255702
1002.033 .0255580
1002.630 .0255442
1003.228 .0255294
1003.825 .0255136
1004.422 .0254969
1005.018 .0254803
1005.614 .0254652
1006.210 .0254514
1006.806 .0254396
1007.401 .0254296
1007.996 .0254205
1008.591 .0254120
1009.186 .0254033
1009.780 .0253926
1010.374 .0253798
1010.967 .0253650
1011.561 .0253487
1012.154 .0253312
1012.746 .0253138
1013.339 .0252972
1013.931 .0252810
1014.523 .0252656
1015.115 .0252499
1015.706 .0252336
1016.298 .0252166
1016.888 .0251991
1017.479 .0251809
1018.069 .0251633
1018.660 .0251466
1019.250 .0251324
1019.839 .0251215
1020.429 .0251142
1021.018 .0251102
1021.607 .0251087
1022.195 .0251088
1022.784 .0251096
1023.372 .0251100
1023.960 .0251107
1024.547 .0251104
1025.135 .0251105
1025.722 .0251101
1026.309 .0251097
1026.896 .0251091
1027.483 .0251082
1028.069 .0251065
1028.655 .0251040
1029.241 .0250999
1029.827 .0250943
1030.412 .0250868
1030.997 .0250783
1031.582 .0250689
1032.167 .0250595
1032.752 .0250496
1033.336 .0250400
1033.921 .0250298
1034.505 .0250196
1035.089 .0250084
1035.672 .0249968
1036.256 .0249850
1036.839 .0249732
1037.422 .0249614
1038.005 .0249506
1038.588 .0249410
1039.171 .0249326
1039.753 .0249249
1040.335 .0249185
1040.918 .0249127
1041.500 .0249072
1042.081 .0249011
1042.663 .0248954
1043.244 .0248893
1043.826 .0248823
1044.407 .0248740
1044.988 .0248647
1045.569 .0248545
1046.150 .0248425
1046.730 .0248292
1047.311 .0248155
1047.891 .0248014
1048.471 .0247868
1049.052 .0247717
1049.632 .0247568
1050.211 .0247428
1050.791 .0247279
1051.371 .0247121
1051.950 .0246960
1052.530 .0246794
1053.109 .0246618
1053.688 .0246440
1054.268 .0246275
1054.847 .0246131
1055.426 .0246004
1056.005 .0245904
1056.583 .0245822
1057.162 .0245763
1057.741 .0245707
1058.319 .0245651
1058.898 .0245581
1059.476 .0245495
1060.055 .0245389
1060.633 .0245272
1061.211 .0245158
1061.790 .0245058
1062.368 .0244970
1062.946 .0244908
1063.524 .0244866
1064.102 .0244835
1064.680 .0244800
1065.258 .0244762
1065.836 .0244705
1066.414 .0244630
1066.992 .0244530
1067.570 .0244419
1068.148 .0244297
1068.726 .0244181
1069.304 .0244072
1069.882 .0243968
1070.460 .0243878
1071.038 .0243795
1071.616 .0243715
1072.194 .0243656
1072.772 .0243618
1073.350 .0243608
1073.928 .0243624
1074.506 .0243670
1075.084 .0243740
1075.662 .0243840
1076.240 .0243964
1076.819 .0244097
1077.397 .0244248
1077.976 .0244422
1078.554 .0244608
1079.133 .0244812
1079.711 .0245031
1080.290 .0245248
1080.869 .0245460
1081.448 .0245648
1082.027 .0245797
1082.606 .0245905
1083.185 .0245986
1083.764 .0246045
1084.343 .0246090
1084.923 .0246146
1085.502 .0246217
1086.082 .0246319
1086.662 .0246458
1087.242 .0246606
1087.822 .0246755
1088.402 .0246890
1088.983 .0247008
1089.563 .0247110
1090.144 .0247209
1090.725 .0247319
1091.306 .0247453
1091.887 .0247628
1092.469 .0247844
1093.050 .0248095
1093.632 .0248376
1094.214 .0248692
1094.796 .0249012
1095.379 .0249322
1095.961 .0249617
1096.544 .0249898
1097.127 .0250180
1097.710 .0250461
1098.294 .0250749
1098.877 .0251047
1099.461 .0251353
1100.046 .0251680
1100.630 .0252013
1101.215 .0252382
1101.800 .0252747
1102.385 .0253104
1102.970 .0253459
1103.556 .0253787
1104.142 .0254079
1104.728 .0254344
1105.315 .0254585
1105.902 .0254812
1106.489 .0255022
1107.077 .0255232
1107.664 .0255458
1108.253 .0255737
1108.841 .0256064
1109.430 .0256443
1110.019 .0256870
1110.609 .0257327
1111.198 .0257792
1111.789 .0258289
1112.379 .0258784
1112.970 .0259263
1113.561 .0259759
1114.153 .0260260
1114.745 .0260779
1115.338 .0261328
1115.931 .0261904
1116.524 .0262510
1117.117 .0263140
1117.712 .0263770
1118.306 .0264370
1118.901 .0264957
1119.496 .0265518
1120.092 .0266035
1120.689 .0266565
1121.285 .0267087
1121.882 .0267610
1122.480 .0268174
1123.078 .0268781
1123.677 .0269412
1124.276 .0270071
1124.875 .0270741
1125.476 .0271433
1126.076 .0272117
1126.677 .0272796
1127.279 .0273454
1127.881 .0274144
1128.484 .0274883
1129.087 .0275661
1129.691 .0276531
1130.295 .0277445
1130.900 .0278392
1131.505 .0279354
1132.111 .0280287
1132.718 .0281194
1133.325 .0282066
1133.933 .0282890
1134.541 .0283694
1135.150 .0284514
1135.760 .0285371
1136.370 .0286307
1136.981 .0287343
1137.592 .0288462
1138.204 .0289603
1138.817 .0290729
1139.431 .0291848
1140.045 .0292971
1140.660 .0294099
1141.275 .0295281
1141.891 .0296511
1142.508 .0296748
1143.126 .0299434
1143.744 .0300268
1144.363 .0303054
1144.983 .0304198
