Measurement Sequence started on: 15-12-46-377
Integration time: 28
Scans to Average: 2 
>>>>>Begin Spectral Data<<<<<
432.689 .0000100
433.621 .0000100
434.552 .0000100
435.482 .0000100
436.410 .0000100
437.337 .0000100
438.262 .0259819
439.187 .0552720
440.110 .0917426
441.031 .1329364
441.952 .1730727
442.871 .2048720
443.789 .2226238
444.705 .2242999
445.621 .2122606
446.535 .1916513
447.447 .1681293
448.359 .1318791
449.269 .1138313
450.178 .1024603
451.086 .0944593
451.993 .0883220
452.898 .0834467
453.803 .0794386
454.706 .0760908
455.608 .0731909
456.508 .0706619
457.408 .0684292
458.306 .0664011
459.204 .0645492
460.100 .0628605
460.995 .0613199
461.888 .0599239
462.781 .0586550
463.673 .0574983
464.563 .0564562
465.452 .0554936
466.340 .0545881
467.228 .0537558
468.114 .0529783
468.999 .0522539
469.882 .0515686
470.765 .0509347
471.647 .0503462
472.528 .0498139
473.407 .0493438
474.286 .0489354
475.163 .0485837
476.040 .0482883
476.915 .0480328
477.790 .0478137
478.663 .0476258
479.535 .0474603
480.407 .0473151
481.277 .0471960
482.147 .0470900
483.015 .0469956
483.883 .0469118
484.749 .0468461
485.615 .0467914
486.479 .0467522
487.343 .0467395
488.206 .0467430
489.067 .0467677
489.928 .0468114
490.788 .0468689
491.647 .0469383
492.505 .0470233
493.362 .0471131
494.218 .0472104
495.073 .0473234
495.928 .0474499
496.781 .0475952
497.634 .0477687
498.486 .0479693
499.337 .0481965
500.187 .0484485
501.036 .0487247
501.884 .0490069
502.731 .0493125
503.578 .0496259
504.424 .0499500
505.268 .0502900
506.113 .0506550
506.956 .0510550
507.798 .0515080
508.640 .0520172
509.480 .0525919
510.320 .0532525
511.160 .0540062
511.998 .0548623
512.836 .0558340
513.672 .0569306
514.508 .0581579
515.344 .0595211
516.178 .0610509
517.012 .0627458
517.845 .0646731
518.677 .0668736
519.508 .0693472
520.339 .0721375
521.169 .0752710
521.998 .0787532
522.826 .0826391
523.654 .0869352
524.481 .0916491
525.307 .0967925
526.133 .1023839
526.958 .1084052
527.782 .1148047
528.605 .1215022
529.428 .1284414
530.250 .1351154
531.072 .1413595
531.892 .1467284
532.712 .1509072
533.532 .1537161
534.350 .1548756
535.168 .1542754
535.986 .1520298
536.802 .1482819
537.618 .1432965
538.434 .1372836
539.249 .1307529
540.063 .1238160
540.876 .1168365
541.689 .1099869
542.501 .1033883
543.313 .0972518
544.124 .0916385
544.934 .0864841
545.744 .0818118
546.553 .0776023
547.361 .0738497
548.169 .0705478
548.976 .0676465
549.783 .0650939
550.589 .0628930
551.395 .0609678
552.200 .0592892
553.004 .0578072
553.808 .0564936
554.611 .0553255
555.414 .0542743
556.216 .0533309
557.018 .0524826
557.819 .0517232
558.619 .0510262
559.419 .0503771
560.218 .0497652
561.017 .0491588
561.815 .0485613
562.613 .0479582
563.410 .0473481
564.207 .0467225
565.003 .0460930
565.799 .0454605
566.594 .0448297
567.388 .0442118
568.182 .0436076
568.976 .0430232
569.769 .0424613
570.562 .0419121
571.354 .0413766
572.145 .0408612
572.936 .0403597
573.727 .0398714
574.517 .0394051
575.307 .0389551
576.096 .0385273
576.885 .0381179
577.673 .0377317
578.461 .0373711
579.248 .0370356
580.035 .0367274
580.821 .0364417
581.607 .0361782
582.392 .0359352
583.177 .0357080
583.962 .0354946
584.746 .0352933
585.529 .0351047
586.313 .0349276
587.095 .0347624
587.878 .0346080
588.660 .0344674
589.441 .0343390
590.222 .0342200
591.003 .0341101
591.783 .0340061
592.563 .0339064
593.342 .0338088
594.121 .0337127
594.899 .0336185
595.678 .0335260
596.455 .0334371
597.233 .0333524
598.009 .0332721
598.786 .0331968
599.562 .0331259
600.338 .0330593
601.113 .0329968
601.888 .0329373
602.663 .0328800
603.437 .0328253
604.211 .0327718
604.984 .0327200
605.757 .0326706
606.530 .0326231
607.302 .0325792
608.074 .0325392
608.845 .0325028
609.616 .0324698
610.387 .0324389
611.158 .0324105
611.928 .0323831
612.697 .0323570
613.467 .0323308
614.236 .0323056
615.004 .0322821
615.773 .0322606
616.541 .0322409
617.308 .0322239
618.076 .0322083
618.843 .0321939
619.609 .0321802
620.375 .0321661
621.141 .0321516
621.907 .0321370
622.672 .0321223
623.437 .0321082
624.202 .0320944
624.966 .0320817
625.730 .0320692
626.493 .0320567
627.257 .0320433
628.020 .0320274
628.782 .0320090
629.545 .0319883
630.307 .0319650
631.068 .0319400
631.830 .0319140
632.591 .0318871
633.352 .0318601
634.112 .0318330
634.872 .0318058
635.632 .0317788
636.392 .0317524
637.151 .0317260
637.910 .0316991
638.668 .0316721
639.427 .0316446
640.185 .0316165
640.943 .0315886
641.700 .0315607
642.457 .0315333
643.214 .0315071
643.971 .0314812
644.727 .0314559
645.483 .0314314
646.239 .0314066
646.994 .0313807
647.750 .0313533
648.505 .0313238
649.259 .0312926
650.014 .0312605
650.768 .0312284
651.521 .0311966
652.275 .0311663
653.028 .0311372
653.781 .0311088
654.534 .0310809
655.286 .0310531
656.039 .0310242
656.791 .0309948
657.542 .0309638
658.294 .0309316
659.045 .0308992
659.796 .0308670
660.546 .0308352
661.297 .0308041
662.047 .0307734
662.796 .0307429
663.546 .0307127
664.295 .0306827
665.044 .0306525
665.793 .0306231
666.542 .0305949
667.290 .0305676
668.038 .0305413
668.786 .0305162
669.533 .0304920
670.281 .0304691
671.028 .0304469
671.774 .0304253
672.521 .0304045
673.267 .0303850
674.013 .0303665
674.759 .0303492
675.505 .0303331
676.250 .0303183
676.995 .0303042
677.740 .0302911
678.484 .0302780
679.229 .0302652
679.973 .0302528
680.717 .0302404
681.460 .0302281
682.204 .0302156
682.947 .0302031
683.690 .0301913
684.433 .0301802
685.175 .0301699
685.917 .0301602
686.659 .0301517
687.401 .0301439
688.142 .0301360
688.884 .0301281
689.625 .0301201
690.365 .0301111
691.106 .0301012
691.846 .0300904
692.586 .0300785
693.326 .0300663
694.066 .0300544
694.805 .0300430
695.545 .0300318
696.284 .0300208
697.022 .0300095
697.761 .0299971
698.499 .0299835
699.237 .0299681
699.975 .0299510
700.713 .0299331
701.450 .0299146
702.187 .0298958
702.924 .0298782
703.661 .0298621
704.397 .0298467
705.133 .0298320
705.869 .0298176
706.605 .0298028
707.341 .0297875
708.076 .0297718
708.811 .0297554
709.546 .0297385
710.281 .0297217
711.015 .0297047
711.749 .0296874
712.483 .0296698
713.217 .0296510
713.950 .0296306
714.684 .0296083
715.417 .0295830
716.150 .0295553
716.882 .0295262
717.615 .0294958
718.347 .0294642
719.079 .0294326
719.811 .0294013
720.542 .0293707
721.273 .0293405
722.005 .0293107
722.735 .0292810
723.466 .0292511
724.196 .0292209
724.927 .0291899
725.656 .0291590
726.386 .0291286
727.116 .0290986
727.845 .0290697
728.574 .0290420
729.303 .0290158
730.031 .0289911
730.760 .0289680
731.488 .0289456
732.216 .0289239
732.944 .0289023
733.671 .0288811
734.398 .0288598
735.125 .0288391
735.852 .0288190
736.579 .0287999
737.305 .0287819
738.031 .0287649
738.757 .0287487
739.483 .0287333
740.208 .0287179
740.933 .0287027
741.658 .0286871
742.383 .0286715
743.108 .0286559
743.832 .0286406
744.556 .0286254
745.280 .0286109
746.004 .0285966
746.727 .0285827
747.450 .0285689
748.173 .0285551
748.896 .0285415
749.618 .0285284
750.340 .0285160
751.062 .0285046
751.784 .0284945
752.506 .0284860
753.227 .0284788
753.948 .0284727
754.669 .0284679
755.389 .0284637
756.110 .0284602
756.830 .0284567
757.550 .0284530
758.269 .0284496
758.989 .0284463
759.708 .0284425
760.427 .0284387
761.146 .0284350
761.864 .0284317
762.582 .0284288
763.300 .0284267
764.018 .0284255
764.736 .0284255
765.453 .0284264
766.170 .0284277
766.887 .0284288
767.603 .0284300
768.320 .0284301
769.036 .0284299
769.751 .0284293
770.467 .0284282
771.182 .0284277
771.897 .0284285
772.612 .0284302
773.327 .0284332
774.041 .0284369
774.755 .0284412
775.469 .0284450
776.183 .0284484
776.896 .0284506
777.609 .0284517
778.322 .0284522
779.035 .0284521
779.747 .0284517
780.459 .0284519
781.171 .0284528
781.882 .0284543
782.594 .0284560
783.305 .0284578
784.016 .0284594
784.726 .0284608
785.436 .0284612
786.147 .0284607
786.856 .0284587
787.566 .0284558
788.275 .0284515
788.984 .0284464
789.693 .0284403
790.401 .0284332
791.110 .0284245
791.818 .0284143
792.525 .0284023
793.233 .0283887
793.940 .0283732
794.647 .0283567
795.353 .0283383
796.060 .0283188
796.766 .0282978
797.472 .0282757
798.177 .0282525
798.883 .0282283
799.588 .0282029
800.292 .0281768
800.997 .0281498
801.701 .0281224
802.405 .0280950
803.109 .0280686
803.812 .0280432
804.515 .0280189
805.218 .0279951
805.921 .0279715
806.623 .0279477
807.325 .0279235
808.027 .0278985
808.728 .0278726
809.429 .0278459
810.130 .0278184
810.831 .0277906
811.531 .0277628
812.231 .0277350
812.931 .0277071
813.630 .0276790
814.330 .0276499
815.029 .0276198
815.727 .0275889
816.426 .0275576
817.124 .0275264
817.821 .0274952
818.519 .0274649
819.216 .0274358
819.913 .0274080
820.609 .0273817
821.306 .0273570
822.002 .0273337
822.697 .0273114
823.393 .0272901
824.088 .0272699
824.783 .0272505
825.477 .0272316
826.171 .0272135
826.865 .0271966
827.559 .0271805
828.252 .0271649
828.945 .0271496
829.638 .0271347
830.330 .0271200
831.023 .0271051
831.714 .0270899
832.406 .0270753
833.097 .0270615
833.788 .0270482
834.479 .0270356
835.169 .0270245
835.859 .0270147
836.548 .0270059
837.238 .0269986
837.927 .0269925
838.615 .0269874
839.304 .0269835
839.992 .0269804
840.680 .0269781
841.367 .0269768
842.054 .0269763
842.741 .0269769
843.428 .0269787
844.114 .0269814
844.800 .0269845
845.485 .0269882
846.170 .0269924
846.855 .0269965
847.540 .0270004
848.224 .0270044
848.908 .0270084
849.592 .0270125
850.275 .0270161
850.958 .0270195
851.641 .0270230
852.323 .0270264
853.005 .0270295
853.687 .0270323
854.368 .0270349
855.049 .0270378
855.730 .0270409
856.410 .0270444
857.090 .0270487
857.769 .0270537
858.449 .0270586
859.128 .0270636
859.806 .0270686
860.485 .0270737
861.163 .0270793
861.840 .0270856
862.518 .0270924
863.195 .0271001
863.871 .0271092
864.548 .0271193
865.224 .0271304
865.899 .0271422
866.574 .0271538
867.249 .0271649
867.924 .0271757
868.598 .0271860
869.272 .0271960
869.946 .0272064
870.619 .0272168
871.292 .0272273
871.964 .0272376
872.636 .0272471
873.308 .0272554
873.979 .0272626
874.651 .0272681
875.321 .0272716
875.992 .0272743
876.662 .0272765
877.331 .0272779
878.001 .0272792
878.670 .0272801
879.338 .0272805
880.007 .0272802
880.675 .0272787
881.342 .0272757
882.009 .0272716
882.676 .0272667
883.343 .0272610
884.009 .0272552
884.675 .0272499
885.340 .0272449
886.005 .0272402
886.670 .0272358
887.334 .0272314
887.998 .0272264
888.662 .0272208
889.325 .0272142
889.988 .0272068
890.650 .0271986
891.312 .0271896
891.974 .0271802
892.636 .0271707
893.297 .0271616
893.957 .0271519
894.618 .0271421
895.278 .0271321
895.937 .0271214
896.596 .0271100
897.255 .0270976
897.914 .0270841
898.572 .0270693
899.230 .0270536
899.887 .0270368
900.544 .0270187
901.201 .0270000
901.857 .0269803
902.513 .0269596
903.168 .0269379
903.823 .0269152
904.478 .0268913
905.132 .0268664
905.786 .0268404
906.440 .0268130
907.093 .0267844
907.746 .0267546
908.399 .0267235
909.051 .0266911
909.703 .0266571
910.354 .0266216
911.005 .0265851
911.656 .0265480
912.306 .0265105
912.956 .0264728
913.605 .0264352
914.254 .0263981
914.903 .0263612
915.551 .0263242
916.199 .0262874
916.847 .0262505
917.494 .0262137
918.141 .0261769
918.788 .0261402
919.434 .0261042
920.079 .0260689
920.725 .0260344
921.370 .0260008
922.014 .0259679
922.658 .0259357
923.302 .0259033
923.946 .0258711
924.589 .0258387
925.231 .0258059
925.873 .0257726
926.515 .0257390
927.157 .0257050
927.798 .0256708
928.439 .0256363
929.079 .0256019
929.719 .0255673
930.359 .0255326
930.998 .0254978
931.637 .0254630
932.275 .0254289
932.913 .0253954
933.551 .0253626
934.188 .0253310
934.825 .0253008
935.462 .0252716
936.098 .0252437
936.733 .0252171
937.369 .0251923
938.004 .0251687
938.638 .0251462
939.273 .0251250
939.907 .0251050
940.540 .0250863
941.173 .0250688
941.806 .0250526
942.438 .0250382
943.070 .0250250
943.702 .0250133
944.333 .0250030
944.964 .0249940
945.594 .0249861
946.224 .0249793
946.854 .0249735
947.483 .0249687
948.112 .0249643
948.741 .0249607
949.369 .0249580
949.996 .0249562
950.624 .0249544
951.251 .0249527
951.878 .0249515
952.504 .0249505
953.130 .0249494
953.755 .0249482
954.380 .0249469
955.005 .0249456
955.629 .0249435
956.253 .0249409
956.877 .0249377
957.500 .0249346
958.123 .0249314
958.746 .0249287
959.368 .0249268
959.990 .0249257
960.611 .0249255
961.232 .0249267
961.853 .0249295
962.473 .0249335
963.093 .0249385
963.712 .0249448
964.331 .0249521
964.950 .0249600
965.569 .0249684
966.187 .0249780
966.804 .0249889
967.422 .0250015
968.039 .0250152
968.655 .0250301
969.272 .0250459
969.887 .0250621
970.503 .0250782
971.118 .0250941
971.733 .0251095
972.347 .0251246
972.961 .0251393
973.575 .0251542
974.188 .0251687
974.801 .0251833
975.414 .0251976
976.026 .0252116
976.638 .0252245
977.250 .0252364
977.861 .0252472
978.472 .0252570
979.083 .0252659
979.693 .0252743
980.303 .0252817
980.912 .0252886
981.521 .0252949
982.130 .0253009
982.738 .0253069
983.346 .0253134
983.954 .0253200
984.562 .0253270
985.169 .0253344
985.775 .0253423
986.382 .0253502
986.988 .0253589
987.594 .0253683
988.199 .0253780
988.804 .0253883
989.409 .0253993
990.013 .0254109
990.617 .0254236
991.221 .0254368
991.824 .0254505
992.427 .0254649
993.030 .0254796
993.632 .0254946
994.234 .0255103
994.836 .0255271
995.438 .0255448
996.039 .0255629
996.640 .0255816
997.240 .0256002
997.840 .0256188
998.440 .0256370
999.040 .0256540
999.639 .0256703
1000.238 .0256858
1000.836 .0257007
1001.435 .0257152
1002.033 .0257294
1002.630 .0257434
1003.228 .0257568
1003.825 .0257699
1004.422 .0257821
1005.018 .0257933
1005.614 .0258033
1006.210 .0258124
1006.806 .0258206
1007.401 .0258273
1007.996 .0258322
1008.591 .0258358
1009.186 .0258382
1009.780 .0258397
1010.374 .0258395
1010.967 .0258385
1011.561 .0258372
1012.154 .0258354
1012.746 .0258333
1013.339 .0258308
1013.931 .0258284
1014.523 .0258260
1015.115 .0258226
1015.706 .0258185
1016.298 .0258138
1016.888 .0258087
1017.479 .0258040
1018.069 .0258000
1018.660 .0257973
1019.250 .0257964
1019.839 .0257972
1020.429 .0257997
1021.018 .0258036
1021.607 .0258076
1022.195 .0258113
1022.784 .0258138
1023.372 .0258151
1023.960 .0258151
1024.547 .0258142
1025.135 .0258140
1025.722 .0258144
1026.309 .0258157
1026.896 .0258177
1027.483 .0258194
1028.069 .0258200
1028.655 .0258187
1029.241 .0258145
1029.827 .0258069
1030.412 .0257960
1030.997 .0257829
1031.582 .0257693
1032.167 .0257557
1032.752 .0257435
1033.336 .0257328
1033.921 .0257229
1034.505 .0257134
1035.089 .0257028
1035.672 .0256912
1036.256 .0256787
1036.839 .0256658
1037.422 .0256535
1038.005 .0256424
1038.588 .0256340
1039.171 .0256283
1039.753 .0256253
1040.335 .0256245
1040.918 .0256234
1041.500 .0256203
1042.081 .0256147
1042.663 .0256056
1043.244 .0255924
1043.826 .0255752
1044.407 .0255548
1044.988 .0255320
1045.569 .0255075
1046.150 .0254815
1046.730 .0254537
1047.311 .0254249
1047.891 .0253948
1048.471 .0253628
1049.052 .0253292
1049.632 .0252939
1050.211 .0252577
1050.791 .0252218
1051.371 .0251868
1051.950 .0251536
1052.530 .0251227
1053.109 .0250949
1053.688 .0250699
1054.268 .0250472
1054.847 .0250271
1055.426 .0250083
1056.005 .0249906
1056.583 .0249742
1057.162 .0249572
1057.741 .0249400
1058.319 .0249228
1058.898 .0249048
1059.476 .0248864
1060.055 .0248675
1060.633 .0248488
1061.211 .0248304
1061.790 .0248136
1062.368 .0247986
1062.946 .0247849
1063.524 .0247739
1064.102 .0247640
1064.680 .0247539
1065.258 .0247441
1065.836 .0247347
1066.414 .0247243
1066.992 .0247138
1067.570 .0247040
1068.148 .0246944
1068.726 .0246864
1069.304 .0246796
1069.882 .0246735
1070.460 .0246670
1071.038 .0246597
1071.616 .0246497
1072.194 .0246357
1072.772 .0246188
1073.350 .0245981
1073.928 .0245739
1074.506 .0245475
1075.084 .0245183
1075.662 .0244881
1076.240 .0244576
1076.819 .0244290
1077.397 .0244014
1077.976 .0243767
1078.554 .0243552
1079.133 .0243379
1079.711 .0243233
1080.290 .0243124
1080.869 .0243037
1081.448 .0242980
1082.027 .0242951
1082.606 .0242939
1083.185 .0242949
1083.764 .0243001
1084.343 .0243090
1084.923 .0243220
1085.502 .0243378
1086.082 .0243573
1086.662 .0243768
1087.242 .0243956
1087.822 .0244117
1088.402 .0244236
1088.983 .0244320
1089.563 .0244373
1090.144 .0244402
1090.725 .0244428
1091.306 .0244456
1091.887 .0244489
1092.469 .0244546
1093.050 .0244630
1093.632 .0244726
1094.214 .0244833
1094.796 .0244951
1095.379 .0245071
1095.961 .0245202
1096.544 .0245341
1097.127 .0245497
1097.710 .0245679
1098.294 .0245902
1098.877 .0246140
1099.461 .0246399
1100.046 .0246679
1100.630 .0246965
1101.215 .0247250
1101.800 .0247528
1102.385 .0247764
1102.970 .0247982
1103.556 .0248184
1104.142 .0248382
1104.728 .0248592
1105.315 .0248830
1105.902 .0249080
1106.489 .0249365
1107.077 .0249671
1107.664 .0249993
1108.253 .0250311
1108.841 .0250651
1109.430 .0251008
1110.019 .0251366
1110.609 .0251731
1111.198 .0252104
1111.789 .0252503
1112.379 .0252942
1112.970 .0253375
1113.561 .0253817
1114.153 .0254281
1114.745 .0254751
1115.338 .0255242
1115.931 .0255739
1116.524 .0256274
1117.117 .0256859
1117.712 .0257470
1118.306 .0258120
1118.901 .0258784
1119.496 .0259462
1120.092 .0260148
1120.689 .0260811
1121.285 .0261452
1121.882 .0262059
1122.480 .0262677
1123.078 .0263306
1123.677 .0263953
1124.276 .0264629
1124.875 .0265314
1125.476 .0265968
1126.076 .0266596
1126.677 .0267156
1127.279 .0267655
1127.881 .0268141
1128.484 .0268640
1129.087 .0269176
1129.691 .0269810
1130.295 .0270540
1130.900 .0271391
1131.505 .0272355
1132.111 .0273390
1132.718 .0274397
1133.325 .0275384
1133.933 .0276317
1134.541 .0277168
1135.150 .0277999
1135.760 .0278850
1136.370 .0279776
1136.981 .0280824
1137.592 .0281930
1138.204 .0283051
1138.817 .0284200
1139.431 .0285324
1140.045 .0286388
1140.660 .0287504
1141.275 .0288897
1141.891 .0290394
1142.508 .0289517
1143.126 .0291675
1143.744 .0295958
1144.363 .0303532
1144.983 .0301494
