Measurement Sequence started on: 15-12-46-377
Integration time: 28
Scans to Average: 2 
>>>>>Begin Spectral Data<<<<<
432.689 .0000100
433.621 .0000100
434.552 .0000100
435.482 .0000100
436.410 .0000100
437.337 .0000100
438.262 .0283178
439.187 .0599774
440.110 .0992548
441.031 .1434665
441.952 .1862820
442.871 .2198219
443.789 .2379386
444.705 .2385794
445.621 .2244076
446.535 .2011223
447.447 .1749251
448.359 .1350793
449.269 .1154165
450.178 .1031155
451.086 .0945167
451.993 .0879709
452.898 .0827971
453.803 .0785606
454.706 .0750142
455.608 .0719577
456.508 .0693005
457.408 .0669809
458.306 .0649251
459.204 .0630875
460.100 .0614542
460.995 .0599968
461.888 .0587009
462.781 .0575280
463.673 .0564561
464.563 .0554734
465.452 .0545590
466.340 .0537010
467.228 .0529057
468.114 .0521768
468.999 .0515158
469.882 .0509125
470.765 .0503771
471.647 .0498980
472.528 .0494742
473.407 .0491036
474.286 .0487830
475.163 .0485012
476.040 .0482575
476.915 .0480416
477.790 .0478468
478.663 .0476724
479.535 .0475173
480.407 .0473785
481.277 .0472578
482.147 .0471521
483.015 .0470591
483.883 .0469803
484.749 .0469209
485.615 .0468764
486.479 .0468565
487.343 .0468517
488.206 .0468656
489.067 .0468880
489.928 .0469141
490.788 .0469423
491.647 .0469713
492.505 .0470114
493.362 .0470641
494.218 .0471389
495.073 .0472451
495.928 .0473919
496.781 .0475842
497.634 .0478213
498.486 .0481000
499.337 .0484093
500.187 .0487418
501.036 .0490828
501.884 .0494328
502.731 .0497921
503.578 .0501754
504.424 .0506003
505.268 .0510663
506.113 .0515790
506.956 .0521405
507.798 .0527557
508.640 .0534204
509.480 .0541333
510.320 .0548955
511.160 .0557147
511.998 .0566057
512.836 .0575798
513.672 .0586469
514.508 .0598343
515.344 .0611640
516.178 .0626450
517.012 .0642966
517.845 .0661439
518.677 .0682159
519.508 .0705570
520.339 .0732245
521.169 .0762684
521.998 .0797205
522.826 .0836413
523.654 .0880655
524.481 .0930162
525.307 .0985663
526.133 .1046595
526.958 .1112541
527.782 .1183210
528.605 .1256638
529.428 .1331268
530.250 .1401977
531.072 .1466386
531.892 .1520858
532.712 .1561828
533.532 .1587580
534.350 .1596004
535.168 .1586891
535.986 .1560934
536.802 .1519527
537.618 .1465523
538.434 .1401279
539.249 .1331165
540.063 .1257180
540.876 .1182491
541.689 .1110117
542.501 .1041600
543.313 .0978824
544.124 .0922887
544.934 .0873290
545.744 .0829207
546.553 .0790390
547.361 .0756033
548.169 .0725921
548.976 .0698927
549.783 .0674616
550.589 .0652638
551.395 .0632671
552.200 .0614496
553.004 .0597890
553.808 .0582793
554.611 .0569351
555.414 .0557129
556.216 .0546139
557.018 .0536131
557.819 .0526875
558.619 .0518323
559.419 .0510272
560.218 .0502655
561.017 .0495313
561.815 .0488102
562.613 .0481016
563.410 .0473918
564.207 .0466921
565.003 .0459944
565.799 .0452986
566.594 .0446064
567.388 .0439200
568.182 .0432396
568.976 .0425648
569.769 .0419103
570.562 .0412778
571.354 .0406745
572.145 .0401012
572.936 .0395546
573.727 .0390338
574.517 .0385428
575.307 .0380802
576.096 .0376413
576.885 .0372359
577.673 .0368619
578.461 .0365178
579.248 .0362059
580.035 .0359250
580.821 .0356712
581.607 .0354400
582.392 .0352312
583.177 .0350342
583.962 .0348516
584.746 .0346830
585.529 .0345246
586.313 .0343782
587.095 .0342428
587.878 .0341157
588.660 .0339994
589.441 .0338931
590.222 .0337952
591.003 .0337059
591.783 .0336246
592.563 .0335489
593.342 .0334779
594.121 .0334091
594.899 .0333428
595.678 .0332789
596.455 .0332176
597.233 .0331589
598.009 .0331036
598.786 .0330534
599.562 .0330084
600.338 .0329686
601.113 .0329323
601.888 .0328973
602.663 .0328623
603.437 .0328269
604.211 .0327898
604.984 .0327517
605.757 .0327120
606.530 .0326716
607.302 .0326314
608.074 .0325912
608.845 .0325510
609.616 .0325117
610.387 .0324725
611.158 .0324331
611.928 .0323925
612.697 .0323517
613.467 .0323099
614.236 .0322685
615.004 .0322277
615.773 .0321881
616.541 .0321494
617.308 .0321121
618.076 .0320758
618.843 .0320411
619.609 .0320082
620.375 .0319770
621.141 .0319478
621.907 .0319208
622.672 .0318959
623.437 .0318723
624.202 .0318506
624.966 .0318299
625.730 .0318088
626.493 .0317882
627.257 .0317678
628.020 .0317473
628.782 .0317273
629.545 .0317075
630.307 .0316879
631.068 .0316688
631.830 .0316497
632.591 .0316298
633.352 .0316096
634.112 .0315889
634.872 .0315670
635.632 .0315441
636.392 .0315206
637.151 .0314956
637.910 .0314703
638.668 .0314446
639.427 .0314175
640.185 .0313902
640.943 .0313630
641.700 .0313357
642.457 .0313093
643.214 .0312836
643.971 .0312582
644.727 .0312338
645.483 .0312105
646.239 .0311863
646.994 .0311618
647.750 .0311366
648.505 .0311100
649.259 .0310827
650.014 .0310555
650.768 .0310283
651.521 .0310019
652.275 .0309773
653.028 .0309538
653.781 .0309314
654.534 .0309101
655.286 .0308881
656.039 .0308660
656.791 .0308439
657.542 .0308208
658.294 .0307970
659.045 .0307733
659.796 .0307492
660.546 .0307248
661.297 .0306996
662.047 .0306742
662.796 .0306481
663.546 .0306222
664.295 .0305959
665.044 .0305695
665.793 .0305434
666.542 .0305179
667.290 .0304930
668.038 .0304688
668.786 .0304443
669.533 .0304196
670.281 .0303943
671.028 .0303685
671.774 .0303425
672.521 .0303169
673.267 .0302922
674.013 .0302686
674.759 .0302458
675.505 .0302240
676.250 .0302024
676.995 .0301818
677.740 .0301610
678.484 .0301395
679.229 .0301177
679.973 .0300955
680.717 .0300737
681.460 .0300528
682.204 .0300328
682.947 .0300137
683.690 .0299956
684.433 .0299780
685.175 .0299596
685.917 .0299410
686.659 .0299222
687.401 .0299026
688.142 .0298826
688.884 .0298620
689.625 .0298405
690.365 .0298189
691.106 .0297973
691.846 .0297751
692.586 .0297525
693.326 .0297291
694.066 .0297049
694.805 .0296801
695.545 .0296551
696.284 .0296297
697.022 .0296048
697.761 .0295808
698.499 .0295572
699.237 .0295342
699.975 .0295122
700.713 .0294910
701.450 .0294708
702.187 .0294512
702.924 .0294322
703.661 .0294134
704.397 .0293952
705.133 .0293776
705.869 .0293604
706.605 .0293441
707.341 .0293284
708.076 .0293132
708.811 .0292984
709.546 .0292835
710.281 .0292684
711.015 .0292530
711.749 .0292372
712.483 .0292208
713.217 .0292035
713.950 .0291855
714.684 .0291669
715.417 .0291475
716.150 .0291276
716.882 .0291070
717.615 .0290861
718.347 .0290648
719.079 .0290432
719.811 .0290214
720.542 .0290000
721.273 .0289793
722.005 .0289591
722.735 .0289392
723.466 .0289204
724.196 .0289024
724.927 .0288850
725.656 .0288685
726.386 .0288529
727.116 .0288377
727.845 .0288231
728.574 .0288087
729.303 .0287943
730.031 .0287804
730.760 .0287672
731.488 .0287548
732.216 .0287435
732.944 .0287337
733.671 .0287250
734.398 .0287176
735.125 .0287113
735.852 .0287051
736.579 .0286987
737.305 .0286920
738.031 .0286847
738.757 .0286767
739.483 .0286682
740.208 .0286597
740.933 .0286512
741.658 .0286433
742.383 .0286358
743.108 .0286282
743.832 .0286205
744.556 .0286121
745.280 .0286025
746.004 .0285917
746.727 .0285803
747.450 .0285684
748.173 .0285559
748.896 .0285439
749.618 .0285324
750.340 .0285214
751.062 .0285112
751.784 .0285016
752.506 .0284921
753.227 .0284829
753.948 .0284732
754.669 .0284628
755.389 .0284521
756.110 .0284409
756.830 .0284293
757.550 .0284173
758.269 .0284050
758.989 .0283920
759.708 .0283784
760.427 .0283644
761.146 .0283495
761.864 .0283335
762.582 .0283164
763.300 .0282983
764.018 .0282798
764.736 .0282609
765.453 .0282419
766.170 .0282235
766.887 .0282055
767.603 .0281871
768.320 .0281683
769.036 .0281491
769.751 .0281294
770.467 .0281093
771.182 .0280894
771.897 .0280698
772.612 .0280512
773.327 .0280344
774.041 .0280191
774.755 .0280056
775.469 .0279935
776.183 .0279823
776.896 .0279719
777.609 .0279622
778.322 .0279523
779.035 .0279426
779.747 .0279335
780.459 .0279250
781.171 .0279170
781.882 .0279095
782.594 .0279025
783.305 .0278957
784.016 .0278893
784.726 .0278823
785.436 .0278744
786.147 .0278659
786.856 .0278563
787.566 .0278455
788.275 .0278337
788.984 .0278210
789.693 .0278076
790.401 .0277940
791.110 .0277802
791.818 .0277661
792.525 .0277519
793.233 .0277376
793.940 .0277228
794.647 .0277072
795.353 .0276904
796.060 .0276725
796.766 .0276539
797.472 .0276348
798.177 .0276152
798.883 .0275957
799.588 .0275769
800.292 .0275589
800.997 .0275416
801.701 .0275251
802.405 .0275093
803.109 .0274943
803.812 .0274801
804.515 .0274666
805.218 .0274534
805.921 .0274410
806.623 .0274292
807.325 .0274184
808.027 .0274084
808.728 .0273987
809.429 .0273889
810.130 .0273793
810.831 .0273696
811.531 .0273592
812.231 .0273481
812.931 .0273362
813.630 .0273229
814.330 .0273086
815.029 .0272928
815.727 .0272763
816.426 .0272596
817.124 .0272429
817.821 .0272258
818.519 .0272090
819.216 .0271927
819.913 .0271768
820.609 .0271617
821.306 .0271471
822.002 .0271332
822.697 .0271206
823.393 .0271089
824.088 .0270986
824.783 .0270898
825.477 .0270825
826.171 .0270763
826.865 .0270714
827.559 .0270671
828.252 .0270628
828.945 .0270588
829.638 .0270550
830.330 .0270511
831.023 .0270472
831.714 .0270434
832.406 .0270399
833.097 .0270368
833.788 .0270337
834.479 .0270301
835.169 .0270266
835.859 .0270229
836.548 .0270189
837.238 .0270148
837.927 .0270101
838.615 .0270054
839.304 .0270004
839.992 .0269958
840.680 .0269911
841.367 .0269865
842.054 .0269822
842.741 .0269776
843.428 .0269729
844.114 .0269675
844.800 .0269619
845.485 .0269561
846.170 .0269496
846.855 .0269423
847.540 .0269341
848.224 .0269251
848.908 .0269159
849.592 .0269065
850.275 .0268974
850.958 .0268887
851.641 .0268805
852.323 .0268727
853.005 .0268655
853.687 .0268589
854.368 .0268525
855.049 .0268459
855.730 .0268393
856.410 .0268319
857.090 .0268241
857.769 .0268161
858.449 .0268078
859.128 .0267994
859.806 .0267907
860.485 .0267815
861.163 .0267720
861.840 .0267620
862.518 .0267515
863.195 .0267404
863.871 .0267287
864.548 .0267164
865.224 .0267040
865.899 .0266918
866.574 .0266802
867.249 .0266692
867.924 .0266596
868.598 .0266511
869.272 .0266439
869.946 .0266384
870.619 .0266338
871.292 .0266300
871.964 .0266268
872.636 .0266233
873.308 .0266196
873.979 .0266155
874.651 .0266108
875.321 .0266058
875.992 .0266007
876.662 .0265953
877.331 .0265894
878.001 .0265834
878.670 .0265769
879.338 .0265696
880.007 .0265614
880.675 .0265525
881.342 .0265429
882.009 .0265334
882.676 .0265240
883.343 .0265150
884.009 .0265069
884.675 .0264991
885.340 .0264916
886.005 .0264843
886.670 .0264773
887.334 .0264707
887.998 .0264644
888.662 .0264590
889.325 .0264545
889.988 .0264515
890.650 .0264498
891.312 .0264491
891.974 .0264493
892.636 .0264498
893.297 .0264508
893.957 .0264525
894.618 .0264546
895.278 .0264574
895.937 .0264610
896.596 .0264655
897.255 .0264701
897.914 .0264745
898.572 .0264780
899.230 .0264807
899.887 .0264820
900.544 .0264819
901.201 .0264804
901.857 .0264780
902.513 .0264748
903.168 .0264703
903.823 .0264642
904.478 .0264558
905.132 .0264448
905.786 .0264308
906.440 .0264139
907.093 .0263949
907.746 .0263741
908.399 .0263524
909.051 .0263305
909.703 .0263084
910.354 .0262864
911.005 .0262644
911.656 .0262423
912.306 .0262194
912.956 .0261957
913.605 .0261713
914.254 .0261468
914.903 .0261226
915.551 .0260992
916.199 .0260775
916.847 .0260579
917.494 .0260405
918.141 .0260245
918.788 .0260100
919.434 .0259961
920.079 .0259822
920.725 .0259679
921.370 .0259526
922.014 .0259365
922.658 .0259196
923.302 .0259019
923.946 .0258839
924.589 .0258659
925.231 .0258479
925.873 .0258297
926.515 .0258113
927.157 .0257920
927.798 .0257711
928.439 .0257485
929.079 .0257244
929.719 .0256986
930.359 .0256717
930.998 .0256442
931.637 .0256165
932.275 .0255893
932.913 .0255627
933.551 .0255369
934.188 .0255122
934.825 .0254884
935.462 .0254649
936.098 .0254417
936.733 .0254192
937.369 .0253973
938.004 .0253765
938.638 .0253568
939.273 .0253381
939.907 .0253207
940.540 .0253047
941.173 .0252898
941.806 .0252763
942.438 .0252639
943.070 .0252518
943.702 .0252400
944.333 .0252283
944.964 .0252164
945.594 .0252042
946.224 .0251919
946.854 .0251797
947.483 .0251676
948.112 .0251558
948.741 .0251435
949.369 .0251309
949.996 .0251179
950.624 .0251040
951.251 .0250887
951.878 .0250723
952.504 .0250545
953.130 .0250359
953.755 .0250165
954.380 .0249968
955.005 .0249771
955.629 .0249581
956.253 .0249396
956.877 .0249219
957.500 .0249047
958.123 .0248877
958.746 .0248704
959.368 .0248534
959.990 .0248364
960.611 .0248195
961.232 .0248030
961.853 .0247877
962.473 .0247734
963.093 .0247606
963.712 .0247482
964.331 .0247367
964.950 .0247253
965.569 .0247139
966.187 .0247019
966.804 .0246896
967.422 .0246773
968.039 .0246657
968.655 .0246553
969.272 .0246461
969.887 .0246386
970.503 .0246329
971.118 .0246281
971.733 .0246242
972.347 .0246198
972.961 .0246149
973.575 .0246090
974.188 .0246022
974.801 .0245944
975.414 .0245863
976.026 .0245781
976.638 .0245695
977.250 .0245609
977.861 .0245524
978.472 .0245434
979.083 .0245333
979.693 .0245224
980.303 .0245098
980.912 .0244957
981.521 .0244805
982.130 .0244644
982.738 .0244486
983.346 .0244336
983.954 .0244193
984.562 .0244063
985.169 .0243947
985.775 .0243837
986.382 .0243730
986.988 .0243624
987.594 .0243518
988.199 .0243409
988.804 .0243309
989.409 .0243218
990.013 .0243143
990.617 .0243089
991.221 .0243048
991.824 .0243025
992.427 .0243018
993.030 .0243018
993.632 .0243028
994.234 .0243049
994.836 .0243082
995.438 .0243121
996.039 .0243172
996.640 .0243230
997.240 .0243292
997.840 .0243358
998.440 .0243421
999.040 .0243477
999.639 .0243530
1000.238 .0243576
1000.836 .0243615
1001.435 .0243650
1002.033 .0243685
1002.630 .0243711
1003.228 .0243735
1003.825 .0243755
1004.422 .0243773
1005.018 .0243794
1005.614 .0243827
1006.210 .0243868
1006.806 .0243923
1007.401 .0243991
1007.996 .0244066
1008.591 .0244142
1009.186 .0244217
1009.780 .0244280
1010.374 .0244331
1010.967 .0244369
1011.561 .0244402
1012.154 .0244424
1012.746 .0244447
1013.339 .0244473
1013.931 .0244497
1014.523 .0244528
1015.115 .0244554
1015.706 .0244573
1016.298 .0244592
1016.888 .0244615
1017.479 .0244644
1018.069 .0244683
1018.660 .0244745
1019.250 .0244823
1019.839 .0244925
1020.429 .0245050
1021.018 .0245193
1021.607 .0245356
1022.195 .0245533
1022.784 .0245719
1023.372 .0245908
1023.960 .0246108
1024.547 .0246307
1025.135 .0246510
1025.722 .0246714
1026.309 .0246910
1026.896 .0247100
1027.483 .0247282
1028.069 .0247450
1028.655 .0247603
1029.241 .0247740
1029.827 .0247861
1030.412 .0247961
1030.997 .0248050
1031.582 .0248125
1032.167 .0248200
1032.752 .0248279
1033.336 .0248368
1033.921 .0248467
1034.505 .0248583
1035.089 .0248703
1035.672 .0248830
1036.256 .0248963
1036.839 .0249089
1037.422 .0249211
1038.005 .0249337
1038.588 .0249462
1039.171 .0249595
1039.753 .0249735
1040.335 .0249890
1040.918 .0250049
1041.500 .0250218
1042.081 .0250381
1042.663 .0250532
1043.244 .0250674
1043.826 .0250805
1044.407 .0250924
1044.988 .0251049
1045.569 .0251172
1046.150 .0251300
1046.730 .0251438
1047.311 .0251581
1047.891 .0251712
1048.471 .0251839
1049.052 .0251947
1049.632 .0252034
1050.211 .0252105
1050.791 .0252162
1051.371 .0252204
1051.950 .0252248
1052.530 .0252296
1053.109 .0252340
1053.688 .0252377
1054.268 .0252403
1054.847 .0252407
1055.426 .0252407
1056.005 .0252393
1056.583 .0252367
1057.162 .0252346
1057.741 .0252349
1058.319 .0252369
1058.898 .0252427
1059.476 .0252509
1060.055 .0252618
1060.633 .0252742
1061.211 .0252868
1061.790 .0252977
1062.368 .0253079
1062.946 .0253170
1063.524 .0253257
1064.102 .0253340
1064.680 .0253431
1065.258 .0253507
1065.836 .0253585
1066.414 .0253660
1066.992 .0253715
1067.570 .0253741
1068.148 .0253743
1068.726 .0253713
1069.304 .0253675
1069.882 .0253619
1070.460 .0253562
1071.038 .0253508
1071.616 .0253475
1072.194 .0253445
1072.772 .0253416
1073.350 .0253389
1073.928 .0253363
1074.506 .0253327
1075.084 .0253293
1075.662 .0253253
1076.240 .0253224
1076.819 .0253215
1077.397 .0253234
1077.976 .0253278
1078.554 .0253358
1079.133 .0253469
1079.711 .0253600
1080.290 .0253751
1080.869 .0253920
1081.448 .0254102
1082.027 .0254300
1082.606 .0254513
1083.185 .0254728
1083.764 .0254952
1084.343 .0255175
1084.923 .0255386
1085.502 .0255580
1086.082 .0255763
1086.662 .0255920
1087.242 .0256062
1087.822 .0256188
1088.402 .0256295
1088.983 .0256377
1089.563 .0256445
1090.144 .0256487
1090.725 .0256506
1091.306 .0256503
1091.887 .0256493
1092.469 .0256491
1093.050 .0256507
1093.632 .0256523
1094.214 .0256565
1094.796 .0256638
1095.379 .0256726
1095.961 .0256815
1096.544 .0256920
1097.127 .0257035
1097.710 .0257149
1098.294 .0257266
1098.877 .0257388
1099.461 .0257515
1100.046 .0257641
1100.630 .0257754
1101.215 .0257849
1101.800 .0257922
1102.385 .0257955
1102.970 .0257960
1103.556 .0257945
1104.142 .0257910
1104.728 .0257861
1105.315 .0257808
1105.902 .0257742
1106.489 .0257676
1107.077 .0257594
1107.664 .0257525
1108.253 .0257467
1108.841 .0257415
1109.430 .0257361
1110.019 .0257335
1110.609 .0257326
1111.198 .0257330
1111.789 .0257354
1112.379 .0257425
1112.970 .0257499
1113.561 .0257612
1114.153 .0257768
1114.745 .0257974
1115.338 .0258258
1115.931 .0258605
1116.524 .0258986
1117.117 .0259430
1117.712 .0259915
1118.306 .0260438
1118.901 .0260996
1119.496 .0261594
1120.092 .0262187
1120.689 .0262799
1121.285 .0263418
1121.882 .0264007
1122.480 .0264595
1123.078 .0265202
1123.677 .0265797
1124.276 .0266386
1124.875 .0266966
1125.476 .0267516
1126.076 .0268064
1126.677 .0268623
1127.279 .0269121
1127.881 .0269566
1128.484 .0269975
1129.087 .0270335
1129.691 .0270706
1130.295 .0271159
1130.900 .0271682
1131.505 .0272329
1132.111 .0273141
1132.718 .0274008
1133.325 .0274964
1133.933 .0275975
1134.541 .0277017
1135.150 .0278067
1135.760 .0279162
1136.370 .0280309
1136.981 .0281576
1137.592 .0283004
1138.204 .0284595
1138.817 .0286277
1139.431 .0288052
1140.045 .0289846
1140.660 .0291711
1141.275 .0293827
1141.891 .0296278
1142.508 .0296093
1143.126 .0298751
1143.744 .0302076
1144.363 .0310689
1144.983 .0316907
