Measurement Sequence started on: 15-12-46-377
Integration time: 28
Scans to Average: 2 
>>>>>Begin Spectral Data<<<<<
432.689 .0000100
433.621 .0000100
434.552 .0000100
435.482 .0000100
436.410 .0000100
437.337 .0000100
438.262 .0281461
439.187 .0597092
440.110 .0989374
441.031 .1432424
441.952 .1863436
442.871 .2203548
443.789 .2391578
444.705 .2406137
445.621 .2272796
446.535 .2047690
447.447 .1791962
448.359 .1398856
449.269 .1204238
450.178 .1081646
451.086 .0994814
451.993 .0928192
452.898 .0875431
453.803 .0832087
454.706 .0795876
455.608 .0764777
456.508 .0737627
457.408 .0713954
458.306 .0692941
459.204 .0674028
460.100 .0657080
460.995 .0641812
461.888 .0627994
462.781 .0615477
463.673 .0603968
464.563 .0593646
465.452 .0584148
466.340 .0575285
467.228 .0566953
468.114 .0559146
468.999 .0551892
469.882 .0545057
470.765 .0538716
471.647 .0532926
472.528 .0527639
473.407 .0522902
474.286 .0518680
475.163 .0514937
476.040 .0511625
476.915 .0508659
477.790 .0505909
478.663 .0503317
479.535 .0500839
480.407 .0498580
481.277 .0496523
482.147 .0494741
483.015 .0493253
483.883 .0492071
484.749 .0491194
485.615 .0490627
486.479 .0490252
487.343 .0490072
488.206 .0489993
489.067 .0489940
489.928 .0489904
490.788 .0489914
491.647 .0490038
492.505 .0490322
493.362 .0490849
494.218 .0491618
495.073 .0492594
495.928 .0493858
496.781 .0495286
497.634 .0496910
498.486 .0498704
499.337 .0500664
500.187 .0502889
501.036 .0505417
501.884 .0508270
502.731 .0511517
503.578 .0515184
504.424 .0519240
505.268 .0523662
506.113 .0528422
506.956 .0533620
507.798 .0539314
508.640 .0545646
509.480 .0552713
510.320 .0560729
511.160 .0569966
511.998 .0580396
512.836 .0591975
513.672 .0604862
514.508 .0618824
515.344 .0633984
516.178 .0650554
517.012 .0668954
517.845 .0689789
518.677 .0713348
519.508 .0740110
520.339 .0770766
521.169 .0805611
521.998 .0844764
522.826 .0888386
523.654 .0936693
524.481 .0989579
525.307 .1047109
526.133 .1109284
526.958 .1176279
527.782 .1248468
528.605 .1323909
529.428 .1401774
530.250 .1476528
531.072 .1545506
531.892 .1603720
532.712 .1647895
533.532 .1675053
534.350 .1682681
535.168 .1670513
535.986 .1639889
536.802 .1592783
537.618 .1533172
538.434 .1463231
539.249 .1388660
540.063 .1311033
540.876 .1233539
541.689 .1157986
542.501 .1086882
543.313 .1021616
544.124 .0962532
544.934 .0909136
545.744 .0861403
546.553 .0818892
547.361 .0781275
548.169 .0748021
548.976 .0718435
549.783 .0692254
550.589 .0668994
551.395 .0647774
552.200 .0628665
553.004 .0611230
553.808 .0595362
554.611 .0580952
555.414 .0567833
556.216 .0555973
557.018 .0545333
557.819 .0535705
558.619 .0526906
559.419 .0518769
560.218 .0511207
561.017 .0504085
561.815 .0497325
562.613 .0490828
563.410 .0484525
564.207 .0478459
565.003 .0472626
565.799 .0466922
566.594 .0461343
567.388 .0455914
568.182 .0450573
568.976 .0445278
569.769 .0439978
570.562 .0434690
571.354 .0429480
572.145 .0424353
572.936 .0419292
573.727 .0414328
574.517 .0409501
575.307 .0404877
576.096 .0400456
576.885 .0396246
577.673 .0392246
578.461 .0388454
579.248 .0384853
580.035 .0381417
580.821 .0378172
581.607 .0375141
582.392 .0372278
583.177 .0369634
583.962 .0367169
584.746 .0364884
585.529 .0362767
586.313 .0360832
587.095 .0359042
587.878 .0357385
588.660 .0355846
589.441 .0354404
590.222 .0353055
591.003 .0351835
591.783 .0350707
592.563 .0349684
593.342 .0348782
594.121 .0347963
594.899 .0347216
595.678 .0346557
596.455 .0345952
597.233 .0345397
598.009 .0344863
598.786 .0344357
599.562 .0343856
600.338 .0343360
601.113 .0342870
601.888 .0342389
602.663 .0341918
603.437 .0341461
604.211 .0340995
604.984 .0340544
605.757 .0340099
606.530 .0339653
607.302 .0339211
608.074 .0338779
608.845 .0338360
609.616 .0337948
610.387 .0337546
611.158 .0337168
611.928 .0336796
612.697 .0336443
613.467 .0336100
614.236 .0335761
615.004 .0335426
615.773 .0335096
616.541 .0334769
617.308 .0334445
618.076 .0334130
618.843 .0333820
619.609 .0333521
620.375 .0333234
621.141 .0332953
621.907 .0332673
622.672 .0332402
623.437 .0332125
624.202 .0331836
624.966 .0331550
625.730 .0331256
626.493 .0330963
627.257 .0330677
628.020 .0330397
628.782 .0330124
629.545 .0329852
630.307 .0329583
631.068 .0329304
631.830 .0329013
632.591 .0328696
633.352 .0328360
634.112 .0328019
634.872 .0327669
635.632 .0327322
636.392 .0326992
637.151 .0326685
637.910 .0326397
638.668 .0326125
639.427 .0325865
640.185 .0325610
640.943 .0325356
641.700 .0325089
642.457 .0324813
643.214 .0324536
643.971 .0324256
644.727 .0323986
645.483 .0323737
646.239 .0323506
646.994 .0323287
647.750 .0323083
648.505 .0322882
649.259 .0322679
650.014 .0322465
650.768 .0322239
651.521 .0321994
652.275 .0321734
653.028 .0321458
653.781 .0321171
654.534 .0320888
655.286 .0320606
656.039 .0320326
656.791 .0320059
657.542 .0319798
658.294 .0319540
659.045 .0319279
659.796 .0319014
660.546 .0318731
661.297 .0318432
662.047 .0318118
662.796 .0317789
663.546 .0317455
664.295 .0317125
665.044 .0316799
665.793 .0316486
666.542 .0316186
667.290 .0315897
668.038 .0315617
668.786 .0315342
669.533 .0315061
670.281 .0314775
671.028 .0314484
671.774 .0314189
672.521 .0313891
673.267 .0313600
674.013 .0313318
674.759 .0313048
675.505 .0312801
676.250 .0312570
676.995 .0312359
677.740 .0312164
678.484 .0311980
679.229 .0311798
679.973 .0311612
680.717 .0311418
681.460 .0311214
682.204 .0311000
682.947 .0310779
683.690 .0310552
684.433 .0310326
685.175 .0310104
685.917 .0309888
686.659 .0309677
687.401 .0309469
688.142 .0309259
688.884 .0309045
689.625 .0308822
690.365 .0308586
691.106 .0308335
691.846 .0308078
692.586 .0307817
693.326 .0307558
694.066 .0307307
694.805 .0307069
695.545 .0306844
696.284 .0306630
697.022 .0306420
697.761 .0306206
698.499 .0305989
699.237 .0305762
699.975 .0305523
700.713 .0305279
701.450 .0305033
702.187 .0304794
702.924 .0304568
703.661 .0304364
704.397 .0304174
705.133 .0304005
705.869 .0303849
706.605 .0303704
707.341 .0303562
708.076 .0303421
708.811 .0303274
709.546 .0303131
710.281 .0302992
711.015 .0302859
711.749 .0302734
712.483 .0302621
713.217 .0302512
713.950 .0302404
714.684 .0302284
715.417 .0302153
716.150 .0302005
716.882 .0301844
717.615 .0301666
718.347 .0301478
719.079 .0301285
719.811 .0301094
720.542 .0300905
721.273 .0300727
722.005 .0300553
722.735 .0300386
723.466 .0300220
724.196 .0300058
724.927 .0299893
725.656 .0299728
726.386 .0299560
727.116 .0299397
727.845 .0299236
728.574 .0299085
729.303 .0298939
730.031 .0298808
730.760 .0298691
731.488 .0298582
732.216 .0298479
732.944 .0298381
733.671 .0298281
734.398 .0298177
735.125 .0298068
735.852 .0297952
736.579 .0297830
737.305 .0297706
738.031 .0297579
738.757 .0297451
739.483 .0297322
740.208 .0297190
740.933 .0297051
741.658 .0296908
742.383 .0296755
743.108 .0296593
743.832 .0296427
744.556 .0296258
745.280 .0296083
746.004 .0295906
746.727 .0295723
747.450 .0295535
748.173 .0295339
748.896 .0295134
749.618 .0294920
750.340 .0294704
751.062 .0294486
751.784 .0294266
752.506 .0294048
753.227 .0293833
753.948 .0293617
754.669 .0293403
755.389 .0293189
756.110 .0292972
756.830 .0292753
757.550 .0292539
758.269 .0292324
758.989 .0292112
759.708 .0291901
760.427 .0291694
761.146 .0291488
761.864 .0291284
762.582 .0291082
763.300 .0290884
764.018 .0290698
764.736 .0290518
765.453 .0290345
766.170 .0290179
766.887 .0290017
767.603 .0289856
768.320 .0289693
769.036 .0289523
769.751 .0289344
770.467 .0289157
771.182 .0288970
771.897 .0288786
772.612 .0288612
773.327 .0288452
774.041 .0288305
774.755 .0288169
775.469 .0288045
776.183 .0287924
776.896 .0287807
777.609 .0287689
778.322 .0287573
779.035 .0287459
779.747 .0287352
780.459 .0287255
781.171 .0287172
781.882 .0287105
782.594 .0287052
783.305 .0287009
784.016 .0286976
784.726 .0286947
785.436 .0286920
786.147 .0286896
786.856 .0286873
787.566 .0286849
788.275 .0286828
788.984 .0286807
789.693 .0286790
790.401 .0286772
791.110 .0286752
791.818 .0286727
792.525 .0286699
793.233 .0286664
793.940 .0286622
794.647 .0286577
795.353 .0286533
796.060 .0286486
796.766 .0286439
797.472 .0286391
798.177 .0286343
798.883 .0286292
799.588 .0286240
800.292 .0286183
800.997 .0286127
801.701 .0286069
802.405 .0286015
803.109 .0285965
803.812 .0285921
804.515 .0285883
805.218 .0285843
805.921 .0285803
806.623 .0285762
807.325 .0285718
808.027 .0285671
808.728 .0285621
809.429 .0285570
810.130 .0285515
810.831 .0285458
811.531 .0285400
812.231 .0285336
812.931 .0285268
813.630 .0285193
814.330 .0285112
815.029 .0285026
815.727 .0284936
816.426 .0284845
817.124 .0284760
817.821 .0284682
818.519 .0284605
819.216 .0284533
819.913 .0284463
820.609 .0284396
821.306 .0284326
822.002 .0284255
822.697 .0284185
823.393 .0284118
824.088 .0284056
824.783 .0283995
825.477 .0283937
826.171 .0283881
826.865 .0283827
827.559 .0283771
828.252 .0283716
828.945 .0283656
829.638 .0283593
830.330 .0283530
831.023 .0283463
831.714 .0283392
832.406 .0283319
833.097 .0283241
833.788 .0283157
834.479 .0283065
835.169 .0282967
835.859 .0282858
836.548 .0282748
837.238 .0282629
837.927 .0282500
838.615 .0282365
839.304 .0282222
839.992 .0282069
840.680 .0281910
841.367 .0281746
842.054 .0281575
842.741 .0281399
843.428 .0281222
844.114 .0281044
844.800 .0280863
845.485 .0280684
846.170 .0280503
846.855 .0280318
847.540 .0280133
848.224 .0279940
848.908 .0279742
849.592 .0279536
850.275 .0279317
850.958 .0279084
851.641 .0278835
852.323 .0278571
853.005 .0278289
853.687 .0277994
854.368 .0277696
855.049 .0277395
855.730 .0277098
856.410 .0276808
857.090 .0276526
857.769 .0276250
858.449 .0275979
859.128 .0275711
859.806 .0275446
860.485 .0275188
861.163 .0274943
861.840 .0274713
862.518 .0274503
863.195 .0274314
863.871 .0274147
864.548 .0273998
865.224 .0273864
865.899 .0273735
866.574 .0273611
867.249 .0273488
867.924 .0273360
868.598 .0273228
869.272 .0273095
869.946 .0272964
870.619 .0272831
871.292 .0272697
871.964 .0272561
872.636 .0272420
873.308 .0272272
873.979 .0272119
874.651 .0271959
875.321 .0271795
875.992 .0271632
876.662 .0271470
877.331 .0271314
878.001 .0271165
878.670 .0271019
879.338 .0270876
880.007 .0270736
880.675 .0270595
881.342 .0270452
882.009 .0270314
882.676 .0270185
883.343 .0270068
884.009 .0269967
884.675 .0269887
885.340 .0269824
886.005 .0269780
886.670 .0269748
887.334 .0269723
887.998 .0269703
888.662 .0269687
889.325 .0269671
889.988 .0269661
890.650 .0269658
891.312 .0269664
891.974 .0269682
892.636 .0269717
893.297 .0269763
893.957 .0269819
894.618 .0269877
895.278 .0269937
895.937 .0269993
896.596 .0270047
897.255 .0270096
897.914 .0270143
898.572 .0270188
899.230 .0270233
899.887 .0270274
900.544 .0270313
901.201 .0270347
901.857 .0270374
902.513 .0270390
903.168 .0270396
903.823 .0270390
904.478 .0270374
905.132 .0270348
905.786 .0270312
906.440 .0270266
907.093 .0270211
907.746 .0270146
908.399 .0270075
909.051 .0269998
909.703 .0269918
910.354 .0269836
911.005 .0269756
911.656 .0269677
912.306 .0269600
912.956 .0269523
913.605 .0269448
914.254 .0269374
914.903 .0269301
915.551 .0269228
916.199 .0269161
916.847 .0269102
917.494 .0269051
918.141 .0269010
918.788 .0268978
919.434 .0268950
920.079 .0268925
920.725 .0268899
921.370 .0268865
922.014 .0268824
922.658 .0268771
923.302 .0268705
923.946 .0268629
924.589 .0268545
925.231 .0268452
925.873 .0268356
926.515 .0268254
927.157 .0268146
927.798 .0268033
928.439 .0267917
929.079 .0267794
929.719 .0267665
930.359 .0267529
930.998 .0267389
931.637 .0267248
932.275 .0267115
932.913 .0266983
933.551 .0266861
934.188 .0266746
934.825 .0266641
935.462 .0266541
936.098 .0266448
936.733 .0266362
937.369 .0266282
938.004 .0266207
938.638 .0266140
939.273 .0266079
939.907 .0266026
940.540 .0265979
941.173 .0265936
941.806 .0265894
942.438 .0265856
943.070 .0265817
943.702 .0265778
944.333 .0265738
944.964 .0265700
945.594 .0265664
946.224 .0265631
946.854 .0265603
947.483 .0265575
948.112 .0265543
948.741 .0265504
949.369 .0265455
949.996 .0265393
950.624 .0265319
951.251 .0265235
951.878 .0265143
952.504 .0265046
953.130 .0264943
953.755 .0264839
954.380 .0264733
955.005 .0264621
955.629 .0264499
956.253 .0264364
956.877 .0264216
957.500 .0264052
958.123 .0263876
958.746 .0263691
959.368 .0263498
959.990 .0263304
960.611 .0263109
961.232 .0262915
961.853 .0262724
962.473 .0262538
963.093 .0262351
963.712 .0262160
964.331 .0261960
964.950 .0261756
965.569 .0261550
966.187 .0261349
966.804 .0261152
967.422 .0260968
968.039 .0260797
968.655 .0260632
969.272 .0260470
969.887 .0260310
970.503 .0260143
971.118 .0259969
971.733 .0259787
972.347 .0259597
972.961 .0259407
973.575 .0259221
974.188 .0259037
974.801 .0258854
975.414 .0258670
976.026 .0258479
976.638 .0258276
977.250 .0258062
977.861 .0257833
978.472 .0257596
979.083 .0257353
979.693 .0257104
980.303 .0256851
980.912 .0256595
981.521 .0256333
982.130 .0256067
982.738 .0255793
983.346 .0255509
983.954 .0255216
984.562 .0254925
985.169 .0254632
985.775 .0254351
986.382 .0254075
986.988 .0253813
987.594 .0253568
988.199 .0253338
988.804 .0253118
989.409 .0252911
990.013 .0252720
990.617 .0252541
991.221 .0252369
991.824 .0252210
992.427 .0252056
993.030 .0251918
993.632 .0251790
994.234 .0251674
994.836 .0251568
995.438 .0251475
996.039 .0251383
996.640 .0251299
997.240 .0251215
997.840 .0251131
998.440 .0251043
999.040 .0250955
999.639 .0250866
1000.238 .0250775
1000.836 .0250684
1001.435 .0250596
1002.033 .0250508
1002.630 .0250430
1003.228 .0250353
1003.825 .0250282
1004.422 .0250220
1005.018 .0250168
1005.614 .0250123
1006.210 .0250082
1006.806 .0250040
1007.401 .0249993
1007.996 .0249934
1008.591 .0249858
1009.186 .0249765
1009.780 .0249663
1010.374 .0249553
1010.967 .0249440
1011.561 .0249335
1012.154 .0249238
1012.746 .0249146
1013.339 .0249063
1013.931 .0248981
1014.523 .0248896
1015.115 .0248805
1015.706 .0248706
1016.298 .0248601
1016.888 .0248506
1017.479 .0248420
1018.069 .0248346
1018.660 .0248296
1019.250 .0248271
1019.839 .0248263
1020.429 .0248273
1021.018 .0248301
1021.607 .0248339
1022.195 .0248382
1022.784 .0248436
1023.372 .0248494
1023.960 .0248566
1024.547 .0248652
1025.135 .0248751
1025.722 .0248863
1026.309 .0248987
1026.896 .0249114
1027.483 .0249242
1028.069 .0249378
1028.655 .0249523
1029.241 .0249671
1029.827 .0249830
1030.412 .0250002
1030.997 .0250186
1031.582 .0250377
1032.167 .0250576
1032.752 .0250775
1033.336 .0250971
1033.921 .0251151
1034.505 .0251317
1035.089 .0251469
1035.672 .0251614
1036.256 .0251754
1036.839 .0251888
1037.422 .0252027
1038.005 .0252178
1038.588 .0252326
1039.171 .0252477
1039.753 .0252629
1040.335 .0252770
1040.918 .0252895
1041.500 .0253003
1042.081 .0253093
1042.663 .0253170
1043.244 .0253242
1043.826 .0253317
1044.407 .0253393
1044.988 .0253486
1045.569 .0253588
1046.150 .0253695
1046.730 .0253813
1047.311 .0253928
1047.891 .0254032
1048.471 .0254139
1049.052 .0254230
1049.632 .0254310
1050.211 .0254383
1050.791 .0254463
1051.371 .0254547
1051.950 .0254646
1052.530 .0254753
1053.109 .0254869
1053.688 .0254994
1054.268 .0255124
1054.847 .0255248
1055.426 .0255377
1056.005 .0255505
1056.583 .0255627
1057.162 .0255747
1057.741 .0255865
1058.319 .0255977
1058.898 .0256104
1059.476 .0256226
1060.055 .0256354
1060.633 .0256477
1061.211 .0256609
1061.790 .0256745
1062.368 .0256892
1062.946 .0257039
1063.524 .0257177
1064.102 .0257319
1064.680 .0257453
1065.258 .0257570
1065.836 .0257690
1066.414 .0257817
1066.992 .0257956
1067.570 .0258107
1068.148 .0258270
1068.726 .0258442
1069.304 .0258640
1069.882 .0258854
1070.460 .0259067
1071.038 .0259273
1071.616 .0259465
1072.194 .0259641
1072.772 .0259799
1073.350 .0259960
1073.928 .0260118
1074.506 .0260283
1075.084 .0260456
1075.662 .0260641
1076.240 .0260846
1076.819 .0261058
1077.397 .0261292
1077.976 .0261544
1078.554 .0261800
1079.133 .0262054
1079.711 .0262292
1080.290 .0262521
1080.869 .0262749
1081.448 .0262956
1082.027 .0263137
1082.606 .0263305
1083.185 .0263473
1083.764 .0263633
1084.343 .0263799
1084.923 .0263970
1085.502 .0264141
1086.082 .0264303
1086.662 .0264450
1087.242 .0264558
1087.822 .0264627
1088.402 .0264674
1088.983 .0264689
1089.563 .0264690
1090.144 .0264693
1090.725 .0264708
1091.306 .0264759
1091.887 .0264848
1092.469 .0264982
1093.050 .0265145
1093.632 .0265341
1094.214 .0265559
1094.796 .0265770
1095.379 .0265996
1095.961 .0266210
1096.544 .0266428
1097.127 .0266646
1097.710 .0266862
1098.294 .0267081
1098.877 .0267315
1099.461 .0267580
1100.046 .0267865
1100.630 .0268179
1101.215 .0268514
1101.800 .0268847
1102.385 .0269161
1102.970 .0269430
1103.556 .0269642
1104.142 .0269797
1104.728 .0269906
1105.315 .0269952
1105.902 .0269971
1106.489 .0269982
1107.077 .0270007
1107.664 .0270057
1108.253 .0270113
1108.841 .0270179
1109.430 .0270223
1110.019 .0270265
1110.609 .0270280
1111.198 .0270284
1111.789 .0270317
1112.379 .0270368
1112.970 .0270450
1113.561 .0270580
1114.153 .0270760
1114.745 .0271029
1115.338 .0271372
1115.931 .0271789
1116.524 .0272247
1117.117 .0272743
1117.712 .0273271
1118.306 .0273810
1118.901 .0274368
1119.496 .0274923
1120.092 .0275445
1120.689 .0275956
1121.285 .0276438
1121.882 .0276903
1122.480 .0277362
1123.078 .0277861
1123.677 .0278380
1124.276 .0278891
1124.875 .0279383
1125.476 .0279829
1126.076 .0280239
1126.677 .0280620
1127.279 .0280960
1127.881 .0281272
1128.484 .0281606
1129.087 .0281947
1129.691 .0282345
1130.295 .0282819
1130.900 .0283371
1131.505 .0283994
1132.111 .0284685
1132.718 .0285461
1133.325 .0286276
1133.933 .0287139
1134.541 .0288058
1135.150 .0289001
1135.760 .0289988
1136.370 .0290979
1136.981 .0292006
1137.592 .0293039
1138.204 .0294123
1138.817 .0295272
1139.431 .0296449
1140.045 .0297730
1140.660 .0298984
1141.275 .0300315
1141.891 .0301855
1142.508 .0303081
1143.126 .0305414
1143.744 .0303870
1144.363 .0307718
1144.983 .0314228
