Measurement Sequence started on: 15-12-46-377
Integration time: 28
Scans to Average: 2 
>>>>>Begin Spectral Data<<<<<
432.689 .0000100
433.621 .0000100
434.552 .0000100
435.482 .0000100
436.410 .0000100
437.337 .0000100
438.262 .0293756
439.187 .0623634
440.110 .1034042
441.031 .1497419
441.952 .1948224
442.871 .2304205
443.789 .2501048
444.705 .2516233
445.621 .2376465
446.535 .2140144
447.447 .1870943
448.359 .1457722
449.269 .1250871
450.178 .1119120
451.086 .1025129
451.993 .0952351
452.898 .0894258
453.803 .0846529
454.706 .0806934
455.608 .0773096
456.508 .0743783
457.408 .0718386
458.306 .0695787
459.204 .0675432
460.100 .0656878
460.995 .0640097
461.888 .0625015
462.781 .0611447
463.673 .0599048
464.563 .0587830
465.452 .0577581
466.340 .0568171
467.228 .0559506
468.114 .0551378
468.999 .0543913
469.882 .0536964
470.765 .0530614
471.647 .0524925
472.528 .0519815
473.407 .0515382
474.286 .0511526
475.163 .0508211
476.040 .0505345
476.915 .0502835
477.790 .0500642
478.663 .0498716
479.535 .0497092
480.407 .0495771
481.277 .0494683
482.147 .0493919
483.015 .0493474
483.883 .0493182
484.749 .0493019
485.615 .0492870
486.479 .0492618
487.343 .0492279
488.206 .0491801
489.067 .0491225
489.928 .0490633
490.788 .0490098
491.647 .0489647
492.505 .0489422
493.362 .0489504
494.218 .0489837
495.073 .0490460
495.928 .0491443
496.781 .0492659
497.634 .0494219
498.486 .0496127
499.337 .0498368
500.187 .0500998
501.036 .0504035
501.884 .0507394
502.731 .0511119
503.578 .0515192
504.424 .0519498
505.268 .0524038
506.113 .0528905
506.956 .0533961
507.798 .0539345
508.640 .0545289
509.480 .0551908
510.320 .0559361
511.160 .0567890
511.998 .0577410
512.836 .0588138
513.672 .0600086
514.508 .0613282
515.344 .0628051
516.178 .0644556
517.012 .0663080
517.845 .0684010
518.677 .0707943
519.508 .0734883
520.339 .0764955
521.169 .0798960
521.998 .0836860
522.826 .0879131
523.654 .0925876
524.481 .0977291
525.307 .1034342
526.133 .1097404
526.958 .1165845
527.782 .1239518
528.605 .1316653
529.428 .1394981
530.250 .1469190
531.072 .1536489
531.892 .1592715
532.712 .1634969
533.532 .1662078
534.350 .1672185
535.168 .1664343
535.986 .1640222
536.802 .1600586
537.618 .1548009
538.434 .1484356
539.249 .1413200
540.063 .1336439
540.876 .1257928
541.689 .1180476
542.501 .1106422
543.313 .1038202
544.124 .0977271
544.934 .0922714
545.744 .0874078
546.553 .0830867
547.361 .0792693
548.169 .0759094
548.976 .0729530
549.783 .0703263
550.589 .0679893
551.395 .0658812
552.200 .0640015
553.004 .0623016
553.808 .0607626
554.611 .0593690
555.414 .0581010
556.216 .0569458
557.018 .0559149
557.819 .0549873
558.619 .0541515
559.419 .0533908
560.218 .0526794
561.017 .0519957
561.815 .0513290
562.613 .0506686
563.410 .0500053
564.207 .0493345
565.003 .0486644
565.799 .0479871
566.594 .0473134
567.388 .0466517
568.182 .0460047
568.976 .0453676
569.769 .0447483
570.562 .0441417
571.354 .0435475
572.145 .0429698
572.936 .0424150
573.727 .0418782
574.517 .0413601
575.307 .0408593
576.096 .0403764
576.885 .0399090
577.673 .0394637
578.461 .0390375
579.248 .0386356
580.035 .0382535
580.821 .0378959
581.607 .0375588
582.392 .0372500
583.177 .0369661
583.962 .0367041
584.746 .0364664
585.529 .0362505
586.313 .0360535
587.095 .0358754
587.878 .0357155
588.660 .0355736
589.441 .0354434
590.222 .0353272
591.003 .0352220
591.783 .0351262
592.563 .0350376
593.342 .0349558
594.121 .0348789
594.899 .0348068
595.678 .0347376
596.455 .0346703
597.233 .0346054
598.009 .0345422
598.786 .0344808
599.562 .0344220
600.338 .0343662
601.113 .0343124
601.888 .0342590
602.663 .0342072
603.437 .0341565
604.211 .0341076
604.984 .0340603
605.757 .0340156
606.530 .0339734
607.302 .0339337
608.074 .0338961
608.845 .0338599
609.616 .0338248
610.387 .0337902
611.158 .0337555
611.928 .0337208
612.697 .0336856
613.467 .0336508
614.236 .0336164
615.004 .0335826
615.773 .0335498
616.541 .0335171
617.308 .0334844
618.076 .0334518
618.843 .0334186
619.609 .0333851
620.375 .0333513
621.141 .0333174
621.907 .0332837
622.672 .0332505
623.437 .0332181
624.202 .0331859
624.966 .0331548
625.730 .0331243
626.493 .0330936
627.257 .0330636
628.020 .0330346
628.782 .0330055
629.545 .0329773
630.307 .0329495
631.068 .0329218
631.830 .0328940
632.591 .0328653
633.352 .0328355
634.112 .0328049
634.872 .0327734
635.632 .0327415
636.392 .0327094
637.151 .0326786
637.910 .0326480
638.668 .0326186
639.427 .0325898
640.185 .0325602
640.943 .0325301
641.700 .0324990
642.457 .0324668
643.214 .0324333
643.971 .0323988
644.727 .0323642
645.483 .0323312
646.239 .0323001
646.994 .0322709
647.750 .0322449
648.505 .0322220
649.259 .0322010
650.014 .0321811
650.768 .0321620
651.521 .0321433
652.275 .0321252
653.028 .0321081
653.781 .0320913
654.534 .0320762
655.286 .0320619
656.039 .0320482
656.791 .0320349
657.542 .0320213
658.294 .0320058
659.045 .0319887
659.796 .0319701
660.546 .0319497
661.297 .0319278
662.047 .0319056
662.796 .0318829
663.546 .0318606
664.295 .0318374
665.044 .0318136
665.793 .0317893
666.542 .0317646
667.290 .0317387
668.038 .0317124
668.786 .0316857
669.533 .0316591
670.281 .0316331
671.028 .0316083
671.774 .0315846
672.521 .0315623
673.267 .0315404
674.013 .0315188
674.759 .0314971
675.505 .0314750
676.250 .0314515
676.995 .0314271
677.740 .0314012
678.484 .0313737
679.229 .0313458
679.973 .0313178
680.717 .0312904
681.460 .0312645
682.204 .0312399
682.947 .0312161
683.690 .0311930
684.433 .0311703
685.175 .0311467
685.917 .0311221
686.659 .0310962
687.401 .0310685
688.142 .0310403
688.884 .0310118
689.625 .0309835
690.365 .0309561
691.106 .0309297
691.846 .0309036
692.586 .0308780
693.326 .0308524
694.066 .0308266
694.805 .0308005
695.545 .0307743
696.284 .0307478
697.022 .0307210
697.761 .0306950
698.499 .0306695
699.237 .0306446
699.975 .0306209
700.713 .0305979
701.450 .0305759
702.187 .0305550
702.924 .0305347
703.661 .0305149
704.397 .0304953
705.133 .0304761
705.869 .0304560
706.605 .0304354
707.341 .0304144
708.076 .0303930
708.811 .0303717
709.546 .0303506
710.281 .0303302
711.015 .0303110
711.749 .0302924
712.483 .0302748
713.217 .0302570
713.950 .0302395
714.684 .0302218
715.417 .0302037
716.150 .0301854
716.882 .0301674
717.615 .0301498
718.347 .0301328
719.079 .0301167
719.811 .0301021
720.542 .0300885
721.273 .0300758
722.005 .0300635
722.735 .0300511
723.466 .0300382
724.196 .0300250
724.927 .0300103
725.656 .0299952
726.386 .0299793
727.116 .0299635
727.845 .0299483
728.574 .0299345
729.303 .0299226
730.031 .0299125
730.760 .0299045
731.488 .0298976
732.216 .0298908
732.944 .0298839
733.671 .0298763
734.398 .0298681
735.125 .0298586
735.852 .0298489
736.579 .0298395
737.305 .0298311
738.031 .0298240
738.757 .0298187
739.483 .0298145
740.208 .0298112
740.933 .0298078
741.658 .0298029
742.383 .0297965
743.108 .0297880
743.832 .0297774
744.556 .0297650
745.280 .0297514
746.004 .0297370
746.727 .0297222
747.450 .0297084
748.173 .0296946
748.896 .0296810
749.618 .0296676
750.340 .0296538
751.062 .0296391
751.784 .0296229
752.506 .0296050
753.227 .0295856
753.948 .0295649
754.669 .0295431
755.389 .0295201
756.110 .0294968
756.830 .0294733
757.550 .0294493
758.269 .0294253
758.989 .0294011
759.708 .0293761
760.427 .0293508
761.146 .0293250
761.864 .0292991
762.582 .0292729
763.300 .0292466
764.018 .0292208
764.736 .0291957
765.453 .0291715
766.170 .0291480
766.887 .0291255
767.603 .0291041
768.320 .0290833
769.036 .0290632
769.751 .0290438
770.467 .0290253
771.182 .0290077
771.897 .0289905
772.612 .0289737
773.327 .0289572
774.041 .0289406
774.755 .0289235
775.469 .0289064
776.183 .0288893
776.896 .0288718
777.609 .0288544
778.322 .0288379
779.035 .0288220
779.747 .0288072
780.459 .0287938
781.171 .0287817
781.882 .0287707
782.594 .0287603
783.305 .0287505
784.016 .0287415
784.726 .0287336
785.436 .0287263
786.147 .0287195
786.856 .0287138
787.566 .0287087
788.275 .0287036
788.984 .0286989
789.693 .0286937
790.401 .0286878
791.110 .0286807
791.818 .0286722
792.525 .0286626
793.233 .0286519
793.940 .0286408
794.647 .0286299
795.353 .0286191
796.060 .0286089
796.766 .0285989
797.472 .0285895
798.177 .0285809
798.883 .0285728
799.588 .0285652
800.292 .0285589
800.997 .0285542
801.701 .0285507
802.405 .0285484
803.109 .0285479
803.812 .0285486
804.515 .0285500
805.218 .0285518
805.921 .0285528
806.623 .0285531
807.325 .0285524
808.027 .0285506
808.728 .0285478
809.429 .0285444
810.130 .0285399
810.831 .0285349
811.531 .0285293
812.231 .0285228
812.931 .0285149
813.630 .0285058
814.330 .0284955
815.029 .0284843
815.727 .0284723
816.426 .0284606
817.124 .0284493
817.821 .0284394
818.519 .0284305
819.216 .0284235
819.913 .0284179
820.609 .0284135
821.306 .0284100
822.002 .0284077
822.697 .0284063
823.393 .0284059
824.088 .0284068
824.783 .0284091
825.477 .0284130
826.171 .0284183
826.865 .0284251
827.559 .0284334
828.252 .0284419
828.945 .0284505
829.638 .0284583
830.330 .0284651
831.023 .0284703
831.714 .0284736
832.406 .0284754
833.097 .0284752
833.788 .0284735
834.479 .0284700
835.169 .0284654
835.859 .0284600
836.548 .0284536
837.238 .0284467
837.927 .0284395
838.615 .0284320
839.304 .0284241
839.992 .0284158
840.680 .0284072
841.367 .0283981
842.054 .0283885
842.741 .0283783
843.428 .0283681
844.114 .0283576
844.800 .0283473
845.485 .0283366
846.170 .0283257
846.855 .0283138
847.540 .0283005
848.224 .0282856
848.908 .0282689
849.592 .0282503
850.275 .0282299
850.958 .0282079
851.641 .0281848
852.323 .0281608
853.005 .0281367
853.687 .0281125
854.368 .0280884
855.049 .0280644
855.730 .0280404
856.410 .0280158
857.090 .0279912
857.769 .0279661
858.449 .0279410
859.128 .0279157
859.806 .0278906
860.485 .0278657
861.163 .0278411
861.840 .0278169
862.518 .0277925
863.195 .0277683
863.871 .0277439
864.548 .0277192
865.224 .0276940
865.899 .0276688
866.574 .0276438
867.249 .0276190
867.924 .0275947
868.598 .0275708
869.272 .0275475
869.946 .0275248
870.619 .0275025
871.292 .0274809
871.964 .0274593
872.636 .0274380
873.308 .0274165
873.979 .0273954
874.651 .0273739
875.321 .0273526
875.992 .0273313
876.662 .0273101
877.331 .0272888
878.001 .0272675
878.670 .0272464
879.338 .0272253
880.007 .0272046
880.675 .0271838
881.342 .0271633
882.009 .0271433
882.676 .0271230
883.343 .0271027
884.009 .0270825
884.675 .0270625
885.340 .0270426
886.005 .0270237
886.670 .0270060
887.334 .0269895
887.998 .0269748
888.662 .0269618
889.325 .0269502
889.988 .0269399
890.650 .0269309
891.312 .0269220
891.974 .0269139
892.636 .0269062
893.297 .0268988
893.957 .0268924
894.618 .0268870
895.278 .0268825
895.937 .0268790
896.596 .0268765
897.255 .0268744
897.914 .0268726
898.572 .0268714
899.230 .0268701
899.887 .0268685
900.544 .0268667
901.201 .0268647
901.857 .0268623
902.513 .0268596
903.168 .0268565
903.823 .0268528
904.478 .0268484
905.132 .0268430
905.786 .0268368
906.440 .0268294
907.093 .0268209
907.746 .0268116
908.399 .0268016
909.051 .0267913
909.703 .0267804
910.354 .0267698
911.005 .0267598
911.656 .0267503
912.306 .0267414
912.956 .0267335
913.605 .0267268
914.254 .0267210
914.903 .0267159
915.551 .0267116
916.199 .0267088
916.847 .0267074
917.494 .0267074
918.141 .0267087
918.788 .0267114
919.434 .0267153
920.079 .0267192
920.725 .0267233
921.370 .0267272
922.014 .0267299
922.658 .0267314
923.302 .0267313
923.946 .0267301
924.589 .0267275
925.231 .0267238
925.873 .0267194
926.515 .0267142
927.157 .0267084
927.798 .0267017
928.439 .0266942
929.079 .0266866
929.719 .0266784
930.359 .0266697
930.998 .0266611
931.637 .0266526
932.275 .0266444
932.913 .0266368
933.551 .0266298
934.188 .0266237
934.825 .0266183
935.462 .0266140
936.098 .0266101
936.733 .0266075
937.369 .0266060
938.004 .0266053
938.638 .0266053
939.273 .0266061
939.907 .0266069
940.540 .0266081
941.173 .0266099
941.806 .0266120
942.438 .0266146
943.070 .0266178
943.702 .0266214
944.333 .0266254
944.964 .0266297
945.594 .0266341
946.224 .0266383
946.854 .0266428
947.483 .0266468
948.112 .0266506
948.741 .0266543
949.369 .0266581
949.996 .0266620
950.624 .0266658
951.251 .0266693
951.878 .0266717
952.504 .0266733
953.130 .0266736
953.755 .0266720
954.380 .0266690
955.005 .0266645
955.629 .0266586
956.253 .0266516
956.877 .0266439
957.500 .0266358
958.123 .0266279
958.746 .0266202
959.368 .0266122
959.990 .0266038
960.611 .0265948
961.232 .0265851
961.853 .0265752
962.473 .0265653
963.093 .0265548
963.712 .0265446
964.331 .0265343
964.950 .0265238
965.569 .0265133
966.187 .0265031
966.804 .0264930
967.422 .0264830
968.039 .0264729
968.655 .0264622
969.272 .0264513
969.887 .0264404
970.503 .0264289
971.118 .0264168
971.733 .0264037
972.347 .0263895
972.961 .0263738
973.575 .0263573
974.188 .0263395
974.801 .0263209
975.414 .0263017
976.026 .0262819
976.638 .0262614
977.250 .0262403
977.861 .0262194
978.472 .0261984
979.083 .0261772
979.693 .0261554
980.303 .0261329
980.912 .0261103
981.521 .0260875
982.130 .0260649
982.738 .0260425
983.346 .0260206
983.954 .0259992
984.562 .0259775
985.169 .0259558
985.775 .0259334
986.382 .0259103
986.988 .0258862
987.594 .0258614
988.199 .0258357
988.804 .0258099
989.409 .0257840
990.013 .0257587
990.617 .0257338
991.221 .0257091
991.824 .0256849
992.427 .0256614
993.030 .0256387
993.632 .0256170
994.234 .0255968
994.836 .0255792
995.438 .0255636
996.039 .0255505
996.640 .0255390
997.240 .0255289
997.840 .0255193
998.440 .0255098
999.040 .0254996
999.639 .0254887
1000.238 .0254771
1000.836 .0254646
1001.435 .0254515
1002.033 .0254382
1002.630 .0254241
1003.228 .0254094
1003.825 .0253941
1004.422 .0253780
1005.018 .0253603
1005.614 .0253422
1006.210 .0253237
1006.806 .0253053
1007.401 .0252867
1007.996 .0252679
1008.591 .0252488
1009.186 .0252295
1009.780 .0252099
1010.374 .0251897
1010.967 .0251690
1011.561 .0251483
1012.154 .0251275
1012.746 .0251073
1013.339 .0250878
1013.931 .0250690
1014.523 .0250511
1015.115 .0250338
1015.706 .0250165
1016.298 .0249994
1016.888 .0249831
1017.479 .0249674
1018.069 .0249529
1018.660 .0249393
1019.250 .0249270
1019.839 .0249157
1020.429 .0249056
1021.018 .0248973
1021.607 .0248908
1022.195 .0248858
1022.784 .0248824
1023.372 .0248805
1023.960 .0248803
1024.547 .0248811
1025.135 .0248834
1025.722 .0248865
1026.309 .0248903
1026.896 .0248948
1027.483 .0248996
1028.069 .0249056
1028.655 .0249135
1029.241 .0249222
1029.827 .0249321
1030.412 .0249427
1030.997 .0249522
1031.582 .0249608
1032.167 .0249678
1032.752 .0249729
1033.336 .0249755
1033.921 .0249761
1034.505 .0249750
1035.089 .0249721
1035.672 .0249685
1036.256 .0249639
1036.839 .0249585
1037.422 .0249536
1038.005 .0249484
1038.588 .0249432
1039.171 .0249390
1039.753 .0249357
1040.335 .0249336
1040.918 .0249331
1041.500 .0249336
1042.081 .0249358
1042.663 .0249391
1043.244 .0249446
1043.826 .0249519
1044.407 .0249604
1044.988 .0249705
1045.569 .0249814
1046.150 .0249927
1046.730 .0250030
1047.311 .0250126
1047.891 .0250211
1048.471 .0250289
1049.052 .0250368
1049.632 .0250442
1050.211 .0250524
1050.791 .0250615
1051.371 .0250713
1051.950 .0250816
1052.530 .0250916
1053.109 .0251017
1053.688 .0251105
1054.268 .0251195
1054.847 .0251293
1055.426 .0251394
1056.005 .0251506
1056.583 .0251641
1057.162 .0251792
1057.741 .0251957
1058.319 .0252132
1058.898 .0252312
1059.476 .0252503
1060.055 .0252698
1060.633 .0252896
1061.211 .0253087
1061.790 .0253285
1062.368 .0253489
1062.946 .0253680
1063.524 .0253882
1064.102 .0254076
1064.680 .0254263
1065.258 .0254454
1065.836 .0254643
1066.414 .0254827
1066.992 .0255007
1067.570 .0255187
1068.148 .0255360
1068.726 .0255533
1069.304 .0255700
1069.882 .0255861
1070.460 .0256024
1071.038 .0256198
1071.616 .0256382
1072.194 .0256577
1072.772 .0256792
1073.350 .0257018
1073.928 .0257252
1074.506 .0257477
1075.084 .0257692
1075.662 .0257896
1076.240 .0258086
1076.819 .0258263
1077.397 .0258434
1077.976 .0258604
1078.554 .0258769
1079.133 .0258945
1079.711 .0259116
1080.290 .0259285
1080.869 .0259444
1081.448 .0259567
1082.027 .0259674
1082.606 .0259767
1083.185 .0259853
1083.764 .0259944
1084.343 .0260056
1084.923 .0260199
1085.502 .0260376
1086.082 .0260593
1086.662 .0260851
1087.242 .0261126
1087.822 .0261418
1088.402 .0261704
1088.983 .0261969
1089.563 .0262211
1090.144 .0262431
1090.725 .0262660
1091.306 .0262903
1091.887 .0263154
1092.469 .0263432
1093.050 .0263742
1093.632 .0264086
1094.214 .0264441
1094.796 .0264799
1095.379 .0265154
1095.961 .0265497
1096.544 .0265800
1097.127 .0266079
1097.710 .0266336
1098.294 .0266599
1098.877 .0266847
1099.461 .0267099
1100.046 .0267369
1100.630 .0267634
1101.215 .0267905
1101.800 .0268189
1102.385 .0268451
1102.970 .0268694
1103.556 .0268892
1104.142 .0269083
1104.728 .0269257
1105.315 .0269442
1105.902 .0269640
1106.489 .0269888
1107.077 .0270193
1107.664 .0270553
1108.253 .0270937
1108.841 .0271374
1109.430 .0271827
1110.019 .0272276
1110.609 .0272704
1111.198 .0273123
1111.789 .0273539
1112.379 .0273964
1112.970 .0274406
1113.561 .0274885
1114.153 .0275352
1114.745 .0275825
1115.338 .0276272
1115.931 .0276684
1116.524 .0277020
1117.117 .0277296
1117.712 .0277512
1118.306 .0277695
1118.901 .0277885
1119.496 .0278086
1120.092 .0278312
1120.689 .0278616
1121.285 .0278934
1121.882 .0279242
1122.480 .0279570
1123.078 .0279903
1123.677 .0280259
1124.276 .0280653
1124.875 .0281107
1125.476 .0281632
1126.076 .0282262
1126.677 .0283014
1127.279 .0283829
1127.881 .0284700
1128.484 .0285576
1129.087 .0286385
1129.691 .0287152
1130.295 .0287853
1130.900 .0288498
1131.505 .0289147
1132.111 .0289832
1132.718 .0290524
1133.325 .0291291
1133.933 .0292090
1134.541 .0292953
1135.150 .0293873
1135.760 .0294805
1136.370 .0295703
1136.981 .0296600
1137.592 .0297464
1138.204 .0298361
1138.817 .0299319
1139.431 .0300374
1140.045 .0301470
1140.660 .0302652
1141.275 .0303942
1141.891 .0304987
1142.508 .0307253
1143.126 .0308022
1143.744 .0308207
1144.363 .0311637
1144.983 .0304404
