Measurement Sequence started on: 15-12-46-377
Integration time: 28
Scans to Average: 2 
>>>>>Begin Spectral Data<<<<<
432.689 .0000100
433.621 .0000100
434.552 .0000100
435.482 .0000100
436.410 .0000100
437.337 .0000100
438.262 .0295096
439.187 .0623593
440.110 .1032098
441.031 .1492145
441.952 .1938207
442.871 .2288161
443.789 .2478163
444.705 .2487031
445.621 .2341964
446.535 .2102043
447.447 .1831535
448.359 .1417943
449.269 .1214479
450.178 .1085629
451.086 .0994698
451.993 .0924877
452.898 .0869564
453.803 .0824249
454.706 .0786526
455.608 .0754586
456.508 .0727242
457.408 .0703738
458.306 .0683415
459.204 .0665543
460.100 .0649557
460.995 .0635161
461.888 .0622037
462.781 .0609916
463.673 .0598675
464.563 .0588081
465.452 .0578109
466.340 .0568693
467.228 .0559903
468.114 .0551763
468.999 .0544251
469.882 .0537463
470.765 .0531325
471.647 .0525755
472.528 .0520661
473.407 .0516049
474.286 .0511856
475.163 .0508023
476.040 .0504624
476.915 .0501608
477.790 .0498938
478.663 .0496683
479.535 .0494816
480.407 .0493378
481.277 .0492271
482.147 .0491450
483.015 .0490776
483.883 .0490250
484.749 .0489757
485.615 .0489279
486.479 .0488910
487.343 .0488728
488.206 .0488683
489.067 .0488799
489.928 .0489083
490.788 .0489552
491.647 .0490175
492.505 .0490997
493.362 .0491981
494.218 .0493143
495.073 .0494449
495.928 .0495972
496.781 .0497693
497.634 .0499682
498.486 .0501908
499.337 .0504392
500.187 .0507069
501.036 .0509910
501.884 .0512878
502.731 .0516059
503.578 .0519509
504.424 .0523203
505.268 .0527016
506.113 .0531047
506.956 .0535182
507.798 .0539622
508.640 .0544341
509.480 .0549392
510.320 .0554987
511.160 .0561289
511.998 .0568346
512.836 .0576446
513.672 .0585580
514.508 .0595949
515.344 .0607559
516.178 .0620684
517.012 .0635387
517.845 .0652039
518.677 .0671320
519.508 .0693600
520.339 .0719377
521.169 .0749449
521.998 .0783733
522.826 .0822967
523.654 .0867658
524.481 .0917765
525.307 .0973889
526.133 .1035948
526.958 .1103556
527.782 .1176669
528.605 .1253439
529.428 .1333015
530.250 .1409863
531.072 .1481369
531.892 .1543001
532.712 .1591223
533.532 .1623626
534.350 .1637652
535.168 .1632477
535.986 .1608898
536.802 .1568181
537.618 .1513375
538.434 .1446793
539.249 .1373924
540.063 .1297107
540.876 .1219872
541.689 .1144493
542.501 .1073651
543.313 .1008805
544.124 .0950814
544.934 .0899116
545.744 .0852963
546.553 .0812044
547.361 .0775880
548.169 .0743976
548.976 .0715719
549.783 .0690767
550.589 .0668822
551.395 .0649056
552.200 .0631366
553.004 .0615162
553.808 .0600213
554.611 .0586478
555.414 .0573873
556.216 .0562049
557.018 .0551102
557.819 .0540985
558.619 .0531555
559.419 .0522825
560.218 .0514622
561.017 .0506874
561.815 .0499445
562.613 .0492253
563.410 .0485116
564.207 .0477991
565.003 .0471012
565.799 .0464164
566.594 .0457499
567.388 .0451233
568.182 .0445328
568.976 .0439735
569.769 .0434514
570.562 .0429585
571.354 .0424780
572.145 .0420084
572.936 .0415438
573.727 .0410779
574.517 .0406117
575.307 .0401486
576.096 .0396918
576.885 .0392523
577.673 .0388392
578.461 .0384509
579.248 .0380944
580.035 .0377706
580.821 .0374730
581.607 .0371965
582.392 .0369431
583.177 .0367045
583.962 .0364786
584.746 .0362658
585.529 .0360649
586.313 .0358773
587.095 .0357044
587.878 .0355458
588.660 .0354011
589.441 .0352695
590.222 .0351496
591.003 .0350386
591.783 .0349355
592.563 .0348379
593.342 .0347442
594.121 .0346532
594.899 .0345666
595.678 .0344822
596.455 .0344032
597.233 .0343290
598.009 .0342595
598.786 .0341952
599.562 .0341351
600.338 .0340790
601.113 .0340261
601.888 .0339760
602.663 .0339274
603.437 .0338794
604.211 .0338326
604.984 .0337861
605.757 .0337409
606.530 .0336969
607.302 .0336541
608.074 .0336118
608.845 .0335710
609.616 .0335305
610.387 .0334915
611.158 .0334544
611.928 .0334190
612.697 .0333853
613.467 .0333543
614.236 .0333254
615.004 .0332984
615.773 .0332737
616.541 .0332509
617.308 .0332287
618.076 .0332072
618.843 .0331849
619.609 .0331629
620.375 .0331410
621.141 .0331191
621.907 .0330974
622.672 .0330764
623.437 .0330548
624.202 .0330330
624.966 .0330109
625.730 .0329879
626.493 .0329630
627.257 .0329367
628.020 .0329085
628.782 .0328789
629.545 .0328486
630.307 .0328179
631.068 .0327878
631.830 .0327589
632.591 .0327302
633.352 .0327023
634.112 .0326753
634.872 .0326490
635.632 .0326228
636.392 .0325966
637.151 .0325694
637.910 .0325415
638.668 .0325131
639.427 .0324843
640.185 .0324547
640.943 .0324258
641.700 .0323972
642.457 .0323692
643.214 .0323411
643.971 .0323129
644.727 .0322845
645.483 .0322561
646.239 .0322267
646.994 .0321963
647.750 .0321655
648.505 .0321350
649.259 .0321049
650.014 .0320759
650.768 .0320478
651.521 .0320210
652.275 .0319948
653.028 .0319694
653.781 .0319440
654.534 .0319191
655.286 .0318934
656.039 .0318676
656.791 .0318413
657.542 .0318137
658.294 .0317851
659.045 .0317559
659.796 .0317266
660.546 .0316964
661.297 .0316660
662.047 .0316355
662.796 .0316042
663.546 .0315730
664.295 .0315416
665.044 .0315101
665.793 .0314788
666.542 .0314476
667.290 .0314165
668.038 .0313861
668.786 .0313568
669.533 .0313289
670.281 .0313028
671.028 .0312789
671.774 .0312565
672.521 .0312355
673.267 .0312161
674.013 .0311976
674.759 .0311796
675.505 .0311618
676.250 .0311432
676.995 .0311245
677.740 .0311052
678.484 .0310858
679.229 .0310669
679.973 .0310481
680.717 .0310298
681.460 .0310117
682.204 .0309934
682.947 .0309751
683.690 .0309565
684.433 .0309378
685.175 .0309186
685.917 .0308994
686.659 .0308808
687.401 .0308631
688.142 .0308474
688.884 .0308332
689.625 .0308203
690.365 .0308092
691.106 .0307980
691.846 .0307868
692.586 .0307752
693.326 .0307624
694.066 .0307485
694.805 .0307337
695.545 .0307178
696.284 .0307010
697.022 .0306844
697.761 .0306675
698.499 .0306502
699.237 .0306331
699.975 .0306151
700.713 .0305960
701.450 .0305765
702.187 .0305558
702.924 .0305342
703.661 .0305126
704.397 .0304906
705.133 .0304689
705.869 .0304482
706.605 .0304283
707.341 .0304094
708.076 .0303913
708.811 .0303735
709.546 .0303550
710.281 .0303361
711.015 .0303161
711.749 .0302945
712.483 .0302717
713.217 .0302475
713.950 .0302229
714.684 .0301980
715.417 .0301733
716.150 .0301492
716.882 .0301258
717.615 .0301030
718.347 .0300805
719.079 .0300584
719.811 .0300361
720.542 .0300138
721.273 .0299917
722.005 .0299697
722.735 .0299484
723.466 .0299278
724.196 .0299078
724.927 .0298883
725.656 .0298695
726.386 .0298504
727.116 .0298313
727.845 .0298118
728.574 .0297918
729.303 .0297714
730.031 .0297514
730.760 .0297318
731.488 .0297130
732.216 .0296958
732.944 .0296796
733.671 .0296642
734.398 .0296499
735.125 .0296360
735.852 .0296222
736.579 .0296083
737.305 .0295948
738.031 .0295814
738.757 .0295684
739.483 .0295556
740.208 .0295430
740.933 .0295305
741.658 .0295178
742.383 .0295043
743.108 .0294900
743.832 .0294752
744.556 .0294597
745.280 .0294438
746.004 .0294279
746.727 .0294125
747.450 .0293979
748.173 .0293837
748.896 .0293701
749.618 .0293570
750.340 .0293447
751.062 .0293330
751.784 .0293219
752.506 .0293112
753.227 .0293009
753.948 .0292908
754.669 .0292803
755.389 .0292694
756.110 .0292577
756.830 .0292451
757.550 .0292315
758.269 .0292171
758.989 .0292016
759.708 .0291854
760.427 .0291692
761.146 .0291528
761.864 .0291363
762.582 .0291196
763.300 .0291029
764.018 .0290867
764.736 .0290708
765.453 .0290554
766.170 .0290409
766.887 .0290279
767.603 .0290160
768.320 .0290053
769.036 .0289960
769.751 .0289881
770.467 .0289811
771.182 .0289752
771.897 .0289697
772.612 .0289644
773.327 .0289595
774.041 .0289546
774.755 .0289497
775.469 .0289449
776.183 .0289399
776.896 .0289350
777.609 .0289301
778.322 .0289245
779.035 .0289183
779.747 .0289118
780.459 .0289053
781.171 .0288981
781.882 .0288908
782.594 .0288836
783.305 .0288768
784.016 .0288706
784.726 .0288649
785.436 .0288595
786.147 .0288546
786.856 .0288499
787.566 .0288450
788.275 .0288399
788.984 .0288347
789.693 .0288293
790.401 .0288238
791.110 .0288181
791.818 .0288117
792.525 .0288042
793.233 .0287962
793.940 .0287872
794.647 .0287774
795.353 .0287668
796.060 .0287559
796.766 .0287452
797.472 .0287347
798.177 .0287243
798.883 .0287141
799.588 .0287043
800.292 .0286945
800.997 .0286843
801.701 .0286739
802.405 .0286637
803.109 .0286541
803.812 .0286449
804.515 .0286363
805.218 .0286276
805.921 .0286185
806.623 .0286085
807.325 .0285974
808.027 .0285848
808.728 .0285704
809.429 .0285545
810.130 .0285376
810.831 .0285201
811.531 .0285023
812.231 .0284844
812.931 .0284663
813.630 .0284478
814.330 .0284283
815.029 .0284074
815.727 .0283856
816.426 .0283630
817.124 .0283401
817.821 .0283173
818.519 .0282954
819.216 .0282746
819.913 .0282550
820.609 .0282368
821.306 .0282200
822.002 .0282038
822.697 .0281882
823.393 .0281730
824.088 .0281586
824.783 .0281452
825.477 .0281327
826.171 .0281212
826.865 .0281109
827.559 .0281016
828.252 .0280928
828.945 .0280844
829.638 .0280763
830.330 .0280681
831.023 .0280596
831.714 .0280507
832.406 .0280410
833.097 .0280305
833.788 .0280193
834.479 .0280072
835.169 .0279942
835.859 .0279805
836.548 .0279662
837.238 .0279520
837.927 .0279378
838.615 .0279239
839.304 .0279106
839.992 .0278981
840.680 .0278865
841.367 .0278755
842.054 .0278648
842.741 .0278546
843.428 .0278446
844.114 .0278350
844.800 .0278253
845.485 .0278150
846.170 .0278040
846.855 .0277925
847.540 .0277796
848.224 .0277656
848.908 .0277507
849.592 .0277348
850.275 .0277183
850.958 .0277015
851.641 .0276846
852.323 .0276678
853.005 .0276514
853.687 .0276349
854.368 .0276181
855.049 .0276017
855.730 .0275850
856.410 .0275683
857.090 .0275526
857.769 .0275378
858.449 .0275243
859.128 .0275125
859.806 .0275026
860.485 .0274944
861.163 .0274878
861.840 .0274827
862.518 .0274783
863.195 .0274743
863.871 .0274703
864.548 .0274658
865.224 .0274609
865.899 .0274557
866.574 .0274503
867.249 .0274450
867.924 .0274400
868.598 .0274354
869.272 .0274316
869.946 .0274284
870.619 .0274260
871.292 .0274236
871.964 .0274211
872.636 .0274181
873.308 .0274143
873.979 .0274096
874.651 .0274043
875.321 .0273987
875.992 .0273935
876.662 .0273887
877.331 .0273851
878.001 .0273823
878.670 .0273803
879.338 .0273787
880.007 .0273773
880.675 .0273755
881.342 .0273728
882.009 .0273691
882.676 .0273646
883.343 .0273594
884.009 .0273543
884.675 .0273497
885.340 .0273457
886.005 .0273424
886.670 .0273400
887.334 .0273380
887.998 .0273367
888.662 .0273357
889.325 .0273349
889.988 .0273343
890.650 .0273340
891.312 .0273340
891.974 .0273349
892.636 .0273372
893.297 .0273405
893.957 .0273447
894.618 .0273497
895.278 .0273554
895.937 .0273612
896.596 .0273673
897.255 .0273732
897.914 .0273787
898.572 .0273833
899.230 .0273870
899.887 .0273893
900.544 .0273903
901.201 .0273897
901.857 .0273880
902.513 .0273846
903.168 .0273797
903.823 .0273727
904.478 .0273641
905.132 .0273538
905.786 .0273418
906.440 .0273277
907.093 .0273125
907.746 .0272961
908.399 .0272789
909.051 .0272609
909.703 .0272425
910.354 .0272237
911.005 .0272047
911.656 .0271852
912.306 .0271655
912.956 .0271459
913.605 .0271267
914.254 .0271082
914.903 .0270906
915.551 .0270742
916.199 .0270593
916.847 .0270453
917.494 .0270322
918.141 .0270191
918.788 .0270058
919.434 .0269925
920.079 .0269789
920.725 .0269653
921.370 .0269521
922.014 .0269394
922.658 .0269271
923.302 .0269154
923.946 .0269035
924.589 .0268902
925.231 .0268752
925.873 .0268578
926.515 .0268378
927.157 .0268158
927.798 .0267918
928.439 .0267663
929.079 .0267403
929.719 .0267138
930.359 .0266868
930.998 .0266597
931.637 .0266324
932.275 .0266047
932.913 .0265771
933.551 .0265498
934.188 .0265229
934.825 .0264969
935.462 .0264724
936.098 .0264493
936.733 .0264278
937.369 .0264077
938.004 .0263889
938.638 .0263714
939.273 .0263548
939.907 .0263388
940.540 .0263235
941.173 .0263086
941.806 .0262943
942.438 .0262802
943.070 .0262663
943.702 .0262524
944.333 .0262382
944.964 .0262235
945.594 .0262085
946.224 .0261927
946.854 .0261763
947.483 .0261597
948.112 .0261432
948.741 .0261266
949.369 .0261100
949.996 .0260935
950.624 .0260774
951.251 .0260610
951.878 .0260442
952.504 .0260265
953.130 .0260085
953.755 .0259898
954.380 .0259707
955.005 .0259518
955.629 .0259333
956.253 .0259154
956.877 .0258983
957.500 .0258818
958.123 .0258657
958.746 .0258490
959.368 .0258317
959.990 .0258135
960.611 .0257943
961.232 .0257740
961.853 .0257537
962.473 .0257336
963.093 .0257144
963.712 .0256958
964.331 .0256776
964.950 .0256599
965.569 .0256423
966.187 .0256245
966.804 .0256069
967.422 .0255904
968.039 .0255749
968.655 .0255611
969.272 .0255493
969.887 .0255392
970.503 .0255310
971.118 .0255242
971.733 .0255183
972.347 .0255126
972.961 .0255068
973.575 .0255007
974.188 .0254938
974.801 .0254863
975.414 .0254775
976.026 .0254674
976.638 .0254563
977.250 .0254436
977.861 .0254299
978.472 .0254159
979.083 .0254011
979.693 .0253855
980.303 .0253692
980.912 .0253521
981.521 .0253342
982.130 .0253158
982.738 .0252972
983.346 .0252789
983.954 .0252612
984.562 .0252448
985.169 .0252294
985.775 .0252160
986.382 .0252040
986.988 .0251930
987.594 .0251826
988.199 .0251728
988.804 .0251636
989.409 .0251552
990.013 .0251480
990.617 .0251417
991.221 .0251358
991.824 .0251310
992.427 .0251272
993.030 .0251242
993.632 .0251223
994.234 .0251219
994.836 .0251224
995.438 .0251248
996.039 .0251291
996.640 .0251350
997.240 .0251427
997.840 .0251515
998.440 .0251599
999.040 .0251672
999.639 .0251732
1000.238 .0251777
1000.836 .0251814
1001.435 .0251852
1002.033 .0251892
1002.630 .0251941
1003.228 .0252006
1003.825 .0252082
1004.422 .0252167
1005.018 .0252256
1005.614 .0252340
1006.210 .0252410
1006.806 .0252467
1007.401 .0252508
1007.996 .0252541
1008.591 .0252573
1009.186 .0252610
1009.780 .0252653
1010.374 .0252705
1010.967 .0252756
1011.561 .0252812
1012.154 .0252868
1012.746 .0252917
1013.339 .0252957
1013.931 .0252992
1014.523 .0253025
1015.115 .0253052
1015.706 .0253078
1016.298 .0253106
1016.888 .0253133
1017.479 .0253167
1018.069 .0253203
1018.660 .0253248
1019.250 .0253310
1019.839 .0253393
1020.429 .0253499
1021.018 .0253631
1021.607 .0253786
1022.195 .0253957
1022.784 .0254140
1023.372 .0254330
1023.960 .0254524
1024.547 .0254718
1025.135 .0254926
1025.722 .0255150
1026.309 .0255388
1026.896 .0255651
1027.483 .0255933
1028.069 .0256227
1028.655 .0256524
1029.241 .0256809
1029.827 .0257076
1030.412 .0257316
1030.997 .0257536
1031.582 .0257732
1032.167 .0257913
1032.752 .0258091
1033.336 .0258263
1033.921 .0258431
1034.505 .0258601
1035.089 .0258760
1035.672 .0258900
1036.256 .0259028
1036.839 .0259136
1037.422 .0259232
1038.005 .0259322
1038.588 .0259414
1039.171 .0259514
1039.753 .0259626
1040.335 .0259748
1040.918 .0259871
1041.500 .0259993
1042.081 .0260106
1042.663 .0260205
1043.244 .0260289
1043.826 .0260352
1044.407 .0260396
1044.988 .0260433
1045.569 .0260462
1046.150 .0260487
1046.730 .0260510
1047.311 .0260534
1047.891 .0260563
1048.471 .0260589
1049.052 .0260594
1049.632 .0260597
1050.211 .0260601
1050.791 .0260607
1051.371 .0260625
1051.950 .0260673
1052.530 .0260738
1053.109 .0260839
1053.688 .0260963
1054.268 .0261103
1054.847 .0261248
1055.426 .0261405
1056.005 .0261558
1056.583 .0261713
1057.162 .0261867
1057.741 .0262012
1058.319 .0262165
1058.898 .0262337
1059.476 .0262494
1060.055 .0262633
1060.633 .0262750
1061.211 .0262832
1061.790 .0262876
1062.368 .0262878
1062.946 .0262842
1063.524 .0262794
1064.102 .0262738
1064.680 .0262680
1065.258 .0262623
1065.836 .0262572
1066.414 .0262521
1066.992 .0262464
1067.570 .0262407
1068.148 .0262333
1068.726 .0262251
1069.304 .0262187
1069.882 .0262149
1070.460 .0262146
1071.038 .0262162
1071.616 .0262201
1072.194 .0262274
1072.772 .0262363
1073.350 .0262450
1073.928 .0262535
1074.506 .0262613
1075.084 .0262686
1075.662 .0262736
1076.240 .0262776
1076.819 .0262817
1077.397 .0262855
1077.976 .0262889
1078.554 .0262918
1079.133 .0262942
1079.711 .0262956
1080.290 .0262954
1080.869 .0262961
1081.448 .0262947
1082.027 .0262913
1082.606 .0262849
1083.185 .0262771
1083.764 .0262693
1084.343 .0262612
1084.923 .0262522
1085.502 .0262448
1086.082 .0262393
1086.662 .0262338
1087.242 .0262278
1087.822 .0262230
1088.402 .0262200
1088.983 .0262170
1089.563 .0262140
1090.144 .0262127
1090.725 .0262139
1091.306 .0262192
1091.887 .0262282
1092.469 .0262424
1093.050 .0262604
1093.632 .0262795
1094.214 .0263003
1094.796 .0263193
1095.379 .0263368
1095.961 .0263524
1096.544 .0263658
1097.127 .0263778
1097.710 .0263891
1098.294 .0263998
1098.877 .0264122
1099.461 .0264256
1100.046 .0264397
1100.630 .0264514
1101.215 .0264621
1101.800 .0264697
1102.385 .0264699
1102.970 .0264637
1103.556 .0264528
1104.142 .0264364
1104.728 .0264205
1105.315 .0264030
1105.902 .0263881
1106.489 .0263765
1107.077 .0263704
1107.664 .0263695
1108.253 .0263741
1108.841 .0263824
1109.430 .0263961
1110.019 .0264097
1110.609 .0264265
1111.198 .0264438
1111.789 .0264668
1112.379 .0264961
1112.970 .0265322
1113.561 .0265747
1114.153 .0266247
1114.745 .0266797
1115.338 .0267419
1115.931 .0268025
1116.524 .0268618
1117.117 .0269159
1117.712 .0269649
1118.306 .0270065
1118.901 .0270445
1119.496 .0270803
1120.092 .0271203
1120.689 .0271631
1121.285 .0272101
1121.882 .0272536
1122.480 .0272978
1123.078 .0273388
1123.677 .0273739
1124.276 .0274015
1124.875 .0274250
1125.476 .0274460
1126.076 .0274702
1126.677 .0275012
1127.279 .0275437
1127.881 .0275962
1128.484 .0276611
1129.087 .0277275
1129.691 .0277954
1130.295 .0278576
1130.900 .0279151
1131.505 .0279662
1132.111 .0280170
1132.718 .0280699
1133.325 .0281268
1133.933 .0281930
1134.541 .0282731
1135.150 .0283618
1135.760 .0284584
1136.370 .0285570
1136.981 .0286596
1137.592 .0287586
1138.204 .0288534
1138.817 .0289417
1139.431 .0290294
1140.045 .0291232
1140.660 .0292241
1141.275 .0293342
1141.891 .0294769
1142.508 .0294800
1143.126 .0297630
1143.744 .0299222
1144.363 .0301190
1144.983 .0307758
