Measurement Sequence started on: 15-12-46-377
Integration time: 28
Scans to Average: 2 
>>>>>Begin Spectral Data<<<<<
432.689 .0000100
433.621 .0000100
434.552 .0000100
435.482 .0000100
436.410 .0000100
437.337 .0000100
438.262 .0278695
439.187 .0589453
440.110 .0975957
441.031 .1411693
441.952 .1834763
442.871 .2167630
443.789 .2349829
444.705 .2360915
445.621 .2226363
446.535 .2001676
447.447 .1747263
448.359 .1357295
449.269 .1164999
450.178 .1043197
451.086 .0957301
451.993 .0891843
452.898 .0840477
453.803 .0798961
454.706 .0764771
455.608 .0735795
456.508 .0710628
457.408 .0688313
458.306 .0667983
459.204 .0649190
460.100 .0631694
460.995 .0615423
461.888 .0600382
462.781 .0586746
463.673 .0574351
464.563 .0563128
465.452 .0552874
466.340 .0543352
467.228 .0534560
468.114 .0526318
468.999 .0518702
469.882 .0511637
470.765 .0505247
471.647 .0499555
472.528 .0494578
473.407 .0490390
474.286 .0486891
475.163 .0483888
476.040 .0481342
476.915 .0479073
477.790 .0476922
478.663 .0474878
479.535 .0472889
480.407 .0470993
481.277 .0469236
482.147 .0467579
483.015 .0466067
483.883 .0464717
484.749 .0463545
485.615 .0462414
486.479 .0461333
487.343 .0460370
488.206 .0459455
489.067 .0458593
489.928 .0457808
490.788 .0457162
491.647 .0456717
492.505 .0456505
493.362 .0456567
494.218 .0456946
495.073 .0457667
495.928 .0458742
496.781 .0460145
497.634 .0461979
498.486 .0464209
499.337 .0466822
500.187 .0469873
501.036 .0473365
501.884 .0477188
502.731 .0481426
503.578 .0486121
504.424 .0491294
505.268 .0496905
506.113 .0503025
506.956 .0509622
507.798 .0516840
508.640 .0524660
509.480 .0533131
510.320 .0542314
511.160 .0552219
511.998 .0562734
512.836 .0573945
513.672 .0585878
514.508 .0598660
515.344 .0612431
516.178 .0627482
517.012 .0643909
517.845 .0662123
518.677 .0682522
519.508 .0705241
520.339 .0730761
521.169 .0759871
521.998 .0792600
522.826 .0829998
523.654 .0872246
524.481 .0919880
525.307 .0973558
526.133 .1033494
526.958 .1098621
527.782 .1168652
528.605 .1242020
529.428 .1317125
530.250 .1388454
531.072 .1453995
531.892 .1509723
532.712 .1552773
533.532 .1580393
534.350 .1590837
535.168 .1583219
535.986 .1559113
536.802 .1519076
537.618 .1466361
538.434 .1402783
539.249 .1333322
540.063 .1259470
540.876 .1184617
541.689 .1111171
542.501 .1041546
543.313 .0976876
544.124 .0918434
544.934 .0865758
545.744 .0818821
546.553 .0776932
547.361 .0740345
548.169 .0708346
548.976 .0680192
549.783 .0655170
550.589 .0633152
551.395 .0613223
552.200 .0595369
553.004 .0579182
553.808 .0564545
554.611 .0551428
555.414 .0539710
556.216 .0529247
557.018 .0520009
557.819 .0511993
558.619 .0504867
559.419 .0498350
560.218 .0492354
561.017 .0486568
561.815 .0480820
562.613 .0475052
563.410 .0469203
564.207 .0463184
565.003 .0457068
565.799 .0450815
566.594 .0444377
567.388 .0438002
568.182 .0431755
568.976 .0425588
569.769 .0419572
570.562 .0413719
571.354 .0408033
572.145 .0402532
572.936 .0397186
573.727 .0392008
574.517 .0387046
575.307 .0382348
576.096 .0377889
576.885 .0373681
577.673 .0369842
578.461 .0366298
579.248 .0363032
580.035 .0359998
580.821 .0357097
581.607 .0354337
582.392 .0351702
583.177 .0349206
583.962 .0346853
584.746 .0344657
585.529 .0342640
586.313 .0340815
587.095 .0339167
587.878 .0337686
588.660 .0336355
589.441 .0335163
590.222 .0334075
591.003 .0333061
591.783 .0332116
592.563 .0331255
593.342 .0330458
594.121 .0329705
594.899 .0329000
595.678 .0328349
596.455 .0327730
597.233 .0327148
598.009 .0326582
598.786 .0326031
599.562 .0325494
600.338 .0324960
601.113 .0324429
601.888 .0323898
602.663 .0323377
603.437 .0322872
604.211 .0322393
604.984 .0321943
605.757 .0321525
606.530 .0321144
607.302 .0320807
608.074 .0320503
608.845 .0320224
609.616 .0319977
610.387 .0319751
611.158 .0319543
611.928 .0319345
612.697 .0319160
613.467 .0318989
614.236 .0318831
615.004 .0318683
615.773 .0318536
616.541 .0318394
617.308 .0318251
618.076 .0318108
618.843 .0317965
619.609 .0317829
620.375 .0317697
621.141 .0317566
621.907 .0317440
622.672 .0317300
623.437 .0317147
624.202 .0316982
624.966 .0316799
625.730 .0316598
626.493 .0316381
627.257 .0316153
628.020 .0315914
628.782 .0315671
629.545 .0315416
630.307 .0315144
631.068 .0314863
631.830 .0314564
632.591 .0314242
633.352 .0313903
634.112 .0313555
634.872 .0313201
635.632 .0312856
636.392 .0312527
637.151 .0312218
637.910 .0311934
638.668 .0311680
639.427 .0311452
640.185 .0311245
640.943 .0311057
641.700 .0310875
642.457 .0310695
643.214 .0310511
643.971 .0310307
644.727 .0310088
645.483 .0309860
646.239 .0309626
646.994 .0309383
647.750 .0309144
648.505 .0308909
649.259 .0308683
650.014 .0308466
650.768 .0308252
651.521 .0308033
652.275 .0307809
653.028 .0307571
653.781 .0307320
654.534 .0307062
655.286 .0306800
656.039 .0306538
656.791 .0306287
657.542 .0306037
658.294 .0305792
659.045 .0305551
659.796 .0305305
660.546 .0305042
661.297 .0304767
662.047 .0304469
662.796 .0304146
663.546 .0303812
664.295 .0303467
665.044 .0303114
665.793 .0302777
666.542 .0302455
667.290 .0302148
668.038 .0301861
668.786 .0301590
669.533 .0301324
670.281 .0301072
671.028 .0300820
671.774 .0300563
672.521 .0300310
673.267 .0300070
674.013 .0299841
674.759 .0299625
675.505 .0299432
676.250 .0299249
676.995 .0299076
677.740 .0298905
678.484 .0298721
679.229 .0298532
679.973 .0298335
680.717 .0298131
681.460 .0297925
682.204 .0297724
682.947 .0297533
683.690 .0297352
684.433 .0297179
685.175 .0297010
685.917 .0296837
686.659 .0296660
687.401 .0296480
688.142 .0296293
688.884 .0296105
689.625 .0295919
690.365 .0295731
691.106 .0295547
691.846 .0295362
692.586 .0295176
693.326 .0294986
694.066 .0294794
694.805 .0294600
695.545 .0294401
696.284 .0294198
697.022 .0293998
697.761 .0293800
698.499 .0293607
699.237 .0293414
699.975 .0293221
700.713 .0293032
701.450 .0292847
702.187 .0292667
702.924 .0292502
703.661 .0292355
704.397 .0292227
705.133 .0292118
705.869 .0292031
706.605 .0291957
707.341 .0291893
708.076 .0291834
708.811 .0291772
709.546 .0291701
710.281 .0291622
711.015 .0291531
711.749 .0291432
712.483 .0291327
713.217 .0291213
713.950 .0291092
714.684 .0290966
715.417 .0290833
716.150 .0290688
716.882 .0290533
717.615 .0290370
718.347 .0290196
719.079 .0290018
719.811 .0289835
720.542 .0289652
721.273 .0289481
722.005 .0289318
722.735 .0289167
723.466 .0289026
724.196 .0288895
724.927 .0288771
725.656 .0288648
726.386 .0288522
727.116 .0288395
727.845 .0288264
728.574 .0288127
729.303 .0287983
730.031 .0287834
730.760 .0287678
731.488 .0287517
732.216 .0287355
732.944 .0287190
733.671 .0287024
734.398 .0286862
735.125 .0286696
735.852 .0286537
736.579 .0286378
737.305 .0286220
738.031 .0286069
738.757 .0285925
739.483 .0285779
740.208 .0285638
740.933 .0285502
741.658 .0285367
742.383 .0285231
743.108 .0285099
743.832 .0284965
744.556 .0284832
745.280 .0284700
746.004 .0284562
746.727 .0284422
747.450 .0284289
748.173 .0284148
748.896 .0284003
749.618 .0283860
750.340 .0283713
751.062 .0283559
751.784 .0283402
752.506 .0283236
753.227 .0283064
753.948 .0282888
754.669 .0282703
755.389 .0282508
756.110 .0282314
756.830 .0282116
757.550 .0281914
758.269 .0281712
758.989 .0281506
759.708 .0281294
760.427 .0281077
761.146 .0280853
761.864 .0280621
762.582 .0280388
763.300 .0280151
764.018 .0279914
764.736 .0279679
765.453 .0279445
766.170 .0279214
766.887 .0278986
767.603 .0278760
768.320 .0278533
769.036 .0278305
769.751 .0278080
770.467 .0277859
771.182 .0277647
771.897 .0277444
772.612 .0277258
773.327 .0277086
774.041 .0276931
774.755 .0276788
775.469 .0276656
776.183 .0276536
776.896 .0276421
777.609 .0276311
778.322 .0276203
779.035 .0276102
779.747 .0276005
780.459 .0275912
781.171 .0275823
781.882 .0275730
782.594 .0275639
783.305 .0275544
784.016 .0275446
784.726 .0275346
785.436 .0275248
786.147 .0275150
786.856 .0275055
787.566 .0274968
788.275 .0274887
788.984 .0274815
789.693 .0274751
790.401 .0274686
791.110 .0274623
791.818 .0274559
792.525 .0274494
793.233 .0274427
793.940 .0274361
794.647 .0274295
795.353 .0274227
796.060 .0274161
796.766 .0274091
797.472 .0274019
798.177 .0273941
798.883 .0273855
799.588 .0273760
800.292 .0273659
800.997 .0273550
801.701 .0273440
802.405 .0273337
803.109 .0273246
803.812 .0273169
804.515 .0273105
805.218 .0273051
805.921 .0273008
806.623 .0272970
807.325 .0272932
808.027 .0272893
808.728 .0272851
809.429 .0272802
810.130 .0272748
810.831 .0272692
811.531 .0272633
812.231 .0272568
812.931 .0272504
813.630 .0272431
814.330 .0272351
815.029 .0272264
815.727 .0272172
816.426 .0272079
817.124 .0271989
817.821 .0271899
818.519 .0271814
819.216 .0271737
819.913 .0271670
820.609 .0271608
821.306 .0271556
822.002 .0271512
822.697 .0271481
823.393 .0271467
824.088 .0271470
824.783 .0271485
825.477 .0271514
826.171 .0271557
826.865 .0271603
827.559 .0271654
828.252 .0271704
828.945 .0271754
829.638 .0271805
830.330 .0271853
831.023 .0271898
831.714 .0271940
832.406 .0271983
833.097 .0272021
833.788 .0272051
834.479 .0272069
835.169 .0272076
835.859 .0272080
836.548 .0272082
837.238 .0272086
837.927 .0272090
838.615 .0272101
839.304 .0272110
839.992 .0272116
840.680 .0272115
841.367 .0272104
842.054 .0272085
842.741 .0272055
843.428 .0272015
844.114 .0271973
844.800 .0271931
845.485 .0271892
846.170 .0271852
846.855 .0271809
847.540 .0271752
848.224 .0271679
848.908 .0271585
849.592 .0271469
850.275 .0271330
850.958 .0271172
851.641 .0270999
852.323 .0270816
853.005 .0270626
853.687 .0270429
854.368 .0270227
855.049 .0270023
855.730 .0269808
856.410 .0269578
857.090 .0269335
857.769 .0269074
858.449 .0268798
859.128 .0268516
859.806 .0268232
860.485 .0267951
861.163 .0267683
861.840 .0267430
862.518 .0267189
863.195 .0266958
863.871 .0266730
864.548 .0266503
865.224 .0266274
865.899 .0266042
866.574 .0265802
867.249 .0265567
867.924 .0265342
868.598 .0265129
869.272 .0264933
869.946 .0264750
870.619 .0264580
871.292 .0264415
871.964 .0264251
872.636 .0264082
873.308 .0263906
873.979 .0263729
874.651 .0263547
875.321 .0263366
875.992 .0263189
876.662 .0263018
877.331 .0262854
878.001 .0262698
878.670 .0262546
879.338 .0262393
880.007 .0262242
880.675 .0262093
881.342 .0261946
882.009 .0261800
882.676 .0261655
883.343 .0261506
884.009 .0261354
884.675 .0261198
885.340 .0261029
886.005 .0260852
886.670 .0260675
887.334 .0260496
887.998 .0260321
888.662 .0260154
889.325 .0260000
889.988 .0259856
890.650 .0259727
891.312 .0259604
891.974 .0259487
892.636 .0259378
893.297 .0259271
893.957 .0259168
894.618 .0259074
895.278 .0258989
895.937 .0258910
896.596 .0258840
897.255 .0258778
897.914 .0258720
898.572 .0258666
899.230 .0258607
899.887 .0258548
900.544 .0258485
901.201 .0258414
901.857 .0258336
902.513 .0258253
903.168 .0258163
903.823 .0258062
904.478 .0257950
905.132 .0257823
905.786 .0257685
906.440 .0257538
907.093 .0257380
907.746 .0257215
908.399 .0257048
909.051 .0256875
909.703 .0256697
910.354 .0256518
911.005 .0256330
911.656 .0256133
912.306 .0255930
912.956 .0255716
913.605 .0255494
914.254 .0255266
914.903 .0255038
915.551 .0254816
916.199 .0254607
916.847 .0254410
917.494 .0254228
918.141 .0254065
918.788 .0253920
919.434 .0253788
920.079 .0253668
920.725 .0253558
921.370 .0253456
922.014 .0253359
922.658 .0253266
923.302 .0253174
923.946 .0253087
924.589 .0252998
925.231 .0252908
925.873 .0252810
926.515 .0252703
927.157 .0252585
927.798 .0252452
928.439 .0252308
929.079 .0252153
929.719 .0251987
930.359 .0251820
930.998 .0251653
931.637 .0251487
932.275 .0251328
932.913 .0251177
933.551 .0251036
934.188 .0250903
934.825 .0250779
935.462 .0250666
936.098 .0250570
936.733 .0250493
937.369 .0250440
938.004 .0250412
938.638 .0250408
939.273 .0250428
939.907 .0250466
940.540 .0250521
941.173 .0250588
941.806 .0250662
942.438 .0250743
943.070 .0250828
943.702 .0250914
944.333 .0250996
944.964 .0251079
945.594 .0251161
946.224 .0251238
946.854 .0251311
947.483 .0251382
948.112 .0251452
948.741 .0251516
949.369 .0251581
949.996 .0251641
950.624 .0251696
951.251 .0251742
951.878 .0251777
952.504 .0251801
953.130 .0251815
953.755 .0251818
954.380 .0251817
955.005 .0251818
955.629 .0251827
956.253 .0251837
956.877 .0251854
957.500 .0251875
958.123 .0251893
958.746 .0251899
959.368 .0251898
959.990 .0251882
960.611 .0251856
961.232 .0251828
961.853 .0251802
962.473 .0251785
963.093 .0251791
963.712 .0251811
964.331 .0251847
964.950 .0251894
965.569 .0251949
966.187 .0252002
966.804 .0252063
967.422 .0252126
968.039 .0252191
968.655 .0252261
969.272 .0252336
969.887 .0252404
970.503 .0252477
971.118 .0252543
971.733 .0252597
972.347 .0252641
972.961 .0252670
973.575 .0252679
974.188 .0252677
974.801 .0252659
975.414 .0252629
976.026 .0252587
976.638 .0252536
977.250 .0252470
977.861 .0252399
978.472 .0252323
979.083 .0252247
979.693 .0252175
980.303 .0252112
980.912 .0252049
981.521 .0251995
982.130 .0251947
982.738 .0251908
983.346 .0251874
983.954 .0251844
984.562 .0251814
985.169 .0251789
985.775 .0251760
986.382 .0251728
986.988 .0251694
987.594 .0251655
988.199 .0251604
988.804 .0251546
989.409 .0251475
990.013 .0251397
990.617 .0251313
991.221 .0251226
991.824 .0251131
992.427 .0251041
993.030 .0250948
993.632 .0250853
994.234 .0250761
994.836 .0250671
995.438 .0250576
996.039 .0250485
996.640 .0250393
997.240 .0250301
997.840 .0250215
998.440 .0250136
999.040 .0250057
999.639 .0249989
1000.238 .0249921
1000.836 .0249858
1001.435 .0249797
1002.033 .0249743
1002.630 .0249690
1003.228 .0249646
1003.825 .0249612
1004.422 .0249584
1005.018 .0249565
1005.614 .0249555
1006.210 .0249544
1006.806 .0249539
1007.401 .0249530
1007.996 .0249515
1008.591 .0249495
1009.186 .0249475
1009.780 .0249448
1010.374 .0249421
1010.967 .0249386
1011.561 .0249343
1012.154 .0249287
1012.746 .0249219
1013.339 .0249133
1013.931 .0249034
1014.523 .0248925
1015.115 .0248807
1015.706 .0248684
1016.298 .0248565
1016.888 .0248445
1017.479 .0248329
1018.069 .0248213
1018.660 .0248092
1019.250 .0247973
1019.839 .0247851
1020.429 .0247734
1021.018 .0247626
1021.607 .0247538
1022.195 .0247470
1022.784 .0247416
1023.372 .0247380
1023.960 .0247358
1024.547 .0247348
1025.135 .0247348
1025.722 .0247351
1026.309 .0247363
1026.896 .0247383
1027.483 .0247410
1028.069 .0247439
1028.655 .0247477
1029.241 .0247517
1029.827 .0247555
1030.412 .0247582
1030.997 .0247605
1031.582 .0247615
1032.167 .0247616
1032.752 .0247606
1033.336 .0247585
1033.921 .0247551
1034.505 .0247495
1035.089 .0247412
1035.672 .0247306
1036.256 .0247171
1036.839 .0247011
1037.422 .0246829
1038.005 .0246644
1038.588 .0246466
1039.171 .0246297
1039.753 .0246145
1040.335 .0246021
1040.918 .0245917
1041.500 .0245828
1042.081 .0245739
1042.663 .0245650
1043.244 .0245549
1043.826 .0245433
1044.407 .0245297
1044.988 .0245149
1045.569 .0244999
1046.150 .0244850
1046.730 .0244698
1047.311 .0244563
1047.891 .0244443
1048.471 .0244331
1049.052 .0244223
1049.632 .0244120
1050.211 .0244009
1050.791 .0243889
1051.371 .0243753
1051.950 .0243620
1052.530 .0243484
1053.109 .0243357
1053.688 .0243242
1054.268 .0243155
1054.847 .0243100
1055.426 .0243069
1056.005 .0243062
1056.583 .0243081
1057.162 .0243117
1057.741 .0243159
1058.319 .0243195
1058.898 .0243230
1059.476 .0243245
1060.055 .0243241
1060.633 .0243216
1061.211 .0243176
1061.790 .0243126
1062.368 .0243072
1062.946 .0243021
1063.524 .0242976
1064.102 .0242941
1064.680 .0242900
1065.258 .0242855
1065.836 .0242808
1066.414 .0242752
1066.992 .0242681
1067.570 .0242608
1068.148 .0242530
1068.726 .0242455
1069.304 .0242387
1069.882 .0242328
1070.460 .0242276
1071.038 .0242237
1071.616 .0242194
1072.194 .0242147
1072.772 .0242091
1073.350 .0242036
1073.928 .0241974
1074.506 .0241916
1075.084 .0241850
1075.662 .0241783
1076.240 .0241714
1076.819 .0241632
1077.397 .0241548
1077.976 .0241467
1078.554 .0241374
1079.133 .0241294
1079.711 .0241209
1080.290 .0241138
1080.869 .0241075
1081.448 .0241031
1082.027 .0240999
1082.606 .0240987
1083.185 .0241007
1083.764 .0241049
1084.343 .0241114
1084.923 .0241211
1085.502 .0241314
1086.082 .0241430
1086.662 .0241552
1087.242 .0241662
1087.822 .0241763
1088.402 .0241878
1088.983 .0241999
1089.563 .0242152
1090.144 .0242328
1090.725 .0242547
1091.306 .0242784
1091.887 .0243039
1092.469 .0243290
1093.050 .0243510
1093.632 .0243709
1094.214 .0243885
1094.796 .0244036
1095.379 .0244190
1095.961 .0244356
1096.544 .0244560
1097.127 .0244800
1097.710 .0245070
1098.294 .0245359
1098.877 .0245669
1099.461 .0245972
1100.046 .0246273
1100.630 .0246550
1101.215 .0246830
1101.800 .0247119
1102.385 .0247420
1102.970 .0247752
1103.556 .0248100
1104.142 .0248466
1104.728 .0248835
1105.315 .0249181
1105.902 .0249527
1106.489 .0249851
1107.077 .0250160
1107.664 .0250473
1108.253 .0250780
1108.841 .0251085
1109.430 .0251393
1110.019 .0251699
1110.609 .0251995
1111.198 .0252258
1111.789 .0252492
1112.379 .0252687
1112.970 .0252845
1113.561 .0253010
1114.153 .0253194
1114.745 .0253437
1115.338 .0253756
1115.931 .0254110
1116.524 .0254510
1117.117 .0254942
1117.712 .0255391
1118.306 .0255844
1118.901 .0256299
1119.496 .0256744
1120.092 .0257187
1120.689 .0257622
1121.285 .0258079
1121.882 .0258529
1122.480 .0259020
1123.078 .0259510
1123.677 .0259983
1124.276 .0260464
1124.875 .0260970
1125.476 .0261501
1126.076 .0262118
1126.677 .0262804
1127.279 .0263562
1127.881 .0264337
1128.484 .0265118
1129.087 .0265852
1129.691 .0266521
1130.295 .0267121
1130.900 .0267683
1131.505 .0268236
1132.111 .0268875
1132.718 .0269611
1133.325 .0270506
1133.933 .0271568
1134.541 .0272775
1135.150 .0274031
1135.760 .0275270
1136.370 .0276442
1136.981 .0277539
1137.592 .0278520
1138.204 .0279530
1138.817 .0280643
1139.431 .0281875
1140.045 .0283230
1140.660 .0284708
1141.275 .0286144
1141.891 .0287772
1142.508 .0290699
1143.126 .0291139
1143.744 .0291910
1144.363 .0289704
1144.983 .0297835
