Measurement Sequence started on: 15-12-46-377
Integration time: 28
Scans to Average: 2 
>>>>>Begin Spectral Data<<<<<
432.689 .0000100
433.621 .0000100
434.552 .0000100
435.482 .0000100
436.410 .0000100
437.337 .0000100
438.262 .0285489
439.187 .0605004
440.110 .1002344
441.031 .1450230
441.952 .1884727
442.871 .2226493
443.789 .2413339
444.705 .2423959
445.621 .2284874
446.535 .2053267
447.447 .1791634
448.359 .1391782
449.269 .1194681
450.178 .1071038
451.086 .0984653
451.993 .0919056
452.898 .0867036
453.803 .0824168
454.706 .0788248
455.608 .0756957
456.508 .0729510
457.408 .0705295
458.306 .0683625
459.204 .0664147
460.100 .0646697
460.995 .0631004
461.888 .0616953
462.781 .0604185
463.673 .0592552
464.563 .0581904
465.452 .0572130
466.340 .0562879
467.228 .0554234
468.114 .0546268
468.999 .0538974
469.882 .0532233
470.765 .0526227
471.647 .0520790
472.528 .0515993
473.407 .0511779
474.286 .0508081
475.163 .0504804
476.040 .0501902
476.915 .0499232
477.790 .0496726
478.663 .0494365
479.535 .0492145
480.407 .0490059
481.277 .0488250
482.147 .0486679
483.015 .0485371
483.883 .0484323
484.749 .0483611
485.615 .0483119
486.479 .0482832
487.343 .0482709
488.206 .0482702
489.067 .0482742
489.928 .0482820
490.788 .0483011
491.647 .0483379
492.505 .0483957
493.362 .0484770
494.218 .0485880
495.073 .0487313
495.928 .0488995
496.781 .0490881
497.634 .0493017
498.486 .0495412
499.337 .0497921
500.187 .0500559
501.036 .0503391
501.884 .0506368
502.731 .0509516
503.578 .0512861
504.424 .0516354
505.268 .0519982
506.113 .0523824
506.956 .0527911
507.798 .0532366
508.640 .0537397
509.480 .0543001
510.320 .0549408
511.160 .0556943
511.998 .0565495
512.836 .0575100
513.672 .0586138
514.508 .0598571
515.344 .0612343
516.178 .0627726
517.012 .0644963
517.845 .0664276
518.677 .0686344
519.508 .0711499
520.339 .0739814
521.169 .0772236
521.998 .0808984
522.826 .0850196
523.654 .0896569
524.481 .0948196
525.307 .1005034
526.133 .1066841
526.958 .1133447
527.782 .1203830
528.605 .1276756
529.428 .1351863
530.250 .1423624
531.072 .1490279
531.892 .1548352
532.712 .1594530
533.532 .1626238
534.350 .1641533
535.168 .1638626
535.986 .1617633
536.802 .1579432
537.618 .1526529
538.434 .1461080
539.249 .1388610
540.063 .1311460
540.876 .1233486
541.689 .1157521
542.501 .1086383
543.313 .1021072
544.124 .0962695
544.934 .0910403
545.744 .0863673
546.553 .0821491
547.361 .0783801
548.169 .0750290
548.976 .0720241
549.783 .0693567
550.589 .0670130
551.395 .0649051
552.200 .0630221
553.004 .0613182
553.808 .0597631
554.611 .0583457
555.414 .0570499
556.216 .0558395
557.018 .0547339
557.819 .0537210
558.619 .0527807
559.419 .0519072
560.218 .0510995
561.017 .0503386
561.815 .0496100
562.613 .0489102
563.410 .0482298
564.207 .0475656
565.003 .0469219
565.799 .0463006
566.594 .0456969
567.388 .0451254
568.182 .0445784
568.976 .0440570
569.769 .0435652
570.562 .0430866
571.354 .0426155
572.145 .0421494
572.936 .0416821
573.727 .0412168
574.517 .0407497
575.307 .0402925
576.096 .0398478
576.885 .0394196
577.673 .0390113
578.461 .0386258
579.248 .0382627
580.035 .0379212
580.821 .0375957
581.607 .0372853
582.392 .0369881
583.177 .0367053
583.962 .0364389
584.746 .0361903
585.529 .0359608
586.313 .0357508
587.095 .0355593
587.878 .0353862
588.660 .0352274
589.441 .0350810
590.222 .0349457
591.003 .0348215
591.783 .0347049
592.563 .0345962
593.342 .0344973
594.121 .0344067
594.899 .0343253
595.678 .0342507
596.455 .0341814
597.233 .0341161
598.009 .0340533
598.786 .0339918
599.562 .0339313
600.338 .0338732
601.113 .0338169
601.888 .0337630
602.663 .0337126
603.437 .0336649
604.211 .0336188
604.984 .0335752
605.757 .0335332
606.530 .0334919
607.302 .0334522
608.074 .0334142
608.845 .0333778
609.616 .0333446
610.387 .0333144
611.158 .0332868
611.928 .0332617
612.697 .0332396
613.467 .0332183
614.236 .0331983
615.004 .0331797
615.773 .0331617
616.541 .0331450
617.308 .0331305
618.076 .0331172
618.843 .0331046
619.609 .0330931
620.375 .0330813
621.141 .0330684
621.907 .0330547
622.672 .0330385
623.437 .0330202
624.202 .0330006
624.966 .0329795
625.730 .0329568
626.493 .0329341
627.257 .0329110
628.020 .0328868
628.782 .0328613
629.545 .0328343
630.307 .0328053
631.068 .0327750
631.830 .0327435
632.591 .0327109
633.352 .0326782
634.112 .0326459
634.872 .0326142
635.632 .0325836
636.392 .0325530
637.151 .0325230
637.910 .0324931
638.668 .0324628
639.427 .0324322
640.185 .0324020
640.943 .0323729
641.700 .0323449
642.457 .0323183
643.214 .0322922
643.971 .0322663
644.727 .0322406
645.483 .0322139
646.239 .0321860
646.994 .0321576
647.750 .0321288
648.505 .0320998
649.259 .0320726
650.014 .0320466
650.768 .0320220
651.521 .0319990
652.275 .0319762
653.028 .0319531
653.781 .0319285
654.534 .0319016
655.286 .0318725
656.039 .0318414
656.791 .0318091
657.542 .0317752
658.294 .0317412
659.045 .0317081
659.796 .0316755
660.546 .0316438
661.297 .0316127
662.047 .0315822
662.796 .0315522
663.546 .0315224
664.295 .0314933
665.044 .0314651
665.793 .0314380
666.542 .0314121
667.290 .0313875
668.038 .0313640
668.786 .0313410
669.533 .0313179
670.281 .0312955
671.028 .0312731
671.774 .0312508
672.521 .0312285
673.267 .0312061
674.013 .0311844
674.759 .0311634
675.505 .0311427
676.250 .0311224
676.995 .0311025
677.740 .0310825
678.484 .0310622
679.229 .0310421
679.973 .0310225
680.717 .0310036
681.460 .0309866
682.204 .0309709
682.947 .0309567
683.690 .0309442
684.433 .0309324
685.175 .0309208
685.917 .0309090
686.659 .0308966
687.401 .0308831
688.142 .0308680
688.884 .0308527
689.625 .0308364
690.365 .0308199
691.106 .0308033
691.846 .0307865
692.586 .0307695
693.326 .0307523
694.066 .0307346
694.805 .0307167
695.545 .0306984
696.284 .0306797
697.022 .0306603
697.761 .0306406
698.499 .0306205
699.237 .0305997
699.975 .0305786
700.713 .0305578
701.450 .0305366
702.187 .0305160
702.924 .0304958
703.661 .0304763
704.397 .0304576
705.133 .0304397
705.869 .0304226
706.605 .0304062
707.341 .0303902
708.076 .0303743
708.811 .0303586
709.546 .0303432
710.281 .0303277
711.015 .0303121
711.749 .0302966
712.483 .0302812
713.217 .0302657
713.950 .0302497
714.684 .0302334
715.417 .0302166
716.150 .0301993
716.882 .0301817
717.615 .0301636
718.347 .0301453
719.079 .0301268
719.811 .0301078
720.542 .0300886
721.273 .0300691
722.005 .0300495
722.735 .0300297
723.466 .0300105
724.196 .0299911
724.927 .0299711
725.656 .0299509
726.386 .0299303
727.116 .0299094
727.845 .0298880
728.574 .0298661
729.303 .0298443
730.031 .0298230
730.760 .0298022
731.488 .0297817
732.216 .0297623
732.944 .0297441
733.671 .0297264
734.398 .0297090
735.125 .0296920
735.852 .0296753
736.579 .0296597
737.305 .0296450
738.031 .0296314
738.757 .0296188
739.483 .0296068
740.208 .0295947
740.933 .0295826
741.658 .0295698
742.383 .0295560
743.108 .0295410
743.832 .0295251
744.556 .0295083
745.280 .0294908
746.004 .0294733
746.727 .0294560
747.450 .0294394
748.173 .0294234
748.896 .0294075
749.618 .0293923
750.340 .0293774
751.062 .0293632
751.784 .0293494
752.506 .0293361
753.227 .0293231
753.948 .0293100
754.669 .0292967
755.389 .0292832
756.110 .0292698
756.830 .0292560
757.550 .0292422
758.269 .0292284
758.989 .0292142
759.708 .0291997
760.427 .0291851
761.146 .0291703
761.864 .0291552
762.582 .0291397
763.300 .0291238
764.018 .0291077
764.736 .0290922
765.453 .0290771
766.170 .0290631
766.887 .0290497
767.603 .0290370
768.320 .0290249
769.036 .0290133
769.751 .0290019
770.467 .0289907
771.182 .0289798
771.897 .0289692
772.612 .0289584
773.327 .0289480
774.041 .0289379
774.755 .0289284
775.469 .0289194
776.183 .0289112
776.896 .0289035
777.609 .0288966
778.322 .0288901
779.035 .0288843
779.747 .0288796
780.459 .0288759
781.171 .0288726
781.882 .0288701
782.594 .0288682
783.305 .0288667
784.016 .0288652
784.726 .0288641
785.436 .0288629
786.147 .0288615
786.856 .0288598
787.566 .0288577
788.275 .0288552
788.984 .0288525
789.693 .0288490
790.401 .0288447
791.110 .0288392
791.818 .0288323
792.525 .0288241
793.233 .0288147
793.940 .0288042
794.647 .0287926
795.353 .0287804
796.060 .0287679
796.766 .0287550
797.472 .0287420
798.177 .0287291
798.883 .0287161
799.588 .0287030
800.292 .0286896
800.997 .0286760
801.701 .0286622
802.405 .0286486
803.109 .0286351
803.812 .0286217
804.515 .0286085
805.218 .0285949
805.921 .0285812
806.623 .0285667
807.325 .0285514
808.027 .0285351
808.728 .0285177
809.429 .0284991
810.130 .0284794
810.831 .0284592
811.531 .0284385
812.231 .0284171
812.931 .0283956
813.630 .0283736
814.330 .0283518
815.029 .0283302
815.727 .0283092
816.426 .0282891
817.124 .0282704
817.821 .0282528
818.519 .0282368
819.216 .0282225
819.913 .0282099
820.609 .0281990
821.306 .0281894
822.002 .0281809
822.697 .0281736
823.393 .0281677
824.088 .0281630
824.783 .0281591
825.477 .0281559
826.171 .0281529
826.865 .0281501
827.559 .0281471
828.252 .0281433
828.945 .0281389
829.638 .0281337
830.330 .0281278
831.023 .0281210
831.714 .0281137
832.406 .0281059
833.097 .0280980
833.788 .0280898
834.479 .0280809
835.169 .0280718
835.859 .0280629
836.548 .0280542
837.238 .0280456
837.927 .0280368
838.615 .0280277
839.304 .0280188
839.992 .0280101
840.680 .0280016
841.367 .0279933
842.054 .0279854
842.741 .0279778
843.428 .0279704
844.114 .0279634
844.800 .0279560
845.485 .0279480
846.170 .0279395
846.855 .0279296
847.540 .0279180
848.224 .0279054
848.908 .0278921
849.592 .0278785
850.275 .0278649
850.958 .0278511
851.641 .0278375
852.323 .0278245
853.005 .0278114
853.687 .0277983
854.368 .0277851
855.049 .0277719
855.730 .0277580
856.410 .0277440
857.090 .0277299
857.769 .0277155
858.449 .0277011
859.128 .0276870
859.806 .0276727
860.485 .0276587
861.163 .0276449
861.840 .0276314
862.518 .0276184
863.195 .0276057
863.871 .0275925
864.548 .0275792
865.224 .0275651
865.899 .0275505
866.574 .0275352
867.249 .0275201
867.924 .0275050
868.598 .0274905
869.272 .0274768
869.946 .0274643
870.619 .0274526
871.292 .0274421
871.964 .0274319
872.636 .0274219
873.308 .0274120
873.979 .0274018
874.651 .0273911
875.321 .0273807
875.992 .0273706
876.662 .0273615
877.331 .0273534
878.001 .0273467
878.670 .0273408
879.338 .0273360
880.007 .0273323
880.675 .0273285
881.342 .0273245
882.009 .0273199
882.676 .0273145
883.343 .0273084
884.009 .0273017
884.675 .0272944
885.340 .0272870
886.005 .0272801
886.670 .0272738
887.334 .0272682
887.998 .0272633
888.662 .0272589
889.325 .0272550
889.988 .0272512
890.650 .0272468
891.312 .0272416
891.974 .0272364
892.636 .0272312
893.297 .0272261
893.957 .0272211
894.618 .0272167
895.278 .0272132
895.937 .0272101
896.596 .0272067
897.255 .0272026
897.914 .0271978
898.572 .0271915
899.230 .0271835
899.887 .0271739
900.544 .0271629
901.201 .0271511
901.857 .0271384
902.513 .0271250
903.168 .0271112
903.823 .0270970
904.478 .0270827
905.132 .0270681
905.786 .0270532
906.440 .0270379
907.093 .0270221
907.746 .0270064
908.399 .0269906
909.051 .0269747
909.703 .0269590
910.354 .0269435
911.005 .0269285
911.656 .0269135
912.306 .0268987
912.956 .0268844
913.605 .0268701
914.254 .0268560
914.903 .0268419
915.551 .0268277
916.199 .0268139
916.847 .0267999
917.494 .0267860
918.141 .0267719
918.788 .0267579
919.434 .0267436
920.079 .0267286
920.725 .0267132
921.370 .0266972
922.014 .0266804
922.658 .0266631
923.302 .0266450
923.946 .0266264
924.589 .0266075
925.231 .0265877
925.873 .0265675
926.515 .0265469
927.157 .0265257
927.798 .0265042
928.439 .0264821
929.079 .0264598
929.719 .0264371
930.359 .0264139
930.998 .0263904
931.637 .0263668
932.275 .0263434
932.913 .0263200
933.551 .0262970
934.188 .0262747
934.825 .0262529
935.462 .0262321
936.098 .0262123
936.733 .0261932
937.369 .0261748
938.004 .0261571
938.638 .0261396
939.273 .0261227
939.907 .0261066
940.540 .0260916
941.173 .0260780
941.806 .0260663
942.438 .0260561
943.070 .0260474
943.702 .0260404
944.333 .0260346
944.964 .0260295
945.594 .0260250
946.224 .0260208
946.854 .0260170
947.483 .0260137
948.112 .0260105
948.741 .0260074
949.369 .0260049
949.996 .0260025
950.624 .0259993
951.251 .0259956
951.878 .0259911
952.504 .0259854
953.130 .0259787
953.755 .0259709
954.380 .0259618
955.005 .0259519
955.629 .0259415
956.253 .0259303
956.877 .0259190
957.500 .0259077
958.123 .0258963
958.746 .0258848
959.368 .0258735
959.990 .0258624
960.611 .0258509
961.232 .0258399
961.853 .0258294
962.473 .0258193
963.093 .0258099
963.712 .0258011
964.331 .0257931
964.950 .0257858
965.569 .0257795
966.187 .0257734
966.804 .0257682
967.422 .0257639
968.039 .0257597
968.655 .0257563
969.272 .0257540
969.887 .0257527
970.503 .0257517
971.118 .0257517
971.733 .0257526
972.347 .0257539
972.961 .0257557
973.575 .0257577
974.188 .0257596
974.801 .0257614
975.414 .0257628
976.026 .0257630
976.638 .0257627
977.250 .0257616
977.861 .0257590
978.472 .0257554
979.083 .0257507
979.693 .0257448
980.303 .0257372
980.912 .0257287
981.521 .0257186
982.130 .0257071
982.738 .0256951
983.346 .0256826
983.954 .0256702
984.562 .0256583
985.169 .0256462
985.775 .0256342
986.382 .0256221
986.988 .0256100
987.594 .0255975
988.199 .0255851
988.804 .0255729
989.409 .0255614
990.013 .0255512
990.617 .0255423
991.221 .0255344
991.824 .0255280
992.427 .0255228
993.030 .0255181
993.632 .0255143
994.234 .0255115
994.836 .0255094
995.438 .0255087
996.039 .0255091
996.640 .0255106
997.240 .0255137
997.840 .0255181
998.440 .0255237
999.040 .0255308
999.639 .0255387
1000.238 .0255468
1000.836 .0255552
1001.435 .0255636
1002.033 .0255714
1002.630 .0255784
1003.228 .0255850
1003.825 .0255907
1004.422 .0255960
1005.018 .0256007
1005.614 .0256048
1006.210 .0256090
1006.806 .0256132
1007.401 .0256163
1007.996 .0256189
1008.591 .0256211
1009.186 .0256228
1009.780 .0256236
1010.374 .0256242
1010.967 .0256246
1011.561 .0256249
1012.154 .0256258
1012.746 .0256268
1013.339 .0256284
1013.931 .0256302
1014.523 .0256321
1015.115 .0256337
1015.706 .0256348
1016.298 .0256359
1016.888 .0256362
1017.479 .0256363
1018.069 .0256369
1018.660 .0256371
1019.250 .0256371
1019.839 .0256375
1020.429 .0256380
1021.018 .0256387
1021.607 .0256405
1022.195 .0256435
1022.784 .0256481
1023.372 .0256545
1023.960 .0256624
1024.547 .0256711
1025.135 .0256808
1025.722 .0256901
1026.309 .0256984
1026.896 .0257067
1027.483 .0257140
1028.069 .0257202
1028.655 .0257272
1029.241 .0257348
1029.827 .0257435
1030.412 .0257531
1030.997 .0257636
1031.582 .0257745
1032.167 .0257855
1032.752 .0257958
1033.336 .0258048
1033.921 .0258127
1034.505 .0258199
1035.089 .0258256
1035.672 .0258310
1036.256 .0258362
1036.839 .0258411
1037.422 .0258464
1038.005 .0258521
1038.588 .0258571
1039.171 .0258611
1039.753 .0258633
1040.335 .0258635
1040.918 .0258601
1041.500 .0258536
1042.081 .0258438
1042.663 .0258315
1043.244 .0258175
1043.826 .0258023
1044.407 .0257865
1044.988 .0257712
1045.569 .0257561
1046.150 .0257412
1046.730 .0257268
1047.311 .0257134
1047.891 .0257002
1048.471 .0256886
1049.052 .0256781
1049.632 .0256704
1050.211 .0256656
1050.791 .0256649
1051.371 .0256674
1051.950 .0256722
1052.530 .0256784
1053.109 .0256849
1053.688 .0256905
1054.268 .0256947
1054.847 .0256977
1055.426 .0257006
1056.005 .0257026
1056.583 .0257046
1057.162 .0257053
1057.741 .0257056
1058.319 .0257041
1058.898 .0257010
1059.476 .0256937
1060.055 .0256836
1060.633 .0256711
1061.211 .0256568
1061.790 .0256423
1062.368 .0256293
1062.946 .0256186
1063.524 .0256123
1064.102 .0256096
1064.680 .0256102
1065.258 .0256128
1065.836 .0256178
1066.414 .0256217
1066.992 .0256247
1067.570 .0256257
1068.148 .0256248
1068.726 .0256215
1069.304 .0256180
1069.882 .0256132
1070.460 .0256075
1071.038 .0256025
1071.616 .0255973
1072.194 .0255913
1072.772 .0255842
1073.350 .0255742
1073.928 .0255633
1074.506 .0255505
1075.084 .0255372
1075.662 .0255223
1076.240 .0255089
1076.819 .0254966
1077.397 .0254840
1077.976 .0254733
1078.554 .0254658
1079.133 .0254605
1079.711 .0254577
1080.290 .0254569
1080.869 .0254575
1081.448 .0254590
1082.027 .0254606
1082.606 .0254613
1083.185 .0254626
1083.764 .0254635
1084.343 .0254632
1084.923 .0254617
1085.502 .0254617
1086.082 .0254640
1086.662 .0254695
1087.242 .0254799
1087.822 .0254933
1088.402 .0255092
1088.983 .0255266
1089.563 .0255435
1090.144 .0255596
1090.725 .0255739
1091.306 .0255855
1091.887 .0255953
1092.469 .0256040
1093.050 .0256113
1093.632 .0256194
1094.214 .0256304
1094.796 .0256441
1095.379 .0256592
1095.961 .0256760
1096.544 .0256939
1097.127 .0257130
1097.710 .0257322
1098.294 .0257507
1098.877 .0257702
1099.461 .0257909
1100.046 .0258121
1100.630 .0258317
1101.215 .0258516
1101.800 .0258716
1102.385 .0258904
1102.970 .0259075
1103.556 .0259211
1104.142 .0259321
1104.728 .0259404
1105.315 .0259467
1105.902 .0259517
1106.489 .0259566
1107.077 .0259639
1107.664 .0259726
1108.253 .0259816
1108.841 .0259894
1109.430 .0259979
1110.019 .0260050
1110.609 .0260151
1111.198 .0260282
1111.789 .0260440
1112.379 .0260654
1112.970 .0260943
1113.561 .0261282
1114.153 .0261673
1114.745 .0262120
1115.338 .0262582
1115.931 .0263017
1116.524 .0263431
1117.117 .0263801
1117.712 .0264157
1118.306 .0264547
1118.901 .0264974
1119.496 .0265430
1120.092 .0265958
1120.689 .0266512
1121.285 .0267095
1121.882 .0267723
1122.480 .0268376
1123.078 .0269018
1123.677 .0269668
1124.276 .0270327
1124.875 .0271017
1125.476 .0271768
1126.076 .0272587
1126.677 .0273460
1127.279 .0274381
1127.881 .0275311
1128.484 .0276235
1129.087 .0277126
1129.691 .0278010
1130.295 .0278892
1130.900 .0279794
1131.505 .0280706
1132.111 .0281643
1132.718 .0282638
1133.325 .0283709
1133.933 .0284848
1134.541 .0286060
1135.150 .0287280
1135.760 .0288516
1136.370 .0289771
1136.981 .0291025
1137.592 .0292260
1138.204 .0293486
1138.817 .0294737
1139.431 .0295953
1140.045 .0297155
1140.660 .0298285
1141.275 .0299382
1141.891 .0300592
1142.508 .0301666
1143.126 .0303032
1143.744 .0302269
1144.363 .0304296
1144.983 .0309035
