Measurement Sequence started on: 15-12-46-377
Integration time: 28
Scans to Average: 2 
>>>>>Begin Spectral Data<<<<<
432.689 .0000100
433.621 .0000100
434.552 .0000100
435.482 .0000100
436.410 .0000100
437.337 .0000100
438.262 .0268865
439.187 .0568934
440.110 .0942653
441.031 .1364604
441.952 .1775032
442.871 .2099189
443.789 .2278755
444.705 .2293410
445.621 .2167451
446.535 .1953830
447.447 .1710755
448.359 .1335748
449.269 .1150397
450.178 .1032252
451.086 .0948160
451.993 .0883489
452.898 .0832304
453.803 .0790611
454.706 .0756308
455.608 .0727119
456.508 .0701869
457.408 .0679546
458.306 .0659519
459.204 .0641100
460.100 .0624098
460.995 .0608529
461.888 .0594336
462.781 .0581452
463.673 .0569725
464.563 .0559087
465.452 .0549447
466.340 .0540550
467.228 .0532375
468.114 .0524711
468.999 .0517638
469.882 .0511040
470.765 .0504961
471.647 .0499354
472.528 .0494244
473.407 .0489689
474.286 .0485742
475.163 .0482255
476.040 .0479237
476.915 .0476566
477.790 .0474240
478.663 .0472224
479.535 .0470477
480.407 .0468982
481.277 .0467776
482.147 .0466793
483.015 .0466041
483.883 .0465506
484.749 .0465214
485.615 .0465127
486.479 .0465202
487.343 .0465426
488.206 .0465718
489.067 .0466053
489.928 .0466477
490.788 .0466984
491.647 .0467679
492.505 .0468540
493.362 .0469558
494.218 .0470702
495.073 .0471967
495.928 .0473334
496.781 .0474717
497.634 .0476229
498.486 .0477810
499.337 .0479514
500.187 .0481383
501.036 .0483488
501.884 .0485973
502.731 .0488822
503.578 .0492035
504.424 .0495619
505.268 .0499530
506.113 .0503741
506.956 .0508215
507.798 .0513068
508.640 .0518410
509.480 .0524327
510.320 .0530951
511.160 .0538460
511.998 .0546949
512.836 .0556561
513.672 .0567253
514.508 .0579182
515.344 .0592359
516.178 .0606931
517.012 .0623240
517.845 .0641438
518.677 .0661980
519.508 .0684926
520.339 .0710657
521.169 .0739669
521.998 .0771935
522.826 .0807776
523.654 .0847420
524.481 .0890766
525.307 .0938798
526.133 .0991604
526.958 .1049165
527.782 .1110926
528.605 .1176205
529.428 .1244275
530.250 .1309642
531.072 .1370043
531.892 .1422120
532.712 .1462050
533.532 .1488575
534.350 .1498872
535.168 .1492152
535.986 .1470071
536.802 .1434008
537.618 .1386212
538.434 .1328708
539.249 .1266118
540.063 .1199633
540.876 .1131919
541.689 .1065713
542.501 .1001967
543.313 .0942502
544.124 .0888774
544.934 .0839983
545.744 .0796327
546.553 .0757545
547.361 .0723561
548.169 .0694442
548.976 .0669237
549.783 .0647064
550.589 .0627711
551.395 .0610500
552.200 .0595294
553.004 .0581397
553.808 .0568844
554.611 .0557512
555.414 .0547356
556.216 .0538247
557.018 .0530143
557.819 .0522789
558.619 .0515953
559.419 .0509293
560.218 .0502878
561.017 .0496380
561.815 .0489666
562.613 .0482776
563.410 .0475899
564.207 .0468989
565.003 .0462224
565.799 .0455547
566.594 .0449079
567.388 .0442890
568.182 .0436856
568.976 .0430891
569.769 .0425016
570.562 .0419251
571.354 .0413566
572.145 .0407981
572.936 .0402582
573.727 .0397325
574.517 .0392316
575.307 .0387583
576.096 .0383084
576.885 .0378826
577.673 .0374830
578.461 .0371080
579.248 .0367581
580.035 .0364276
580.821 .0361145
581.607 .0358180
582.392 .0355425
583.177 .0352849
583.962 .0350425
584.746 .0348213
585.529 .0346222
586.313 .0344445
587.095 .0342854
587.878 .0341418
588.660 .0340144
589.441 .0339005
590.222 .0337971
591.003 .0337034
591.783 .0336161
592.563 .0335331
593.342 .0334548
594.121 .0333794
594.899 .0333081
595.678 .0332392
596.455 .0331745
597.233 .0331137
598.009 .0330559
598.786 .0330001
599.562 .0329463
600.338 .0328955
601.113 .0328459
601.888 .0327970
602.663 .0327498
603.437 .0327032
604.211 .0326583
604.984 .0326150
605.757 .0325745
606.530 .0325359
607.302 .0324987
608.074 .0324628
608.845 .0324274
609.616 .0323915
610.387 .0323552
611.158 .0323181
611.928 .0322802
612.697 .0322417
613.467 .0322029
614.236 .0321647
615.004 .0321280
615.773 .0320930
616.541 .0320597
617.308 .0320285
618.076 .0319993
618.843 .0319704
619.609 .0319428
620.375 .0319166
621.141 .0318909
621.907 .0318665
622.672 .0318434
623.437 .0318217
624.202 .0318010
624.966 .0317814
625.730 .0317621
626.493 .0317424
627.257 .0317219
628.020 .0316997
628.782 .0316752
629.545 .0316496
630.307 .0316223
631.068 .0315941
631.830 .0315655
632.591 .0315362
633.352 .0315064
634.112 .0314761
634.872 .0314451
635.632 .0314139
636.392 .0313827
637.151 .0313528
637.910 .0313243
638.668 .0312979
639.427 .0312739
640.185 .0312527
640.943 .0312329
641.700 .0312144
642.457 .0311959
643.214 .0311768
643.971 .0311567
644.727 .0311362
645.483 .0311156
646.239 .0310956
646.994 .0310767
647.750 .0310588
648.505 .0310416
649.259 .0310257
650.014 .0310092
650.768 .0309922
651.521 .0309744
652.275 .0309554
653.028 .0309348
653.781 .0309139
654.534 .0308925
655.286 .0308708
656.039 .0308495
656.791 .0308280
657.542 .0308060
658.294 .0307838
659.045 .0307616
659.796 .0307388
660.546 .0307157
661.297 .0306924
662.047 .0306680
662.796 .0306429
663.546 .0306172
664.295 .0305903
665.044 .0305622
665.793 .0305337
666.542 .0305051
667.290 .0304768
668.038 .0304496
668.786 .0304232
669.533 .0303980
670.281 .0303744
671.028 .0303517
671.774 .0303291
672.521 .0303070
673.267 .0302853
674.013 .0302635
674.759 .0302420
675.505 .0302208
676.250 .0301998
676.995 .0301794
677.740 .0301594
678.484 .0301392
679.229 .0301192
679.973 .0301000
680.717 .0300812
681.460 .0300628
682.204 .0300446
682.947 .0300266
683.690 .0300089
684.433 .0299912
685.175 .0299734
685.917 .0299557
686.659 .0299383
687.401 .0299212
688.142 .0299042
688.884 .0298873
689.625 .0298706
690.365 .0298536
691.106 .0298361
691.846 .0298176
692.586 .0297976
693.326 .0297763
694.066 .0297540
694.805 .0297312
695.545 .0297074
696.284 .0296826
697.022 .0296570
697.761 .0296303
698.499 .0296021
699.237 .0295730
699.975 .0295432
700.713 .0295133
701.450 .0294838
702.187 .0294557
702.924 .0294293
703.661 .0294055
704.397 .0293841
705.133 .0293644
705.869 .0293459
706.605 .0293284
707.341 .0293107
708.076 .0292932
708.811 .0292765
709.546 .0292601
710.281 .0292445
711.015 .0292301
711.749 .0292162
712.483 .0292027
713.217 .0291891
713.950 .0291749
714.684 .0291593
715.417 .0291421
716.150 .0291235
716.882 .0291035
717.615 .0290831
718.347 .0290629
719.079 .0290430
719.811 .0290241
720.542 .0290063
721.273 .0289891
722.005 .0289724
722.735 .0289566
723.466 .0289413
724.196 .0289259
724.927 .0289104
725.656 .0288953
726.386 .0288806
727.116 .0288671
727.845 .0288548
728.574 .0288433
729.303 .0288328
730.031 .0288230
730.760 .0288128
731.488 .0288020
732.216 .0287907
732.944 .0287789
733.671 .0287663
734.398 .0287542
735.125 .0287422
735.852 .0287311
736.579 .0287213
737.305 .0287128
738.031 .0287052
738.757 .0286981
739.483 .0286912
740.208 .0286838
740.933 .0286764
741.658 .0286692
742.383 .0286618
743.108 .0286550
743.832 .0286489
744.556 .0286433
745.280 .0286376
746.004 .0286321
746.727 .0286264
747.450 .0286204
748.173 .0286135
748.896 .0286060
749.618 .0285981
750.340 .0285899
751.062 .0285816
751.784 .0285730
752.506 .0285641
753.227 .0285548
753.948 .0285443
754.669 .0285326
755.389 .0285198
756.110 .0285058
756.830 .0284909
757.550 .0284755
758.269 .0284594
758.989 .0284426
759.708 .0284248
760.427 .0284065
761.146 .0283875
761.864 .0283681
762.582 .0283486
763.300 .0283290
764.018 .0283098
764.736 .0282910
765.453 .0282724
766.170 .0282546
766.887 .0282370
767.603 .0282199
768.320 .0282030
769.036 .0281861
769.751 .0281694
770.467 .0281526
771.182 .0281360
771.897 .0281194
772.612 .0281026
773.327 .0280859
774.041 .0280691
774.755 .0280525
775.469 .0280358
776.183 .0280199
776.896 .0280046
777.609 .0279901
778.322 .0279760
779.035 .0279625
779.747 .0279495
780.459 .0279365
781.171 .0279241
781.882 .0279120
782.594 .0279006
783.305 .0278898
784.016 .0278802
784.726 .0278713
785.436 .0278632
786.147 .0278555
786.856 .0278479
787.566 .0278399
788.275 .0278311
788.984 .0278214
789.693 .0278105
790.401 .0277987
791.110 .0277861
791.818 .0277726
792.525 .0277593
793.233 .0277456
793.940 .0277316
794.647 .0277174
795.353 .0277032
796.060 .0276885
796.766 .0276735
797.472 .0276581
798.177 .0276420
798.883 .0276255
799.588 .0276084
800.292 .0275913
800.997 .0275743
801.701 .0275573
802.405 .0275407
803.109 .0275244
803.812 .0275085
804.515 .0274928
805.218 .0274771
805.921 .0274613
806.623 .0274452
807.325 .0274287
808.027 .0274121
808.728 .0273954
809.429 .0273786
810.130 .0273618
810.831 .0273454
811.531 .0273296
812.231 .0273137
812.931 .0272979
813.630 .0272822
814.330 .0272665
815.029 .0272511
815.727 .0272361
816.426 .0272215
817.124 .0272076
817.821 .0271940
818.519 .0271811
819.216 .0271689
819.913 .0271571
820.609 .0271458
821.306 .0271350
822.002 .0271249
822.697 .0271156
823.393 .0271072
824.088 .0271000
824.783 .0270939
825.477 .0270888
826.171 .0270839
826.865 .0270793
827.559 .0270752
828.252 .0270711
828.945 .0270671
829.638 .0270638
830.330 .0270615
831.023 .0270600
831.714 .0270597
832.406 .0270604
833.097 .0270621
833.788 .0270644
834.479 .0270670
835.169 .0270693
835.859 .0270721
836.548 .0270749
837.238 .0270780
837.927 .0270818
838.615 .0270865
839.304 .0270916
839.992 .0270974
840.680 .0271030
841.367 .0271086
842.054 .0271137
842.741 .0271186
843.428 .0271231
844.114 .0271271
844.800 .0271304
845.485 .0271328
846.170 .0271340
846.855 .0271337
847.540 .0271313
848.224 .0271272
848.908 .0271214
849.592 .0271147
850.275 .0271073
850.958 .0270997
851.641 .0270927
852.323 .0270866
853.005 .0270808
853.687 .0270752
854.368 .0270693
855.049 .0270627
855.730 .0270553
856.410 .0270471
857.090 .0270379
857.769 .0270284
858.449 .0270191
859.128 .0270099
859.806 .0270008
860.485 .0269919
861.163 .0269826
861.840 .0269726
862.518 .0269616
863.195 .0269491
863.871 .0269352
864.548 .0269205
865.224 .0269054
865.899 .0268903
866.574 .0268759
867.249 .0268624
867.924 .0268500
868.598 .0268385
869.272 .0268280
869.946 .0268182
870.619 .0268092
871.292 .0268009
871.964 .0267931
872.636 .0267860
873.308 .0267797
873.979 .0267735
874.651 .0267677
875.321 .0267620
875.992 .0267559
876.662 .0267496
877.331 .0267433
878.001 .0267368
878.670 .0267300
879.338 .0267232
880.007 .0267165
880.675 .0267095
881.342 .0267024
882.009 .0266946
882.676 .0266863
883.343 .0266776
884.009 .0266682
884.675 .0266581
885.340 .0266483
886.005 .0266387
886.670 .0266295
887.334 .0266212
887.998 .0266139
888.662 .0266073
889.325 .0266010
889.988 .0265951
890.650 .0265891
891.312 .0265832
891.974 .0265774
892.636 .0265711
893.297 .0265650
893.957 .0265585
894.618 .0265517
895.278 .0265449
895.937 .0265377
896.596 .0265303
897.255 .0265224
897.914 .0265142
898.572 .0265050
899.230 .0264946
899.887 .0264828
900.544 .0264699
901.201 .0264554
901.857 .0264396
902.513 .0264225
903.168 .0264045
903.823 .0263858
904.478 .0263666
905.132 .0263467
905.786 .0263264
906.440 .0263051
907.093 .0262828
907.746 .0262583
908.399 .0262320
909.051 .0262036
909.703 .0261736
910.354 .0261424
911.005 .0261102
911.656 .0260774
912.306 .0260454
912.956 .0260142
913.605 .0259844
914.254 .0259553
914.903 .0259278
915.551 .0259012
916.199 .0258758
916.847 .0258511
917.494 .0258273
918.141 .0258047
918.788 .0257835
919.434 .0257639
920.079 .0257450
920.725 .0257270
921.370 .0257097
922.014 .0256922
922.658 .0256745
923.302 .0256558
923.946 .0256359
924.589 .0256147
925.231 .0255922
925.873 .0255685
926.515 .0255439
927.157 .0255190
927.798 .0254937
928.439 .0254685
929.079 .0254432
929.719 .0254178
930.359 .0253922
930.998 .0253669
931.637 .0253420
932.275 .0253173
932.913 .0252932
933.551 .0252698
934.188 .0252475
934.825 .0252259
935.462 .0252054
936.098 .0251861
936.733 .0251678
937.369 .0251506
938.004 .0251341
938.638 .0251183
939.273 .0251031
939.907 .0250886
940.540 .0250749
941.173 .0250621
941.806 .0250505
942.438 .0250400
943.070 .0250307
943.702 .0250228
944.333 .0250159
944.964 .0250094
945.594 .0250039
946.224 .0249984
946.854 .0249936
947.483 .0249892
948.112 .0249853
948.741 .0249819
949.369 .0249792
949.996 .0249768
950.624 .0249745
951.251 .0249721
951.878 .0249695
952.504 .0249660
953.130 .0249621
953.755 .0249574
954.380 .0249516
955.005 .0249450
955.629 .0249381
956.253 .0249305
956.877 .0249230
957.500 .0249157
958.123 .0249086
958.746 .0249019
959.368 .0248957
959.990 .0248896
960.611 .0248837
961.232 .0248788
961.853 .0248745
962.473 .0248711
963.093 .0248688
963.712 .0248675
964.331 .0248672
964.950 .0248679
965.569 .0248698
966.187 .0248727
966.804 .0248766
967.422 .0248816
968.039 .0248872
968.655 .0248936
969.272 .0248999
969.887 .0249058
970.503 .0249113
971.118 .0249168
971.733 .0249213
972.347 .0249252
972.961 .0249289
973.575 .0249327
974.188 .0249363
974.801 .0249399
975.414 .0249432
976.026 .0249463
976.638 .0249486
977.250 .0249501
977.861 .0249507
978.472 .0249510
979.083 .0249506
979.693 .0249501
980.303 .0249499
980.912 .0249500
981.521 .0249500
982.130 .0249506
982.738 .0249515
983.346 .0249524
983.954 .0249528
984.562 .0249526
985.169 .0249520
985.775 .0249513
986.382 .0249500
986.988 .0249490
987.594 .0249484
988.199 .0249481
988.804 .0249479
989.409 .0249479
990.013 .0249484
990.617 .0249489
991.221 .0249497
991.824 .0249505
992.427 .0249514
993.030 .0249530
993.632 .0249548
994.234 .0249575
994.836 .0249612
995.438 .0249656
996.039 .0249706
996.640 .0249758
997.240 .0249811
997.840 .0249865
998.440 .0249920
999.040 .0249972
999.639 .0250023
1000.238 .0250074
1000.836 .0250129
1001.435 .0250188
1002.033 .0250253
1002.630 .0250329
1003.228 .0250414
1003.825 .0250508
1004.422 .0250614
1005.018 .0250730
1005.614 .0250856
1006.210 .0250987
1006.806 .0251119
1007.401 .0251245
1007.996 .0251361
1008.591 .0251466
1009.186 .0251559
1009.780 .0251639
1010.374 .0251714
1010.967 .0251782
1011.561 .0251846
1012.154 .0251912
1012.746 .0251973
1013.339 .0252029
1013.931 .0252084
1014.523 .0252133
1015.115 .0252176
1015.706 .0252216
1016.298 .0252261
1016.888 .0252310
1017.479 .0252372
1018.069 .0252450
1018.660 .0252541
1019.250 .0252651
1019.839 .0252770
1020.429 .0252889
1021.018 .0253014
1021.607 .0253133
1022.195 .0253243
1022.784 .0253354
1023.372 .0253451
1023.960 .0253542
1024.547 .0253625
1025.135 .0253701
1025.722 .0253767
1026.309 .0253828
1026.896 .0253890
1027.483 .0253946
1028.069 .0254005
1028.655 .0254066
1029.241 .0254119
1029.827 .0254185
1030.412 .0254253
1030.997 .0254320
1031.582 .0254389
1032.167 .0254455
1032.752 .0254511
1033.336 .0254567
1033.921 .0254620
1034.505 .0254665
1035.089 .0254706
1035.672 .0254740
1036.256 .0254758
1036.839 .0254757
1037.422 .0254740
1038.005 .0254703
1038.588 .0254648
1039.171 .0254580
1039.753 .0254490
1040.335 .0254389
1040.918 .0254283
1041.500 .0254168
1042.081 .0254057
1042.663 .0253945
1043.244 .0253839
1043.826 .0253740
1044.407 .0253646
1044.988 .0253568
1045.569 .0253499
1046.150 .0253442
1046.730 .0253399
1047.311 .0253362
1047.891 .0253328
1048.471 .0253295
1049.052 .0253265
1049.632 .0253238
1050.211 .0253209
1050.791 .0253180
1051.371 .0253141
1051.950 .0253095
1052.530 .0253038
1053.109 .0252971
1053.688 .0252890
1054.268 .0252798
1054.847 .0252681
1055.426 .0252551
1056.005 .0252400
1056.583 .0252238
1057.162 .0252065
1057.741 .0251886
1058.319 .0251712
1058.898 .0251542
1059.476 .0251366
1060.055 .0251187
1060.633 .0250988
1061.211 .0250775
1061.790 .0250542
1062.368 .0250304
1062.946 .0250051
1063.524 .0249813
1064.102 .0249602
1064.680 .0249427
1065.258 .0249285
1065.836 .0249186
1066.414 .0249104
1066.992 .0249041
1067.570 .0248992
1068.148 .0248938
1068.726 .0248877
1069.304 .0248831
1069.882 .0248789
1070.460 .0248753
1071.038 .0248724
1071.616 .0248704
1072.194 .0248674
1072.772 .0248640
1073.350 .0248573
1073.928 .0248470
1074.506 .0248341
1075.084 .0248194
1075.662 .0248030
1076.240 .0247882
1076.819 .0247759
1077.397 .0247651
1077.976 .0247556
1078.554 .0247489
1079.133 .0247419
1079.711 .0247356
1080.290 .0247298
1080.869 .0247255
1081.448 .0247233
1082.027 .0247242
1082.606 .0247279
1083.185 .0247360
1083.764 .0247476
1084.343 .0247617
1084.923 .0247740
1085.502 .0247867
1086.082 .0247968
1086.662 .0248048
1087.242 .0248117
1087.822 .0248178
1088.402 .0248229
1088.983 .0248287
1089.563 .0248350
1090.144 .0248426
1090.725 .0248499
1091.306 .0248574
1091.887 .0248645
1092.469 .0248704
1093.050 .0248735
1093.632 .0248747
1094.214 .0248744
1094.796 .0248765
1095.379 .0248766
1095.961 .0248785
1096.544 .0248806
1097.127 .0248838
1097.710 .0248894
1098.294 .0248946
1098.877 .0249016
1099.461 .0249103
1100.046 .0249185
1100.630 .0249279
1101.215 .0249363
1101.800 .0249456
1102.385 .0249536
1102.970 .0249636
1103.556 .0249722
1104.142 .0249774
1104.728 .0249814
1105.315 .0249843
1105.902 .0249846
1106.489 .0249851
1107.077 .0249856
1107.664 .0249877
1108.253 .0249931
1108.841 .0250008
1109.430 .0250104
1110.019 .0250238
1110.609 .0250390
1111.198 .0250543
1111.789 .0250679
1112.379 .0250820
1112.970 .0250930
1113.561 .0251064
1114.153 .0251238
1114.745 .0251465
1115.338 .0251764
1115.931 .0252137
1116.524 .0252569
1117.117 .0253070
1117.712 .0253597
1118.306 .0254140
1118.901 .0254687
1119.496 .0255227
1120.092 .0255767
1120.689 .0256351
1121.285 .0257002
1121.882 .0257739
1122.480 .0258551
1123.078 .0259486
1123.677 .0260471
1124.276 .0261471
1124.875 .0262439
1125.476 .0263344
1126.076 .0264177
1126.677 .0264916
1127.279 .0265560
1127.881 .0266149
1128.484 .0266697
1129.087 .0267251
1129.691 .0267816
1130.295 .0268424
1130.900 .0269073
1131.505 .0269764
1132.111 .0270515
1132.718 .0271352
1133.325 .0272214
1133.933 .0273123
1134.541 .0274097
1135.150 .0275112
1135.760 .0276134
1136.370 .0277169
1136.981 .0278250
1137.592 .0279359
1138.204 .0280550
1138.817 .0281766
1139.431 .0283056
1140.045 .0284334
1140.660 .0285528
1141.275 .0286719
1141.891 .0288004
1142.508 .0290671
1143.126 .0288860
1143.744 .0288057
1144.363 .0292878
1144.983 .0298079
