Measurement Sequence started on: 15-12-46-377
Integration time: 28
Scans to Average: 2 
>>>>>Begin Spectral Data<<<<<
432.689 .0000100
433.621 .0000100
434.552 .0000100
435.482 .0000100
436.410 .0000100
437.337 .0000100
438.262 .0266175
439.187 .0564349
440.110 .0934789
441.031 .1352329
441.952 .1757686
442.871 .2076112
443.789 .2249575
444.705 .2258280
445.621 .2126674
446.535 .1908020
447.447 .1661025
448.359 .1284949
449.269 .1097879
450.178 .0980325
451.086 .0898414
451.993 .0836604
452.898 .0788926
453.803 .0750782
454.706 .0719621
455.608 .0693359
456.508 .0670902
457.408 .0651299
458.306 .0634171
459.204 .0619100
460.100 .0605662
460.995 .0593642
461.888 .0583004
462.781 .0573208
463.673 .0564036
464.563 .0555352
465.452 .0546905
466.340 .0538521
467.228 .0530293
468.114 .0522226
468.999 .0514422
469.882 .0506949
470.765 .0499930
471.647 .0493468
472.528 .0487647
473.407 .0482516
474.286 .0478073
475.163 .0474311
476.040 .0471223
476.915 .0468627
477.790 .0466502
478.663 .0464771
479.535 .0463436
480.407 .0462460
481.277 .0461772
482.147 .0461441
483.015 .0461361
483.883 .0461474
484.749 .0461747
485.615 .0462120
486.479 .0462546
487.343 .0462976
488.206 .0463413
489.067 .0463783
489.928 .0464074
490.788 .0464296
491.647 .0464479
492.505 .0464699
493.362 .0465034
494.218 .0465518
495.073 .0466155
495.928 .0467099
496.781 .0468314
497.634 .0469978
498.486 .0472051
499.337 .0474541
500.187 .0477380
501.036 .0480465
501.884 .0483805
502.731 .0487314
503.578 .0491101
504.424 .0495223
505.268 .0499688
506.113 .0504681
506.956 .0510191
507.798 .0516367
508.640 .0523187
509.480 .0530631
510.320 .0538696
511.160 .0547349
511.998 .0556538
512.836 .0566394
513.672 .0577159
514.508 .0589018
515.344 .0602139
516.178 .0616935
517.012 .0633800
517.845 .0652909
518.677 .0674629
519.508 .0699020
520.339 .0726433
521.169 .0757341
521.998 .0791976
522.826 .0830580
523.654 .0874182
524.481 .0922846
525.307 .0977363
526.133 .1037531
526.958 .1103360
527.782 .1174070
528.605 .1247829
529.428 .1323825
530.250 .1396762
531.072 .1463632
531.892 .1520559
532.712 .1563793
533.532 .1591743
534.350 .1601549
535.168 .1592866
535.986 .1566396
536.802 .1524052
537.618 .1468804
538.434 .1402591
539.249 .1330713
540.063 .1255472
540.876 .1179931
541.689 .1106469
542.501 .1036939
543.313 .0973124
544.124 .0915696
544.934 .0864204
545.744 .0818154
546.553 .0777110
547.361 .0740659
548.169 .0708402
548.976 .0679735
549.783 .0654236
550.589 .0631525
551.395 .0611185
552.200 .0593255
553.004 .0577132
553.808 .0562627
554.611 .0549529
555.414 .0537602
556.216 .0526634
557.018 .0516570
557.819 .0507186
558.619 .0498388
559.419 .0490136
560.218 .0482372
561.017 .0475067
561.815 .0468281
562.613 .0461872
563.410 .0455756
564.207 .0449940
565.003 .0444306
565.799 .0438823
566.594 .0433474
567.388 .0428399
568.182 .0423453
568.976 .0418649
569.769 .0414014
570.562 .0409475
571.354 .0405036
572.145 .0400723
572.936 .0396517
573.727 .0392488
574.517 .0388540
575.307 .0384710
576.096 .0380931
576.885 .0377262
577.673 .0373683
578.461 .0370198
579.248 .0366809
580.035 .0363597
580.821 .0360508
581.607 .0357603
582.392 .0354911
583.177 .0352459
583.962 .0350233
584.746 .0348265
585.529 .0346515
586.313 .0344956
587.095 .0343549
587.878 .0342301
588.660 .0341140
589.441 .0340084
590.222 .0339084
591.003 .0338132
591.783 .0337221
592.563 .0336365
593.342 .0335539
594.121 .0334748
594.899 .0333994
595.678 .0333267
596.455 .0332567
597.233 .0331895
598.009 .0331219
598.786 .0330559
599.562 .0329908
600.338 .0329275
601.113 .0328655
601.888 .0328072
602.663 .0327518
603.437 .0327004
604.211 .0326531
604.984 .0326090
605.757 .0325674
606.530 .0325282
607.302 .0324903
608.074 .0324538
608.845 .0324181
609.616 .0323829
610.387 .0323483
611.158 .0323161
611.928 .0322845
612.697 .0322536
613.467 .0322225
614.236 .0321914
615.004 .0321593
615.773 .0321272
616.541 .0320946
617.308 .0320621
618.076 .0320308
618.843 .0319997
619.609 .0319697
620.375 .0319404
621.141 .0319113
621.907 .0318820
622.672 .0318518
623.437 .0318208
624.202 .0317880
624.966 .0317542
625.730 .0317202
626.493 .0316858
627.257 .0316510
628.020 .0316154
628.782 .0315791
629.545 .0315431
630.307 .0315076
631.068 .0314717
631.830 .0314367
632.591 .0314022
633.352 .0313687
634.112 .0313361
634.872 .0313054
635.632 .0312775
636.392 .0312517
637.151 .0312287
637.910 .0312076
638.668 .0311884
639.427 .0311716
640.185 .0311560
640.943 .0311429
641.700 .0311304
642.457 .0311183
643.214 .0311060
643.971 .0310935
644.727 .0310810
645.483 .0310680
646.239 .0310547
646.994 .0310408
647.750 .0310265
648.505 .0310108
649.259 .0309943
650.014 .0309774
650.768 .0309601
651.521 .0309425
652.275 .0309249
653.028 .0309076
653.781 .0308903
654.534 .0308740
655.286 .0308582
656.039 .0308425
656.791 .0308271
657.542 .0308107
658.294 .0307938
659.045 .0307767
659.796 .0307598
660.546 .0307425
661.297 .0307258
662.047 .0307093
662.796 .0306924
663.546 .0306750
664.295 .0306568
665.044 .0306376
665.793 .0306173
666.542 .0305957
667.290 .0305731
668.038 .0305497
668.786 .0305262
669.533 .0305018
670.281 .0304778
671.028 .0304543
671.774 .0304310
672.521 .0304079
673.267 .0303854
674.013 .0303634
674.759 .0303423
675.505 .0303220
676.250 .0303024
676.995 .0302831
677.740 .0302650
678.484 .0302470
679.229 .0302293
679.973 .0302119
680.717 .0301939
681.460 .0301755
682.204 .0301574
682.947 .0301390
683.690 .0301204
684.433 .0301017
685.175 .0300826
685.917 .0300624
686.659 .0300406
687.401 .0300175
688.142 .0299933
688.884 .0299684
689.625 .0299432
690.365 .0299173
691.106 .0298921
691.846 .0298681
692.586 .0298447
693.326 .0298219
694.066 .0297999
694.805 .0297781
695.545 .0297558
696.284 .0297332
697.022 .0297105
697.761 .0296877
698.499 .0296652
699.237 .0296433
699.975 .0296216
700.713 .0296006
701.450 .0295802
702.187 .0295603
702.924 .0295408
703.661 .0295214
704.397 .0295016
705.133 .0294813
705.869 .0294608
706.605 .0294397
707.341 .0294183
708.076 .0293972
708.811 .0293763
709.546 .0293555
710.281 .0293349
711.015 .0293148
711.749 .0292951
712.483 .0292756
713.217 .0292558
713.950 .0292356
714.684 .0292151
715.417 .0291940
716.150 .0291722
716.882 .0291501
717.615 .0291281
718.347 .0291060
719.079 .0290842
719.811 .0290624
720.542 .0290414
721.273 .0290211
722.005 .0290012
722.735 .0289816
723.466 .0289625
724.196 .0289442
724.927 .0289258
725.656 .0289077
726.386 .0288898
727.116 .0288720
727.845 .0288548
728.574 .0288377
729.303 .0288212
730.031 .0288061
730.760 .0287920
731.488 .0287793
732.216 .0287677
732.944 .0287573
733.671 .0287478
734.398 .0287393
735.125 .0287315
735.852 .0287241
736.579 .0287171
737.305 .0287105
738.031 .0287042
738.757 .0286987
739.483 .0286936
740.208 .0286891
740.933 .0286855
741.658 .0286823
742.383 .0286793
743.108 .0286765
743.832 .0286736
744.556 .0286710
745.280 .0286683
746.004 .0286651
746.727 .0286615
747.450 .0286578
748.173 .0286537
748.896 .0286496
749.618 .0286456
750.340 .0286415
751.062 .0286374
751.784 .0286333
752.506 .0286290
753.227 .0286245
753.948 .0286197
754.669 .0286141
755.389 .0286076
756.110 .0286002
756.830 .0285912
757.550 .0285812
758.269 .0285704
758.989 .0285592
759.708 .0285475
760.427 .0285360
761.146 .0285244
761.864 .0285133
762.582 .0285024
763.300 .0284910
764.018 .0284794
764.736 .0284674
765.453 .0284546
766.170 .0284414
766.887 .0284279
767.603 .0284144
768.320 .0284008
769.036 .0283878
769.751 .0283753
770.467 .0283630
771.182 .0283513
771.897 .0283396
772.612 .0283284
773.327 .0283176
774.041 .0283073
774.755 .0282977
775.469 .0282894
776.183 .0282823
776.896 .0282762
777.609 .0282711
778.322 .0282670
779.035 .0282631
779.747 .0282598
780.459 .0282569
781.171 .0282541
781.882 .0282509
782.594 .0282474
783.305 .0282432
784.016 .0282389
784.726 .0282334
785.436 .0282268
786.147 .0282187
786.856 .0282094
787.566 .0281986
788.275 .0281864
788.984 .0281732
789.693 .0281594
790.401 .0281445
791.110 .0281295
791.818 .0281135
792.525 .0280971
793.233 .0280800
793.940 .0280622
794.647 .0280435
795.353 .0280241
796.060 .0280039
796.766 .0279834
797.472 .0279628
798.177 .0279424
798.883 .0279225
799.588 .0279033
800.292 .0278849
800.997 .0278670
801.701 .0278493
802.405 .0278316
803.109 .0278134
803.812 .0277950
804.515 .0277758
805.218 .0277559
805.921 .0277355
806.623 .0277146
807.325 .0276934
808.027 .0276715
808.728 .0276492
809.429 .0276267
810.130 .0276035
810.831 .0275798
811.531 .0275554
812.231 .0275302
812.931 .0275047
813.630 .0274787
814.330 .0274523
815.029 .0274261
815.727 .0274002
816.426 .0273747
817.124 .0273500
817.821 .0273262
818.519 .0273034
819.216 .0272818
819.913 .0272618
820.609 .0272430
821.306 .0272252
822.002 .0272086
822.697 .0271931
823.393 .0271784
824.088 .0271644
824.783 .0271508
825.477 .0271377
826.171 .0271251
826.865 .0271130
827.559 .0271013
828.252 .0270902
828.945 .0270800
829.638 .0270705
830.330 .0270615
831.023 .0270529
831.714 .0270445
832.406 .0270363
833.097 .0270276
833.788 .0270185
834.479 .0270090
835.169 .0269999
835.859 .0269910
836.548 .0269829
837.238 .0269758
837.927 .0269700
838.615 .0269652
839.304 .0269610
839.992 .0269573
840.680 .0269538
841.367 .0269497
842.054 .0269455
842.741 .0269412
843.428 .0269373
844.114 .0269332
844.800 .0269299
845.485 .0269266
846.170 .0269233
846.855 .0269196
847.540 .0269150
848.224 .0269092
848.908 .0269028
849.592 .0268952
850.275 .0268865
850.958 .0268777
851.641 .0268690
852.323 .0268602
853.005 .0268520
853.687 .0268442
854.368 .0268368
855.049 .0268295
855.730 .0268229
856.410 .0268162
857.090 .0268099
857.769 .0268039
858.449 .0267978
859.128 .0267921
859.806 .0267864
860.485 .0267808
861.163 .0267757
861.840 .0267711
862.518 .0267667
863.195 .0267625
863.871 .0267584
864.548 .0267545
865.224 .0267506
865.899 .0267466
866.574 .0267423
867.249 .0267377
867.924 .0267332
868.598 .0267287
869.272 .0267244
869.946 .0267208
870.619 .0267176
871.292 .0267146
871.964 .0267115
872.636 .0267085
873.308 .0267054
873.979 .0267026
874.651 .0266999
875.321 .0266977
875.992 .0266961
876.662 .0266957
877.331 .0266963
878.001 .0266982
878.670 .0267014
879.338 .0267054
880.007 .0267105
880.675 .0267163
881.342 .0267223
882.009 .0267285
882.676 .0267352
883.343 .0267419
884.009 .0267483
884.675 .0267550
885.340 .0267615
886.005 .0267682
886.670 .0267754
887.334 .0267831
887.998 .0267913
888.662 .0268001
889.325 .0268089
889.988 .0268176
890.650 .0268264
891.312 .0268347
891.974 .0268424
892.636 .0268501
893.297 .0268582
893.957 .0268666
894.618 .0268753
895.278 .0268845
895.937 .0268936
896.596 .0269028
897.255 .0269106
897.914 .0269164
898.572 .0269198
899.230 .0269206
899.887 .0269189
900.544 .0269150
901.201 .0269091
901.857 .0269018
902.513 .0268939
903.168 .0268853
903.823 .0268757
904.478 .0268655
905.132 .0268538
905.786 .0268410
906.440 .0268267
907.093 .0268106
907.746 .0267931
908.399 .0267750
909.051 .0267565
909.703 .0267378
910.354 .0267194
911.005 .0267014
911.656 .0266842
912.306 .0266677
912.956 .0266512
913.605 .0266340
914.254 .0266168
914.903 .0265990
915.551 .0265806
916.199 .0265627
916.847 .0265450
917.494 .0265283
918.141 .0265129
918.788 .0264982
919.434 .0264843
920.079 .0264705
920.725 .0264564
921.370 .0264414
922.014 .0264248
922.658 .0264061
923.302 .0263853
923.946 .0263626
924.589 .0263384
925.231 .0263122
925.873 .0262847
926.515 .0262555
927.157 .0262250
927.798 .0261934
928.439 .0261602
929.079 .0261263
929.719 .0260921
930.359 .0260575
930.998 .0260234
931.637 .0259898
932.275 .0259574
932.913 .0259262
933.551 .0258961
934.188 .0258674
934.825 .0258404
935.462 .0258147
936.098 .0257906
936.733 .0257685
937.369 .0257482
938.004 .0257294
938.638 .0257116
939.273 .0256951
939.907 .0256783
940.540 .0256620
941.173 .0256456
941.806 .0256289
942.438 .0256127
943.070 .0255963
943.702 .0255797
944.333 .0255633
944.964 .0255468
945.594 .0255299
946.224 .0255122
946.854 .0254942
947.483 .0254749
948.112 .0254548
948.741 .0254338
949.369 .0254123
949.996 .0253906
950.624 .0253690
951.251 .0253475
951.878 .0253267
952.504 .0253066
953.130 .0252866
953.755 .0252669
954.380 .0252472
955.005 .0252273
955.629 .0252073
956.253 .0251868
956.877 .0251668
957.500 .0251471
958.123 .0251283
958.746 .0251097
959.368 .0250917
959.990 .0250741
960.611 .0250562
961.232 .0250383
961.853 .0250202
962.473 .0250014
963.093 .0249821
963.712 .0249624
964.331 .0249424
964.950 .0249224
965.569 .0249032
966.187 .0248845
966.804 .0248667
967.422 .0248500
968.039 .0248342
968.655 .0248187
969.272 .0248041
969.887 .0247894
970.503 .0247744
971.118 .0247598
971.733 .0247449
972.347 .0247298
972.961 .0247150
973.575 .0247008
974.188 .0246868
974.801 .0246732
975.414 .0246599
976.026 .0246457
976.638 .0246308
977.250 .0246149
977.861 .0245976
978.472 .0245793
979.083 .0245603
979.693 .0245403
980.303 .0245199
980.912 .0244994
981.521 .0244779
982.130 .0244560
982.738 .0244346
983.346 .0244130
983.954 .0243913
984.562 .0243699
985.169 .0243492
985.775 .0243291
986.382 .0243099
986.988 .0242914
987.594 .0242738
988.199 .0242569
988.804 .0242405
989.409 .0242247
990.013 .0242101
990.617 .0241974
991.221 .0241861
991.824 .0241771
992.427 .0241705
993.030 .0241656
993.632 .0241625
994.234 .0241610
994.836 .0241611
995.438 .0241619
996.039 .0241634
996.640 .0241657
997.240 .0241690
997.840 .0241736
998.440 .0241799
999.040 .0241872
999.639 .0241959
1000.238 .0242053
1000.836 .0242150
1001.435 .0242247
1002.033 .0242343
1002.630 .0242433
1003.228 .0242521
1003.825 .0242607
1004.422 .0242692
1005.018 .0242775
1005.614 .0242865
1006.210 .0242953
1006.806 .0243039
1007.401 .0243124
1007.996 .0243199
1008.591 .0243265
1009.186 .0243324
1009.780 .0243377
1010.374 .0243424
1010.967 .0243467
1011.561 .0243505
1012.154 .0243544
1012.746 .0243583
1013.339 .0243623
1013.931 .0243658
1014.523 .0243692
1015.115 .0243725
1015.706 .0243753
1016.298 .0243785
1016.888 .0243831
1017.479 .0243888
1018.069 .0243968
1018.660 .0244071
1019.250 .0244205
1019.839 .0244360
1020.429 .0244534
1021.018 .0244726
1021.607 .0244932
1022.195 .0245144
1022.784 .0245356
1023.372 .0245568
1023.960 .0245792
1024.547 .0246021
1025.135 .0246259
1025.722 .0246506
1026.309 .0246770
1026.896 .0247047
1027.483 .0247329
1028.069 .0247611
1028.655 .0247887
1029.241 .0248152
1029.827 .0248411
1030.412 .0248658
1030.997 .0248900
1031.582 .0249137
1032.167 .0249368
1032.752 .0249603
1033.336 .0249840
1033.921 .0250072
1034.505 .0250295
1035.089 .0250506
1035.672 .0250696
1036.256 .0250852
1036.839 .0250975
1037.422 .0251068
1038.005 .0251139
1038.588 .0251197
1039.171 .0251239
1039.753 .0251282
1040.335 .0251338
1040.918 .0251404
1041.500 .0251484
1042.081 .0251585
1042.663 .0251693
1043.244 .0251810
1043.826 .0251938
1044.407 .0252071
1044.988 .0252209
1045.569 .0252362
1046.150 .0252530
1046.730 .0252711
1047.311 .0252915
1047.891 .0253128
1048.471 .0253345
1049.052 .0253568
1049.632 .0253779
1050.211 .0253978
1050.791 .0254154
1051.371 .0254312
1051.950 .0254449
1052.530 .0254572
1053.109 .0254684
1053.688 .0254779
1054.268 .0254871
1054.847 .0254956
1055.426 .0255031
1056.005 .0255101
1056.583 .0255157
1057.162 .0255204
1057.741 .0255244
1058.319 .0255280
1058.898 .0255318
1059.476 .0255361
1060.055 .0255407
1060.633 .0255470
1061.211 .0255543
1061.790 .0255627
1062.368 .0255718
1062.946 .0255816
1063.524 .0255923
1064.102 .0256033
1064.680 .0256145
1065.258 .0256255
1065.836 .0256367
1066.414 .0256484
1066.992 .0256597
1067.570 .0256717
1068.148 .0256834
1068.726 .0256952
1069.304 .0257075
1069.882 .0257202
1070.460 .0257329
1071.038 .0257461
1071.616 .0257594
1072.194 .0257735
1072.772 .0257874
1073.350 .0258003
1073.928 .0258131
1074.506 .0258264
1075.084 .0258390
1075.662 .0258507
1076.240 .0258625
1076.819 .0258737
1077.397 .0258842
1077.976 .0258944
1078.554 .0259020
1079.133 .0259078
1079.711 .0259111
1080.290 .0259110
1080.869 .0259070
1081.448 .0258995
1082.027 .0258903
1082.606 .0258786
1083.185 .0258682
1083.764 .0258584
1084.343 .0258512
1084.923 .0258491
1085.502 .0258515
1086.082 .0258583
1086.662 .0258688
1087.242 .0258829
1087.822 .0258991
1088.402 .0259180
1088.983 .0259397
1089.563 .0259618
1090.144 .0259858
1090.725 .0260111
1091.306 .0260375
1091.887 .0260639
1092.469 .0260913
1093.050 .0261186
1093.632 .0261444
1094.214 .0261701
1094.796 .0261932
1095.379 .0262150
1095.961 .0262366
1096.544 .0262577
1097.127 .0262770
1097.710 .0262958
1098.294 .0263134
1098.877 .0263309
1099.461 .0263499
1100.046 .0263693
1100.630 .0263914
1101.215 .0264158
1101.800 .0264416
1102.385 .0264674
1102.970 .0264912
1103.556 .0265133
1104.142 .0265301
1104.728 .0265446
1105.315 .0265546
1105.902 .0265620
1106.489 .0265697
1107.077 .0265770
1107.664 .0265873
1108.253 .0266018
1108.841 .0266162
1109.430 .0266313
1110.019 .0266467
1110.609 .0266611
1111.198 .0266740
1111.789 .0266867
1112.379 .0267013
1112.970 .0267189
1113.561 .0267410
1114.153 .0267678
1114.745 .0267985
1115.338 .0268337
1115.931 .0268683
1116.524 .0269004
1117.117 .0269298
1117.712 .0269525
1118.306 .0269695
1118.901 .0269848
1119.496 .0269963
1120.092 .0270075
1120.689 .0270193
1121.285 .0270344
1121.882 .0270560
1122.480 .0270843
1123.078 .0271196
1123.677 .0271618
1124.276 .0272103
1124.875 .0272614
1125.476 .0273133
1126.076 .0273676
1126.677 .0274203
1127.279 .0274744
1127.881 .0275324
1128.484 .0275950
1129.087 .0276610
1129.691 .0277353
1130.295 .0278161
1130.900 .0279031
1131.505 .0279921
1132.111 .0280783
1132.718 .0281634
1133.325 .0282459
1133.933 .0283258
1134.541 .0284060
1135.150 .0284872
1135.760 .0285747
1136.370 .0286643
1136.981 .0287592
1137.592 .0288547
1138.204 .0289522
1138.817 .0290520
1139.431 .0291532
1140.045 .0292523
1140.660 .0293462
1141.275 .0294259
1141.891 .0294859
1142.508 .0297319
1143.126 .0297441
1143.744 .0297144
1144.363 .0295260
1144.983 .0292828
