Measurement Sequence started on: 15-12-46-377
Integration time: 28
Scans to Average: 2 
>>>>>Begin Spectral Data<<<<<
432.689 .0000100
433.621 .0000100
434.552 .0000100
435.482 .0000100
436.410 .0000100
437.337 .0000100
438.262 .0265449
439.187 .0561083
440.110 .0928143
441.031 .1341045
441.952 .1740840
442.871 .2053899
443.789 .2223081
444.705 .2229545
445.621 .2098022
446.535 .1882181
447.447 .1639711
448.359 .1269668
449.269 .1089219
450.178 .0976646
451.086 .0898370
451.993 .0838821
452.898 .0791935
453.803 .0753746
454.706 .0722136
455.608 .0695579
456.508 .0672812
457.408 .0653387
458.306 .0636419
459.204 .0621453
460.100 .0608045
460.995 .0595862
461.888 .0584702
462.781 .0574270
463.673 .0564398
464.563 .0555087
465.452 .0546174
466.340 .0537521
467.228 .0529310
468.114 .0521519
468.999 .0514197
469.882 .0507326
470.765 .0500962
471.647 .0495145
472.528 .0489801
473.407 .0485019
474.286 .0480701
475.163 .0476787
476.040 .0473346
476.915 .0470289
477.790 .0467612
478.663 .0465363
479.535 .0463536
480.407 .0462090
481.277 .0461058
482.147 .0460332
483.015 .0459846
483.883 .0459589
484.749 .0459526
485.615 .0459536
486.479 .0459577
487.343 .0459789
488.206 .0460018
489.067 .0460303
489.928 .0460733
490.788 .0461231
491.647 .0461822
492.505 .0462537
493.362 .0463286
494.218 .0464106
495.073 .0465037
495.928 .0466178
496.781 .0467440
497.634 .0469030
498.486 .0470834
499.337 .0472868
500.187 .0475190
501.036 .0477878
501.884 .0480805
502.731 .0484175
503.578 .0487874
504.424 .0491921
505.268 .0496269
506.113 .0500961
506.956 .0506007
507.798 .0511600
508.640 .0517686
509.480 .0524435
510.320 .0531834
511.160 .0540248
511.998 .0549577
512.836 .0560066
513.672 .0571773
514.508 .0584710
515.344 .0598856
516.178 .0614385
517.012 .0631428
517.845 .0650551
518.677 .0671970
519.508 .0696268
520.339 .0724023
521.169 .0755533
521.998 .0790877
522.826 .0830533
523.654 .0875087
524.481 .0924255
525.307 .0978446
526.133 .1037435
526.958 .1101307
527.782 .1169665
528.605 .1241013
529.428 .1313825
530.250 .1383217
531.072 .1446521
531.892 .1499572
532.712 .1539272
533.532 .1563559
534.350 .1569954
535.168 .1558761
535.986 .1530587
536.802 .1487279
537.618 .1431343
538.434 .1365573
539.249 .1294801
540.063 .1220761
540.876 .1146893
541.689 .1075391
542.501 .1008935
543.313 .0949064
544.124 .0895617
544.934 .0848303
545.744 .0806399
546.553 .0769304
547.361 .0736104
548.169 .0706445
548.976 .0679641
549.783 .0655358
550.589 .0633707
551.395 .0614050
552.200 .0596449
553.004 .0580756
553.808 .0566696
554.611 .0554136
555.414 .0542825
556.216 .0532394
557.018 .0522699
557.819 .0513801
558.619 .0505350
559.419 .0497302
560.218 .0489708
561.017 .0482478
561.815 .0475613
562.613 .0469143
563.410 .0462949
564.207 .0456943
565.003 .0451158
565.799 .0445468
566.594 .0439752
567.388 .0434146
568.182 .0428557
568.976 .0423025
569.769 .0417662
570.562 .0412480
571.354 .0407437
572.145 .0402676
572.936 .0398105
573.727 .0393679
574.517 .0389379
575.307 .0385196
576.096 .0381081
576.885 .0377080
577.673 .0373210
578.461 .0369510
579.248 .0366002
580.035 .0362721
580.821 .0359614
581.607 .0356712
582.392 .0354013
583.177 .0351466
583.962 .0349068
584.746 .0346858
585.529 .0344800
586.313 .0342930
587.095 .0341222
587.878 .0339675
588.660 .0338282
589.441 .0337049
590.222 .0335949
591.003 .0334980
591.783 .0334106
592.563 .0333310
593.342 .0332574
594.121 .0331886
594.899 .0331237
595.678 .0330617
596.455 .0330028
597.233 .0329460
598.009 .0328892
598.786 .0328347
599.562 .0327817
600.338 .0327309
601.113 .0326826
601.888 .0326356
602.663 .0325885
603.437 .0325419
604.211 .0324957
604.984 .0324498
605.757 .0324047
606.530 .0323605
607.302 .0323164
608.074 .0322738
608.845 .0322329
609.616 .0321928
610.387 .0321545
611.158 .0321182
611.928 .0320821
612.697 .0320460
613.467 .0320098
614.236 .0319734
615.004 .0319379
615.773 .0319043
616.541 .0318726
617.308 .0318423
618.076 .0318155
618.843 .0317909
619.609 .0317692
620.375 .0317499
621.141 .0317321
621.907 .0317155
622.672 .0316997
623.437 .0316839
624.202 .0316681
624.966 .0316526
625.730 .0316372
626.493 .0316208
627.257 .0316039
628.020 .0315847
628.782 .0315634
629.545 .0315393
630.307 .0315127
631.068 .0314831
631.830 .0314519
632.591 .0314183
633.352 .0313831
634.112 .0313473
634.872 .0313106
635.632 .0312736
636.392 .0312363
637.151 .0311997
637.910 .0311630
638.668 .0311274
639.427 .0310935
640.185 .0310607
640.943 .0310304
641.700 .0310027
642.457 .0309769
643.214 .0309533
643.971 .0309310
644.727 .0309095
645.483 .0308883
646.239 .0308682
646.994 .0308472
647.750 .0308260
648.505 .0308052
649.259 .0307850
650.014 .0307647
650.768 .0307455
651.521 .0307269
652.275 .0307091
653.028 .0306923
653.781 .0306758
654.534 .0306588
655.286 .0306422
656.039 .0306256
656.791 .0306086
657.542 .0305909
658.294 .0305733
659.045 .0305547
659.796 .0305364
660.546 .0305179
661.297 .0304996
662.047 .0304818
662.796 .0304646
663.546 .0304476
664.295 .0304307
665.044 .0304137
665.793 .0303964
666.542 .0303779
667.290 .0303584
668.038 .0303379
668.786 .0303165
669.533 .0302944
670.281 .0302719
671.028 .0302503
671.774 .0302296
672.521 .0302104
673.267 .0301924
674.013 .0301758
674.759 .0301598
675.505 .0301443
676.250 .0301283
676.995 .0301119
677.740 .0300948
678.484 .0300766
679.229 .0300577
679.973 .0300386
680.717 .0300192
681.460 .0300001
682.204 .0299810
682.947 .0299625
683.690 .0299434
684.433 .0299238
685.175 .0299033
685.917 .0298826
686.659 .0298610
687.401 .0298390
688.142 .0298171
688.884 .0297953
689.625 .0297740
690.365 .0297526
691.106 .0297316
691.846 .0297109
692.586 .0296902
693.326 .0296690
694.066 .0296472
694.805 .0296255
695.545 .0296030
696.284 .0295800
697.022 .0295570
697.761 .0295336
698.499 .0295095
699.237 .0294852
699.975 .0294609
700.713 .0294364
701.450 .0294123
702.187 .0293886
702.924 .0293656
703.661 .0293438
704.397 .0293232
705.133 .0293040
705.869 .0292863
706.605 .0292696
707.341 .0292532
708.076 .0292372
708.811 .0292209
709.546 .0292038
710.281 .0291855
711.015 .0291662
711.749 .0291457
712.483 .0291235
713.217 .0291003
713.950 .0290766
714.684 .0290525
715.417 .0290280
716.150 .0290034
716.882 .0289791
717.615 .0289552
718.347 .0289315
719.079 .0289084
719.811 .0288856
720.542 .0288638
721.273 .0288428
722.005 .0288228
722.735 .0288042
723.466 .0287872
724.196 .0287713
724.927 .0287564
725.656 .0287419
726.386 .0287276
727.116 .0287128
727.845 .0286979
728.574 .0286825
729.303 .0286668
730.031 .0286510
730.760 .0286352
731.488 .0286195
732.216 .0286047
732.944 .0285904
733.671 .0285768
734.398 .0285639
735.125 .0285516
735.852 .0285396
736.579 .0285279
737.305 .0285168
738.031 .0285064
738.757 .0284967
739.483 .0284880
740.208 .0284803
740.933 .0284735
741.658 .0284675
742.383 .0284620
743.108 .0284567
743.832 .0284514
744.556 .0284456
745.280 .0284391
746.004 .0284322
746.727 .0284252
747.450 .0284183
748.173 .0284117
748.896 .0284060
749.618 .0284009
750.340 .0283962
751.062 .0283918
751.784 .0283875
752.506 .0283826
753.227 .0283770
753.948 .0283703
754.669 .0283623
755.389 .0283532
756.110 .0283436
756.830 .0283336
757.550 .0283232
758.269 .0283125
758.989 .0283010
759.708 .0282886
760.427 .0282755
761.146 .0282612
761.864 .0282456
762.582 .0282290
763.300 .0282116
764.018 .0281933
764.736 .0281750
765.453 .0281568
766.170 .0281388
766.887 .0281212
767.603 .0281041
768.320 .0280875
769.036 .0280721
769.751 .0280578
770.467 .0280449
771.182 .0280332
771.897 .0280226
772.612 .0280128
773.327 .0280035
774.041 .0279946
774.755 .0279856
775.469 .0279765
776.183 .0279675
776.896 .0279585
777.609 .0279500
778.322 .0279419
779.035 .0279343
779.747 .0279275
780.459 .0279210
781.171 .0279140
781.882 .0279066
782.594 .0278986
783.305 .0278894
784.016 .0278793
784.726 .0278683
785.436 .0278568
786.147 .0278452
786.856 .0278340
787.566 .0278231
788.275 .0278128
788.984 .0278033
789.693 .0277939
790.401 .0277844
791.110 .0277746
791.818 .0277637
792.525 .0277516
793.233 .0277385
793.940 .0277244
794.647 .0277094
795.353 .0276940
796.060 .0276785
796.766 .0276625
797.472 .0276463
798.177 .0276297
798.883 .0276126
799.588 .0275951
800.292 .0275769
800.997 .0275580
801.701 .0275388
802.405 .0275194
803.109 .0275000
803.812 .0274812
804.515 .0274629
805.218 .0274447
805.921 .0274262
806.623 .0274076
807.325 .0273884
808.027 .0273685
808.728 .0273480
809.429 .0273264
810.130 .0273043
810.831 .0272816
811.531 .0272586
812.231 .0272351
812.931 .0272111
813.630 .0271866
814.330 .0271616
815.029 .0271363
815.727 .0271106
816.426 .0270853
817.124 .0270615
817.821 .0270390
818.519 .0270184
819.216 .0270002
819.913 .0269845
820.609 .0269712
821.306 .0269600
822.002 .0269506
822.697 .0269427
823.393 .0269360
824.088 .0269303
824.783 .0269248
825.477 .0269195
826.171 .0269143
826.865 .0269091
827.559 .0269042
828.252 .0268992
828.945 .0268940
829.638 .0268891
830.330 .0268845
831.023 .0268801
831.714 .0268757
832.406 .0268714
833.097 .0268669
833.788 .0268620
834.479 .0268566
835.169 .0268509
835.859 .0268455
836.548 .0268403
837.238 .0268356
837.927 .0268317
838.615 .0268285
839.304 .0268261
839.992 .0268243
840.680 .0268228
841.367 .0268207
842.054 .0268182
842.741 .0268148
843.428 .0268108
844.114 .0268062
844.800 .0268017
845.485 .0267970
846.170 .0267921
846.855 .0267871
847.540 .0267817
848.224 .0267768
848.908 .0267721
849.592 .0267671
850.275 .0267621
850.958 .0267571
851.641 .0267517
852.323 .0267453
853.005 .0267390
853.687 .0267318
854.368 .0267241
855.049 .0267159
855.730 .0267073
856.410 .0266986
857.090 .0266904
857.769 .0266825
858.449 .0266749
859.128 .0266677
859.806 .0266603
860.485 .0266530
861.163 .0266468
861.840 .0266411
862.518 .0266358
863.195 .0266309
863.871 .0266265
864.548 .0266217
865.224 .0266168
865.899 .0266114
866.574 .0266059
867.249 .0266005
867.924 .0265948
868.598 .0265894
869.272 .0265847
869.946 .0265810
870.619 .0265776
871.292 .0265748
871.964 .0265718
872.636 .0265681
873.308 .0265638
873.979 .0265592
874.651 .0265542
875.321 .0265493
875.992 .0265449
876.662 .0265412
877.331 .0265381
878.001 .0265356
878.670 .0265329
879.338 .0265299
880.007 .0265266
880.675 .0265227
881.342 .0265180
882.009 .0265134
882.676 .0265094
883.343 .0265059
884.009 .0265031
884.675 .0265009
885.340 .0264987
886.005 .0264966
886.670 .0264945
887.334 .0264920
887.998 .0264894
888.662 .0264875
889.325 .0264861
889.988 .0264854
890.650 .0264860
891.312 .0264871
891.974 .0264885
892.636 .0264899
893.297 .0264909
893.957 .0264912
894.618 .0264906
895.278 .0264888
895.937 .0264860
896.596 .0264828
897.255 .0264790
897.914 .0264741
898.572 .0264689
899.230 .0264632
899.887 .0264567
900.544 .0264493
901.201 .0264413
901.857 .0264323
902.513 .0264224
903.168 .0264114
903.823 .0263991
904.478 .0263855
905.132 .0263702
905.786 .0263533
906.440 .0263347
907.093 .0263148
907.746 .0262934
908.399 .0262707
909.051 .0262475
909.703 .0262236
910.354 .0261987
911.005 .0261735
911.656 .0261480
912.306 .0261220
912.956 .0260957
913.605 .0260692
914.254 .0260427
914.903 .0260164
915.551 .0259908
916.199 .0259659
916.847 .0259423
917.494 .0259203
918.141 .0258993
918.788 .0258797
919.434 .0258616
920.079 .0258442
920.725 .0258275
921.370 .0258112
922.014 .0257944
922.658 .0257771
923.302 .0257588
923.946 .0257392
924.589 .0257181
925.231 .0256957
925.873 .0256722
926.515 .0256474
927.157 .0256217
927.798 .0255948
928.439 .0255668
929.079 .0255376
929.719 .0255071
930.359 .0254747
930.998 .0254409
931.637 .0254061
932.275 .0253709
932.913 .0253356
933.551 .0253011
934.188 .0252682
934.825 .0252373
935.462 .0252084
936.098 .0251817
936.733 .0251567
937.369 .0251335
938.004 .0251113
938.638 .0250901
939.273 .0250701
939.907 .0250513
940.540 .0250342
941.173 .0250188
941.806 .0250053
942.438 .0249933
943.070 .0249823
943.702 .0249718
944.333 .0249611
944.964 .0249494
945.594 .0249366
946.224 .0249232
946.854 .0249085
947.483 .0248933
948.112 .0248781
948.741 .0248628
949.369 .0248479
949.996 .0248330
950.624 .0248186
951.251 .0248044
951.878 .0247905
952.504 .0247766
953.130 .0247625
953.755 .0247488
954.380 .0247353
955.005 .0247219
955.629 .0247092
956.253 .0246973
956.877 .0246862
957.500 .0246761
958.123 .0246674
958.746 .0246591
959.368 .0246516
959.990 .0246444
960.611 .0246371
961.232 .0246295
961.853 .0246218
962.473 .0246141
963.093 .0246064
963.712 .0245992
964.331 .0245926
964.950 .0245868
965.569 .0245821
966.187 .0245779
966.804 .0245745
967.422 .0245716
968.039 .0245688
968.655 .0245656
969.272 .0245620
969.887 .0245580
970.503 .0245536
971.118 .0245491
971.733 .0245448
972.347 .0245408
972.961 .0245367
973.575 .0245332
974.188 .0245295
974.801 .0245254
975.414 .0245214
976.026 .0245170
976.638 .0245122
977.250 .0245070
977.861 .0245016
978.472 .0244963
979.083 .0244910
979.693 .0244861
980.303 .0244808
980.912 .0244757
981.521 .0244707
982.130 .0244652
982.738 .0244600
983.346 .0244552
983.954 .0244501
984.562 .0244455
985.169 .0244406
985.775 .0244352
986.382 .0244295
986.988 .0244237
987.594 .0244183
988.199 .0244137
988.804 .0244103
989.409 .0244086
990.013 .0244087
990.617 .0244111
991.221 .0244145
991.824 .0244194
992.427 .0244253
993.030 .0244314
993.632 .0244381
994.234 .0244461
994.836 .0244555
995.438 .0244670
996.039 .0244804
996.640 .0244953
997.240 .0245109
997.840 .0245263
998.440 .0245403
999.040 .0245525
999.639 .0245625
1000.238 .0245702
1000.836 .0245757
1001.435 .0245805
1002.033 .0245853
1002.630 .0245898
1003.228 .0245950
1003.825 .0246010
1004.422 .0246076
1005.018 .0246138
1005.614 .0246194
1006.210 .0246250
1006.806 .0246303
1007.401 .0246356
1007.996 .0246414
1008.591 .0246487
1009.186 .0246585
1009.780 .0246707
1010.374 .0246845
1010.967 .0247003
1011.561 .0247169
1012.154 .0247323
1012.746 .0247463
1013.339 .0247586
1013.931 .0247685
1014.523 .0247768
1015.115 .0247843
1015.706 .0247920
1016.298 .0248008
1016.888 .0248111
1017.479 .0248230
1018.069 .0248365
1018.660 .0248507
1019.250 .0248645
1019.839 .0248772
1020.429 .0248902
1021.018 .0249023
1021.607 .0249145
1022.195 .0249279
1022.784 .0249431
1023.372 .0249609
1023.960 .0249812
1024.547 .0250033
1025.135 .0250272
1025.722 .0250517
1026.309 .0250759
1026.896 .0250994
1027.483 .0251222
1028.069 .0251439
1028.655 .0251643
1029.241 .0251836
1029.827 .0252019
1030.412 .0252187
1030.997 .0252350
1031.582 .0252506
1032.167 .0252656
1032.752 .0252805
1033.336 .0252943
1033.921 .0253078
1034.505 .0253204
1035.089 .0253313
1035.672 .0253400
1036.256 .0253457
1036.839 .0253488
1037.422 .0253489
1038.005 .0253472
1038.588 .0253453
1039.171 .0253441
1039.753 .0253448
1040.335 .0253475
1040.918 .0253514
1041.500 .0253568
1042.081 .0253621
1042.663 .0253670
1043.244 .0253703
1043.826 .0253716
1044.407 .0253709
1044.988 .0253687
1045.569 .0253660
1046.150 .0253630
1046.730 .0253596
1047.311 .0253564
1047.891 .0253522
1048.471 .0253470
1049.052 .0253403
1049.632 .0253326
1050.211 .0253246
1050.791 .0253164
1051.371 .0253084
1051.950 .0253013
1052.530 .0252942
1053.109 .0252883
1053.688 .0252823
1054.268 .0252759
1054.847 .0252703
1055.426 .0252655
1056.005 .0252618
1056.583 .0252602
1057.162 .0252608
1057.741 .0252638
1058.319 .0252687
1058.898 .0252749
1059.476 .0252806
1060.055 .0252852
1060.633 .0252891
1061.211 .0252907
1061.790 .0252907
1062.368 .0252906
1062.946 .0252890
1063.524 .0252875
1064.102 .0252862
1064.680 .0252833
1065.258 .0252787
1065.836 .0252719
1066.414 .0252615
1066.992 .0252478
1067.570 .0252311
1068.148 .0252112
1068.726 .0251894
1069.304 .0251685
1069.882 .0251489
1070.460 .0251293
1071.038 .0251118
1071.616 .0250967
1072.194 .0250834
1072.772 .0250724
1073.350 .0250624
1073.928 .0250547
1074.506 .0250498
1075.084 .0250469
1075.662 .0250463
1076.240 .0250490
1076.819 .0250555
1077.397 .0250638
1077.976 .0250740
1078.554 .0250851
1079.133 .0250949
1079.711 .0251031
1080.290 .0251081
1080.869 .0251091
1081.448 .0251051
1082.027 .0250957
1082.606 .0250827
1083.185 .0250684
1083.764 .0250528
1084.343 .0250364
1084.923 .0250213
1085.502 .0250082
1086.082 .0249962
1086.662 .0249864
1087.242 .0249792
1087.822 .0249747
1088.402 .0249719
1088.983 .0249701
1089.563 .0249678
1090.144 .0249667
1090.725 .0249647
1091.306 .0249617
1091.887 .0249603
1092.469 .0249589
1093.050 .0249592
1093.632 .0249623
1094.214 .0249681
1094.796 .0249753
1095.379 .0249824
1095.961 .0249903
1096.544 .0249955
1097.127 .0249964
1097.710 .0249936
1098.294 .0249859
1098.877 .0249757
1099.461 .0249629
1100.046 .0249488
1100.630 .0249362
1101.215 .0249272
1101.800 .0249209
1102.385 .0249178
1102.970 .0249185
1103.556 .0249242
1104.142 .0249329
1104.728 .0249459
1105.315 .0249631
1105.902 .0249841
1106.489 .0250104
1107.077 .0250415
1107.664 .0250782
1108.253 .0251209
1108.841 .0251675
1109.430 .0252185
1110.019 .0252721
1110.609 .0253284
1111.198 .0253844
1111.789 .0254397
1112.379 .0254937
1112.970 .0255449
1113.561 .0255934
1114.153 .0256396
1114.745 .0256816
1115.338 .0257207
1115.931 .0257557
1116.524 .0257835
1117.117 .0258070
1117.712 .0258262
1118.306 .0258427
1118.901 .0258585
1119.496 .0258754
1120.092 .0258983
1120.689 .0259241
1121.285 .0259549
1121.882 .0259870
1122.480 .0260196
1123.078 .0260518
1123.677 .0260752
1124.276 .0260928
1124.875 .0261071
1125.476 .0261170
1126.076 .0261248
1126.677 .0261333
1127.279 .0261452
1127.881 .0261604
1128.484 .0261807
1129.087 .0262022
1129.691 .0262268
1130.295 .0262545
1130.900 .0262851
1131.505 .0263236
1132.111 .0263733
1132.718 .0264336
1133.325 .0265084
1133.933 .0266019
1134.541 .0267093
1135.150 .0268236
1135.760 .0269461
1136.370 .0270702
1136.981 .0271984
1137.592 .0273257
1138.204 .0274530
1138.817 .0275908
1139.431 .0277437
1140.045 .0279037
1140.660 .0280635
1141.275 .0282290
1141.891 .0284179
1142.508 .0287534
1143.126 .0288018
1143.744 .0287012
1144.363 .0289526
1144.983 .0297517
