Measurement Sequence started on: 15-12-46-377
Integration time: 28
Scans to Average: 2 
>>>>>Begin Spectral Data<<<<<
432.689 .0000100
433.621 .0000100
434.552 .0000100
435.482 .0000100
436.410 .0000100
437.337 .0000100
438.262 .0286408
439.187 .0606823
440.110 .1004774
441.031 .1453412
441.952 .1888992
442.871 .2231444
443.789 .2418902
444.705 .2429679
445.621 .2290127
446.535 .2057663
447.447 .1794474
448.359 .1391852
449.269 .1191787
450.178 .1064992
451.086 .0974990
451.993 .0905878
452.898 .0851570
453.803 .0807448
454.706 .0771570
455.608 .0741571
456.508 .0715849
457.408 .0693642
458.306 .0673849
459.204 .0655836
460.100 .0639221
460.995 .0623809
461.888 .0609541
462.781 .0596381
463.673 .0584352
464.563 .0573550
465.452 .0563670
466.340 .0554505
467.228 .0546008
468.114 .0538077
468.999 .0530703
469.882 .0523816
470.765 .0517504
471.647 .0511813
472.528 .0506755
473.407 .0502433
474.286 .0498674
475.163 .0495564
476.040 .0493001
476.915 .0490800
477.790 .0488876
478.663 .0487198
479.535 .0485634
480.407 .0484232
481.277 .0483023
482.147 .0482012
483.015 .0481132
483.883 .0480451
484.749 .0479933
485.615 .0479608
486.479 .0479429
487.343 .0479428
488.206 .0479589
489.067 .0479918
489.928 .0480282
490.788 .0480724
491.647 .0481291
492.505 .0482000
493.362 .0482808
494.218 .0483686
495.073 .0484713
495.928 .0485916
496.781 .0487196
497.634 .0488657
498.486 .0490298
499.337 .0492042
500.187 .0493797
501.036 .0495694
501.884 .0497675
502.731 .0499763
503.578 .0502185
504.424 .0504961
505.268 .0508110
506.113 .0511756
506.956 .0515844
507.798 .0520557
508.640 .0526000
509.480 .0532172
510.320 .0539100
511.160 .0547045
511.998 .0555991
512.836 .0565895
513.672 .0577130
514.508 .0589784
515.344 .0603813
516.178 .0619641
517.012 .0637486
517.845 .0657438
518.677 .0680178
519.508 .0705779
520.339 .0734673
521.169 .0767518
521.998 .0804412
522.826 .0846099
523.654 .0892880
524.481 .0944402
525.307 .1001283
526.133 .1063218
526.958 .1130441
527.782 .1201522
528.605 .1275588
529.428 .1351184
530.250 .1423037
531.072 .1488625
531.892 .1543623
532.712 .1584701
533.532 .1610494
534.350 .1617934
535.168 .1606734
535.986 .1577662
536.802 .1533078
537.618 .1475264
538.434 .1407406
539.249 .1334312
540.063 .1258040
540.876 .1181974
541.689 .1108959
542.501 .1040532
543.313 .0978600
544.124 .0923593
544.934 .0874838
545.744 .0831654
546.553 .0793541
547.361 .0759675
548.169 .0729992
548.976 .0703789
549.783 .0680597
550.589 .0659913
551.395 .0641078
552.200 .0623980
553.004 .0608351
553.808 .0593957
554.611 .0580891
555.414 .0568988
556.216 .0558155
557.018 .0548340
557.819 .0539358
558.619 .0530942
559.419 .0522974
560.218 .0515447
561.017 .0508190
561.815 .0501097
562.613 .0494171
563.410 .0487259
564.207 .0480413
565.003 .0473685
565.799 .0466987
566.594 .0460229
567.388 .0453591
568.182 .0446996
568.976 .0440478
569.769 .0434114
570.562 .0427910
571.354 .0421921
572.145 .0416145
572.936 .0410648
573.727 .0405305
574.517 .0400219
575.307 .0395404
576.096 .0390786
576.885 .0386499
577.673 .0382520
578.461 .0378823
579.248 .0375422
580.035 .0372311
580.821 .0369463
581.607 .0366824
582.392 .0364379
583.177 .0362069
583.962 .0359915
584.746 .0357919
585.529 .0356021
586.313 .0354250
587.095 .0352623
587.878 .0351105
588.660 .0349665
589.441 .0348322
590.222 .0347029
591.003 .0345826
591.783 .0344716
592.563 .0343675
593.342 .0342726
594.121 .0341865
594.899 .0341066
595.678 .0340313
596.455 .0339605
597.233 .0338936
598.009 .0338272
598.786 .0337635
599.562 .0336996
600.338 .0336352
601.113 .0335722
601.888 .0335097
602.663 .0334476
603.437 .0333870
604.211 .0333260
604.984 .0332640
605.757 .0332015
606.530 .0331388
607.302 .0330761
608.074 .0330148
608.845 .0329565
609.616 .0329012
610.387 .0328485
611.158 .0328001
611.928 .0327545
612.697 .0327116
613.467 .0326717
614.236 .0326337
615.004 .0325973
615.773 .0325627
616.541 .0325301
617.308 .0324985
618.076 .0324686
618.843 .0324406
619.609 .0324144
620.375 .0323893
621.141 .0323658
621.907 .0323423
622.672 .0323192
623.437 .0322963
624.202 .0322729
624.966 .0322495
625.730 .0322267
626.493 .0322036
627.257 .0321812
628.020 .0321596
628.782 .0321392
629.545 .0321190
630.307 .0321002
631.068 .0320820
631.830 .0320645
632.591 .0320460
633.352 .0320268
634.112 .0320063
634.872 .0319844
635.632 .0319603
636.392 .0319344
637.151 .0319072
637.910 .0318791
638.668 .0318504
639.427 .0318219
640.185 .0317938
640.943 .0317668
641.700 .0317405
642.457 .0317151
643.214 .0316905
643.971 .0316667
644.727 .0316440
645.483 .0316229
646.239 .0316037
646.994 .0315852
647.750 .0315685
648.505 .0315530
649.259 .0315388
650.014 .0315248
650.768 .0315108
651.521 .0314966
652.275 .0314820
653.028 .0314663
653.781 .0314491
654.534 .0314306
655.286 .0314111
656.039 .0313899
656.791 .0313678
657.542 .0313436
658.294 .0313180
659.045 .0312906
659.796 .0312625
660.546 .0312328
661.297 .0312026
662.047 .0311721
662.796 .0311416
663.546 .0311120
664.295 .0310830
665.044 .0310546
665.793 .0310277
666.542 .0310018
667.290 .0309763
668.038 .0309506
668.786 .0309247
669.533 .0308976
670.281 .0308698
671.028 .0308406
671.774 .0308098
672.521 .0307784
673.267 .0307467
674.013 .0307148
674.759 .0306832
675.505 .0306525
676.250 .0306221
676.995 .0305924
677.740 .0305630
678.484 .0305329
679.229 .0305028
679.973 .0304725
680.717 .0304418
681.460 .0304114
682.204 .0303814
682.947 .0303520
683.690 .0303236
684.433 .0302963
685.175 .0302693
685.917 .0302426
686.659 .0302161
687.401 .0301891
688.142 .0301617
688.884 .0301338
689.625 .0301051
690.365 .0300758
691.106 .0300461
691.846 .0300159
692.586 .0299858
693.326 .0299558
694.066 .0299264
694.805 .0298975
695.545 .0298693
696.284 .0298419
697.022 .0298154
697.761 .0297901
698.499 .0297660
699.237 .0297435
699.975 .0297227
700.713 .0297037
701.450 .0296868
702.187 .0296717
702.924 .0296581
703.661 .0296456
704.397 .0296333
705.133 .0296210
705.869 .0296084
706.605 .0295955
707.341 .0295825
708.076 .0295701
708.811 .0295582
709.546 .0295471
710.281 .0295370
711.015 .0295277
711.749 .0295180
712.483 .0295077
713.217 .0294961
713.950 .0294830
714.684 .0294684
715.417 .0294528
716.150 .0294373
716.882 .0294230
717.615 .0294098
718.347 .0293985
719.079 .0293887
719.811 .0293800
720.542 .0293717
721.273 .0293631
722.005 .0293537
722.735 .0293436
723.466 .0293330
724.196 .0293221
724.927 .0293115
725.656 .0293011
726.386 .0292907
727.116 .0292804
727.845 .0292704
728.574 .0292598
729.303 .0292490
730.031 .0292383
730.760 .0292273
731.488 .0292163
732.216 .0292058
732.944 .0291953
733.671 .0291851
734.398 .0291751
735.125 .0291649
735.852 .0291545
736.579 .0291445
737.305 .0291347
738.031 .0291255
738.757 .0291173
739.483 .0291095
740.208 .0291018
740.933 .0290944
741.658 .0290867
742.383 .0290782
743.108 .0290698
743.832 .0290609
744.556 .0290514
745.280 .0290420
746.004 .0290329
746.727 .0290239
747.450 .0290154
748.173 .0290064
748.896 .0289967
749.618 .0289864
750.340 .0289749
751.062 .0289624
751.784 .0289493
752.506 .0289354
753.227 .0289204
753.948 .0289046
754.669 .0288882
755.389 .0288705
756.110 .0288519
756.830 .0288322
757.550 .0288111
758.269 .0287886
758.989 .0287648
759.708 .0287399
760.427 .0287146
761.146 .0286885
761.864 .0286616
762.582 .0286344
763.300 .0286068
764.018 .0285790
764.736 .0285511
765.453 .0285233
766.170 .0284958
766.887 .0284686
767.603 .0284418
768.320 .0284150
769.036 .0283892
769.751 .0283641
770.467 .0283397
771.182 .0283160
771.897 .0282925
772.612 .0282694
773.327 .0282470
774.041 .0282249
774.755 .0282030
775.469 .0281814
776.183 .0281600
776.896 .0281392
777.609 .0281190
778.322 .0280992
779.035 .0280802
779.747 .0280619
780.459 .0280446
781.171 .0280280
781.882 .0280119
782.594 .0279966
783.305 .0279821
784.016 .0279686
784.726 .0279553
785.436 .0279426
786.147 .0279307
786.856 .0279192
787.566 .0279078
788.275 .0278966
788.984 .0278855
789.693 .0278743
790.401 .0278626
791.110 .0278504
791.818 .0278373
792.525 .0278236
793.233 .0278090
793.940 .0277941
794.647 .0277786
795.353 .0277631
796.060 .0277476
796.766 .0277327
797.472 .0277183
798.177 .0277044
798.883 .0276911
799.588 .0276785
800.292 .0276671
800.997 .0276561
801.701 .0276456
802.405 .0276361
803.109 .0276273
803.812 .0276188
804.515 .0276107
805.218 .0276026
805.921 .0275936
806.623 .0275845
807.325 .0275751
808.027 .0275651
808.728 .0275550
809.429 .0275447
810.130 .0275340
810.831 .0275235
811.531 .0275130
812.231 .0275017
812.931 .0274903
813.630 .0274788
814.330 .0274665
815.029 .0274542
815.727 .0274427
816.426 .0274319
817.124 .0274225
817.821 .0274144
818.519 .0274074
819.216 .0274013
819.913 .0273964
820.609 .0273917
821.306 .0273873
822.002 .0273839
822.697 .0273814
823.393 .0273802
824.088 .0273807
824.783 .0273829
825.477 .0273865
826.171 .0273916
826.865 .0273976
827.559 .0274038
828.252 .0274105
828.945 .0274175
829.638 .0274247
830.330 .0274324
831.023 .0274405
831.714 .0274492
832.406 .0274584
833.097 .0274675
833.788 .0274756
834.479 .0274831
835.169 .0274894
835.859 .0274952
836.548 .0275005
837.238 .0275061
837.927 .0275120
838.615 .0275188
839.304 .0275259
839.992 .0275330
840.680 .0275396
841.367 .0275460
842.054 .0275512
842.741 .0275555
843.428 .0275590
844.114 .0275625
844.800 .0275659
845.485 .0275697
846.170 .0275731
846.855 .0275764
847.540 .0275789
848.224 .0275801
848.908 .0275795
849.592 .0275774
850.275 .0275733
850.958 .0275676
851.641 .0275607
852.323 .0275525
853.005 .0275432
853.687 .0275331
854.368 .0275219
855.049 .0275095
855.730 .0274959
856.410 .0274807
857.090 .0274638
857.769 .0274454
858.449 .0274251
859.128 .0274031
859.806 .0273804
860.485 .0273567
861.163 .0273322
861.840 .0273071
862.518 .0272816
863.195 .0272556
863.871 .0272296
864.548 .0272035
865.224 .0271776
865.899 .0271524
866.574 .0271279
867.249 .0271039
867.924 .0270808
868.598 .0270586
869.272 .0270374
869.946 .0270168
870.619 .0269963
871.292 .0269758
871.964 .0269555
872.636 .0269351
873.308 .0269150
873.979 .0268955
874.651 .0268769
875.321 .0268590
875.992 .0268418
876.662 .0268253
877.331 .0268091
878.001 .0267928
878.670 .0267762
879.338 .0267591
880.007 .0267418
880.675 .0267240
881.342 .0267067
882.009 .0266901
882.676 .0266742
883.343 .0266586
884.009 .0266433
884.675 .0266281
885.340 .0266124
886.005 .0265959
886.670 .0265790
887.334 .0265618
887.998 .0265445
888.662 .0265274
889.325 .0265109
889.988 .0264955
890.650 .0264812
891.312 .0264679
891.974 .0264558
892.636 .0264443
893.297 .0264335
893.957 .0264228
894.618 .0264128
895.278 .0264030
895.937 .0263932
896.596 .0263846
897.255 .0263763
897.914 .0263680
898.572 .0263593
899.230 .0263498
899.887 .0263393
900.544 .0263266
901.201 .0263121
901.857 .0262952
902.513 .0262764
903.168 .0262555
903.823 .0262322
904.478 .0262072
905.132 .0261805
905.786 .0261517
906.440 .0261212
907.093 .0260892
907.746 .0260558
908.399 .0260218
909.051 .0259880
909.703 .0259547
910.354 .0259218
911.005 .0258897
911.656 .0258587
912.306 .0258283
912.956 .0257989
913.605 .0257702
914.254 .0257427
914.903 .0257169
915.551 .0256924
916.199 .0256698
916.847 .0256491
917.494 .0256304
918.141 .0256132
918.788 .0255970
919.434 .0255819
920.079 .0255668
920.725 .0255515
921.370 .0255364
922.014 .0255209
922.658 .0255051
923.302 .0254888
923.946 .0254718
924.589 .0254537
925.231 .0254345
925.873 .0254140
926.515 .0253925
927.157 .0253702
927.798 .0253475
928.439 .0253244
929.079 .0253018
929.719 .0252794
930.359 .0252575
930.998 .0252361
931.637 .0252156
932.275 .0251958
932.913 .0251768
933.551 .0251589
934.188 .0251425
934.825 .0251276
935.462 .0251143
936.098 .0251030
936.733 .0250937
937.369 .0250864
938.004 .0250811
938.638 .0250771
939.273 .0250749
939.907 .0250743
940.540 .0250748
941.173 .0250760
941.806 .0250782
942.438 .0250813
943.070 .0250851
943.702 .0250897
944.333 .0250950
944.964 .0251015
945.594 .0251091
946.224 .0251174
946.854 .0251263
947.483 .0251359
948.112 .0251459
948.741 .0251554
949.369 .0251648
949.996 .0251738
950.624 .0251820
951.251 .0251897
951.878 .0251969
952.504 .0252033
953.130 .0252087
953.755 .0252136
954.380 .0252175
955.005 .0252210
955.629 .0252237
956.253 .0252258
956.877 .0252281
957.500 .0252306
958.123 .0252330
958.746 .0252357
959.368 .0252389
959.990 .0252425
960.611 .0252463
961.232 .0252506
961.853 .0252553
962.473 .0252610
963.093 .0252675
963.712 .0252748
964.331 .0252828
964.950 .0252915
965.569 .0253007
966.187 .0253106
966.804 .0253210
967.422 .0253318
968.039 .0253433
968.655 .0253552
969.272 .0253674
969.887 .0253792
970.503 .0253905
971.118 .0254011
971.733 .0254105
972.347 .0254184
972.961 .0254250
973.575 .0254310
974.188 .0254361
974.801 .0254411
975.414 .0254460
976.026 .0254506
976.638 .0254547
977.250 .0254582
977.861 .0254605
978.472 .0254617
979.083 .0254620
979.693 .0254613
980.303 .0254598
980.912 .0254583
981.521 .0254564
982.130 .0254544
982.738 .0254525
983.346 .0254502
983.954 .0254469
984.562 .0254429
985.169 .0254375
985.775 .0254313
986.382 .0254249
986.988 .0254180
987.594 .0254112
988.199 .0254047
988.804 .0253987
989.409 .0253928
990.013 .0253875
990.617 .0253829
991.221 .0253786
991.824 .0253752
992.427 .0253730
993.030 .0253721
993.632 .0253735
994.234 .0253770
994.836 .0253826
995.438 .0253897
996.039 .0253980
996.640 .0254062
997.240 .0254148
997.840 .0254232
998.440 .0254310
999.040 .0254379
999.639 .0254444
1000.238 .0254501
1000.836 .0254551
1001.435 .0254595
1002.033 .0254633
1002.630 .0254657
1003.228 .0254674
1003.825 .0254675
1004.422 .0254662
1005.018 .0254638
1005.614 .0254604
1006.210 .0254556
1006.806 .0254505
1007.401 .0254445
1007.996 .0254383
1008.591 .0254326
1009.186 .0254277
1009.780 .0254230
1010.374 .0254187
1010.967 .0254146
1011.561 .0254101
1012.154 .0254048
1012.746 .0253992
1013.339 .0253930
1013.931 .0253871
1014.523 .0253812
1015.115 .0253757
1015.706 .0253712
1016.298 .0253676
1016.888 .0253644
1017.479 .0253609
1018.069 .0253574
1018.660 .0253533
1019.250 .0253486
1019.839 .0253436
1020.429 .0253387
1021.018 .0253337
1021.607 .0253294
1022.195 .0253258
1022.784 .0253224
1023.372 .0253194
1023.960 .0253168
1024.547 .0253140
1025.135 .0253111
1025.722 .0253085
1026.309 .0253061
1026.896 .0253045
1027.483 .0253047
1028.069 .0253056
1028.655 .0253070
1029.241 .0253085
1029.827 .0253097
1030.412 .0253098
1030.997 .0253098
1031.582 .0253089
1032.167 .0253077
1032.752 .0253068
1033.336 .0253064
1033.921 .0253064
1034.505 .0253065
1035.089 .0253063
1035.672 .0253044
1036.256 .0253000
1036.839 .0252933
1037.422 .0252830
1038.005 .0252710
1038.588 .0252570
1039.171 .0252425
1039.753 .0252276
1040.335 .0252131
1040.918 .0251985
1041.500 .0251843
1042.081 .0251700
1042.663 .0251547
1043.244 .0251381
1043.826 .0251204
1044.407 .0251011
1044.988 .0250812
1045.569 .0250610
1046.150 .0250415
1046.730 .0250228
1047.311 .0250064
1047.891 .0249910
1048.471 .0249771
1049.052 .0249641
1049.632 .0249518
1050.211 .0249398
1050.791 .0249270
1051.371 .0249132
1051.950 .0248979
1052.530 .0248823
1053.109 .0248657
1053.688 .0248471
1054.268 .0248284
1054.847 .0248099
1055.426 .0247908
1056.005 .0247714
1056.583 .0247515
1057.162 .0247313
1057.741 .0247107
1058.319 .0246906
1058.898 .0246702
1059.476 .0246499
1060.055 .0246315
1060.633 .0246145
1061.211 .0245993
1061.790 .0245879
1062.368 .0245790
1062.946 .0245725
1063.524 .0245687
1064.102 .0245661
1064.680 .0245629
1065.258 .0245603
1065.836 .0245582
1066.414 .0245551
1066.992 .0245517
1067.570 .0245475
1068.148 .0245416
1068.726 .0245354
1069.304 .0245289
1069.882 .0245198
1070.460 .0245102
1071.038 .0244985
1071.616 .0244831
1072.194 .0244649
1072.772 .0244448
1073.350 .0244234
1073.928 .0244021
1074.506 .0243820
1075.084 .0243638
1075.662 .0243480
1076.240 .0243361
1076.819 .0243259
1077.397 .0243181
1077.976 .0243119
1078.554 .0243050
1079.133 .0242972
1079.711 .0242890
1080.290 .0242802
1080.869 .0242720
1081.448 .0242655
1082.027 .0242606
1082.606 .0242562
1083.185 .0242525
1083.764 .0242488
1084.343 .0242447
1084.923 .0242388
1085.502 .0242298
1086.082 .0242190
1086.662 .0242070
1087.242 .0241950
1087.822 .0241837
1088.402 .0241759
1088.983 .0241728
1089.563 .0241747
1090.144 .0241804
1090.725 .0241876
1091.306 .0241965
1091.887 .0242053
1092.469 .0242139
1093.050 .0242222
1093.632 .0242310
1094.214 .0242416
1094.796 .0242556
1095.379 .0242733
1095.961 .0242929
1096.544 .0243159
1097.127 .0243394
1097.710 .0243616
1098.294 .0243835
1098.877 .0244036
1099.461 .0244213
1100.046 .0244370
1100.630 .0244538
1101.215 .0244708
1101.800 .0244894
1102.385 .0245099
1102.970 .0245318
1103.556 .0245549
1104.142 .0245795
1104.728 .0246037
1105.315 .0246287
1105.902 .0246566
1106.489 .0246850
1107.077 .0247132
1107.664 .0247435
1108.253 .0247706
1108.841 .0247943
1109.430 .0248163
1110.019 .0248364
1110.609 .0248518
1111.198 .0248652
1111.789 .0248775
1112.379 .0248917
1112.970 .0249068
1113.561 .0249255
1114.153 .0249455
1114.745 .0249713
1115.338 .0250014
1115.931 .0250339
1116.524 .0250681
1117.117 .0251083
1117.712 .0251522
1118.306 .0252028
1118.901 .0252597
1119.496 .0253221
1120.092 .0253913
1120.689 .0254702
1121.285 .0255550
1121.882 .0256443
1122.480 .0257349
1123.078 .0258302
1123.677 .0259242
1124.276 .0260148
1124.875 .0260997
1125.476 .0261774
1126.076 .0262482
1126.677 .0263093
1127.279 .0263628
1127.881 .0264121
1128.484 .0264609
1129.087 .0265165
1129.691 .0265779
1130.295 .0266489
1130.900 .0267295
1131.505 .0268151
1132.111 .0269044
1132.718 .0269957
1133.325 .0270839
1133.933 .0271697
1134.541 .0272616
1135.150 .0273617
1135.760 .0274705
1136.370 .0275932
1136.981 .0277377
1137.592 .0278946
1138.204 .0280627
1138.817 .0282352
1139.431 .0284103
1140.045 .0285958
1140.660 .0287970
1141.275 .0290026
1141.891 .0292397
1142.508 .0292477
1143.126 .0297083
1143.744 .0302058
1144.363 .0302355
1144.983 .0309526
