Measurement Sequence started on: 15-12-46-377
Integration time: 28
Scans to Average: 2 
>>>>>Begin Spectral Data<<<<<
432.689 .0000100
433.621 .0000100
434.552 .0000100
435.482 .0000100
436.410 .0000100
437.337 .0000100
438.262 .0271518
439.187 .0574769
440.110 .0952129
441.031 .1377736
441.952 .1791116
442.871 .2116631
443.789 .2295323
444.705 .2306747
445.621 .2175751
446.535 .1956534
447.447 .1708135
448.359 .1327242
449.269 .1138525
450.178 .1018485
451.086 .0933365
451.993 .0867969
452.898 .0816284
453.803 .0774136
454.706 .0739625
455.608 .0710660
456.508 .0685934
457.408 .0664735
458.306 .0646358
459.204 .0629874
460.100 .0614915
460.995 .0601230
461.888 .0588623
462.781 .0576861
463.673 .0566041
464.563 .0556123
465.452 .0546955
466.340 .0538459
467.228 .0530527
468.114 .0523002
468.999 .0515985
469.882 .0509293
470.765 .0502930
471.647 .0497035
472.528 .0491574
473.407 .0486520
474.286 .0481919
475.163 .0477795
476.040 .0474141
476.915 .0470896
477.790 .0468018
478.663 .0465450
479.535 .0463172
480.407 .0461211
481.277 .0459528
482.147 .0458184
483.015 .0457155
483.883 .0456368
484.749 .0455788
485.615 .0455422
486.479 .0455204
487.343 .0455203
488.206 .0455368
489.067 .0455691
489.928 .0456105
490.788 .0456608
491.647 .0457258
492.505 .0458052
493.362 .0459028
494.218 .0460196
495.073 .0461560
495.928 .0463156
496.781 .0464826
497.634 .0466716
498.486 .0468800
499.337 .0471051
500.187 .0473354
501.036 .0475789
501.884 .0478334
502.731 .0481055
503.578 .0484082
504.424 .0487539
505.268 .0491323
506.113 .0495487
506.956 .0499965
507.798 .0504879
508.640 .0510367
509.480 .0516568
510.320 .0523611
511.160 .0531826
511.998 .0541229
512.836 .0552056
513.672 .0564415
514.508 .0578507
515.344 .0594096
516.178 .0611259
517.012 .0630100
517.845 .0650729
518.677 .0673580
519.508 .0699017
520.339 .0727684
521.169 .0760289
521.998 .0796834
522.826 .0837717
523.654 .0882820
524.481 .0931887
525.307 .0985648
526.133 .1043376
526.958 .1104803
527.782 .1169487
528.605 .1236565
529.428 .1305526
530.250 .1371725
531.072 .1433061
531.892 .1485841
532.712 .1527177
533.532 .1554588
534.350 .1564653
535.168 .1556994
535.986 .1532474
536.802 .1492342
537.618 .1439148
538.434 .1375631
539.249 .1307098
540.063 .1235576
540.876 .1164151
541.689 .1094973
542.501 .1029902
543.313 .0970247
544.124 .0916299
544.934 .0867366
545.744 .0823277
546.553 .0783636
547.361 .0748140
548.169 .0716722
548.976 .0688992
549.783 .0664295
550.589 .0642264
551.395 .0622341
552.200 .0604446
553.004 .0588201
553.808 .0573342
554.611 .0559905
555.414 .0547902
556.216 .0537090
557.018 .0527383
557.819 .0518612
558.619 .0510687
559.419 .0503349
560.218 .0496432
561.017 .0489725
561.815 .0483084
562.613 .0476444
563.410 .0469826
564.207 .0463230
565.003 .0456813
565.799 .0450583
566.594 .0444497
567.388 .0438668
568.182 .0432952
568.976 .0427299
569.769 .0421762
570.562 .0416275
571.354 .0410843
572.145 .0405485
572.936 .0400276
573.727 .0395214
574.517 .0390364
575.307 .0385788
576.096 .0381478
576.885 .0377447
577.673 .0373667
578.461 .0370085
579.248 .0366716
580.035 .0363495
580.821 .0360409
581.607 .0357453
582.392 .0354666
583.177 .0352035
583.962 .0349585
584.746 .0347332
585.529 .0345278
586.313 .0343390
587.095 .0341663
587.878 .0340064
588.660 .0338604
589.441 .0337240
590.222 .0335980
591.003 .0334831
591.783 .0333780
592.563 .0332821
593.342 .0331945
594.121 .0331147
594.899 .0330415
595.678 .0329716
596.455 .0329058
597.233 .0328430
598.009 .0327833
598.786 .0327256
599.562 .0326699
600.338 .0326166
601.113 .0325645
601.888 .0325139
602.663 .0324640
603.437 .0324152
604.211 .0323674
604.984 .0323204
605.757 .0322746
606.530 .0322297
607.302 .0321859
608.074 .0321437
608.845 .0321033
609.616 .0320638
610.387 .0320272
611.158 .0319919
611.928 .0319586
612.697 .0319279
613.467 .0318993
614.236 .0318736
615.004 .0318493
615.773 .0318269
616.541 .0318057
617.308 .0317862
618.076 .0317689
618.843 .0317524
619.609 .0317391
620.375 .0317278
621.141 .0317180
621.907 .0317089
622.672 .0317002
623.437 .0316898
624.202 .0316784
624.966 .0316657
625.730 .0316511
626.493 .0316353
627.257 .0316199
628.020 .0316050
628.782 .0315909
629.545 .0315772
630.307 .0315623
631.068 .0315456
631.830 .0315274
632.591 .0315048
633.352 .0314795
634.112 .0314520
634.872 .0314238
635.632 .0313949
636.392 .0313672
637.151 .0313402
637.910 .0313140
638.668 .0312891
639.427 .0312639
640.185 .0312377
640.943 .0312112
641.700 .0311841
642.457 .0311571
643.214 .0311303
643.971 .0311043
644.727 .0310793
645.483 .0310566
646.239 .0310342
646.994 .0310126
647.750 .0309909
648.505 .0309698
649.259 .0309478
650.014 .0309256
650.768 .0309026
651.521 .0308783
652.275 .0308537
653.028 .0308280
653.781 .0308011
654.534 .0307741
655.286 .0307462
656.039 .0307187
656.791 .0306912
657.542 .0306635
658.294 .0306350
659.045 .0306068
659.796 .0305783
660.546 .0305486
661.297 .0305178
662.047 .0304863
662.796 .0304539
663.546 .0304209
664.295 .0303883
665.044 .0303560
665.793 .0303253
666.542 .0302961
667.290 .0302677
668.038 .0302405
668.786 .0302136
669.533 .0301870
670.281 .0301604
671.028 .0301339
671.774 .0301072
672.521 .0300809
673.267 .0300562
674.013 .0300335
674.759 .0300129
675.505 .0299944
676.250 .0299777
676.995 .0299624
677.740 .0299471
678.484 .0299309
679.229 .0299139
679.973 .0298963
680.717 .0298778
681.460 .0298594
682.204 .0298411
682.947 .0298235
683.690 .0298071
684.433 .0297912
685.175 .0297758
685.917 .0297598
686.659 .0297432
687.401 .0297253
688.142 .0297067
688.884 .0296878
689.625 .0296688
690.365 .0296507
691.106 .0296338
691.846 .0296173
692.586 .0296010
693.326 .0295846
694.066 .0295677
694.805 .0295501
695.545 .0295314
696.284 .0295119
697.022 .0294928
697.761 .0294745
698.499 .0294576
699.237 .0294420
699.975 .0294288
700.713 .0294171
701.450 .0294064
702.187 .0293962
702.924 .0293861
703.661 .0293765
704.397 .0293669
705.133 .0293581
705.869 .0293503
706.605 .0293439
707.341 .0293387
708.076 .0293347
708.811 .0293316
709.546 .0293281
710.281 .0293236
711.015 .0293175
711.749 .0293099
712.483 .0293004
713.217 .0292892
713.950 .0292770
714.684 .0292640
715.417 .0292505
716.150 .0292364
716.882 .0292222
717.615 .0292074
718.347 .0291923
719.079 .0291765
719.811 .0291601
720.542 .0291436
721.273 .0291271
722.005 .0291109
722.735 .0290950
723.466 .0290800
724.196 .0290654
724.927 .0290510
725.656 .0290371
726.386 .0290225
727.116 .0290074
727.845 .0289915
728.574 .0289747
729.303 .0289569
730.031 .0289384
730.760 .0289198
731.488 .0289012
732.216 .0288831
732.944 .0288660
733.671 .0288497
734.398 .0288345
735.125 .0288201
735.852 .0288063
736.579 .0287926
737.305 .0287792
738.031 .0287658
738.757 .0287529
739.483 .0287407
740.208 .0287290
740.933 .0287179
741.658 .0287080
742.383 .0286989
743.108 .0286898
743.832 .0286808
744.556 .0286714
745.280 .0286609
746.004 .0286491
746.727 .0286361
747.450 .0286220
748.173 .0286075
748.896 .0285929
749.618 .0285781
750.340 .0285637
751.062 .0285498
751.784 .0285366
752.506 .0285239
753.227 .0285116
753.948 .0284990
754.669 .0284863
755.389 .0284728
756.110 .0284584
756.830 .0284430
757.550 .0284269
758.269 .0284100
758.989 .0283926
759.708 .0283742
760.427 .0283549
761.146 .0283351
761.864 .0283147
762.582 .0282932
763.300 .0282715
764.018 .0282491
764.736 .0282264
765.453 .0282032
766.170 .0281802
766.887 .0281569
767.603 .0281335
768.320 .0281101
769.036 .0280863
769.751 .0280626
770.467 .0280391
771.182 .0280158
771.897 .0279932
772.612 .0279716
773.327 .0279515
774.041 .0279325
774.755 .0279146
775.469 .0278980
776.183 .0278823
776.896 .0278676
777.609 .0278539
778.322 .0278410
779.035 .0278290
779.747 .0278186
780.459 .0278092
781.171 .0278010
781.882 .0277938
782.594 .0277873
783.305 .0277809
784.016 .0277744
784.726 .0277678
785.436 .0277603
786.147 .0277522
786.856 .0277442
787.566 .0277352
788.275 .0277258
788.984 .0277160
789.693 .0277063
790.401 .0276966
791.110 .0276870
791.818 .0276770
792.525 .0276673
793.233 .0276577
793.940 .0276477
794.647 .0276370
795.353 .0276262
796.060 .0276151
796.766 .0276029
797.472 .0275899
798.177 .0275769
798.883 .0275632
799.588 .0275495
800.292 .0275357
800.997 .0275222
801.701 .0275086
802.405 .0274956
803.109 .0274826
803.812 .0274706
804.515 .0274591
805.218 .0274478
805.921 .0274371
806.623 .0274272
807.325 .0274179
808.027 .0274090
808.728 .0274007
809.429 .0273931
810.130 .0273849
810.831 .0273771
811.531 .0273692
812.231 .0273614
812.931 .0273537
813.630 .0273459
814.330 .0273376
815.029 .0273292
815.727 .0273202
816.426 .0273105
817.124 .0273002
817.821 .0272896
818.519 .0272786
819.216 .0272682
819.913 .0272593
820.609 .0272519
821.306 .0272466
822.002 .0272443
822.697 .0272442
823.393 .0272466
824.088 .0272505
824.783 .0272552
825.477 .0272608
826.171 .0272667
826.865 .0272726
827.559 .0272788
828.252 .0272858
828.945 .0272934
829.638 .0273018
830.330 .0273109
831.023 .0273202
831.714 .0273291
832.406 .0273372
833.097 .0273435
833.788 .0273475
834.479 .0273497
835.169 .0273506
835.859 .0273508
836.548 .0273509
837.238 .0273508
837.927 .0273509
838.615 .0273513
839.304 .0273520
839.992 .0273526
840.680 .0273529
841.367 .0273533
842.054 .0273536
842.741 .0273543
843.428 .0273557
844.114 .0273580
844.800 .0273613
845.485 .0273653
846.170 .0273690
846.855 .0273713
847.540 .0273721
848.224 .0273712
848.908 .0273684
849.592 .0273642
850.275 .0273588
850.958 .0273524
851.641 .0273457
852.323 .0273386
853.005 .0273311
853.687 .0273232
854.368 .0273146
855.049 .0273045
855.730 .0272935
856.410 .0272814
857.090 .0272682
857.769 .0272544
858.449 .0272404
859.128 .0272258
859.806 .0272110
860.485 .0271962
861.163 .0271817
861.840 .0271676
862.518 .0271542
863.195 .0271405
863.871 .0271273
864.548 .0271139
865.224 .0271002
865.899 .0270854
866.574 .0270700
867.249 .0270532
867.924 .0270356
868.598 .0270176
869.272 .0269999
869.946 .0269827
870.619 .0269668
871.292 .0269519
871.964 .0269376
872.636 .0269235
873.308 .0269092
873.979 .0268940
874.651 .0268783
875.321 .0268620
875.992 .0268451
876.662 .0268284
877.331 .0268124
878.001 .0267972
878.670 .0267831
879.338 .0267698
880.007 .0267573
880.675 .0267449
881.342 .0267327
882.009 .0267204
882.676 .0267080
883.343 .0266953
884.009 .0266827
884.675 .0266700
885.340 .0266573
886.005 .0266448
886.670 .0266323
887.334 .0266201
887.998 .0266084
888.662 .0265969
889.325 .0265855
889.988 .0265747
890.650 .0265643
891.312 .0265541
891.974 .0265444
892.636 .0265352
893.297 .0265262
893.957 .0265177
894.618 .0265094
895.278 .0265011
895.937 .0264933
896.596 .0264855
897.255 .0264778
897.914 .0264702
898.572 .0264622
899.230 .0264537
899.887 .0264446
900.544 .0264346
901.201 .0264240
901.857 .0264125
902.513 .0263995
903.168 .0263851
903.823 .0263690
904.478 .0263512
905.132 .0263309
905.786 .0263086
906.440 .0262843
907.093 .0262577
907.746 .0262296
908.399 .0261995
909.051 .0261681
909.703 .0261361
910.354 .0261029
911.005 .0260696
911.656 .0260363
912.306 .0260032
912.956 .0259705
913.605 .0259385
914.254 .0259076
914.903 .0258774
915.551 .0258482
916.199 .0258208
916.847 .0257948
917.494 .0257707
918.141 .0257480
918.788 .0257269
919.434 .0257071
920.079 .0256882
920.725 .0256698
921.370 .0256521
922.014 .0256349
922.658 .0256179
923.302 .0256004
923.946 .0255827
924.589 .0255644
925.231 .0255451
925.873 .0255245
926.515 .0255028
927.157 .0254793
927.798 .0254543
928.439 .0254281
929.079 .0254011
929.719 .0253734
930.359 .0253457
930.998 .0253176
931.637 .0252896
932.275 .0252615
932.913 .0252336
933.551 .0252057
934.188 .0251787
934.825 .0251524
935.462 .0251276
936.098 .0251043
936.733 .0250834
937.369 .0250649
938.004 .0250494
938.638 .0250364
939.273 .0250255
939.907 .0250161
940.540 .0250082
941.173 .0250016
941.806 .0249965
942.438 .0249926
943.070 .0249901
943.702 .0249883
944.333 .0249875
944.964 .0249869
945.594 .0249863
946.224 .0249853
946.854 .0249842
947.483 .0249825
948.112 .0249800
948.741 .0249766
949.369 .0249727
949.996 .0249685
950.624 .0249642
951.251 .0249600
951.878 .0249562
952.504 .0249524
953.130 .0249486
953.755 .0249442
954.380 .0249394
955.005 .0249338
955.629 .0249273
956.253 .0249198
956.877 .0249115
957.500 .0249028
958.123 .0248938
958.746 .0248853
959.368 .0248777
959.990 .0248706
960.611 .0248644
961.232 .0248589
961.853 .0248541
962.473 .0248498
963.093 .0248461
963.712 .0248427
964.331 .0248401
964.950 .0248379
965.569 .0248367
966.187 .0248363
966.804 .0248372
967.422 .0248395
968.039 .0248428
968.655 .0248471
969.272 .0248517
969.887 .0248565
970.503 .0248611
971.118 .0248650
971.733 .0248685
972.347 .0248713
972.961 .0248737
973.575 .0248755
974.188 .0248766
974.801 .0248771
975.414 .0248774
976.026 .0248771
976.638 .0248765
977.250 .0248760
977.861 .0248756
978.472 .0248751
979.083 .0248750
979.693 .0248749
980.303 .0248746
980.912 .0248744
981.521 .0248736
982.130 .0248722
982.738 .0248706
983.346 .0248683
983.954 .0248658
984.562 .0248636
985.169 .0248616
985.775 .0248594
986.382 .0248576
986.988 .0248564
987.594 .0248551
988.199 .0248542
988.804 .0248542
989.409 .0248546
990.013 .0248560
990.617 .0248580
991.221 .0248605
991.824 .0248640
992.427 .0248686
993.030 .0248737
993.632 .0248803
994.234 .0248892
994.836 .0249003
995.438 .0249142
996.039 .0249311
996.640 .0249507
997.240 .0249721
997.840 .0249948
998.440 .0250178
999.040 .0250398
999.639 .0250609
1000.238 .0250800
1000.836 .0250975
1001.435 .0251138
1002.033 .0251290
1002.630 .0251433
1003.228 .0251571
1003.825 .0251706
1004.422 .0251832
1005.018 .0251948
1005.614 .0252054
1006.210 .0252149
1006.806 .0252235
1007.401 .0252309
1007.996 .0252378
1008.591 .0252442
1009.186 .0252511
1009.780 .0252579
1010.374 .0252651
1010.967 .0252729
1011.561 .0252814
1012.154 .0252902
1012.746 .0252992
1013.339 .0253081
1013.931 .0253174
1014.523 .0253265
1015.115 .0253351
1015.706 .0253434
1016.298 .0253512
1016.888 .0253585
1017.479 .0253654
1018.069 .0253719
1018.660 .0253780
1019.250 .0253841
1019.839 .0253898
1020.429 .0253956
1021.018 .0254024
1021.607 .0254106
1022.195 .0254205
1022.784 .0254329
1023.372 .0254475
1023.960 .0254643
1024.547 .0254824
1025.135 .0255012
1025.722 .0255194
1026.309 .0255365
1026.896 .0255520
1027.483 .0255653
1028.069 .0255774
1028.655 .0255888
1029.241 .0256000
1029.827 .0256126
1030.412 .0256265
1030.997 .0256416
1031.582 .0256574
1032.167 .0256735
1032.752 .0256892
1033.336 .0257039
1033.921 .0257164
1034.505 .0257273
1035.089 .0257368
1035.672 .0257454
1036.256 .0257535
1036.839 .0257619
1037.422 .0257721
1038.005 .0257837
1038.588 .0257964
1039.171 .0258098
1039.753 .0258230
1040.335 .0258354
1040.918 .0258448
1041.500 .0258506
1042.081 .0258531
1042.663 .0258518
1043.244 .0258475
1043.826 .0258401
1044.407 .0258299
1044.988 .0258186
1045.569 .0258062
1046.150 .0257933
1046.730 .0257797
1047.311 .0257655
1047.891 .0257509
1048.471 .0257351
1049.052 .0257185
1049.632 .0257014
1050.211 .0256838
1050.791 .0256668
1051.371 .0256507
1051.950 .0256359
1052.530 .0256235
1053.109 .0256143
1053.688 .0256074
1054.268 .0256035
1054.847 .0256016
1055.426 .0256016
1056.005 .0256020
1056.583 .0256028
1057.162 .0256027
1057.741 .0256009
1058.319 .0255985
1058.898 .0255947
1059.476 .0255896
1060.055 .0255846
1060.633 .0255784
1061.211 .0255724
1061.790 .0255658
1062.368 .0255583
1062.946 .0255489
1063.524 .0255383
1064.102 .0255273
1064.680 .0255156
1065.258 .0255043
1065.836 .0254945
1066.414 .0254870
1066.992 .0254819
1067.570 .0254789
1068.148 .0254778
1068.726 .0254784
1069.304 .0254812
1069.882 .0254844
1070.460 .0254880
1071.038 .0254914
1071.616 .0254951
1072.194 .0254988
1072.772 .0255011
1073.350 .0255031
1073.928 .0255033
1074.506 .0255014
1075.084 .0254969
1075.662 .0254892
1076.240 .0254781
1076.819 .0254638
1077.397 .0254478
1077.976 .0254296
1078.554 .0254127
1079.133 .0253979
1079.711 .0253855
1080.290 .0253780
1080.869 .0253741
1081.448 .0253716
1082.027 .0253694
1082.606 .0253673
1083.185 .0253647
1083.764 .0253614
1084.343 .0253581
1084.923 .0253547
1085.502 .0253546
1086.082 .0253583
1086.662 .0253652
1087.242 .0253739
1087.822 .0253845
1088.402 .0253936
1088.983 .0254005
1089.563 .0254059
1090.144 .0254092
1090.725 .0254126
1091.306 .0254165
1091.887 .0254218
1092.469 .0254297
1093.050 .0254386
1093.632 .0254490
1094.214 .0254601
1094.796 .0254715
1095.379 .0254812
1095.961 .0254885
1096.544 .0254964
1097.127 .0255048
1097.710 .0255145
1098.294 .0255258
1098.877 .0255372
1099.461 .0255492
1100.046 .0255596
1100.630 .0255665
1101.215 .0255716
1101.800 .0255743
1102.385 .0255764
1102.970 .0255779
1103.556 .0255797
1104.142 .0255832
1104.728 .0255902
1105.315 .0256008
1105.902 .0256144
1106.489 .0256307
1107.077 .0256489
1107.664 .0256678
1108.253 .0256875
1108.841 .0257079
1109.430 .0257287
1110.019 .0257491
1110.609 .0257669
1111.198 .0257819
1111.789 .0257958
1112.379 .0258075
1112.970 .0258193
1113.561 .0258349
1114.153 .0258530
1114.745 .0258741
1115.338 .0258974
1115.931 .0259226
1116.524 .0259506
1117.117 .0259814
1117.712 .0260136
1118.306 .0260474
1118.901 .0260833
1119.496 .0261178
1120.092 .0261529
1120.689 .0261945
1121.285 .0262372
1121.882 .0262801
1122.480 .0263260
1123.078 .0263739
1123.677 .0264206
1124.276 .0264696
1124.875 .0265184
1125.476 .0265651
1126.076 .0266097
1126.677 .0266472
1127.279 .0266739
1127.881 .0266981
1128.484 .0267185
1129.087 .0267353
1129.691 .0267548
1130.295 .0267845
1130.900 .0268196
1131.505 .0268680
1132.111 .0269326
1132.718 .0270056
1133.325 .0270865
1133.933 .0271721
1134.541 .0272547
1135.150 .0273364
1135.760 .0274163
1136.370 .0274979
1136.981 .0275811
1137.592 .0276738
1138.204 .0277713
1138.817 .0278742
1139.431 .0279826
1140.045 .0280873
1140.660 .0281947
1141.275 .0283065
1141.891 .0284333
1142.508 .0284676
1143.126 .0284545
1143.744 .0287427
1144.363 .0290161
1144.983 .0295292
