Measurement Sequence started on: 15-12-46-377
Integration time: 28
Scans to Average: 2 
>>>>>Begin Spectral Data<<<<<
432.689 .0000100
433.621 .0000100
434.552 .0000100
435.482 .0000100
436.410 .0000100
437.337 .0000100
438.262 .0263816
439.187 .0559586
440.110 .0927892
441.031 .1343581
441.952 .1747709
442.871 .2066746
443.789 .2242770
444.705 .2255599
445.621 .2129318
446.535 .1916474
447.447 .1674583
448.359 .1303805
449.269 .1119430
450.178 .1002561
451.086 .0920467
451.993 .0858091
452.898 .0808978
453.803 .0769322
454.706 .0736762
455.608 .0708994
456.508 .0684868
457.408 .0663733
458.306 .0644857
459.204 .0627555
460.100 .0611787
460.995 .0597274
461.888 .0584000
462.781 .0571894
463.673 .0560721
464.563 .0550515
465.452 .0541074
466.340 .0532257
467.228 .0524006
468.114 .0516262
468.999 .0509107
469.882 .0502425
470.765 .0496276
471.647 .0490787
472.528 .0485870
473.407 .0481479
474.286 .0477703
475.163 .0474471
476.040 .0471717
476.915 .0469378
477.790 .0467347
478.663 .0465638
479.535 .0464212
480.407 .0463029
481.277 .0462020
482.147 .0461201
483.015 .0460564
483.883 .0460027
484.749 .0459639
485.615 .0459379
486.479 .0459241
487.343 .0459244
488.206 .0459423
489.067 .0459665
489.928 .0459929
490.788 .0460256
491.647 .0460617
492.505 .0461090
493.362 .0461663
494.218 .0462358
495.073 .0463282
495.928 .0464457
496.781 .0465873
497.634 .0467631
498.486 .0469763
499.337 .0472266
500.187 .0475105
501.036 .0478306
501.884 .0481830
502.731 .0485591
503.578 .0489649
504.424 .0494014
505.268 .0498545
506.113 .0503345
506.956 .0508296
507.798 .0513526
508.640 .0519062
509.480 .0524971
510.320 .0531521
511.160 .0538930
511.998 .0547126
512.836 .0556116
513.672 .0566011
514.508 .0576840
515.344 .0588452
516.178 .0601125
517.012 .0615184
517.845 .0630829
518.677 .0648344
519.508 .0668146
520.339 .0690766
521.169 .0716954
521.998 .0746735
522.826 .0780417
523.654 .0818476
524.481 .0860384
525.307 .0905973
526.133 .0955269
526.958 .1008424
527.782 .1064358
528.605 .1122435
529.428 .1181630
530.250 .1238217
531.072 .1290360
531.892 .1335163
532.712 .1370312
533.532 .1394393
534.350 .1405294
535.168 .1401671
535.986 .1384232
536.802 .1354649
537.618 .1313871
538.434 .1264122
539.249 .1209007
540.063 .1150257
540.876 .1090256
541.689 .1031239
542.501 .0975249
543.313 .0923607
544.124 .0876897
544.934 .0834270
545.744 .0795247
546.553 .0759682
547.361 .0727169
548.169 .0697598
548.976 .0670803
549.783 .0646737
550.589 .0625181
551.395 .0605873
552.200 .0588830
553.004 .0573766
553.808 .0560232
554.611 .0548122
555.414 .0537018
556.216 .0526673
557.018 .0517149
557.819 .0508329
558.619 .0500235
559.419 .0492885
560.218 .0486225
561.017 .0480123
561.815 .0474357
562.613 .0468851
563.410 .0463326
564.207 .0457715
565.003 .0452011
565.799 .0446033
566.594 .0439863
567.388 .0433777
568.182 .0427769
568.976 .0422003
569.769 .0416514
570.562 .0411304
571.354 .0406315
572.145 .0401492
572.936 .0396740
573.727 .0391952
574.517 .0387203
575.307 .0382464
576.096 .0377741
576.885 .0373170
577.673 .0368828
578.461 .0364792
579.248 .0361110
580.035 .0357777
580.821 .0354707
581.607 .0351863
582.392 .0349198
583.177 .0346676
583.962 .0344292
584.746 .0342079
585.529 .0340032
586.313 .0338182
587.095 .0336547
587.878 .0335098
588.660 .0333847
589.441 .0332780
590.222 .0331856
591.003 .0331048
591.783 .0330324
592.563 .0329672
593.342 .0329091
594.121 .0328544
594.899 .0328055
595.678 .0327598
596.455 .0327178
597.233 .0326781
598.009 .0326379
598.786 .0325991
599.562 .0325616
600.338 .0325248
601.113 .0324880
601.888 .0324516
602.663 .0324148
603.437 .0323758
604.211 .0323351
604.984 .0322921
605.757 .0322469
606.530 .0322001
607.302 .0321529
608.074 .0321054
608.845 .0320588
609.616 .0320132
610.387 .0319683
611.158 .0319254
611.928 .0318826
612.697 .0318397
613.467 .0317969
614.236 .0317546
615.004 .0317128
615.773 .0316717
616.541 .0316326
617.308 .0315960
618.076 .0315620
618.843 .0315301
619.609 .0315004
620.375 .0314728
621.141 .0314458
621.907 .0314196
622.672 .0313934
623.437 .0313671
624.202 .0313405
624.966 .0313138
625.730 .0312874
626.493 .0312616
627.257 .0312364
628.020 .0312114
628.782 .0311870
629.545 .0311628
630.307 .0311380
631.068 .0311126
631.830 .0310865
632.591 .0310594
633.352 .0310317
634.112 .0310039
634.872 .0309761
635.632 .0309491
636.392 .0309230
637.151 .0308979
637.910 .0308739
638.668 .0308510
639.427 .0308293
640.185 .0308095
640.943 .0307917
641.700 .0307760
642.457 .0307624
643.214 .0307512
643.971 .0307416
644.727 .0307336
645.483 .0307269
646.239 .0307206
646.994 .0307145
647.750 .0307096
648.505 .0307044
649.259 .0306999
650.014 .0306960
650.768 .0306927
651.521 .0306891
652.275 .0306854
653.028 .0306801
653.781 .0306730
654.534 .0306641
655.286 .0306527
656.039 .0306381
656.791 .0306219
657.542 .0306034
658.294 .0305828
659.045 .0305612
659.796 .0305388
660.546 .0305147
661.297 .0304902
662.047 .0304647
662.796 .0304378
663.546 .0304100
664.295 .0303819
665.044 .0303528
665.793 .0303235
666.542 .0302937
667.290 .0302634
668.038 .0302334
668.786 .0302035
669.533 .0301731
670.281 .0301430
671.028 .0301136
671.774 .0300843
672.521 .0300559
673.267 .0300288
674.013 .0300022
674.759 .0299763
675.505 .0299503
676.250 .0299242
676.995 .0298975
677.740 .0298697
678.484 .0298408
679.229 .0298110
679.973 .0297805
680.717 .0297493
681.460 .0297184
682.204 .0296879
682.947 .0296589
683.690 .0296308
684.433 .0296042
685.175 .0295788
685.917 .0295550
686.659 .0295328
687.401 .0295120
688.142 .0294923
688.884 .0294733
689.625 .0294549
690.365 .0294371
691.106 .0294191
691.846 .0294020
692.586 .0293852
693.326 .0293694
694.066 .0293550
694.805 .0293416
695.545 .0293285
696.284 .0293156
697.022 .0293020
697.761 .0292868
698.499 .0292697
699.237 .0292503
699.975 .0292295
700.713 .0292086
701.450 .0291883
702.187 .0291691
702.924 .0291523
703.661 .0291387
704.397 .0291273
705.133 .0291182
705.869 .0291108
706.605 .0291045
707.341 .0290987
708.076 .0290935
708.811 .0290887
709.546 .0290845
710.281 .0290810
711.015 .0290786
711.749 .0290768
712.483 .0290755
713.217 .0290735
713.950 .0290706
714.684 .0290662
715.417 .0290598
716.150 .0290516
716.882 .0290421
717.615 .0290320
718.347 .0290213
719.079 .0290104
719.811 .0289998
720.542 .0289893
721.273 .0289785
722.005 .0289672
722.735 .0289550
723.466 .0289423
724.196 .0289282
724.927 .0289135
725.656 .0288983
726.386 .0288830
727.116 .0288681
727.845 .0288536
728.574 .0288391
729.303 .0288248
730.031 .0288102
730.760 .0287954
731.488 .0287792
732.216 .0287625
732.944 .0287451
733.671 .0287275
734.398 .0287096
735.125 .0286919
735.852 .0286741
736.579 .0286572
737.305 .0286408
738.031 .0286251
738.757 .0286098
739.483 .0285951
740.208 .0285808
740.933 .0285670
741.658 .0285532
742.383 .0285390
743.108 .0285237
743.832 .0285074
744.556 .0284896
745.280 .0284699
746.004 .0284484
746.727 .0284260
747.450 .0284025
748.173 .0283779
748.896 .0283521
749.618 .0283256
750.340 .0282987
751.062 .0282710
751.784 .0282423
752.506 .0282124
753.227 .0281813
753.948 .0281492
754.669 .0281163
755.389 .0280831
756.110 .0280502
756.830 .0280181
757.550 .0279874
758.269 .0279582
758.989 .0279302
759.708 .0279041
760.427 .0278792
761.146 .0278557
761.864 .0278329
762.582 .0278104
763.300 .0277882
764.018 .0277663
764.736 .0277443
765.453 .0277228
766.170 .0277017
766.887 .0276812
767.603 .0276615
768.320 .0276430
769.036 .0276256
769.751 .0276092
770.467 .0275940
771.182 .0275800
771.897 .0275669
772.612 .0275547
773.327 .0275435
774.041 .0275338
774.755 .0275261
775.469 .0275202
776.183 .0275163
776.896 .0275146
777.609 .0275144
778.322 .0275151
779.035 .0275163
779.747 .0275174
780.459 .0275180
781.171 .0275178
781.882 .0275170
782.594 .0275163
783.305 .0275164
784.016 .0275178
784.726 .0275211
785.436 .0275264
786.147 .0275330
786.856 .0275401
787.566 .0275475
788.275 .0275548
788.984 .0275615
789.693 .0275677
790.401 .0275739
791.110 .0275801
791.818 .0275869
792.525 .0275946
793.233 .0276032
793.940 .0276128
794.647 .0276226
795.353 .0276320
796.060 .0276404
796.766 .0276473
797.472 .0276523
798.177 .0276549
798.883 .0276559
799.588 .0276553
800.292 .0276537
800.997 .0276516
801.701 .0276497
802.405 .0276479
803.109 .0276467
803.812 .0276457
804.515 .0276446
805.218 .0276428
805.921 .0276399
806.623 .0276352
807.325 .0276288
808.027 .0276207
808.728 .0276110
809.429 .0276001
810.130 .0275889
810.831 .0275770
811.531 .0275648
812.231 .0275517
812.931 .0275383
813.630 .0275238
814.330 .0275082
815.029 .0274911
815.727 .0274732
816.426 .0274545
817.124 .0274354
817.821 .0274159
818.519 .0273970
819.216 .0273785
819.913 .0273608
820.609 .0273437
821.306 .0273273
822.002 .0273115
822.697 .0272966
823.393 .0272827
824.088 .0272695
824.783 .0272567
825.477 .0272439
826.171 .0272307
826.865 .0272175
827.559 .0272038
828.252 .0271895
828.945 .0271750
829.638 .0271600
830.330 .0271446
831.023 .0271283
831.714 .0271112
832.406 .0270926
833.097 .0270726
833.788 .0270504
834.479 .0270260
835.169 .0269997
835.859 .0269724
836.548 .0269444
837.238 .0269167
837.927 .0268895
838.615 .0268627
839.304 .0268364
839.992 .0268103
840.680 .0267834
841.367 .0267564
842.054 .0267284
842.741 .0267002
843.428 .0266721
844.114 .0266451
844.800 .0266191
845.485 .0265947
846.170 .0265715
846.855 .0265490
847.540 .0265266
848.224 .0265042
848.908 .0264808
849.592 .0264565
850.275 .0264313
850.958 .0264056
851.641 .0263792
852.323 .0263529
853.005 .0263264
853.687 .0263000
854.368 .0262733
855.049 .0262460
855.730 .0262182
856.410 .0261900
857.090 .0261618
857.769 .0261340
858.449 .0261070
859.128 .0260811
859.806 .0260563
860.485 .0260329
861.163 .0260109
861.840 .0259903
862.518 .0259709
863.195 .0259530
863.871 .0259366
864.548 .0259222
865.224 .0259100
865.899 .0259001
866.574 .0258926
867.249 .0258871
867.924 .0258833
868.598 .0258802
869.272 .0258777
869.946 .0258757
870.619 .0258738
871.292 .0258722
871.964 .0258713
872.636 .0258708
873.308 .0258709
873.979 .0258717
874.651 .0258732
875.321 .0258751
875.992 .0258778
876.662 .0258808
877.331 .0258845
878.001 .0258887
878.670 .0258936
879.338 .0258992
880.007 .0259058
880.675 .0259130
881.342 .0259208
882.009 .0259292
882.676 .0259384
883.343 .0259484
884.009 .0259595
884.675 .0259718
885.340 .0259854
886.005 .0260000
886.670 .0260156
887.334 .0260320
887.998 .0260486
888.662 .0260652
889.325 .0260819
889.988 .0260989
890.650 .0261164
891.312 .0261350
891.974 .0261548
892.636 .0261763
893.297 .0261990
893.957 .0262226
894.618 .0262461
895.278 .0262698
895.937 .0262926
896.596 .0263147
897.255 .0263361
897.914 .0263564
898.572 .0263757
899.230 .0263940
899.887 .0264108
900.544 .0264262
901.201 .0264392
901.857 .0264498
902.513 .0264574
903.168 .0264623
903.823 .0264642
904.478 .0264638
905.132 .0264615
905.786 .0264573
906.440 .0264515
907.093 .0264446
907.746 .0264365
908.399 .0264271
909.051 .0264168
909.703 .0264050
910.354 .0263921
911.005 .0263783
911.656 .0263636
912.306 .0263485
912.956 .0263334
913.605 .0263185
914.254 .0263037
914.903 .0262899
915.551 .0262769
916.199 .0262644
916.847 .0262531
917.494 .0262419
918.141 .0262306
918.788 .0262191
919.434 .0262073
920.079 .0261943
920.725 .0261807
921.370 .0261661
922.014 .0261504
922.658 .0261336
923.302 .0261158
923.946 .0260963
924.589 .0260754
925.231 .0260527
925.873 .0260279
926.515 .0260006
927.157 .0259712
927.798 .0259394
928.439 .0259061
929.079 .0258717
929.719 .0258363
930.359 .0258002
930.998 .0257642
931.637 .0257284
932.275 .0256934
932.913 .0256593
933.551 .0256261
934.188 .0255941
934.825 .0255633
935.462 .0255333
936.098 .0255038
936.733 .0254752
937.369 .0254473
938.004 .0254199
938.638 .0253928
939.273 .0253657
939.907 .0253391
940.540 .0253132
941.173 .0252877
941.806 .0252632
942.438 .0252389
943.070 .0252149
943.702 .0251907
944.333 .0251658
944.964 .0251401
945.594 .0251135
946.224 .0250867
946.854 .0250599
947.483 .0250329
948.112 .0250068
948.741 .0249812
949.369 .0249564
949.996 .0249321
950.624 .0249076
951.251 .0248829
951.878 .0248576
952.504 .0248317
953.130 .0248054
953.755 .0247785
954.380 .0247522
955.005 .0247262
955.629 .0247011
956.253 .0246769
956.877 .0246532
957.500 .0246302
958.123 .0246072
958.746 .0245833
959.368 .0245587
959.990 .0245331
960.611 .0245067
961.232 .0244794
961.853 .0244518
962.473 .0244247
963.093 .0243986
963.712 .0243737
964.331 .0243499
964.950 .0243279
965.569 .0243073
966.187 .0242875
966.804 .0242687
967.422 .0242508
968.039 .0242337
968.655 .0242178
969.272 .0242029
969.887 .0241894
970.503 .0241772
971.118 .0241666
971.733 .0241571
972.347 .0241482
972.961 .0241397
973.575 .0241306
974.188 .0241206
974.801 .0241096
975.414 .0240967
976.026 .0240828
976.638 .0240683
977.250 .0240537
977.861 .0240394
978.472 .0240253
979.083 .0240117
979.693 .0239985
980.303 .0239850
980.912 .0239711
981.521 .0239564
982.130 .0239416
982.738 .0239266
983.346 .0239117
983.954 .0238974
984.562 .0238843
985.169 .0238724
985.775 .0238619
986.382 .0238525
986.988 .0238438
987.594 .0238356
988.199 .0238279
988.804 .0238212
989.409 .0238154
990.013 .0238108
990.617 .0238082
991.221 .0238077
991.824 .0238094
992.427 .0238136
993.030 .0238202
993.632 .0238292
994.234 .0238398
994.836 .0238519
995.438 .0238649
996.039 .0238787
996.640 .0238926
997.240 .0239066
997.840 .0239207
998.440 .0239351
999.040 .0239496
999.639 .0239650
1000.238 .0239817
1000.836 .0239994
1001.435 .0240177
1002.033 .0240362
1002.630 .0240542
1003.228 .0240715
1003.825 .0240873
1004.422 .0241021
1005.018 .0241164
1005.614 .0241315
1006.210 .0241476
1006.806 .0241655
1007.401 .0241857
1007.996 .0242075
1008.591 .0242301
1009.186 .0242531
1009.780 .0242753
1010.374 .0242965
1010.967 .0243167
1011.561 .0243365
1012.154 .0243560
1012.746 .0243760
1013.339 .0243969
1013.931 .0244187
1014.523 .0244420
1015.115 .0244658
1015.706 .0244898
1016.298 .0245142
1016.888 .0245382
1017.479 .0245621
1018.069 .0245852
1018.660 .0246079
1019.250 .0246305
1019.839 .0246525
1020.429 .0246743
1021.018 .0246959
1021.607 .0247184
1022.195 .0247413
1022.784 .0247649
1023.372 .0247896
1023.960 .0248158
1024.547 .0248431
1025.135 .0248716
1025.722 .0249005
1026.309 .0249297
1026.896 .0249599
1027.483 .0249905
1028.069 .0250222
1028.655 .0250552
1029.241 .0250884
1029.827 .0251218
1030.412 .0251549
1030.997 .0251871
1031.582 .0252170
1032.167 .0252455
1032.752 .0252724
1033.336 .0252970
1033.921 .0253207
1034.505 .0253437
1035.089 .0253656
1035.672 .0253873
1036.256 .0254076
1036.839 .0254255
1037.422 .0254412
1038.005 .0254543
1038.588 .0254642
1039.171 .0254728
1039.753 .0254799
1040.335 .0254862
1040.918 .0254923
1041.500 .0254989
1042.081 .0255056
1042.663 .0255125
1043.244 .0255200
1043.826 .0255268
1044.407 .0255323
1044.988 .0255368
1045.569 .0255391
1046.150 .0255395
1046.730 .0255377
1047.311 .0255342
1047.891 .0255299
1048.471 .0255259
1049.052 .0255220
1049.632 .0255192
1050.211 .0255181
1050.791 .0255184
1051.371 .0255194
1051.950 .0255205
1052.530 .0255216
1053.109 .0255216
1053.688 .0255207
1054.268 .0255187
1054.847 .0255163
1055.426 .0255143
1056.005 .0255134
1056.583 .0255142
1057.162 .0255161
1057.741 .0255189
1058.319 .0255221
1058.898 .0255249
1059.476 .0255264
1060.055 .0255254
1060.633 .0255224
1061.211 .0255167
1061.790 .0255095
1062.368 .0255007
1062.946 .0254909
1063.524 .0254810
1064.102 .0254714
1064.680 .0254619
1065.258 .0254515
1065.836 .0254393
1066.414 .0254249
1066.992 .0254083
1067.570 .0253891
1068.148 .0253672
1068.726 .0253431
1069.304 .0253170
1069.882 .0252908
1070.460 .0252631
1071.038 .0252358
1071.616 .0252081
1072.194 .0251812
1072.772 .0251552
1073.350 .0251291
1073.928 .0251038
1074.506 .0250790
1075.084 .0250553
1075.662 .0250338
1076.240 .0250142
1076.819 .0249969
1077.397 .0249825
1077.976 .0249714
1078.554 .0249635
1079.133 .0249585
1079.711 .0249567
1080.290 .0249581
1080.869 .0249615
1081.448 .0249662
1082.027 .0249699
1082.606 .0249710
1083.185 .0249721
1083.764 .0249709
1084.343 .0249678
1084.923 .0249628
1085.502 .0249567
1086.082 .0249509
1086.662 .0249467
1087.242 .0249429
1087.822 .0249390
1088.402 .0249355
1088.983 .0249328
1089.563 .0249266
1090.144 .0249194
1090.725 .0249118
1091.306 .0249041
1091.887 .0248964
1092.469 .0248912
1093.050 .0248860
1093.632 .0248835
1094.214 .0248831
1094.796 .0248834
1095.379 .0248834
1095.961 .0248845
1096.544 .0248825
1097.127 .0248786
1097.710 .0248747
1098.294 .0248703
1098.877 .0248637
1099.461 .0248585
1100.046 .0248534
1100.630 .0248471
1101.215 .0248412
1101.800 .0248358
1102.385 .0248284
1102.970 .0248216
1103.556 .0248138
1104.142 .0248050
1104.728 .0247984
1105.315 .0247949
1105.902 .0247927
1106.489 .0247943
1107.077 .0248001
1107.664 .0248076
1108.253 .0248163
1108.841 .0248267
1109.430 .0248363
1110.019 .0248436
1110.609 .0248512
1111.198 .0248600
1111.789 .0248725
1112.379 .0248907
1112.970 .0249135
1113.561 .0249409
1114.153 .0249732
1114.745 .0250067
1115.338 .0250401
1115.931 .0250716
1116.524 .0251021
1117.117 .0251297
1117.712 .0251576
1118.306 .0251891
1118.901 .0252283
1119.496 .0252757
1120.092 .0253322
1120.689 .0253948
1121.285 .0254603
1121.882 .0255239
1122.480 .0255851
1123.078 .0256414
1123.677 .0256927
1124.276 .0257392
1124.875 .0257876
1125.476 .0258362
1126.076 .0258924
1126.677 .0259546
1127.279 .0260217
1127.881 .0260909
1128.484 .0261582
1129.087 .0262149
1129.691 .0262616
1130.295 .0263003
1130.900 .0263296
1131.505 .0263491
1132.111 .0263692
1132.718 .0263849
1133.325 .0264025
1133.933 .0264225
1134.541 .0264489
1135.150 .0264771
1135.760 .0265150
1136.370 .0265563
1136.981 .0266032
1137.592 .0266581
1138.204 .0267171
1138.817 .0267839
1139.431 .0268631
1140.045 .0269547
1140.660 .0270717
1141.275 .0272164
1141.891 .0273806
1142.508 .0274441
1143.126 .0276563
1143.744 .0281293
1144.363 .0284869
1144.983 .0283333
