Measurement Sequence started on: 15-12-46-377
Integration time: 28
Scans to Average: 2 
>>>>>Begin Spectral Data<<<<<
432.689 .0000100
433.621 .0000100
434.552 .0000100
435.482 .0000100
436.410 .0000100
437.337 .0000100
438.262 .0290919
439.187 .0617034
440.110 .1022161
441.031 .1478831
441.952 .1921990
442.871 .2270762
443.789 .2461496
444.705 .2472620
445.621 .2330677
446.535 .2094157
447.447 .1826370
448.359 .1417023
449.269 .1213243
450.178 .1084294
451.086 .0992821
451.993 .0922562
452.898 .0866567
453.803 .0820905
454.706 .0783209
455.608 .0751509
456.508 .0724334
457.408 .0701006
458.306 .0680444
459.204 .0662006
460.100 .0645235
460.995 .0630052
461.888 .0616089
462.781 .0603352
463.673 .0591693
464.563 .0581139
465.452 .0571560
466.340 .0562678
467.228 .0554564
468.114 .0547004
468.999 .0539939
469.882 .0533228
470.765 .0526826
471.647 .0520784
472.528 .0515106
473.407 .0509891
474.286 .0505117
475.163 .0500829
476.040 .0497093
476.915 .0493827
477.790 .0490987
478.663 .0488543
479.535 .0486388
480.407 .0484523
481.277 .0482920
482.147 .0481453
483.015 .0480214
483.883 .0479181
484.749 .0478349
485.615 .0477730
486.479 .0477278
487.343 .0477056
488.206 .0477007
489.067 .0477154
489.928 .0477444
490.788 .0477897
491.647 .0478543
492.505 .0479405
493.362 .0480466
494.218 .0481762
495.073 .0483290
495.928 .0485125
496.781 .0487212
497.634 .0489567
498.486 .0492256
499.337 .0495237
500.187 .0498497
501.036 .0502096
501.884 .0505877
502.731 .0509855
503.578 .0513977
504.424 .0518224
505.268 .0522505
506.113 .0526873
506.956 .0531371
507.798 .0536170
508.640 .0541453
509.480 .0547270
510.320 .0553868
511.160 .0561498
511.998 .0570243
512.836 .0580045
513.672 .0591178
514.508 .0603626
515.344 .0617374
516.178 .0632867
517.012 .0650482
517.845 .0670664
518.677 .0693766
519.508 .0720170
520.339 .0750498
521.169 .0785331
521.998 .0824618
522.826 .0868659
523.654 .0918051
524.481 .0972193
525.307 .1031368
526.133 .1094676
526.958 .1162496
527.782 .1233538
528.605 .1306759
529.428 .1381311
530.250 .1452049
531.072 .1516617
531.892 .1570950
532.712 .1612052
533.532 .1638069
534.350 .1646012
535.168 .1635073
535.986 .1606106
536.802 .1561061
537.618 .1502133
538.434 .1432277
539.249 .1357063
540.063 .1279112
540.876 .1201369
541.689 .1126422
542.501 .1056576
543.313 .0993354
544.124 .0937371
544.934 .0887256
545.744 .0842801
546.553 .0803284
547.361 .0767986
548.169 .0736813
548.976 .0708945
549.783 .0684269
550.589 .0662248
551.395 .0642313
552.200 .0624403
553.004 .0608086
553.808 .0593152
554.611 .0579675
555.414 .0567514
556.216 .0556547
557.018 .0546711
557.819 .0537814
558.619 .0529607
559.419 .0521760
560.218 .0514194
561.017 .0506762
561.815 .0499409
562.613 .0492092
563.410 .0484814
564.207 .0477659
565.003 .0470802
565.799 .0464206
566.594 .0457957
567.388 .0452086
568.182 .0446473
568.976 .0441003
569.769 .0435608
570.562 .0430243
571.354 .0424842
572.145 .0419501
572.936 .0414240
573.727 .0409073
574.517 .0404089
575.307 .0399337
576.096 .0394863
576.885 .0390687
577.673 .0386775
578.461 .0383087
579.248 .0379593
580.035 .0376294
580.821 .0373124
581.607 .0370067
582.392 .0367155
583.177 .0364402
583.962 .0361852
584.746 .0359514
585.529 .0357361
586.313 .0355427
587.095 .0353676
587.878 .0352056
588.660 .0350551
589.441 .0349164
590.222 .0347866
591.003 .0346691
591.783 .0345591
592.563 .0344581
593.342 .0343656
594.121 .0342808
594.899 .0342039
595.678 .0341339
596.455 .0340708
597.233 .0340109
598.009 .0339536
598.786 .0338996
599.562 .0338469
600.338 .0337974
601.113 .0337515
601.888 .0337088
602.663 .0336690
603.437 .0336319
604.211 .0335959
604.984 .0335619
605.757 .0335295
606.530 .0334973
607.302 .0334651
608.074 .0334334
608.845 .0334014
609.616 .0333694
610.387 .0333392
611.158 .0333102
611.928 .0332814
612.697 .0332530
613.467 .0332242
614.236 .0331953
615.004 .0331667
615.773 .0331380
616.541 .0331096
617.308 .0330825
618.076 .0330564
618.843 .0330307
619.609 .0330069
620.375 .0329851
621.141 .0329642
621.907 .0329445
622.672 .0329251
623.437 .0329055
624.202 .0328864
624.966 .0328675
625.730 .0328487
626.493 .0328299
627.257 .0328103
628.020 .0327892
628.782 .0327670
629.545 .0327441
630.307 .0327194
631.068 .0326936
631.830 .0326666
632.591 .0326378
633.352 .0326072
634.112 .0325752
634.872 .0325415
635.632 .0325070
636.392 .0324714
637.151 .0324356
637.910 .0323992
638.668 .0323637
639.427 .0323292
640.185 .0322957
640.943 .0322626
641.700 .0322299
642.457 .0321966
643.214 .0321633
643.971 .0321290
644.727 .0320944
645.483 .0320596
646.239 .0320253
646.994 .0319910
647.750 .0319576
648.505 .0319250
649.259 .0318939
650.014 .0318635
650.768 .0318343
651.521 .0318052
652.275 .0317764
653.028 .0317474
653.781 .0317181
654.534 .0316887
655.286 .0316591
656.039 .0316285
656.791 .0315986
657.542 .0315694
658.294 .0315415
659.045 .0315151
659.796 .0314907
660.546 .0314680
661.297 .0314460
662.047 .0314253
662.796 .0314041
663.546 .0313834
664.295 .0313631
665.044 .0313428
665.793 .0313227
666.542 .0313043
667.290 .0312873
668.038 .0312718
668.786 .0312576
669.533 .0312444
670.281 .0312314
671.028 .0312185
671.774 .0312049
672.521 .0311910
673.267 .0311768
674.013 .0311629
674.759 .0311478
675.505 .0311331
676.250 .0311178
676.995 .0311019
677.740 .0310857
678.484 .0310686
679.229 .0310515
679.973 .0310339
680.717 .0310166
681.460 .0309999
682.204 .0309838
682.947 .0309683
683.690 .0309525
684.433 .0309368
685.175 .0309206
685.917 .0309041
686.659 .0308877
687.401 .0308716
688.142 .0308554
688.884 .0308389
689.625 .0308224
690.365 .0308055
691.106 .0307885
691.846 .0307705
692.586 .0307518
693.326 .0307322
694.066 .0307121
694.805 .0306921
695.545 .0306715
696.284 .0306514
697.022 .0306309
697.761 .0306101
698.499 .0305884
699.237 .0305659
699.975 .0305427
700.713 .0305193
701.450 .0304964
702.187 .0304738
702.924 .0304519
703.661 .0304310
704.397 .0304110
705.133 .0303920
705.869 .0303734
706.605 .0303551
707.341 .0303362
708.076 .0303175
708.811 .0302982
709.546 .0302787
710.281 .0302594
711.015 .0302402
711.749 .0302211
712.483 .0302027
713.217 .0301844
713.950 .0301668
714.684 .0301494
715.417 .0301320
716.150 .0301139
716.882 .0300957
717.615 .0300770
718.347 .0300582
719.079 .0300390
719.811 .0300198
720.542 .0300003
721.273 .0299812
722.005 .0299622
722.735 .0299434
723.466 .0299247
724.196 .0299054
724.927 .0298849
725.656 .0298635
726.386 .0298409
727.116 .0298181
727.845 .0297950
728.574 .0297724
729.303 .0297500
730.031 .0297279
730.760 .0297060
731.488 .0296847
732.216 .0296638
732.944 .0296429
733.671 .0296225
734.398 .0296027
735.125 .0295832
735.852 .0295645
736.579 .0295472
737.305 .0295317
738.031 .0295177
738.757 .0295045
739.483 .0294915
740.208 .0294790
740.933 .0294668
741.658 .0294543
742.383 .0294419
743.108 .0294296
743.832 .0294172
744.556 .0294047
745.280 .0293924
746.004 .0293803
746.727 .0293683
747.450 .0293568
748.173 .0293451
748.896 .0293333
749.618 .0293212
750.340 .0293088
751.062 .0292971
751.784 .0292861
752.506 .0292756
753.227 .0292654
753.948 .0292559
754.669 .0292466
755.389 .0292370
756.110 .0292274
756.830 .0292176
757.550 .0292079
758.269 .0291977
758.989 .0291873
759.708 .0291766
760.427 .0291659
761.146 .0291548
761.864 .0291430
762.582 .0291303
763.300 .0291166
764.018 .0291019
764.736 .0290865
765.453 .0290704
766.170 .0290544
766.887 .0290388
767.603 .0290241
768.320 .0290100
769.036 .0289966
769.751 .0289836
770.467 .0289711
771.182 .0289582
771.897 .0289450
772.612 .0289314
773.327 .0289180
774.041 .0289046
774.755 .0288919
775.469 .0288804
776.183 .0288701
776.896 .0288612
777.609 .0288535
778.322 .0288463
779.035 .0288393
779.747 .0288322
780.459 .0288251
781.171 .0288180
781.882 .0288113
782.594 .0288050
783.305 .0288000
784.016 .0287965
784.726 .0287943
785.436 .0287929
786.147 .0287922
786.856 .0287914
787.566 .0287895
788.275 .0287857
788.984 .0287800
789.693 .0287722
790.401 .0287625
791.110 .0287509
791.818 .0287381
792.525 .0287244
793.233 .0287105
793.940 .0286964
794.647 .0286824
795.353 .0286684
796.060 .0286546
796.766 .0286407
797.472 .0286266
798.177 .0286124
798.883 .0285985
799.588 .0285851
800.292 .0285727
800.997 .0285613
801.701 .0285510
802.405 .0285420
803.109 .0285342
803.812 .0285273
804.515 .0285205
805.218 .0285132
805.921 .0285049
806.623 .0284951
807.325 .0284838
808.027 .0284705
808.728 .0284556
809.429 .0284390
810.130 .0284211
810.831 .0284020
811.531 .0283820
812.231 .0283616
812.931 .0283406
813.630 .0283191
814.330 .0282974
815.029 .0282755
815.727 .0282533
816.426 .0282315
817.124 .0282100
817.821 .0281890
818.519 .0281691
819.216 .0281504
819.913 .0281335
820.609 .0281186
821.306 .0281055
822.002 .0280943
822.697 .0280846
823.393 .0280764
824.088 .0280686
824.783 .0280612
825.477 .0280537
826.171 .0280459
826.865 .0280379
827.559 .0280302
828.252 .0280225
828.945 .0280149
829.638 .0280072
830.330 .0279989
831.023 .0279898
831.714 .0279799
832.406 .0279687
833.097 .0279569
833.788 .0279443
834.479 .0279313
835.169 .0279182
835.859 .0279062
836.548 .0278951
837.238 .0278854
837.927 .0278771
838.615 .0278699
839.304 .0278640
839.992 .0278590
840.680 .0278550
841.367 .0278517
842.054 .0278492
842.741 .0278470
843.428 .0278450
844.114 .0278434
844.800 .0278418
845.485 .0278401
846.170 .0278383
846.855 .0278356
847.540 .0278321
848.224 .0278276
848.908 .0278219
849.592 .0278147
850.275 .0278064
850.958 .0277964
851.641 .0277852
852.323 .0277726
853.005 .0277589
853.687 .0277442
854.368 .0277292
855.049 .0277136
855.730 .0276977
856.410 .0276815
857.090 .0276653
857.769 .0276488
858.449 .0276323
859.128 .0276153
859.806 .0275985
860.485 .0275822
861.163 .0275667
861.840 .0275523
862.518 .0275394
863.195 .0275278
863.871 .0275176
864.548 .0275086
865.224 .0275004
865.899 .0274920
866.574 .0274836
867.249 .0274747
867.924 .0274652
868.598 .0274552
869.272 .0274451
869.946 .0274354
870.619 .0274258
871.292 .0274166
871.964 .0274071
872.636 .0273973
873.308 .0273870
873.979 .0273753
874.651 .0273623
875.321 .0273482
875.992 .0273332
876.662 .0273181
877.331 .0273034
878.001 .0272898
878.670 .0272774
879.338 .0272665
880.007 .0272569
880.675 .0272484
881.342 .0272408
882.009 .0272337
882.676 .0272267
883.343 .0272203
884.009 .0272144
884.675 .0272087
885.340 .0272035
886.005 .0271993
886.670 .0271962
887.334 .0271939
887.998 .0271924
888.662 .0271918
889.325 .0271917
889.988 .0271919
890.650 .0271916
891.312 .0271906
891.974 .0271894
892.636 .0271870
893.297 .0271842
893.957 .0271809
894.618 .0271772
895.278 .0271729
895.937 .0271682
896.596 .0271633
897.255 .0271576
897.914 .0271509
898.572 .0271431
899.230 .0271345
899.887 .0271249
900.544 .0271141
901.201 .0271030
901.857 .0270919
902.513 .0270808
903.168 .0270695
903.823 .0270581
904.478 .0270470
905.132 .0270355
905.786 .0270231
906.440 .0270099
907.093 .0269960
907.746 .0269811
908.399 .0269656
909.051 .0269498
909.703 .0269341
910.354 .0269180
911.005 .0269017
911.656 .0268849
912.306 .0268675
912.956 .0268496
913.605 .0268308
914.254 .0268118
914.903 .0267929
915.551 .0267746
916.199 .0267576
916.847 .0267419
917.494 .0267280
918.141 .0267152
918.788 .0267030
919.434 .0266912
920.079 .0266791
920.725 .0266663
921.370 .0266529
922.014 .0266386
922.658 .0266234
923.302 .0266072
923.946 .0265904
924.589 .0265730
925.231 .0265544
925.873 .0265349
926.515 .0265134
927.157 .0264903
927.798 .0264661
928.439 .0264404
929.079 .0264140
929.719 .0263870
930.359 .0263596
930.998 .0263321
931.637 .0263041
932.275 .0262762
932.913 .0262481
933.551 .0262208
934.188 .0261942
934.825 .0261684
935.462 .0261444
936.098 .0261225
936.733 .0261026
937.369 .0260850
938.004 .0260696
938.638 .0260555
939.273 .0260429
939.907 .0260311
940.540 .0260206
941.173 .0260113
941.806 .0260037
942.438 .0259977
943.070 .0259932
943.702 .0259900
944.333 .0259875
944.964 .0259850
945.594 .0259827
946.224 .0259795
946.854 .0259758
947.483 .0259710
948.112 .0259655
948.741 .0259591
949.369 .0259522
949.996 .0259443
950.624 .0259360
951.251 .0259263
951.878 .0259159
952.504 .0259040
953.130 .0258910
953.755 .0258769
954.380 .0258624
955.005 .0258479
955.629 .0258337
956.253 .0258196
956.877 .0258064
957.500 .0257938
958.123 .0257820
958.746 .0257702
959.368 .0257588
959.990 .0257476
960.611 .0257366
961.232 .0257255
961.853 .0257150
962.473 .0257049
963.093 .0256959
963.712 .0256877
964.331 .0256799
964.950 .0256729
965.569 .0256665
966.187 .0256608
966.804 .0256560
967.422 .0256521
968.039 .0256491
968.655 .0256469
969.272 .0256458
969.887 .0256449
970.503 .0256445
971.118 .0256443
971.733 .0256446
972.347 .0256451
972.961 .0256451
973.575 .0256447
974.188 .0256439
974.801 .0256428
975.414 .0256409
976.026 .0256384
976.638 .0256352
977.250 .0256318
977.861 .0256281
978.472 .0256236
979.083 .0256187
979.693 .0256131
980.303 .0256059
980.912 .0255970
981.521 .0255865
982.130 .0255744
982.738 .0255614
983.346 .0255489
983.954 .0255367
984.562 .0255253
985.169 .0255145
985.775 .0255042
986.382 .0254940
986.988 .0254836
987.594 .0254721
988.199 .0254591
988.804 .0254455
989.409 .0254314
990.013 .0254173
990.617 .0254053
991.221 .0253956
991.824 .0253889
992.427 .0253849
993.030 .0253836
993.632 .0253846
994.234 .0253878
994.836 .0253927
995.438 .0253984
996.039 .0254051
996.640 .0254119
997.240 .0254186
997.840 .0254259
998.440 .0254338
999.040 .0254419
999.639 .0254507
1000.238 .0254596
1000.836 .0254679
1001.435 .0254762
1002.033 .0254841
1002.630 .0254915
1003.228 .0254984
1003.825 .0255041
1004.422 .0255093
1005.018 .0255137
1005.614 .0255185
1006.210 .0255232
1006.806 .0255287
1007.401 .0255349
1007.996 .0255405
1008.591 .0255463
1009.186 .0255514
1009.780 .0255552
1010.374 .0255580
1010.967 .0255597
1011.561 .0255599
1012.154 .0255586
1012.746 .0255568
1013.339 .0255545
1013.931 .0255522
1014.523 .0255497
1015.115 .0255474
1015.706 .0255458
1016.298 .0255448
1016.888 .0255437
1017.479 .0255429
1018.069 .0255434
1018.660 .0255441
1019.250 .0255455
1019.839 .0255477
1020.429 .0255512
1021.018 .0255560
1021.607 .0255616
1022.195 .0255681
1022.784 .0255757
1023.372 .0255843
1023.960 .0255932
1024.547 .0256030
1025.135 .0256135
1025.722 .0256245
1026.309 .0256366
1026.896 .0256499
1027.483 .0256645
1028.069 .0256807
1028.655 .0256981
1029.241 .0257160
1029.827 .0257341
1030.412 .0257518
1030.997 .0257686
1031.582 .0257850
1032.167 .0258003
1032.752 .0258143
1033.336 .0258270
1033.921 .0258390
1034.505 .0258494
1035.089 .0258577
1035.672 .0258637
1036.256 .0258668
1036.839 .0258665
1037.422 .0258626
1038.005 .0258551
1038.588 .0258448
1039.171 .0258332
1039.753 .0258202
1040.335 .0258067
1040.918 .0257941
1041.500 .0257825
1042.081 .0257721
1042.663 .0257631
1043.244 .0257551
1043.826 .0257470
1044.407 .0257392
1044.988 .0257323
1045.569 .0257255
1046.150 .0257195
1046.730 .0257143
1047.311 .0257103
1047.891 .0257074
1048.471 .0257053
1049.052 .0257036
1049.632 .0257028
1050.211 .0257034
1050.791 .0257029
1051.371 .0257016
1051.950 .0257002
1052.530 .0256982
1053.109 .0256949
1053.688 .0256897
1054.268 .0256837
1054.847 .0256764
1055.426 .0256677
1056.005 .0256589
1056.583 .0256509
1057.162 .0256440
1057.741 .0256381
1058.319 .0256342
1058.898 .0256325
1059.476 .0256326
1060.055 .0256347
1060.633 .0256383
1061.211 .0256427
1061.790 .0256471
1062.368 .0256503
1062.946 .0256528
1063.524 .0256561
1064.102 .0256587
1064.680 .0256609
1065.258 .0256629
1065.836 .0256644
1066.414 .0256643
1066.992 .0256623
1067.570 .0256593
1068.148 .0256555
1068.726 .0256507
1069.304 .0256465
1069.882 .0256427
1070.460 .0256405
1071.038 .0256393
1071.616 .0256385
1072.194 .0256373
1072.772 .0256358
1073.350 .0256340
1073.928 .0256317
1074.506 .0256298
1075.084 .0256294
1075.662 .0256298
1076.240 .0256321
1076.819 .0256350
1077.397 .0256371
1077.976 .0256374
1078.554 .0256362
1079.133 .0256320
1079.711 .0256255
1080.290 .0256175
1080.869 .0256086
1081.448 .0255993
1082.027 .0255906
1082.606 .0255815
1083.185 .0255728
1083.764 .0255659
1084.343 .0255596
1084.923 .0255537
1085.502 .0255500
1086.082 .0255477
1086.662 .0255471
1087.242 .0255475
1087.822 .0255486
1088.402 .0255487
1088.983 .0255476
1089.563 .0255435
1090.144 .0255377
1090.725 .0255331
1091.306 .0255289
1091.887 .0255259
1092.469 .0255268
1093.050 .0255306
1093.632 .0255361
1094.214 .0255433
1094.796 .0255515
1095.379 .0255600
1095.961 .0255699
1096.544 .0255823
1097.127 .0255980
1097.710 .0256176
1098.294 .0256408
1098.877 .0256655
1099.461 .0256910
1100.046 .0257134
1100.630 .0257296
1101.215 .0257415
1101.800 .0257496
1102.385 .0257528
1102.970 .0257526
1103.556 .0257517
1104.142 .0257531
1104.728 .0257541
1105.315 .0257553
1105.902 .0257561
1106.489 .0257552
1107.077 .0257524
1107.664 .0257489
1108.253 .0257465
1108.841 .0257485
1109.430 .0257561
1110.019 .0257701
1110.609 .0257903
1111.198 .0258153
1111.789 .0258430
1112.379 .0258731
1112.970 .0259058
1113.561 .0259398
1114.153 .0259729
1114.745 .0260106
1115.338 .0260517
1115.931 .0260959
1116.524 .0261422
1117.117 .0261904
1117.712 .0262400
1118.306 .0262871
1118.901 .0263301
1119.496 .0263693
1120.092 .0264060
1120.689 .0264399
1121.285 .0264729
1121.882 .0265079
1122.480 .0265465
1123.078 .0265905
1123.677 .0266393
1124.276 .0266927
1124.875 .0267499
1125.476 .0268092
1126.076 .0268671
1126.677 .0269236
1127.279 .0269765
1127.881 .0270235
1128.484 .0270694
1129.087 .0271140
1129.691 .0271596
1130.295 .0272102
1130.900 .0272701
1131.505 .0273360
1132.111 .0274111
1132.718 .0274935
1133.325 .0275754
1133.933 .0276579
1134.541 .0277405
1135.150 .0278226
1135.760 .0279063
1136.370 .0279954
1136.981 .0280957
1137.592 .0282091
1138.204 .0283375
1138.817 .0284777
1139.431 .0286278
1140.045 .0287929
1140.660 .0289761
1141.275 .0291708
1141.891 .0293816
1142.508 .0294416
1143.126 .0297716
1143.744 .0302435
1144.363 .0304296
1144.983 .0306407
