Measurement Sequence started on: 15-12-46-377
Integration time: 28
Scans to Average: 2 
>>>>>Begin Spectral Data<<<<<
432.689 .0000100
433.621 .0000100
434.552 .0000100
435.482 .0000100
436.410 .0000100
437.337 .0000100
438.262 .0270726
439.187 .0573355
440.110 .0949534
441.031 .1374132
441.952 .1786826
442.871 .2111409
443.789 .2288994
444.705 .2299545
445.621 .2167752
446.535 .1947868
447.447 .1698760
448.359 .1318076
449.269 .1129411
450.178 .1010333
451.086 .0926372
451.993 .0862378
452.898 .0812387
453.803 .0771574
454.706 .0737346
455.608 .0707764
456.508 .0681695
457.408 .0658805
458.306 .0638399
459.204 .0620222
460.100 .0603934
460.995 .0589353
461.888 .0576408
462.781 .0564868
463.673 .0554403
464.563 .0544879
465.452 .0536096
466.340 .0527810
467.228 .0520110
468.114 .0512883
468.999 .0506257
469.882 .0500255
470.765 .0494913
471.647 .0490112
472.528 .0485856
473.407 .0482150
474.286 .0478853
475.163 .0475968
476.040 .0473546
476.915 .0471474
477.790 .0469745
478.663 .0468342
479.535 .0467165
480.407 .0466240
481.277 .0465574
482.147 .0465089
483.015 .0464800
483.883 .0464741
484.749 .0464828
485.615 .0465049
486.479 .0465394
487.343 .0465786
488.206 .0466153
489.067 .0466449
489.928 .0466575
490.788 .0466520
491.647 .0466330
492.505 .0466079
493.362 .0465902
494.218 .0465934
495.073 .0466239
495.928 .0466890
496.781 .0467935
497.634 .0469447
498.486 .0471269
499.337 .0473467
500.187 .0475976
501.036 .0478844
501.884 .0482100
502.731 .0485739
503.578 .0489870
504.424 .0494587
505.268 .0499834
506.113 .0505665
506.956 .0511888
507.798 .0518661
508.640 .0525844
509.480 .0533365
510.320 .0541311
511.160 .0549818
511.998 .0558808
512.836 .0568596
513.672 .0579262
514.508 .0591025
515.344 .0603790
516.178 .0617929
517.012 .0633685
517.845 .0651576
518.677 .0671928
519.508 .0695019
520.339 .0720902
521.169 .0750481
521.998 .0783477
522.826 .0820764
523.654 .0862491
524.481 .0908791
525.307 .0960000
526.133 .1016216
526.958 .1077149
527.782 .1142651
528.605 .1210677
529.428 .1280834
530.250 .1347719
531.072 .1408766
531.892 .1459738
532.712 .1498111
533.532 .1521900
534.350 .1529779
535.168 .1520795
535.986 .1496332
536.802 .1457964
537.618 .1408891
538.434 .1350303
539.249 .1286491
540.063 .1219513
540.876 .1151896
541.689 .1085344
542.501 .1022077
543.313 .0963439
544.124 .0910661
544.934 .0863281
545.744 .0820847
546.553 .0782656
547.361 .0748468
548.169 .0717978
548.976 .0690300
549.783 .0665423
550.589 .0643217
551.395 .0623007
552.200 .0604766
553.004 .0588546
553.808 .0573781
554.611 .0560424
555.414 .0548371
556.216 .0537377
557.018 .0527337
557.819 .0518164
558.619 .0509657
559.419 .0501720
560.218 .0494284
561.017 .0487123
561.815 .0480037
562.613 .0473098
563.410 .0466098
564.207 .0459018
565.003 .0452028
565.799 .0445161
566.594 .0438351
567.388 .0431883
568.182 .0425736
568.976 .0419810
569.769 .0414145
570.562 .0408697
571.354 .0403397
572.145 .0398283
572.936 .0393332
573.727 .0388551
574.517 .0383987
575.307 .0379728
576.096 .0375722
576.885 .0372032
577.673 .0368669
578.461 .0365518
579.248 .0362576
580.035 .0359789
580.821 .0357082
581.607 .0354439
582.392 .0351882
583.177 .0349447
583.962 .0347136
584.746 .0345009
585.529 .0343078
586.313 .0341351
587.095 .0339814
587.878 .0338436
588.660 .0337193
589.441 .0336073
590.222 .0335025
591.003 .0334055
591.783 .0333142
592.563 .0332292
593.342 .0331497
594.121 .0330751
594.899 .0330073
595.678 .0329455
596.455 .0328885
597.233 .0328359
598.009 .0327845
598.786 .0327348
599.562 .0326858
600.338 .0326374
601.113 .0325892
601.888 .0325412
602.663 .0324940
603.437 .0324476
604.211 .0324014
604.984 .0323570
605.757 .0323142
606.530 .0322746
607.302 .0322382
608.074 .0322032
608.845 .0321704
609.616 .0321398
610.387 .0321105
611.158 .0320821
611.928 .0320541
612.697 .0320258
613.467 .0319968
614.236 .0319682
615.004 .0319395
615.773 .0319109
616.541 .0318836
617.308 .0318569
618.076 .0318314
618.843 .0318061
619.609 .0317802
620.375 .0317534
621.141 .0317268
621.907 .0316992
622.672 .0316705
623.437 .0316419
624.202 .0316135
624.966 .0315855
625.730 .0315584
626.493 .0315316
627.257 .0315059
628.020 .0314813
628.782 .0314579
629.545 .0314350
630.307 .0314132
631.068 .0313919
631.830 .0313715
632.591 .0313516
633.352 .0313321
634.112 .0313122
634.872 .0312926
635.632 .0312728
636.392 .0312526
637.151 .0312328
637.910 .0312135
638.668 .0311950
639.427 .0311772
640.185 .0311582
640.943 .0311390
641.700 .0311187
642.457 .0310979
643.214 .0310761
643.971 .0310531
644.727 .0310302
645.483 .0310078
646.239 .0309858
646.994 .0309648
647.750 .0309444
648.505 .0309251
649.259 .0309067
650.014 .0308888
650.768 .0308713
651.521 .0308548
652.275 .0308398
653.028 .0308258
653.781 .0308125
654.534 .0307999
655.286 .0307862
656.039 .0307721
656.791 .0307567
657.542 .0307390
658.294 .0307193
659.045 .0306980
659.796 .0306749
660.546 .0306499
661.297 .0306237
662.047 .0305961
662.796 .0305674
663.546 .0305380
664.295 .0305071
665.044 .0304753
665.793 .0304433
666.542 .0304114
667.290 .0303799
668.038 .0303497
668.786 .0303206
669.533 .0302929
670.281 .0302666
671.028 .0302418
671.774 .0302181
672.521 .0301956
673.267 .0301749
674.013 .0301550
674.759 .0301360
675.505 .0301182
676.250 .0301009
676.995 .0300840
677.740 .0300665
678.484 .0300488
679.229 .0300298
679.973 .0300094
680.717 .0299878
681.460 .0299653
682.204 .0299420
682.947 .0299187
683.690 .0298954
684.433 .0298728
685.175 .0298512
685.917 .0298300
686.659 .0298096
687.401 .0297903
688.142 .0297717
688.884 .0297533
689.625 .0297356
690.365 .0297188
691.106 .0297027
691.846 .0296875
692.586 .0296728
693.326 .0296584
694.066 .0296445
694.805 .0296305
695.545 .0296161
696.284 .0296014
697.022 .0295858
697.761 .0295694
698.499 .0295523
699.237 .0295343
699.975 .0295147
700.713 .0294937
701.450 .0294716
702.187 .0294481
702.924 .0294235
703.661 .0293989
704.397 .0293746
705.133 .0293519
705.869 .0293306
706.605 .0293105
707.341 .0292918
708.076 .0292740
708.811 .0292564
709.546 .0292387
710.281 .0292203
711.015 .0292016
711.749 .0291826
712.483 .0291642
713.217 .0291465
713.950 .0291297
714.684 .0291136
715.417 .0290979
716.150 .0290822
716.882 .0290660
717.615 .0290486
718.347 .0290308
719.079 .0290121
719.811 .0289932
720.542 .0289741
721.273 .0289555
722.005 .0289378
722.735 .0289212
723.466 .0289056
724.196 .0288909
724.927 .0288766
725.656 .0288626
726.386 .0288484
727.116 .0288344
727.845 .0288199
728.574 .0288055
729.303 .0287910
730.031 .0287770
730.760 .0287634
731.488 .0287503
732.216 .0287380
732.944 .0287268
733.671 .0287162
734.398 .0287064
735.125 .0286973
735.852 .0286889
736.579 .0286810
737.305 .0286735
738.031 .0286668
738.757 .0286606
739.483 .0286547
740.208 .0286490
740.933 .0286433
741.658 .0286379
742.383 .0286321
743.108 .0286262
743.832 .0286202
744.556 .0286137
745.280 .0286068
746.004 .0285990
746.727 .0285906
747.450 .0285818
748.173 .0285721
748.896 .0285621
749.618 .0285512
750.340 .0285400
751.062 .0285285
751.784 .0285174
752.506 .0285069
753.227 .0284967
753.948 .0284864
754.669 .0284762
755.389 .0284653
756.110 .0284540
756.830 .0284419
757.550 .0284290
758.269 .0284159
758.989 .0284024
759.708 .0283883
760.427 .0283742
761.146 .0283601
761.864 .0283463
762.582 .0283317
763.300 .0283168
764.018 .0283009
764.736 .0282846
765.453 .0282679
766.170 .0282510
766.887 .0282339
767.603 .0282173
768.320 .0282008
769.036 .0281846
769.751 .0281690
770.467 .0281536
771.182 .0281388
771.897 .0281247
772.612 .0281107
773.327 .0280971
774.041 .0280837
774.755 .0280709
775.469 .0280583
776.183 .0280464
776.896 .0280350
777.609 .0280236
778.322 .0280128
779.035 .0280025
779.747 .0279924
780.459 .0279831
781.171 .0279745
781.882 .0279665
782.594 .0279592
783.305 .0279527
784.016 .0279463
784.726 .0279404
785.436 .0279347
786.147 .0279286
786.856 .0279220
787.566 .0279151
788.275 .0279073
788.984 .0278989
789.693 .0278901
790.401 .0278805
791.110 .0278702
791.818 .0278592
792.525 .0278468
793.233 .0278332
793.940 .0278181
794.647 .0278014
795.353 .0277831
796.060 .0277639
796.766 .0277441
797.472 .0277243
798.177 .0277048
798.883 .0276859
799.588 .0276676
800.292 .0276501
800.997 .0276326
801.701 .0276151
802.405 .0275972
803.109 .0275789
803.812 .0275604
804.515 .0275418
805.218 .0275229
805.921 .0275042
806.623 .0274860
807.325 .0274677
808.027 .0274494
808.728 .0274309
809.429 .0274117
810.130 .0273920
810.831 .0273722
811.531 .0273518
812.231 .0273313
812.931 .0273110
813.630 .0272904
814.330 .0272699
815.029 .0272493
815.727 .0272285
816.426 .0272077
817.124 .0271871
817.821 .0271664
818.519 .0271462
819.216 .0271272
819.913 .0271093
820.609 .0270926
821.306 .0270775
822.002 .0270635
822.697 .0270506
823.393 .0270390
824.088 .0270283
824.783 .0270186
825.477 .0270095
826.171 .0270012
826.865 .0269939
827.559 .0269880
828.252 .0269834
828.945 .0269805
829.638 .0269789
830.330 .0269784
831.023 .0269777
831.714 .0269769
832.406 .0269755
833.097 .0269724
833.788 .0269675
834.479 .0269612
835.169 .0269536
835.859 .0269459
836.548 .0269383
837.238 .0269321
837.927 .0269274
838.615 .0269239
839.304 .0269209
839.992 .0269181
840.680 .0269152
841.367 .0269118
842.054 .0269072
842.741 .0269020
843.428 .0268967
844.114 .0268919
844.800 .0268882
845.485 .0268856
846.170 .0268835
846.855 .0268818
847.540 .0268797
848.224 .0268766
848.908 .0268721
849.592 .0268662
850.275 .0268591
850.958 .0268512
851.641 .0268425
852.323 .0268333
853.005 .0268235
853.687 .0268138
854.368 .0268039
855.049 .0267933
855.730 .0267822
856.410 .0267702
857.090 .0267578
857.769 .0267448
858.449 .0267309
859.128 .0267166
859.806 .0267018
860.485 .0266868
861.163 .0266717
861.840 .0266570
862.518 .0266429
863.195 .0266298
863.871 .0266174
864.548 .0266059
865.224 .0265951
865.899 .0265850
866.574 .0265754
867.249 .0265661
867.924 .0265578
868.598 .0265505
869.272 .0265448
869.946 .0265413
870.619 .0265395
871.292 .0265396
871.964 .0265409
872.636 .0265429
873.308 .0265451
873.979 .0265469
874.651 .0265485
875.321 .0265495
875.992 .0265501
876.662 .0265507
877.331 .0265513
878.001 .0265522
878.670 .0265532
879.338 .0265538
880.007 .0265538
880.675 .0265531
881.342 .0265518
882.009 .0265498
882.676 .0265474
883.343 .0265453
884.009 .0265435
884.675 .0265427
885.340 .0265427
886.005 .0265433
886.670 .0265445
887.334 .0265464
887.998 .0265483
888.662 .0265500
889.325 .0265518
889.988 .0265535
890.650 .0265555
891.312 .0265581
891.974 .0265612
892.636 .0265650
893.297 .0265699
893.957 .0265754
894.618 .0265811
895.278 .0265867
895.937 .0265916
896.596 .0265956
897.255 .0265985
897.914 .0266000
898.572 .0266003
899.230 .0265995
899.887 .0265980
900.544 .0265955
901.201 .0265926
901.857 .0265887
902.513 .0265836
903.168 .0265773
903.823 .0265689
904.478 .0265584
905.132 .0265458
905.786 .0265313
906.440 .0265153
907.093 .0264976
907.746 .0264786
908.399 .0264591
909.051 .0264396
909.703 .0264202
910.354 .0264008
911.005 .0263819
911.656 .0263630
912.306 .0263439
912.956 .0263246
913.605 .0263045
914.254 .0262843
914.903 .0262637
915.551 .0262427
916.199 .0262218
916.847 .0262016
917.494 .0261818
918.141 .0261628
918.788 .0261445
919.434 .0261268
920.079 .0261091
920.725 .0260916
921.370 .0260740
922.014 .0260557
922.658 .0260371
923.302 .0260180
923.946 .0259984
924.589 .0259787
925.231 .0259580
925.873 .0259369
926.515 .0259156
927.157 .0258936
927.798 .0258705
928.439 .0258464
929.079 .0258215
929.719 .0257953
930.359 .0257675
930.998 .0257386
931.637 .0257088
932.275 .0256791
932.913 .0256489
933.551 .0256191
934.188 .0255901
934.825 .0255621
935.462 .0255353
936.098 .0255098
936.733 .0254856
937.369 .0254626
938.004 .0254406
938.638 .0254199
939.273 .0254007
939.907 .0253834
940.540 .0253679
941.173 .0253546
941.806 .0253431
942.438 .0253330
943.070 .0253237
943.702 .0253153
944.333 .0253068
944.964 .0252979
945.594 .0252886
946.224 .0252788
946.854 .0252690
947.483 .0252591
948.112 .0252496
948.741 .0252404
949.369 .0252311
949.996 .0252216
950.624 .0252111
951.251 .0251997
951.878 .0251872
952.504 .0251736
953.130 .0251585
953.755 .0251424
954.380 .0251256
955.005 .0251083
955.629 .0250906
956.253 .0250725
956.877 .0250541
957.500 .0250358
958.123 .0250173
958.746 .0249986
959.368 .0249795
959.990 .0249605
960.611 .0249407
961.232 .0249206
961.853 .0249001
962.473 .0248795
963.093 .0248592
963.712 .0248396
964.331 .0248207
964.950 .0248027
965.569 .0247862
966.187 .0247711
966.804 .0247571
967.422 .0247441
968.039 .0247315
968.655 .0247188
969.272 .0247062
969.887 .0246934
970.503 .0246802
971.118 .0246676
971.733 .0246558
972.347 .0246445
972.961 .0246342
973.575 .0246248
974.188 .0246160
974.801 .0246072
975.414 .0245981
976.026 .0245875
976.638 .0245753
977.250 .0245619
977.861 .0245471
978.472 .0245311
979.083 .0245147
979.693 .0244977
980.303 .0244803
980.912 .0244629
981.521 .0244457
982.130 .0244286
982.738 .0244122
983.346 .0243965
983.954 .0243814
984.562 .0243666
985.169 .0243525
985.775 .0243383
986.382 .0243242
986.988 .0243102
987.594 .0242962
988.199 .0242827
988.804 .0242708
989.409 .0242601
990.013 .0242515
990.617 .0242449
991.221 .0242401
991.824 .0242360
992.427 .0242331
993.030 .0242303
993.632 .0242281
994.234 .0242263
994.836 .0242250
995.438 .0242238
996.039 .0242237
996.640 .0242243
997.240 .0242258
997.840 .0242284
998.440 .0242322
999.040 .0242363
999.639 .0242416
1000.238 .0242473
1000.836 .0242532
1001.435 .0242591
1002.033 .0242654
1002.630 .0242707
1003.228 .0242752
1003.825 .0242784
1004.422 .0242807
1005.018 .0242821
1005.614 .0242837
1006.210 .0242850
1006.806 .0242873
1007.401 .0242908
1007.996 .0242957
1008.591 .0243014
1009.186 .0243085
1009.780 .0243161
1010.374 .0243238
1010.967 .0243317
1011.561 .0243395
1012.154 .0243467
1012.746 .0243541
1013.339 .0243615
1013.931 .0243698
1014.523 .0243787
1015.115 .0243889
1015.706 .0244000
1016.298 .0244128
1016.888 .0244266
1017.479 .0244408
1018.069 .0244550
1018.660 .0244685
1019.250 .0244806
1019.839 .0244909
1020.429 .0244997
1021.018 .0245071
1021.607 .0245139
1022.195 .0245208
1022.784 .0245285
1023.372 .0245378
1023.960 .0245491
1024.547 .0245624
1025.135 .0245776
1025.722 .0245942
1026.309 .0246114
1026.896 .0246288
1027.483 .0246460
1028.069 .0246628
1028.655 .0246802
1029.241 .0246981
1029.827 .0247172
1030.412 .0247379
1030.997 .0247602
1031.582 .0247837
1032.167 .0248078
1032.752 .0248309
1033.336 .0248517
1033.921 .0248695
1034.505 .0248841
1035.089 .0248950
1035.672 .0249041
1036.256 .0249119
1036.839 .0249197
1037.422 .0249288
1038.005 .0249395
1038.588 .0249509
1039.171 .0249637
1039.753 .0249770
1040.335 .0249901
1040.918 .0250025
1041.500 .0250153
1042.081 .0250285
1042.663 .0250435
1043.244 .0250610
1043.826 .0250805
1044.407 .0251014
1044.988 .0251231
1045.569 .0251428
1046.150 .0251596
1046.730 .0251725
1047.311 .0251809
1047.891 .0251856
1048.471 .0251878
1049.052 .0251883
1049.632 .0251878
1050.211 .0251883
1050.791 .0251896
1051.371 .0251910
1051.950 .0251932
1052.530 .0251956
1053.109 .0251978
1053.688 .0252001
1054.268 .0252026
1054.847 .0252057
1055.426 .0252111
1056.005 .0252191
1056.583 .0252293
1057.162 .0252417
1057.741 .0252554
1058.319 .0252694
1058.898 .0252828
1059.476 .0252954
1060.055 .0253058
1060.633 .0253145
1061.211 .0253221
1061.790 .0253283
1062.368 .0253341
1062.946 .0253412
1063.524 .0253495
1064.102 .0253594
1064.680 .0253709
1065.258 .0253834
1065.836 .0253966
1066.414 .0254106
1066.992 .0254253
1067.570 .0254403
1068.148 .0254553
1068.726 .0254708
1069.304 .0254864
1069.882 .0255018
1070.460 .0255171
1071.038 .0255307
1071.616 .0255430
1072.194 .0255532
1072.772 .0255598
1073.350 .0255633
1073.928 .0255643
1074.506 .0255642
1075.084 .0255623
1075.662 .0255607
1076.240 .0255604
1076.819 .0255603
1077.397 .0255607
1077.976 .0255615
1078.554 .0255616
1079.133 .0255609
1079.711 .0255593
1080.290 .0255572
1080.869 .0255562
1081.448 .0255571
1082.027 .0255597
1082.606 .0255654
1083.185 .0255746
1083.764 .0255862
1084.343 .0255973
1084.923 .0256086
1085.502 .0256196
1086.082 .0256282
1086.662 .0256367
1087.242 .0256444
1087.822 .0256521
1088.402 .0256601
1088.983 .0256685
1089.563 .0256767
1090.144 .0256850
1090.725 .0256944
1091.306 .0257030
1091.887 .0257110
1092.469 .0257196
1093.050 .0257275
1093.632 .0257351
1094.214 .0257442
1094.796 .0257535
1095.379 .0257619
1095.961 .0257726
1096.544 .0257847
1097.127 .0257998
1097.710 .0258180
1098.294 .0258405
1098.877 .0258660
1099.461 .0258948
1100.046 .0259264
1100.630 .0259570
1101.215 .0259874
1101.800 .0260190
1102.385 .0260483
1102.970 .0260762
1103.556 .0261032
1104.142 .0261293
1104.728 .0261561
1105.315 .0261829
1105.902 .0262075
1106.489 .0262292
1107.077 .0262488
1107.664 .0262674
1108.253 .0262828
1108.841 .0262963
1109.430 .0263099
1110.019 .0263189
1110.609 .0263267
1111.198 .0263300
1111.789 .0263285
1112.379 .0263239
1112.970 .0263175
1113.561 .0263101
1114.153 .0263074
1114.745 .0263107
1115.338 .0263236
1115.931 .0263419
1116.524 .0263685
1117.117 .0263965
1117.712 .0264219
1118.306 .0264433
1118.901 .0264616
1119.496 .0264743
1120.092 .0264885
1120.689 .0265033
1121.285 .0265255
1121.882 .0265545
1122.480 .0265915
1123.078 .0266332
1123.677 .0266783
1124.276 .0267194
1124.875 .0267594
1125.476 .0267911
1126.076 .0268227
1126.677 .0268531
1127.279 .0268873
1127.881 .0269305
1128.484 .0269878
1129.087 .0270590
1129.691 .0271436
1130.295 .0272380
1130.900 .0273429
1131.505 .0274470
1132.111 .0275554
1132.718 .0276603
1133.325 .0277651
1133.933 .0278723
1134.541 .0279829
1135.150 .0280911
1135.760 .0282047
1136.370 .0283245
1136.981 .0284457
1137.592 .0285655
1138.204 .0286810
1138.817 .0287917
1139.431 .0289012
1140.045 .0290112
1140.660 .0291272
1141.275 .0292475
1141.891 .0293859
1142.508 .0294460
1143.126 .0296751
1143.744 .0299148
1144.363 .0299814
1144.983 .0302873
