Measurement Sequence started on: 15-12-46-377
Integration time: 28
Scans to Average: 2 
>>>>>Begin Spectral Data<<<<<
432.689 .0000100
433.621 .0000100
434.552 .0000100
435.482 .0000100
436.410 .0000100
437.337 .0000100
438.262 .0272820
439.187 .0578094
440.110 .0958322
441.031 .1387229
441.952 .1803807
442.871 .2132147
443.789 .2312819
444.705 .2325310
445.621 .2194405
446.535 .1974531
447.447 .1725046
448.359 .1342624
449.269 .1153110
450.178 .1032641
451.086 .0947448
451.993 .0882026
452.898 .0829684
453.803 .0786613
454.706 .0750678
455.608 .0720082
456.508 .0693747
457.408 .0671027
458.306 .0651019
459.204 .0633148
460.100 .0617118
460.995 .0602502
461.888 .0589114
462.781 .0576767
463.673 .0565142
464.563 .0554402
465.452 .0544408
466.340 .0534998
467.228 .0526265
468.114 .0518096
468.999 .0510522
469.882 .0503495
470.765 .0496996
471.647 .0491033
472.528 .0485629
473.407 .0480711
474.286 .0476347
475.163 .0472483
476.040 .0469132
476.915 .0466181
477.790 .0463703
478.663 .0461650
479.535 .0459901
480.407 .0458523
481.277 .0457413
482.147 .0456531
483.015 .0455955
483.883 .0455561
484.749 .0455351
485.615 .0455358
486.479 .0455517
487.343 .0455748
488.206 .0456129
489.067 .0456522
489.928 .0456893
490.788 .0457280
491.647 .0457722
492.505 .0458243
493.362 .0458962
494.218 .0459942
495.073 .0461143
495.928 .0462796
496.781 .0464802
497.634 .0467096
498.486 .0469731
499.337 .0472605
500.187 .0475642
501.036 .0478900
501.884 .0482425
502.731 .0486175
503.578 .0490300
504.424 .0494816
505.268 .0499545
506.113 .0504601
506.956 .0509872
507.798 .0515311
508.640 .0520976
509.480 .0526987
510.320 .0533316
511.160 .0540222
511.998 .0547991
512.836 .0556764
513.672 .0566801
514.508 .0578203
515.344 .0590858
516.178 .0605148
517.012 .0621373
517.845 .0639788
518.677 .0660848
519.508 .0685077
520.339 .0712800
521.169 .0744740
521.998 .0781130
522.826 .0822434
523.654 .0868926
524.481 .0920735
525.307 .0978039
526.133 .1040733
526.958 .1108142
527.782 .1179335
528.605 .1253296
529.428 .1329175
530.250 .1401258
531.072 .1467098
531.892 .1522827
532.712 .1565513
533.532 .1592954
534.350 .1602698
535.168 .1594167
535.986 .1568910
536.802 .1528421
537.618 .1475241
538.434 .1411404
539.249 .1342369
540.063 .1269675
540.876 .1196354
541.689 .1124419
542.501 .1055856
543.313 .0992427
544.124 .0935004
544.934 .0883229
545.744 .0836910
546.553 .0795520
547.361 .0759152
548.169 .0727225
548.976 .0698886
549.783 .0673569
550.589 .0650945
551.395 .0630260
552.200 .0611386
553.004 .0593820
553.808 .0577406
554.611 .0562361
555.414 .0548548
556.216 .0535949
557.018 .0524561
557.819 .0514366
558.619 .0505015
559.419 .0496387
560.218 .0488465
561.017 .0480818
561.815 .0473451
562.613 .0466345
563.410 .0459374
564.207 .0452587
565.003 .0446101
565.799 .0439931
566.594 .0434064
567.388 .0428595
568.182 .0423404
568.976 .0418399
569.769 .0413639
570.562 .0408937
571.354 .0404211
572.145 .0399518
572.936 .0394849
573.727 .0390138
574.517 .0385496
575.307 .0381037
576.096 .0376750
576.885 .0372690
577.673 .0368883
578.461 .0365321
579.248 .0362026
580.035 .0359018
580.821 .0356219
581.607 .0353604
582.392 .0351168
583.177 .0348867
583.962 .0346715
584.746 .0344754
585.529 .0342931
586.313 .0341257
587.095 .0339732
587.878 .0338365
588.660 .0337110
589.441 .0335956
590.222 .0334874
591.003 .0333855
591.783 .0332875
592.563 .0331908
593.342 .0330953
594.121 .0330048
594.899 .0329177
595.678 .0328351
596.455 .0327580
597.233 .0326883
598.009 .0326242
598.786 .0325659
599.562 .0325111
600.338 .0324590
601.113 .0324089
601.888 .0323595
602.663 .0323114
603.437 .0322655
604.211 .0322205
604.984 .0321771
605.757 .0321361
606.530 .0320968
607.302 .0320586
608.074 .0320223
608.845 .0319872
609.616 .0319529
610.387 .0319191
611.158 .0318858
611.928 .0318532
612.697 .0318220
613.467 .0317926
614.236 .0317639
615.004 .0317366
615.773 .0317099
616.541 .0316848
617.308 .0316622
618.076 .0316426
618.843 .0316254
619.609 .0316112
620.375 .0315992
621.141 .0315888
621.907 .0315792
622.672 .0315702
623.437 .0315609
624.202 .0315511
624.966 .0315407
625.730 .0315297
626.493 .0315178
627.257 .0315058
628.020 .0314928
628.782 .0314795
629.545 .0314638
630.307 .0314452
631.068 .0314237
631.830 .0314002
632.591 .0313746
633.352 .0313481
634.112 .0313210
634.872 .0312945
635.632 .0312686
636.392 .0312431
637.151 .0312171
637.910 .0311911
638.668 .0311649
639.427 .0311386
640.185 .0311115
640.943 .0310845
641.700 .0310574
642.457 .0310315
643.214 .0310064
643.971 .0309817
644.727 .0309566
645.483 .0309320
646.239 .0309062
646.994 .0308798
647.750 .0308525
648.505 .0308249
649.259 .0307977
650.014 .0307711
650.768 .0307439
651.521 .0307165
652.275 .0306886
653.028 .0306604
653.781 .0306309
654.534 .0306010
655.286 .0305700
656.039 .0305393
656.791 .0305088
657.542 .0304786
658.294 .0304481
659.045 .0304186
659.796 .0303885
660.546 .0303585
661.297 .0303276
662.047 .0302962
662.796 .0302646
663.546 .0302333
664.295 .0302016
665.044 .0301701
665.793 .0301390
666.542 .0301092
667.290 .0300798
668.038 .0300514
668.786 .0300228
669.533 .0299949
670.281 .0299673
671.028 .0299398
671.774 .0299126
672.521 .0298864
673.267 .0298608
674.013 .0298366
674.759 .0298135
675.505 .0297917
676.250 .0297713
676.995 .0297527
677.740 .0297346
678.484 .0297173
679.229 .0297008
679.973 .0296851
680.717 .0296703
681.460 .0296571
682.204 .0296446
682.947 .0296334
683.690 .0296236
684.433 .0296143
685.175 .0296055
685.917 .0295977
686.659 .0295901
687.401 .0295828
688.142 .0295762
688.884 .0295694
689.625 .0295630
690.365 .0295570
691.106 .0295511
691.846 .0295451
692.586 .0295391
693.326 .0295322
694.066 .0295248
694.805 .0295170
695.545 .0295089
696.284 .0295003
697.022 .0294920
697.761 .0294830
698.499 .0294732
699.237 .0294627
699.975 .0294511
700.713 .0294384
701.450 .0294255
702.187 .0294118
702.924 .0293982
703.661 .0293846
704.397 .0293714
705.133 .0293587
705.869 .0293468
706.605 .0293349
707.341 .0293227
708.076 .0293102
708.811 .0292971
709.546 .0292828
710.281 .0292680
711.015 .0292528
711.749 .0292372
712.483 .0292215
713.217 .0292050
713.950 .0291880
714.684 .0291703
715.417 .0291514
716.150 .0291311
716.882 .0291091
717.615 .0290858
718.347 .0290613
719.079 .0290355
719.811 .0290096
720.542 .0289835
721.273 .0289577
722.005 .0289318
722.735 .0289063
723.466 .0288806
724.196 .0288544
724.927 .0288273
725.656 .0287993
726.386 .0287706
727.116 .0287419
727.845 .0287131
728.574 .0286848
729.303 .0286575
730.031 .0286314
730.760 .0286064
731.488 .0285823
732.216 .0285586
732.944 .0285349
733.671 .0285110
734.398 .0284870
735.125 .0284628
735.852 .0284386
736.579 .0284150
737.305 .0283923
738.031 .0283707
738.757 .0283498
739.483 .0283296
740.208 .0283102
740.933 .0282912
741.658 .0282722
742.383 .0282525
743.108 .0282324
743.832 .0282128
744.556 .0281933
745.280 .0281737
746.004 .0281544
746.727 .0281359
747.450 .0281182
748.173 .0281010
748.896 .0280847
749.618 .0280694
750.340 .0280554
751.062 .0280429
751.784 .0280316
752.506 .0280217
753.227 .0280134
753.948 .0280061
754.669 .0279999
755.389 .0279947
756.110 .0279896
756.830 .0279847
757.550 .0279807
758.269 .0279772
758.989 .0279740
759.708 .0279708
760.427 .0279682
761.146 .0279656
761.864 .0279630
762.582 .0279601
763.300 .0279568
764.018 .0279536
764.736 .0279502
765.453 .0279464
766.170 .0279427
766.887 .0279395
767.603 .0279367
768.320 .0279347
769.036 .0279337
769.751 .0279336
770.467 .0279344
771.182 .0279361
771.897 .0279388
772.612 .0279417
773.327 .0279454
774.041 .0279491
774.755 .0279529
775.469 .0279570
776.183 .0279609
776.896 .0279649
777.609 .0279695
778.322 .0279745
779.035 .0279797
779.747 .0279855
780.459 .0279917
781.171 .0279977
781.882 .0280035
782.594 .0280087
783.305 .0280134
784.016 .0280175
784.726 .0280210
785.436 .0280235
786.147 .0280256
786.856 .0280274
787.566 .0280282
788.275 .0280283
788.984 .0280272
789.693 .0280247
790.401 .0280206
791.110 .0280150
791.818 .0280078
792.525 .0279991
793.233 .0279895
793.940 .0279790
794.647 .0279678
795.353 .0279563
796.060 .0279441
796.766 .0279313
797.472 .0279177
798.177 .0279031
798.883 .0278873
799.588 .0278712
800.292 .0278546
800.997 .0278379
801.701 .0278211
802.405 .0278040
803.109 .0277864
803.812 .0277683
804.515 .0277487
805.218 .0277274
805.921 .0277041
806.623 .0276784
807.325 .0276508
808.027 .0276222
808.728 .0275927
809.429 .0275632
810.130 .0275340
810.831 .0275049
811.531 .0274757
812.231 .0274462
812.931 .0274155
813.630 .0273837
814.330 .0273512
815.029 .0273179
815.727 .0272844
816.426 .0272516
817.124 .0272194
817.821 .0271884
818.519 .0271586
819.216 .0271298
819.913 .0271018
820.609 .0270745
821.306 .0270474
822.002 .0270208
822.697 .0269951
823.393 .0269705
824.088 .0269469
824.783 .0269249
825.477 .0269037
826.171 .0268833
826.865 .0268637
827.559 .0268448
828.252 .0268266
828.945 .0268093
829.638 .0267925
830.330 .0267769
831.023 .0267618
831.714 .0267470
832.406 .0267327
833.097 .0267184
833.788 .0267036
834.479 .0266884
835.169 .0266729
835.859 .0266578
836.548 .0266433
837.238 .0266303
837.927 .0266183
838.615 .0266080
839.304 .0265987
839.992 .0265902
840.680 .0265826
841.367 .0265757
842.054 .0265698
842.741 .0265645
843.428 .0265604
844.114 .0265574
844.800 .0265556
845.485 .0265548
846.170 .0265543
846.855 .0265538
847.540 .0265528
848.224 .0265513
848.908 .0265499
849.592 .0265483
850.275 .0265469
850.958 .0265460
851.641 .0265461
852.323 .0265472
853.005 .0265490
853.687 .0265512
854.368 .0265541
855.049 .0265576
855.730 .0265611
856.410 .0265644
857.090 .0265684
857.769 .0265733
858.449 .0265787
859.128 .0265847
859.806 .0265916
860.485 .0265991
861.163 .0266074
861.840 .0266163
862.518 .0266253
863.195 .0266349
863.871 .0266448
864.548 .0266548
865.224 .0266647
865.899 .0266749
866.574 .0266845
867.249 .0266941
867.924 .0267041
868.598 .0267139
869.272 .0267238
869.946 .0267344
870.619 .0267455
871.292 .0267569
871.964 .0267682
872.636 .0267793
873.308 .0267894
873.979 .0267989
874.651 .0268066
875.321 .0268122
875.992 .0268165
876.662 .0268196
877.331 .0268215
878.001 .0268229
878.670 .0268244
879.338 .0268258
880.007 .0268273
880.675 .0268290
881.342 .0268302
882.009 .0268309
882.676 .0268310
883.343 .0268304
884.009 .0268291
884.675 .0268276
885.340 .0268259
886.005 .0268246
886.670 .0268239
887.334 .0268238
887.998 .0268240
888.662 .0268246
889.325 .0268250
889.988 .0268246
890.650 .0268234
891.312 .0268212
891.974 .0268177
892.636 .0268132
893.297 .0268083
893.957 .0268033
894.618 .0267981
895.278 .0267932
895.937 .0267886
896.596 .0267843
897.255 .0267798
897.914 .0267747
898.572 .0267682
899.230 .0267606
899.887 .0267507
900.544 .0267385
901.201 .0267243
901.857 .0267083
902.513 .0266903
903.168 .0266708
903.823 .0266501
904.478 .0266283
905.132 .0266049
905.786 .0265800
906.440 .0265530
907.093 .0265237
907.746 .0264918
908.399 .0264581
909.051 .0264233
909.703 .0263882
910.354 .0263534
911.005 .0263197
911.656 .0262872
912.306 .0262556
912.956 .0262244
913.605 .0261930
914.254 .0261612
914.903 .0261283
915.551 .0260940
916.199 .0260596
916.847 .0260253
917.494 .0259917
918.141 .0259591
918.788 .0259275
919.434 .0258968
920.079 .0258660
920.725 .0258347
921.370 .0258021
922.014 .0257681
922.658 .0257329
923.302 .0256968
923.946 .0256604
924.589 .0256242
925.231 .0255879
925.873 .0255523
926.515 .0255166
927.157 .0254802
927.798 .0254429
928.439 .0254045
929.079 .0253649
929.719 .0253242
930.359 .0252823
930.998 .0252405
931.637 .0251991
932.275 .0251589
932.913 .0251199
933.551 .0250823
934.188 .0250463
934.825 .0250117
935.462 .0249789
936.098 .0249477
936.733 .0249177
937.369 .0248894
938.004 .0248622
938.638 .0248361
939.273 .0248110
939.907 .0247871
940.540 .0247648
941.173 .0247442
941.806 .0247253
942.438 .0247084
943.070 .0246936
943.702 .0246806
944.333 .0246691
944.964 .0246586
945.594 .0246487
946.224 .0246393
946.854 .0246303
947.483 .0246220
948.112 .0246144
948.741 .0246076
949.369 .0246011
949.996 .0245952
950.624 .0245897
951.251 .0245836
951.878 .0245771
952.504 .0245694
953.130 .0245605
953.755 .0245504
954.380 .0245397
955.005 .0245286
955.629 .0245177
956.253 .0245071
956.877 .0244974
957.500 .0244887
958.123 .0244811
958.746 .0244745
959.368 .0244689
959.990 .0244639
960.611 .0244597
961.232 .0244556
961.853 .0244528
962.473 .0244511
963.093 .0244512
963.712 .0244524
964.331 .0244554
964.950 .0244597
965.569 .0244655
966.187 .0244726
966.804 .0244813
967.422 .0244911
968.039 .0245020
968.655 .0245133
969.272 .0245252
969.887 .0245376
970.503 .0245510
971.118 .0245647
971.733 .0245798
972.347 .0245956
972.961 .0246123
973.575 .0246292
974.188 .0246467
974.801 .0246631
975.414 .0246785
976.026 .0246923
976.638 .0247042
977.250 .0247145
977.861 .0247235
978.472 .0247316
979.083 .0247398
979.693 .0247481
980.303 .0247570
980.912 .0247664
981.521 .0247769
982.130 .0247874
982.738 .0247986
983.346 .0248102
983.954 .0248217
984.562 .0248332
985.169 .0248446
985.775 .0248554
986.382 .0248658
986.988 .0248759
987.594 .0248856
988.199 .0248948
988.804 .0249044
989.409 .0249135
990.013 .0249231
990.617 .0249330
991.221 .0249433
991.824 .0249536
992.427 .0249647
993.030 .0249767
993.632 .0249892
994.234 .0250029
994.836 .0250180
995.438 .0250345
996.039 .0250525
996.640 .0250721
997.240 .0250935
997.840 .0251161
998.440 .0251401
999.040 .0251648
999.639 .0251902
1000.238 .0252159
1000.836 .0252413
1001.435 .0252663
1002.033 .0252904
1002.630 .0253132
1003.228 .0253342
1003.825 .0253539
1004.422 .0253733
1005.018 .0253922
1005.614 .0254108
1006.210 .0254299
1006.806 .0254487
1007.401 .0254664
1007.996 .0254826
1008.591 .0254973
1009.186 .0255100
1009.780 .0255203
1010.374 .0255282
1010.967 .0255350
1011.561 .0255408
1012.154 .0255464
1012.746 .0255517
1013.339 .0255573
1013.931 .0255623
1014.523 .0255656
1015.115 .0255668
1015.706 .0255666
1016.298 .0255644
1016.888 .0255612
1017.479 .0255578
1018.069 .0255560
1018.660 .0255552
1019.250 .0255565
1019.839 .0255600
1020.429 .0255655
1021.018 .0255718
1021.607 .0255779
1022.195 .0255828
1022.784 .0255865
1023.372 .0255882
1023.960 .0255887
1024.547 .0255895
1025.135 .0255913
1025.722 .0255940
1026.309 .0255990
1026.896 .0256054
1027.483 .0256126
1028.069 .0256194
1028.655 .0256247
1029.241 .0256272
1029.827 .0256271
1030.412 .0256239
1030.997 .0256184
1031.582 .0256125
1032.167 .0256077
1032.752 .0256036
1033.336 .0256017
1033.921 .0256009
1034.505 .0255998
1035.089 .0255971
1035.672 .0255924
1036.256 .0255837
1036.839 .0255714
1037.422 .0255561
1038.005 .0255387
1038.588 .0255206
1039.171 .0255031
1039.753 .0254857
1040.335 .0254699
1040.918 .0254546
1041.500 .0254387
1042.081 .0254210
1042.663 .0254016
1043.244 .0253791
1043.826 .0253540
1044.407 .0253269
1044.988 .0252987
1045.569 .0252704
1046.150 .0252426
1046.730 .0252157
1047.311 .0251904
1047.891 .0251659
1048.471 .0251420
1049.052 .0251183
1049.632 .0250956
1050.211 .0250729
1050.791 .0250515
1051.371 .0250313
1051.950 .0250126
1052.530 .0249954
1053.109 .0249790
1053.688 .0249635
1054.268 .0249486
1054.847 .0249335
1055.426 .0249177
1056.005 .0249012
1056.583 .0248842
1057.162 .0248656
1057.741 .0248461
1058.319 .0248261
1058.898 .0248062
1059.476 .0247850
1060.055 .0247631
1060.633 .0247401
1061.211 .0247164
1061.790 .0246931
1062.368 .0246701
1062.946 .0246482
1063.524 .0246289
1064.102 .0246121
1064.680 .0245980
1065.258 .0245868
1065.836 .0245787
1066.414 .0245713
1066.992 .0245648
1067.570 .0245589
1068.148 .0245516
1068.726 .0245437
1069.304 .0245358
1069.882 .0245267
1070.460 .0245177
1071.038 .0245068
1071.616 .0244938
1072.194 .0244797
1072.772 .0244649
1073.350 .0244490
1073.928 .0244316
1074.506 .0244144
1075.084 .0243977
1075.662 .0243808
1076.240 .0243661
1076.819 .0243513
1077.397 .0243371
1077.976 .0243234
1078.554 .0243078
1079.133 .0242910
1079.711 .0242728
1080.290 .0242527
1080.869 .0242326
1081.448 .0242125
1082.027 .0241939
1082.606 .0241758
1083.185 .0241602
1083.764 .0241472
1084.343 .0241356
1084.923 .0241257
1085.502 .0241164
1086.082 .0241067
1086.662 .0240976
1087.242 .0240884
1087.822 .0240796
1088.402 .0240735
1088.983 .0240697
1089.563 .0240684
1090.144 .0240708
1090.725 .0240773
1091.306 .0240871
1091.887 .0240998
1092.469 .0241158
1093.050 .0241333
1093.632 .0241499
1094.214 .0241656
1094.796 .0241779
1095.379 .0241898
1095.961 .0242025
1096.544 .0242163
1097.127 .0242320
1097.710 .0242509
1098.294 .0242726
1098.877 .0242955
1099.461 .0243205
1100.046 .0243450
1100.630 .0243684
1101.215 .0243911
1101.800 .0244121
1102.385 .0244331
1102.970 .0244549
1103.556 .0244801
1104.142 .0245087
1104.728 .0245410
1105.315 .0245733
1105.902 .0246028
1106.489 .0246314
1107.077 .0246567
1107.664 .0246789
1108.253 .0247009
1108.841 .0247241
1109.430 .0247484
1110.019 .0247760
1110.609 .0248053
1111.198 .0248353
1111.789 .0248668
1112.379 .0248961
1112.970 .0249211
1113.561 .0249428
1114.153 .0249628
1114.745 .0249808
1115.338 .0250023
1115.931 .0250310
1116.524 .0250647
1117.117 .0251051
1117.712 .0251518
1118.306 .0251993
1118.901 .0252485
1119.496 .0252970
1120.092 .0253429
1120.689 .0253839
1121.285 .0254219
1121.882 .0254561
1122.480 .0254911
1123.078 .0255279
1123.677 .0255670
1124.276 .0256090
1124.875 .0256588
1125.476 .0257102
1126.076 .0257621
1126.677 .0258152
1127.279 .0258714
1127.881 .0259305
1128.484 .0259928
1129.087 .0260560
1129.691 .0261248
1130.295 .0261966
1130.900 .0262750
1131.505 .0263591
1132.111 .0264486
1132.718 .0265389
1133.325 .0266299
1133.933 .0267207
1134.541 .0268124
1135.150 .0269053
1135.760 .0270021
1136.370 .0271081
1136.981 .0272266
1137.592 .0273501
1138.204 .0274813
1138.817 .0276249
1139.431 .0277805
1140.045 .0279499
1140.660 .0281406
1141.275 .0283586
1141.891 .0286200
1142.508 .0286657
1143.126 .0290946
1143.744 .0295611
1144.363 .0299870
1144.983 .0306196
