Measurement Sequence started on: 15-12-46-377
Integration time: 28
Scans to Average: 2 
>>>>>Begin Spectral Data<<<<<
432.689 .0000100
433.621 .0000100
434.552 .0000100
435.482 .0000100
436.410 .0000100
437.337 .0000100
438.262 .0276678
439.187 .0587943
440.110 .0975266
441.031 .1412665
441.952 .1838376
442.871 .2174729
443.789 .2361034
444.705 .2375760
445.621 .2244238
446.535 .2021709
447.447 .1768381
448.359 .1379920
449.269 .1186210
450.178 .1064093
451.086 .0978002
451.993 .0912161
452.898 .0860160
453.803 .0817443
454.706 .0781830
455.608 .0751120
456.508 .0724465
457.408 .0701444
458.306 .0681123
459.204 .0663057
460.100 .0646948
460.995 .0632622
461.888 .0619563
462.781 .0607512
463.673 .0596292
464.563 .0585853
465.452 .0575858
466.340 .0566282
467.228 .0557384
468.114 .0548991
468.999 .0541252
469.882 .0533944
470.765 .0527213
471.647 .0520955
472.528 .0515033
473.407 .0509533
474.286 .0504463
475.163 .0499833
476.040 .0495684
476.915 .0492016
477.790 .0488889
478.663 .0486148
479.535 .0483831
480.407 .0481811
481.277 .0480100
482.147 .0478589
483.015 .0477317
483.883 .0476251
484.749 .0475492
485.615 .0474995
486.479 .0474786
487.343 .0474956
488.206 .0475424
489.067 .0476004
489.928 .0476734
490.788 .0477604
491.647 .0478632
492.505 .0479831
493.362 .0481363
494.218 .0483193
495.073 .0485413
495.928 .0487989
496.781 .0490799
497.634 .0493881
498.486 .0497191
499.337 .0500625
500.187 .0504123
501.036 .0507755
501.884 .0511413
502.731 .0515284
503.578 .0519538
504.424 .0524212
505.268 .0529150
506.113 .0534518
506.956 .0540210
507.798 .0546190
508.640 .0552457
509.480 .0559143
510.320 .0566385
511.160 .0574427
511.998 .0583207
512.836 .0592922
513.672 .0603721
514.508 .0615954
515.344 .0629499
516.178 .0644846
517.012 .0662072
517.845 .0681563
518.677 .0703413
519.508 .0728308
520.339 .0756441
521.169 .0788451
521.998 .0824527
522.826 .0865223
523.654 .0910804
524.481 .0961249
525.307 .1017202
526.133 .1078600
526.958 .1145078
527.782 .1216393
528.605 .1289769
529.428 .1364397
530.250 .1434986
531.072 .1498328
531.892 .1550696
532.712 .1588850
533.532 .1610880
534.350 .1614538
535.168 .1599633
535.986 .1567876
536.802 .1520615
537.618 .1461919
538.434 .1393887
539.249 .1321305
540.063 .1246736
540.876 .1172814
541.689 .1101904
542.501 .1035915
543.313 .0976005
544.124 .0922637
544.934 .0874744
545.744 .0832331
546.553 .0794371
547.361 .0760786
548.169 .0731336
548.976 .0705400
549.783 .0682373
550.589 .0662015
551.395 .0643406
552.200 .0626461
553.004 .0610889
553.808 .0596467
554.611 .0583164
555.414 .0571007
556.216 .0559696
557.018 .0549337
557.819 .0539679
558.619 .0530735
559.419 .0522169
560.218 .0514078
561.017 .0506117
561.815 .0498294
562.613 .0490689
563.410 .0483331
564.207 .0476239
565.003 .0469553
565.799 .0463168
566.594 .0456957
567.388 .0450979
568.182 .0445062
568.976 .0439141
569.769 .0433348
570.562 .0427620
571.354 .0421977
572.145 .0416511
572.936 .0411259
573.727 .0406224
574.517 .0401451
575.307 .0396926
576.096 .0392561
576.885 .0388405
577.673 .0384420
578.461 .0380592
579.248 .0376930
580.035 .0373511
580.821 .0370274
581.607 .0367269
582.392 .0364495
583.177 .0361922
583.962 .0359540
584.746 .0357351
585.529 .0355327
586.313 .0353488
587.095 .0351839
587.878 .0350360
588.660 .0349048
589.441 .0347905
590.222 .0346896
591.003 .0346013
591.783 .0345242
592.563 .0344562
593.342 .0343939
594.121 .0343354
594.899 .0342811
595.678 .0342291
596.455 .0341789
597.233 .0341297
598.009 .0340810
598.786 .0340337
599.562 .0339863
600.338 .0339381
601.113 .0338902
601.888 .0338419
602.663 .0337926
603.437 .0337420
604.211 .0336906
604.984 .0336388
605.757 .0335865
606.530 .0335358
607.302 .0334869
608.074 .0334397
608.845 .0333949
609.616 .0333507
610.387 .0333075
611.158 .0332651
611.928 .0332220
612.697 .0331787
613.467 .0331361
614.236 .0330945
615.004 .0330535
615.773 .0330140
616.541 .0329765
617.308 .0329402
618.076 .0329058
618.843 .0328724
619.609 .0328389
620.375 .0328057
621.141 .0327727
621.907 .0327392
622.672 .0327067
623.437 .0326748
624.202 .0326431
624.966 .0326120
625.730 .0325815
626.493 .0325503
627.257 .0325190
628.020 .0324874
628.782 .0324547
629.545 .0324207
630.307 .0323856
631.068 .0323487
631.830 .0323111
632.591 .0322727
633.352 .0322339
634.112 .0321952
634.872 .0321565
635.632 .0321186
636.392 .0320816
637.151 .0320460
637.910 .0320110
638.668 .0319769
639.427 .0319432
640.185 .0319089
640.943 .0318750
641.700 .0318418
642.457 .0318093
643.214 .0317779
643.971 .0317478
644.727 .0317186
645.483 .0316905
646.239 .0316631
646.994 .0316357
647.750 .0316091
648.505 .0315829
649.259 .0315570
650.014 .0315322
650.768 .0315097
651.521 .0314892
652.275 .0314712
653.028 .0314560
653.781 .0314421
654.534 .0314293
655.286 .0314172
656.039 .0314050
656.791 .0313928
657.542 .0313806
658.294 .0313683
659.045 .0313562
659.796 .0313445
660.546 .0313329
661.297 .0313215
662.047 .0313103
662.796 .0312981
663.546 .0312843
664.295 .0312688
665.044 .0312519
665.793 .0312335
666.542 .0312147
667.290 .0311954
668.038 .0311765
668.786 .0311582
669.533 .0311396
670.281 .0311210
671.028 .0311021
671.774 .0310822
672.521 .0310613
673.267 .0310394
674.013 .0310167
674.759 .0309936
675.505 .0309711
676.250 .0309491
676.995 .0309280
677.740 .0309081
678.484 .0308885
679.229 .0308690
679.973 .0308491
680.717 .0308281
681.460 .0308061
682.204 .0307830
682.947 .0307589
683.690 .0307345
684.433 .0307100
685.175 .0306858
685.917 .0306621
686.659 .0306391
687.401 .0306163
688.142 .0305936
688.884 .0305705
689.625 .0305464
690.365 .0305212
691.106 .0304948
691.846 .0304672
692.586 .0304390
693.326 .0304100
694.066 .0303807
694.805 .0303517
695.545 .0303224
696.284 .0302929
697.022 .0302633
697.761 .0302335
698.499 .0302027
699.237 .0301710
699.975 .0301385
700.713 .0301055
701.450 .0300727
702.187 .0300404
702.924 .0300088
703.661 .0299786
704.397 .0299490
705.133 .0299203
705.869 .0298926
706.605 .0298660
707.341 .0298397
708.076 .0298143
708.811 .0297893
709.546 .0297650
710.281 .0297416
711.015 .0297196
711.749 .0296986
712.483 .0296784
713.217 .0296583
713.950 .0296383
714.684 .0296184
715.417 .0295987
716.150 .0295786
716.882 .0295590
717.615 .0295398
718.347 .0295205
719.079 .0295013
719.811 .0294824
720.542 .0294642
721.273 .0294462
722.005 .0294281
722.735 .0294096
723.466 .0293916
724.196 .0293735
724.927 .0293554
725.656 .0293376
726.386 .0293200
727.116 .0293023
727.845 .0292847
728.574 .0292670
729.303 .0292498
730.031 .0292332
730.760 .0292175
731.488 .0292025
732.216 .0291887
732.944 .0291760
733.671 .0291645
734.398 .0291545
735.125 .0291458
735.852 .0291381
736.579 .0291316
737.305 .0291261
738.031 .0291221
738.757 .0291189
739.483 .0291163
740.208 .0291143
740.933 .0291132
741.658 .0291124
742.383 .0291121
743.108 .0291121
743.832 .0291127
744.556 .0291136
745.280 .0291145
746.004 .0291150
746.727 .0291156
747.450 .0291160
748.173 .0291156
748.896 .0291147
749.618 .0291134
750.340 .0291118
751.062 .0291099
751.784 .0291076
752.506 .0291045
753.227 .0291003
753.948 .0290952
754.669 .0290888
755.389 .0290807
756.110 .0290714
756.830 .0290609
757.550 .0290494
758.269 .0290368
758.989 .0290230
759.708 .0290079
760.427 .0289921
761.146 .0289753
761.864 .0289575
762.582 .0289387
763.300 .0289197
764.018 .0289007
764.736 .0288824
765.453 .0288645
766.170 .0288474
766.887 .0288307
767.603 .0288150
768.320 .0287993
769.036 .0287836
769.751 .0287676
770.467 .0287518
771.182 .0287360
771.897 .0287196
772.612 .0287031
773.327 .0286868
774.041 .0286711
774.755 .0286560
775.469 .0286413
776.183 .0286275
776.896 .0286145
777.609 .0286022
778.322 .0285901
779.035 .0285783
779.747 .0285668
780.459 .0285556
781.171 .0285444
781.882 .0285335
782.594 .0285231
783.305 .0285133
784.016 .0285045
784.726 .0284965
785.436 .0284889
786.147 .0284813
786.856 .0284731
787.566 .0284642
788.275 .0284539
788.984 .0284422
789.693 .0284284
790.401 .0284133
791.110 .0283967
791.818 .0283782
792.525 .0283586
793.233 .0283383
793.940 .0283172
794.647 .0282955
795.353 .0282728
796.060 .0282497
796.766 .0282257
797.472 .0282008
798.177 .0281747
798.883 .0281478
799.588 .0281200
800.292 .0280917
800.997 .0280629
801.701 .0280349
802.405 .0280076
803.109 .0279816
803.812 .0279576
804.515 .0279350
805.218 .0279132
805.921 .0278920
806.623 .0278709
807.325 .0278498
808.027 .0278279
808.728 .0278053
809.429 .0277821
810.130 .0277584
810.831 .0277349
811.531 .0277111
812.231 .0276879
812.931 .0276651
813.630 .0276420
814.330 .0276188
815.029 .0275951
815.727 .0275708
816.426 .0275461
817.124 .0275210
817.821 .0274961
818.519 .0274711
819.216 .0274468
819.913 .0274238
820.609 .0274025
821.306 .0273830
822.002 .0273658
822.697 .0273511
823.393 .0273391
824.088 .0273295
824.783 .0273220
825.477 .0273166
826.171 .0273124
826.865 .0273099
827.559 .0273084
828.252 .0273079
828.945 .0273088
829.638 .0273109
830.330 .0273144
831.023 .0273190
831.714 .0273244
832.406 .0273306
833.097 .0273370
833.788 .0273434
834.479 .0273489
835.169 .0273537
835.859 .0273577
836.548 .0273611
837.238 .0273640
837.927 .0273663
838.615 .0273687
839.304 .0273713
839.992 .0273739
840.680 .0273767
841.367 .0273799
842.054 .0273833
842.741 .0273871
843.428 .0273909
844.114 .0273947
844.800 .0273988
845.485 .0274027
846.170 .0274067
846.855 .0274104
847.540 .0274138
848.224 .0274170
848.908 .0274200
849.592 .0274229
850.275 .0274253
850.958 .0274275
851.641 .0274292
852.323 .0274305
853.005 .0274312
853.687 .0274308
854.368 .0274297
855.049 .0274280
855.730 .0274254
856.410 .0274217
857.090 .0274170
857.769 .0274114
858.449 .0274047
859.128 .0273969
859.806 .0273883
860.485 .0273793
861.163 .0273702
861.840 .0273617
862.518 .0273534
863.195 .0273457
863.871 .0273382
864.548 .0273306
865.224 .0273230
865.899 .0273147
866.574 .0273062
867.249 .0272971
867.924 .0272882
868.598 .0272796
869.272 .0272715
869.946 .0272646
870.619 .0272590
871.292 .0272543
871.964 .0272500
872.636 .0272455
873.308 .0272403
873.979 .0272343
874.651 .0272277
875.321 .0272206
875.992 .0272136
876.662 .0272072
877.331 .0272019
878.001 .0271974
878.670 .0271945
879.338 .0271927
880.007 .0271916
880.675 .0271911
881.342 .0271907
882.009 .0271899
882.676 .0271890
883.343 .0271880
884.009 .0271869
884.675 .0271861
885.340 .0271854
886.005 .0271841
886.670 .0271829
887.334 .0271816
887.998 .0271799
888.662 .0271778
889.325 .0271756
889.988 .0271732
890.650 .0271701
891.312 .0271668
891.974 .0271630
892.636 .0271587
893.297 .0271542
893.957 .0271489
894.618 .0271428
895.278 .0271359
895.937 .0271282
896.596 .0271200
897.255 .0271119
897.914 .0271037
898.572 .0270950
899.230 .0270854
899.887 .0270754
900.544 .0270639
901.201 .0270509
901.857 .0270365
902.513 .0270202
903.168 .0270019
903.823 .0269814
904.478 .0269584
905.132 .0269337
905.786 .0269072
906.440 .0268790
907.093 .0268490
907.746 .0268173
908.399 .0267841
909.051 .0267495
909.703 .0267139
910.354 .0266779
911.005 .0266411
911.656 .0266047
912.306 .0265684
912.956 .0265326
913.605 .0264975
914.254 .0264632
914.903 .0264298
915.551 .0263974
916.199 .0263660
916.847 .0263361
917.494 .0263074
918.141 .0262805
918.788 .0262549
919.434 .0262308
920.079 .0262071
920.725 .0261837
921.370 .0261598
922.014 .0261358
922.658 .0261103
923.302 .0260841
923.946 .0260569
924.589 .0260292
925.231 .0260006
925.873 .0259711
926.515 .0259410
927.157 .0259102
927.798 .0258784
928.439 .0258458
929.079 .0258123
929.719 .0257786
930.359 .0257444
930.998 .0257104
931.637 .0256770
932.275 .0256446
932.913 .0256125
933.551 .0255811
934.188 .0255505
934.825 .0255201
935.462 .0254896
936.098 .0254597
936.733 .0254308
937.369 .0254029
938.004 .0253765
938.638 .0253516
939.273 .0253284
939.907 .0253071
940.540 .0252869
941.173 .0252678
941.806 .0252502
942.438 .0252335
943.070 .0252174
943.702 .0252018
944.333 .0251868
944.964 .0251725
945.594 .0251594
946.224 .0251472
946.854 .0251362
947.483 .0251266
948.112 .0251181
948.741 .0251102
949.369 .0251030
949.996 .0250959
950.624 .0250883
951.251 .0250804
951.878 .0250718
952.504 .0250626
953.130 .0250538
953.755 .0250451
954.380 .0250372
955.005 .0250302
955.629 .0250235
956.253 .0250168
956.877 .0250106
957.500 .0250045
958.123 .0249979
958.746 .0249914
959.368 .0249854
959.990 .0249795
960.611 .0249746
961.232 .0249709
961.853 .0249682
962.473 .0249665
963.093 .0249648
963.712 .0249626
964.331 .0249596
964.950 .0249561
965.569 .0249517
966.187 .0249472
966.804 .0249437
967.422 .0249417
968.039 .0249411
968.655 .0249426
969.272 .0249460
969.887 .0249505
970.503 .0249559
971.118 .0249613
971.733 .0249660
972.347 .0249706
972.961 .0249750
973.575 .0249793
974.188 .0249832
974.801 .0249874
975.414 .0249921
976.026 .0249972
976.638 .0250027
977.250 .0250083
977.861 .0250141
978.472 .0250204
979.083 .0250264
979.693 .0250315
980.303 .0250357
980.912 .0250391
981.521 .0250409
982.130 .0250414
982.738 .0250410
983.346 .0250398
983.954 .0250389
984.562 .0250392
985.169 .0250398
985.775 .0250411
986.382 .0250430
986.988 .0250451
987.594 .0250465
988.199 .0250466
988.804 .0250451
989.409 .0250425
990.013 .0250396
990.617 .0250362
991.221 .0250329
991.824 .0250311
992.427 .0250314
993.030 .0250335
993.632 .0250379
994.234 .0250444
994.836 .0250525
995.438 .0250622
996.039 .0250724
996.640 .0250829
997.240 .0250941
997.840 .0251057
998.440 .0251177
999.040 .0251303
999.639 .0251441
1000.238 .0251586
1000.836 .0251743
1001.435 .0251912
1002.033 .0252090
1002.630 .0252271
1003.228 .0252454
1003.825 .0252636
1004.422 .0252818
1005.018 .0252997
1005.614 .0253173
1006.210 .0253347
1006.806 .0253526
1007.401 .0253703
1007.996 .0253881
1008.591 .0254060
1009.186 .0254246
1009.780 .0254429
1010.374 .0254610
1010.967 .0254777
1011.561 .0254932
1012.154 .0255066
1012.746 .0255181
1013.339 .0255278
1013.931 .0255364
1014.523 .0255442
1015.115 .0255521
1015.706 .0255605
1016.298 .0255699
1016.888 .0255798
1017.479 .0255900
1018.069 .0255998
1018.660 .0256086
1019.250 .0256160
1019.839 .0256229
1020.429 .0256292
1021.018 .0256366
1021.607 .0256456
1022.195 .0256560
1022.784 .0256685
1023.372 .0256823
1023.960 .0256968
1024.547 .0257111
1025.135 .0257248
1025.722 .0257376
1026.309 .0257496
1026.896 .0257620
1027.483 .0257749
1028.069 .0257887
1028.655 .0258045
1029.241 .0258217
1029.827 .0258393
1030.412 .0258573
1030.997 .0258751
1031.582 .0258927
1032.167 .0259099
1032.752 .0259261
1033.336 .0259418
1033.921 .0259569
1034.505 .0259710
1035.089 .0259833
1035.672 .0259932
1036.256 .0260015
1036.839 .0260063
1037.422 .0260089
1038.005 .0260099
1038.588 .0260098
1039.171 .0260092
1039.753 .0260085
1040.335 .0260081
1040.918 .0260072
1041.500 .0260051
1042.081 .0260012
1042.663 .0259952
1043.244 .0259874
1043.826 .0259768
1044.407 .0259650
1044.988 .0259532
1045.569 .0259422
1046.150 .0259317
1046.730 .0259226
1047.311 .0259152
1047.891 .0259094
1048.471 .0259049
1049.052 .0259005
1049.632 .0258969
1050.211 .0258936
1050.791 .0258907
1051.371 .0258882
1051.950 .0258870
1052.530 .0258872
1053.109 .0258877
1053.688 .0258890
1054.268 .0258900
1054.847 .0258906
1055.426 .0258902
1056.005 .0258886
1056.583 .0258863
1057.162 .0258816
1057.741 .0258754
1058.319 .0258671
1058.898 .0258565
1059.476 .0258434
1060.055 .0258266
1060.633 .0258062
1061.211 .0257824
1061.790 .0257568
1062.368 .0257305
1062.946 .0257044
1063.524 .0256801
1064.102 .0256578
1064.680 .0256367
1065.258 .0256164
1065.836 .0255964
1066.414 .0255760
1066.992 .0255546
1067.570 .0255328
1068.148 .0255107
1068.726 .0254898
1069.304 .0254714
1069.882 .0254556
1070.460 .0254417
1071.038 .0254298
1071.616 .0254177
1072.194 .0254044
1072.772 .0253892
1073.350 .0253727
1073.928 .0253541
1074.506 .0253350
1075.084 .0253167
1075.662 .0253001
1076.240 .0252861
1076.819 .0252762
1077.397 .0252682
1077.976 .0252632
1078.554 .0252597
1079.133 .0252563
1079.711 .0252537
1080.290 .0252511
1080.869 .0252477
1081.448 .0252434
1082.027 .0252384
1082.606 .0252334
1083.185 .0252279
1083.764 .0252237
1084.343 .0252195
1084.923 .0252146
1085.502 .0252091
1086.082 .0252002
1086.662 .0251881
1087.242 .0251723
1087.822 .0251525
1088.402 .0251295
1088.983 .0251050
1089.563 .0250805
1090.144 .0250582
1090.725 .0250407
1091.306 .0250267
1091.887 .0250165
1092.469 .0250105
1093.050 .0250076
1093.632 .0250060
1094.214 .0250057
1094.796 .0250077
1095.379 .0250104
1095.961 .0250145
1096.544 .0250187
1097.127 .0250236
1097.710 .0250294
1098.294 .0250372
1098.877 .0250446
1099.461 .0250525
1100.046 .0250624
1100.630 .0250715
1101.215 .0250826
1101.800 .0250944
1102.385 .0251064
1102.970 .0251187
1103.556 .0251290
1104.142 .0251399
1104.728 .0251478
1105.315 .0251554
1105.902 .0251617
1106.489 .0251692
1107.077 .0251792
1107.664 .0251895
1108.253 .0252000
1108.841 .0252125
1109.430 .0252248
1110.019 .0252347
1110.609 .0252412
1111.198 .0252445
1111.789 .0252450
1112.379 .0252437
1112.970 .0252396
1113.561 .0252376
1114.153 .0252377
1114.745 .0252440
1115.338 .0252551
1115.931 .0252741
1116.524 .0253008
1117.117 .0253317
1117.712 .0253693
1118.306 .0254126
1118.901 .0254606
1119.496 .0255120
1120.092 .0255684
1120.689 .0256315
1121.285 .0256993
1121.882 .0257712
1122.480 .0258476
1123.078 .0259291
1123.677 .0260172
1124.276 .0261071
1124.875 .0262011
1125.476 .0262962
1126.076 .0263939
1126.677 .0264900
1127.279 .0265845
1127.881 .0266729
1128.484 .0267531
1129.087 .0268232
1129.691 .0268851
1130.295 .0269382
1130.900 .0269852
1131.505 .0270265
1132.111 .0270692
1132.718 .0271098
1133.325 .0271496
1133.933 .0271882
1134.541 .0272327
1135.150 .0272750
1135.760 .0273209
1136.370 .0273690
1136.981 .0274244
1137.592 .0274852
1138.204 .0275559
1138.817 .0276374
1139.431 .0277373
1140.045 .0278612
1140.660 .0280115
1141.275 .0281747
1141.891 .0283820
1142.508 .0285233
1143.126 .0288976
1143.744 .0291844
1144.363 .0290869
1144.983 .0299166
