Measurement Sequence started on: 15-12-46-377
Integration time: 28
Scans to Average: 2 
>>>>>Begin Spectral Data<<<<<
432.689 .0000100
433.621 .0000100
434.552 .0000100
435.482 .0000100
436.410 .0000100
437.337 .0000100
438.262 .0266068
439.187 .0563531
440.110 .0933938
441.031 .1352191
441.952 .1759041
442.871 .2080027
443.789 .2257356
444.705 .2270868
445.621 .2144906
446.535 .1932340
447.447 .1691026
448.359 .1319886
449.269 .1137056
450.178 .1021679
451.086 .0940434
451.993 .0878150
452.898 .0828872
453.803 .0788280
454.706 .0754262
455.608 .0724773
456.508 .0699083
457.408 .0676635
458.306 .0656972
459.204 .0639564
460.100 .0624115
460.995 .0610348
461.888 .0598062
462.781 .0586759
463.673 .0576176
464.563 .0566263
465.452 .0556792
466.340 .0547653
467.228 .0539052
468.114 .0530917
468.999 .0523371
469.882 .0516542
470.765 .0510500
471.647 .0505112
472.528 .0500336
473.407 .0496090
474.286 .0492298
475.163 .0488934
476.040 .0485956
476.915 .0483354
477.790 .0481176
478.663 .0479369
479.535 .0477900
480.407 .0476770
481.277 .0475961
482.147 .0475355
483.015 .0474903
483.883 .0474564
484.749 .0474337
485.615 .0474159
486.479 .0474070
487.343 .0474120
488.206 .0474272
489.067 .0474459
489.928 .0474633
490.788 .0474893
491.647 .0475123
492.505 .0475366
493.362 .0475711
494.218 .0476146
495.073 .0476790
495.928 .0477692
496.781 .0478897
497.634 .0480594
498.486 .0482732
499.337 .0485224
500.187 .0488046
501.036 .0491211
501.884 .0494581
502.731 .0498082
503.578 .0501791
504.424 .0505750
505.268 .0509760
506.113 .0514054
506.956 .0518642
507.798 .0523772
508.640 .0529480
509.480 .0535880
510.320 .0543111
511.160 .0551236
511.998 .0560300
512.836 .0570267
513.672 .0581185
514.508 .0593168
515.344 .0606231
516.178 .0620869
517.012 .0637471
517.845 .0656588
518.677 .0678817
519.508 .0704576
520.339 .0734229
521.169 .0768460
521.998 .0806861
522.826 .0849896
523.654 .0897309
524.481 .0949083
525.307 .1005480
526.133 .1065747
526.958 .1130430
527.782 .1199025
528.605 .1270279
529.428 .1343022
530.250 .1411453
531.072 .1473683
531.892 .1525236
532.712 .1562826
533.532 .1584485
534.350 .1588168
535.168 .1573775
535.986 .1542341
536.802 .1495983
537.618 .1437962
538.434 .1370750
539.249 .1299539
540.063 .1225698
540.876 .1152197
541.689 .1081223
542.501 .1014246
543.313 .0952777
544.124 .0897547
544.934 .0847478
545.744 .0802435
546.553 .0762040
547.361 .0726171
548.169 .0694601
548.976 .0666812
549.783 .0642507
550.589 .0621461
551.395 .0602738
552.200 .0586207
553.004 .0571354
553.808 .0557883
554.611 .0545713
555.414 .0534689
556.216 .0524576
557.018 .0515295
557.819 .0506858
558.619 .0499113
559.419 .0491897
560.218 .0485289
561.017 .0479145
561.815 .0473327
562.613 .0467756
563.410 .0462263
564.207 .0456799
565.003 .0451514
565.799 .0446300
566.594 .0441163
567.388 .0436184
568.182 .0431249
568.976 .0426418
569.769 .0421733
570.562 .0417150
571.354 .0412634
572.145 .0408211
572.936 .0403854
573.727 .0399463
574.517 .0395066
575.307 .0390686
576.096 .0386368
576.885 .0382158
577.673 .0378082
578.461 .0374182
579.248 .0370532
580.035 .0367139
580.821 .0363993
581.607 .0361093
582.392 .0358432
583.177 .0355964
583.962 .0353672
584.746 .0351564
585.529 .0349640
586.313 .0347852
587.095 .0346219
587.878 .0344741
588.660 .0343408
589.441 .0342203
590.222 .0341127
591.003 .0340179
591.783 .0339337
592.563 .0338565
593.342 .0337847
594.121 .0337139
594.899 .0336447
595.678 .0335766
596.455 .0335099
597.233 .0334443
598.009 .0333807
598.786 .0333202
599.562 .0332641
600.338 .0332113
601.113 .0331618
601.888 .0331139
602.663 .0330661
603.437 .0330172
604.211 .0329659
604.984 .0329122
605.757 .0328568
606.530 .0327995
607.302 .0327432
608.074 .0326885
608.845 .0326350
609.616 .0325831
610.387 .0325337
611.158 .0324866
611.928 .0324404
612.697 .0323952
613.467 .0323512
614.236 .0323083
615.004 .0322676
615.773 .0322297
616.541 .0321953
617.308 .0321653
618.076 .0321397
618.843 .0321177
619.609 .0320991
620.375 .0320823
621.141 .0320660
621.907 .0320502
622.672 .0320346
623.437 .0320189
624.202 .0320028
624.966 .0319874
625.730 .0319728
626.493 .0319584
627.257 .0319438
628.020 .0319283
628.782 .0319114
629.545 .0318917
630.307 .0318689
631.068 .0318433
631.830 .0318153
632.591 .0317861
633.352 .0317559
634.112 .0317261
634.872 .0316966
635.632 .0316680
636.392 .0316401
637.151 .0316133
637.910 .0315868
638.668 .0315609
639.427 .0315354
640.185 .0315106
640.943 .0314860
641.700 .0314621
642.457 .0314398
643.214 .0314188
643.971 .0313980
644.727 .0313791
645.483 .0313618
646.239 .0313466
646.994 .0313322
647.750 .0313191
648.505 .0313072
649.259 .0312964
650.014 .0312861
650.768 .0312756
651.521 .0312651
652.275 .0312544
653.028 .0312425
653.781 .0312294
654.534 .0312150
655.286 .0311994
656.039 .0311818
656.791 .0311626
657.542 .0311406
658.294 .0311163
659.045 .0310900
659.796 .0310622
660.546 .0310326
661.297 .0310009
662.047 .0309681
662.796 .0309342
663.546 .0308997
664.295 .0308650
665.044 .0308299
665.793 .0307959
666.542 .0307630
667.290 .0307310
668.038 .0307001
668.786 .0306701
669.533 .0306407
670.281 .0306117
671.028 .0305825
671.774 .0305528
672.521 .0305238
673.267 .0304956
674.013 .0304684
674.759 .0304426
675.505 .0304181
676.250 .0303944
676.995 .0303711
677.740 .0303477
678.484 .0303231
679.229 .0302976
679.973 .0302715
680.717 .0302444
681.460 .0302174
682.204 .0301908
682.947 .0301648
683.690 .0301398
684.433 .0301160
685.175 .0300924
685.917 .0300690
686.659 .0300455
687.401 .0300211
688.142 .0299960
688.884 .0299703
689.625 .0299434
690.365 .0299159
691.106 .0298881
691.846 .0298600
692.586 .0298318
693.326 .0298037
694.066 .0297758
694.805 .0297482
695.545 .0297212
696.284 .0296944
697.022 .0296682
697.761 .0296427
698.499 .0296180
699.237 .0295944
699.975 .0295716
700.713 .0295497
701.450 .0295293
702.187 .0295102
702.924 .0294924
703.661 .0294755
704.397 .0294591
705.133 .0294430
705.869 .0294269
706.605 .0294107
707.341 .0293948
708.076 .0293793
708.811 .0293641
709.546 .0293491
710.281 .0293348
711.015 .0293209
711.749 .0293070
712.483 .0292933
713.217 .0292793
713.950 .0292650
714.684 .0292503
715.417 .0292354
716.150 .0292213
716.882 .0292080
717.615 .0291956
718.347 .0291840
719.079 .0291732
719.811 .0291628
720.542 .0291529
721.273 .0291436
722.005 .0291343
722.735 .0291251
723.466 .0291162
724.196 .0291072
724.927 .0290979
725.656 .0290884
726.386 .0290787
727.116 .0290687
727.845 .0290582
728.574 .0290470
729.303 .0290352
730.031 .0290236
730.760 .0290121
731.488 .0290007
732.216 .0289906
732.944 .0289813
733.671 .0289724
734.398 .0289645
735.125 .0289575
735.852 .0289511
736.579 .0289450
737.305 .0289396
738.031 .0289347
738.757 .0289299
739.483 .0289252
740.208 .0289204
740.933 .0289159
741.658 .0289114
742.383 .0289066
743.108 .0289020
743.832 .0288976
744.556 .0288924
745.280 .0288863
746.004 .0288788
746.727 .0288700
747.450 .0288592
748.173 .0288459
748.896 .0288313
749.618 .0288151
750.340 .0287974
751.062 .0287790
751.784 .0287604
752.506 .0287423
753.227 .0287240
753.948 .0287059
754.669 .0286873
755.389 .0286684
756.110 .0286487
756.830 .0286278
757.550 .0286062
758.269 .0285842
758.989 .0285613
759.708 .0285376
760.427 .0285139
761.146 .0284902
761.864 .0284669
762.582 .0284438
763.300 .0284210
764.018 .0283983
764.736 .0283756
765.453 .0283527
766.170 .0283295
766.887 .0283060
767.603 .0282820
768.320 .0282575
769.036 .0282327
769.751 .0282081
770.467 .0281836
771.182 .0281599
771.897 .0281367
772.612 .0281137
773.327 .0280905
774.041 .0280667
774.755 .0280423
775.469 .0280172
776.183 .0279917
776.896 .0279662
777.609 .0279409
778.322 .0279169
779.035 .0278937
779.747 .0278721
780.459 .0278516
781.171 .0278325
781.882 .0278142
782.594 .0277970
783.305 .0277805
784.016 .0277651
784.726 .0277512
785.436 .0277390
786.147 .0277282
786.856 .0277195
787.566 .0277122
788.275 .0277059
788.984 .0276995
789.693 .0276935
790.401 .0276862
791.110 .0276781
791.818 .0276688
792.525 .0276586
793.233 .0276476
793.940 .0276363
794.647 .0276244
795.353 .0276126
796.060 .0276005
796.766 .0275877
797.472 .0275737
798.177 .0275590
798.883 .0275429
799.588 .0275259
800.292 .0275087
800.997 .0274914
801.701 .0274741
802.405 .0274579
803.109 .0274424
803.812 .0274282
804.515 .0274152
805.218 .0274026
805.921 .0273906
806.623 .0273787
807.325 .0273668
808.027 .0273547
808.728 .0273428
809.429 .0273310
810.130 .0273193
810.831 .0273081
811.531 .0272969
812.231 .0272858
812.931 .0272747
813.630 .0272636
814.330 .0272526
815.029 .0272420
815.727 .0272318
816.426 .0272224
817.124 .0272140
817.821 .0272063
818.519 .0271995
819.216 .0271937
819.913 .0271888
820.609 .0271847
821.306 .0271821
822.002 .0271812
822.697 .0271823
823.393 .0271863
824.088 .0271922
824.783 .0272003
825.477 .0272099
826.171 .0272200
826.865 .0272301
827.559 .0272398
828.252 .0272487
828.945 .0272567
829.638 .0272641
830.330 .0272714
831.023 .0272786
831.714 .0272866
832.406 .0272950
833.097 .0273034
833.788 .0273114
834.479 .0273180
835.169 .0273231
835.859 .0273271
836.548 .0273298
837.238 .0273318
837.927 .0273334
838.615 .0273348
839.304 .0273368
839.992 .0273393
840.680 .0273422
841.367 .0273454
842.054 .0273487
842.741 .0273518
843.428 .0273541
844.114 .0273561
844.800 .0273576
845.485 .0273584
846.170 .0273582
846.855 .0273566
847.540 .0273535
848.224 .0273491
848.908 .0273437
849.592 .0273374
850.275 .0273303
850.958 .0273224
851.641 .0273137
852.323 .0273045
853.005 .0272940
853.687 .0272817
854.368 .0272674
855.049 .0272511
855.730 .0272329
856.410 .0272127
857.090 .0271915
857.769 .0271702
858.449 .0271494
859.128 .0271290
859.806 .0271090
860.485 .0270895
861.163 .0270705
861.840 .0270515
862.518 .0270318
863.195 .0270114
863.871 .0269899
864.548 .0269677
865.224 .0269450
865.899 .0269222
866.574 .0268999
867.249 .0268781
867.924 .0268577
868.598 .0268384
869.272 .0268198
869.946 .0268022
870.619 .0267849
871.292 .0267677
871.964 .0267498
872.636 .0267308
873.308 .0267108
873.979 .0266904
874.651 .0266698
875.321 .0266492
875.992 .0266292
876.662 .0266103
877.331 .0265922
878.001 .0265747
878.670 .0265576
879.338 .0265403
880.007 .0265226
880.675 .0265042
881.342 .0264846
882.009 .0264646
882.676 .0264439
883.343 .0264234
884.009 .0264036
884.675 .0263844
885.340 .0263661
886.005 .0263488
886.670 .0263324
887.334 .0263163
887.998 .0263007
888.662 .0262854
889.325 .0262698
889.988 .0262542
890.650 .0262387
891.312 .0262234
891.974 .0262091
892.636 .0261957
893.297 .0261833
893.957 .0261719
894.618 .0261613
895.278 .0261508
895.937 .0261403
896.596 .0261296
897.255 .0261183
897.914 .0261064
898.572 .0260938
899.230 .0260807
899.887 .0260674
900.544 .0260542
901.201 .0260409
901.857 .0260275
902.513 .0260134
903.168 .0259981
903.823 .0259813
904.478 .0259626
905.132 .0259418
905.786 .0259189
906.440 .0258943
907.093 .0258688
907.746 .0258423
908.399 .0258157
909.051 .0257892
909.703 .0257633
910.354 .0257376
911.005 .0257119
911.656 .0256861
912.306 .0256599
912.956 .0256331
913.605 .0256059
914.254 .0255785
914.903 .0255513
915.551 .0255248
916.199 .0254993
916.847 .0254751
917.494 .0254522
918.141 .0254304
918.788 .0254094
919.434 .0253888
920.079 .0253681
920.725 .0253472
921.370 .0253266
922.014 .0253061
922.658 .0252863
923.302 .0252670
923.946 .0252486
924.589 .0252311
925.231 .0252139
925.873 .0251971
926.515 .0251807
927.157 .0251647
927.798 .0251487
928.439 .0251324
929.079 .0251162
929.719 .0250990
930.359 .0250815
930.998 .0250635
931.637 .0250451
932.275 .0250269
932.913 .0250089
933.551 .0249911
934.188 .0249743
934.825 .0249587
935.462 .0249442
936.098 .0249307
936.733 .0249189
937.369 .0249083
938.004 .0248989
938.638 .0248907
939.273 .0248843
939.907 .0248799
940.540 .0248784
941.173 .0248789
941.806 .0248820
942.438 .0248872
943.070 .0248935
943.702 .0249005
944.333 .0249073
944.964 .0249134
945.594 .0249190
946.224 .0249241
946.854 .0249297
947.483 .0249359
948.112 .0249434
948.741 .0249521
949.369 .0249621
949.996 .0249723
950.624 .0249820
951.251 .0249909
951.878 .0249993
952.504 .0250064
953.130 .0250128
953.755 .0250189
954.380 .0250250
955.005 .0250311
955.629 .0250375
956.253 .0250436
956.877 .0250495
957.500 .0250550
958.123 .0250595
958.746 .0250626
959.368 .0250650
959.990 .0250668
960.611 .0250681
961.232 .0250693
961.853 .0250706
962.473 .0250719
963.093 .0250738
963.712 .0250759
964.331 .0250783
964.950 .0250816
965.569 .0250862
966.187 .0250920
966.804 .0250995
967.422 .0251087
968.039 .0251195
968.655 .0251311
969.272 .0251432
969.887 .0251549
970.503 .0251660
971.118 .0251762
971.733 .0251852
972.347 .0251932
972.961 .0252004
973.575 .0252068
974.188 .0252124
974.801 .0252176
975.414 .0252220
976.026 .0252254
976.638 .0252281
977.250 .0252301
977.861 .0252310
978.472 .0252313
979.083 .0252310
979.693 .0252299
980.303 .0252279
980.912 .0252256
981.521 .0252227
982.130 .0252199
982.738 .0252175
983.346 .0252157
983.954 .0252146
984.562 .0252149
985.169 .0252153
985.775 .0252159
986.382 .0252165
986.988 .0252156
987.594 .0252126
988.199 .0252079
988.804 .0252014
989.409 .0251934
990.013 .0251850
990.617 .0251768
991.221 .0251690
991.824 .0251626
992.427 .0251573
993.030 .0251529
993.632 .0251492
994.234 .0251466
994.836 .0251438
995.438 .0251416
996.039 .0251401
996.640 .0251392
997.240 .0251398
997.840 .0251427
998.440 .0251472
999.040 .0251529
999.639 .0251596
1000.238 .0251666
1000.836 .0251726
1001.435 .0251777
1002.033 .0251809
1002.630 .0251831
1003.228 .0251840
1003.825 .0251844
1004.422 .0251839
1005.018 .0251835
1005.614 .0251830
1006.210 .0251818
1006.806 .0251798
1007.401 .0251766
1007.996 .0251718
1008.591 .0251659
1009.186 .0251593
1009.780 .0251533
1010.374 .0251480
1010.967 .0251441
1011.561 .0251412
1012.154 .0251394
1012.746 .0251372
1013.339 .0251345
1013.931 .0251301
1014.523 .0251242
1015.115 .0251163
1015.706 .0251066
1016.298 .0250957
1016.888 .0250845
1017.479 .0250734
1018.069 .0250629
1018.660 .0250526
1019.250 .0250430
1019.839 .0250328
1020.429 .0250232
1021.018 .0250139
1021.607 .0250056
1022.195 .0249981
1022.784 .0249922
1023.372 .0249881
1023.960 .0249863
1024.547 .0249858
1025.135 .0249864
1025.722 .0249881
1026.309 .0249903
1026.896 .0249922
1027.483 .0249943
1028.069 .0249961
1028.655 .0249979
1029.241 .0249993
1029.827 .0249998
1030.412 .0249988
1030.997 .0249970
1031.582 .0249938
1032.167 .0249894
1032.752 .0249836
1033.336 .0249765
1033.921 .0249685
1034.505 .0249602
1035.089 .0249518
1035.672 .0249431
1036.256 .0249346
1036.839 .0249257
1037.422 .0249162
1038.005 .0249063
1038.588 .0248959
1039.171 .0248853
1039.753 .0248747
1040.335 .0248634
1040.918 .0248514
1041.500 .0248388
1042.081 .0248261
1042.663 .0248135
1043.244 .0248013
1043.826 .0247890
1044.407 .0247770
1044.988 .0247653
1045.569 .0247538
1046.150 .0247418
1046.730 .0247300
1047.311 .0247178
1047.891 .0247049
1048.471 .0246916
1049.052 .0246780
1049.632 .0246646
1050.211 .0246523
1050.791 .0246402
1051.371 .0246287
1051.950 .0246170
1052.530 .0246048
1053.109 .0245914
1053.688 .0245767
1054.268 .0245607
1054.847 .0245430
1055.426 .0245242
1056.005 .0245050
1056.583 .0244851
1057.162 .0244654
1057.741 .0244460
1058.319 .0244273
1058.898 .0244097
1059.476 .0243937
1060.055 .0243784
1060.633 .0243644
1061.211 .0243511
1061.790 .0243385
1062.368 .0243263
1062.946 .0243148
1063.524 .0243031
1064.102 .0242910
1064.680 .0242796
1065.258 .0242674
1065.836 .0242562
1066.414 .0242463
1066.992 .0242377
1067.570 .0242304
1068.148 .0242227
1068.726 .0242138
1069.304 .0242029
1069.882 .0241898
1070.460 .0241740
1071.038 .0241546
1071.616 .0241343
1072.194 .0241136
1072.772 .0240944
1073.350 .0240784
1073.928 .0240660
1074.506 .0240575
1075.084 .0240528
1075.662 .0240493
1076.240 .0240472
1076.819 .0240453
1077.397 .0240437
1077.976 .0240427
1078.554 .0240425
1079.133 .0240445
1079.711 .0240483
1080.290 .0240545
1080.869 .0240634
1081.448 .0240735
1082.027 .0240846
1082.606 .0240943
1083.185 .0241026
1083.764 .0241092
1084.343 .0241134
1084.923 .0241155
1085.502 .0241153
1086.082 .0241133
1086.662 .0241106
1087.242 .0241066
1087.822 .0241021
1088.402 .0240981
1088.983 .0240940
1089.563 .0240902
1090.144 .0240871
1090.725 .0240855
1091.306 .0240841
1091.887 .0240836
1092.469 .0240840
1093.050 .0240857
1093.632 .0240876
1094.214 .0240912
1094.796 .0240957
1095.379 .0241032
1095.961 .0241138
1096.544 .0241258
1097.127 .0241396
1097.710 .0241552
1098.294 .0241694
1098.877 .0241813
1099.461 .0241901
1100.046 .0241981
1100.630 .0242060
1101.215 .0242175
1101.800 .0242324
1102.385 .0242516
1102.970 .0242780
1103.556 .0243096
1104.142 .0243414
1104.728 .0243747
1105.315 .0244040
1105.902 .0244277
1106.489 .0244452
1107.077 .0244585
1107.664 .0244692
1108.253 .0244832
1108.841 .0245025
1109.430 .0245285
1110.019 .0245608
1110.609 .0246000
1111.198 .0246379
1111.789 .0246777
1112.379 .0247154
1112.970 .0247472
1113.561 .0247753
1114.153 .0248060
1114.745 .0248384
1115.338 .0248781
1115.931 .0249256
1116.524 .0249828
1117.117 .0250472
1117.712 .0251169
1118.306 .0251858
1118.901 .0252526
1119.496 .0253193
1120.092 .0253822
1120.689 .0254416
1121.285 .0255041
1121.882 .0255640
1122.480 .0256277
1123.078 .0256946
1123.677 .0257654
1124.276 .0258377
1124.875 .0259098
1125.476 .0259815
1126.076 .0260492
1126.677 .0261147
1127.279 .0261762
1127.881 .0262356
1128.484 .0263009
1129.087 .0263701
1129.691 .0264442
1130.295 .0265226
1130.900 .0266049
1131.505 .0266876
1132.111 .0267733
1132.718 .0268564
1133.325 .0269389
1133.933 .0270240
1134.541 .0271149
1135.150 .0272151
1135.760 .0273260
1136.370 .0274486
1136.981 .0275846
1137.592 .0277288
1138.204 .0278725
1138.817 .0280125
1139.431 .0281591
1140.045 .0283059
1140.660 .0284561
1141.275 .0285946
1141.891 .0287265
1142.508 .0289817
1143.126 .0291485
1143.744 .0293252
1144.363 .0290578
1144.983 .0291370
