Measurement Sequence started on: 15-12-46-377
Integration time: 28
Scans to Average: 2 
>>>>>Begin Spectral Data<<<<<
432.689 .0000100
433.621 .0000100
434.552 .0000100
435.482 .0000100
436.410 .0000100
437.337 .0000100
438.262 .0280544
439.187 .0592691
440.110 .0981183
441.031 .1418777
441.952 .1842915
442.871 .2175417
443.789 .2355790
444.705 .2363461
445.621 .2224432
446.535 .1994614
447.447 .1735152
448.359 .1339571
449.269 .1144091
450.178 .1019865
451.086 .0932481
451.993 .0866213
452.898 .0814536
453.803 .0772871
454.706 .0738862
455.608 .0710191
456.508 .0685775
457.408 .0664596
458.306 .0645801
459.204 .0628778
460.100 .0613268
460.995 .0599280
461.888 .0586676
462.781 .0575245
463.673 .0564847
464.563 .0555390
465.452 .0546740
466.340 .0538608
467.228 .0531044
468.114 .0523810
468.999 .0516964
469.882 .0510453
470.765 .0504424
471.647 .0498814
472.528 .0493837
473.407 .0489440
474.286 .0485619
475.163 .0482346
476.040 .0479529
476.915 .0477017
477.790 .0474829
478.663 .0472872
479.535 .0471250
480.407 .0469897
481.277 .0468968
482.147 .0468332
483.015 .0468040
483.883 .0468004
484.749 .0468088
485.615 .0468164
486.479 .0468205
487.343 .0468174
488.206 .0468066
489.067 .0467876
489.928 .0467648
490.788 .0467426
491.647 .0467322
492.505 .0467361
493.362 .0467530
494.218 .0467762
495.073 .0468090
495.928 .0468446
496.781 .0468878
497.634 .0469499
498.486 .0470347
499.337 .0471574
500.187 .0473215
501.036 .0475364
501.884 .0477938
502.731 .0481042
503.578 .0484621
504.424 .0488680
505.268 .0493143
506.113 .0498026
506.956 .0503253
507.798 .0509024
508.640 .0515297
509.480 .0522086
510.320 .0529453
511.160 .0537557
511.998 .0546275
512.836 .0555795
513.672 .0566202
514.508 .0577726
515.344 .0590404
516.178 .0604737
517.012 .0620807
517.845 .0639297
518.677 .0660455
519.508 .0684428
520.339 .0711651
521.169 .0742780
521.998 .0777807
522.826 .0817358
523.654 .0862059
524.481 .0912108
525.307 .0967583
526.133 .1028171
526.958 .1093346
527.782 .1161785
528.605 .1232174
529.428 .1302954
530.250 .1369343
531.072 .1429102
531.892 .1478410
532.712 .1515187
533.532 .1537922
534.350 .1544313
535.168 .1534307
535.986 .1508330
536.802 .1468282
537.618 .1416482
538.434 .1355296
539.249 .1289389
540.063 .1221159
540.876 .1153368
541.689 .1087753
542.501 .1026069
543.313 .0970028
544.124 .0919313
544.934 .0873537
545.744 .0832004
546.553 .0793804
547.361 .0759013
548.169 .0727453
548.976 .0698373
549.783 .0672038
550.589 .0648070
551.395 .0626060
552.200 .0605901
553.004 .0587487
553.808 .0570637
554.611 .0555524
555.414 .0542234
556.216 .0530394
557.018 .0519991
557.819 .0510976
558.619 .0502981
559.419 .0495855
560.218 .0489541
561.017 .0483662
561.815 .0478021
562.613 .0472574
563.410 .0467168
564.207 .0461742
565.003 .0456441
565.799 .0451136
566.594 .0445829
567.388 .0440615
568.182 .0435357
568.976 .0430044
569.769 .0424759
570.562 .0419473
571.354 .0414105
572.145 .0408720
572.936 .0403388
573.727 .0398172
574.517 .0393173
575.307 .0388399
576.096 .0383871
576.885 .0379662
577.673 .0375747
578.461 .0372024
579.248 .0368526
580.035 .0365273
580.821 .0362229
581.607 .0359340
582.392 .0356628
583.177 .0354098
583.962 .0351759
584.746 .0349631
585.529 .0347699
586.313 .0345944
587.095 .0344349
587.878 .0342897
588.660 .0341571
589.441 .0340346
590.222 .0339200
591.003 .0338111
591.783 .0337085
592.563 .0336120
593.342 .0335176
594.121 .0334269
594.899 .0333413
595.678 .0332593
596.455 .0331821
597.233 .0331094
598.009 .0330410
598.786 .0329767
599.562 .0329157
600.338 .0328553
601.113 .0327958
601.888 .0327373
602.663 .0326780
603.437 .0326189
604.211 .0325615
604.984 .0325059
605.757 .0324536
606.530 .0324058
607.302 .0323619
608.074 .0323218
608.845 .0322863
609.616 .0322530
610.387 .0322228
611.158 .0321950
611.928 .0321673
612.697 .0321402
613.467 .0321143
614.236 .0320895
615.004 .0320655
615.773 .0320442
616.541 .0320253
617.308 .0320093
618.076 .0319964
618.843 .0319850
619.609 .0319746
620.375 .0319653
621.141 .0319555
621.907 .0319439
622.672 .0319309
623.437 .0319155
624.202 .0318979
624.966 .0318795
625.730 .0318600
626.493 .0318400
627.257 .0318196
628.020 .0317985
628.782 .0317760
629.545 .0317521
630.307 .0317264
631.068 .0316979
631.830 .0316675
632.591 .0316345
633.352 .0315989
634.112 .0315617
634.872 .0315237
635.632 .0314856
636.392 .0314484
637.151 .0314124
637.910 .0313776
638.668 .0313450
639.427 .0313146
640.185 .0312861
640.943 .0312597
641.700 .0312352
642.457 .0312128
643.214 .0311915
643.971 .0311720
644.727 .0311537
645.483 .0311370
646.239 .0311211
646.994 .0311052
647.750 .0310895
648.505 .0310731
649.259 .0310564
650.014 .0310392
650.768 .0310218
651.521 .0310039
652.275 .0309849
653.028 .0309646
653.781 .0309427
654.534 .0309188
655.286 .0308924
656.039 .0308644
656.791 .0308352
657.542 .0308052
658.294 .0307751
659.045 .0307460
659.796 .0307182
660.546 .0306913
661.297 .0306645
662.047 .0306371
662.796 .0306087
663.546 .0305798
664.295 .0305501
665.044 .0305206
665.793 .0304919
666.542 .0304648
667.290 .0304401
668.038 .0304179
668.786 .0303974
669.533 .0303784
670.281 .0303598
671.028 .0303409
671.774 .0303213
672.521 .0303010
673.267 .0302808
674.013 .0302616
674.759 .0302435
675.505 .0302268
676.250 .0302113
676.995 .0301971
677.740 .0301833
678.484 .0301698
679.229 .0301563
679.973 .0301417
680.717 .0301263
681.460 .0301104
682.204 .0300936
682.947 .0300773
683.690 .0300608
684.433 .0300445
685.175 .0300279
685.917 .0300106
686.659 .0299924
687.401 .0299731
688.142 .0299534
688.884 .0299324
689.625 .0299097
690.365 .0298859
691.106 .0298607
691.846 .0298346
692.586 .0298083
693.326 .0297815
694.066 .0297549
694.805 .0297286
695.545 .0297022
696.284 .0296760
697.022 .0296500
697.761 .0296247
698.499 .0295990
699.237 .0295736
699.975 .0295485
700.713 .0295237
701.450 .0295000
702.187 .0294772
702.924 .0294556
703.661 .0294356
704.397 .0294164
705.133 .0293986
705.869 .0293819
706.605 .0293663
707.341 .0293510
708.076 .0293360
708.811 .0293211
709.546 .0293059
710.281 .0292902
711.015 .0292747
711.749 .0292591
712.483 .0292438
713.217 .0292281
713.950 .0292124
714.684 .0291969
715.417 .0291811
716.150 .0291647
716.882 .0291476
717.615 .0291294
718.347 .0291107
719.079 .0290912
719.811 .0290719
720.542 .0290527
721.273 .0290341
722.005 .0290159
722.735 .0289984
723.466 .0289815
724.196 .0289651
724.927 .0289486
725.656 .0289320
726.386 .0289151
727.116 .0288979
727.845 .0288807
728.574 .0288638
729.303 .0288476
730.031 .0288325
730.760 .0288177
731.488 .0288035
732.216 .0287900
732.944 .0287774
733.671 .0287655
734.398 .0287541
735.125 .0287436
735.852 .0287338
736.579 .0287247
737.305 .0287161
738.031 .0287083
738.757 .0287009
739.483 .0286935
740.208 .0286860
740.933 .0286787
741.658 .0286713
742.383 .0286638
743.108 .0286566
743.832 .0286493
744.556 .0286419
745.280 .0286341
746.004 .0286255
746.727 .0286164
747.450 .0286067
748.173 .0285963
748.896 .0285855
749.618 .0285743
750.340 .0285632
751.062 .0285524
751.784 .0285424
752.506 .0285327
753.227 .0285235
753.948 .0285145
754.669 .0285052
755.389 .0284952
756.110 .0284844
756.830 .0284723
757.550 .0284595
758.269 .0284457
758.989 .0284313
759.708 .0284163
760.427 .0284014
761.146 .0283865
761.864 .0283719
762.582 .0283574
763.300 .0283427
764.018 .0283281
764.736 .0283136
765.453 .0282988
766.170 .0282841
766.887 .0282691
767.603 .0282548
768.320 .0282409
769.036 .0282273
769.751 .0282136
770.467 .0282005
771.182 .0281875
771.897 .0281741
772.612 .0281603
773.327 .0281463
774.041 .0281318
774.755 .0281177
775.469 .0281037
776.183 .0280899
776.896 .0280766
777.609 .0280639
778.322 .0280511
779.035 .0280383
779.747 .0280253
780.459 .0280121
781.171 .0279990
781.882 .0279859
782.594 .0279730
783.305 .0279610
784.016 .0279503
784.726 .0279406
785.436 .0279316
786.147 .0279231
786.856 .0279145
787.566 .0279062
788.275 .0278971
788.984 .0278871
789.693 .0278764
790.401 .0278645
791.110 .0278517
791.818 .0278381
792.525 .0278240
793.233 .0278095
793.940 .0277950
794.647 .0277807
795.353 .0277659
796.060 .0277519
796.766 .0277377
797.472 .0277236
798.177 .0277096
798.883 .0276953
799.588 .0276803
800.292 .0276655
800.997 .0276508
801.701 .0276356
802.405 .0276209
803.109 .0276069
803.812 .0275932
804.515 .0275803
805.218 .0275672
805.921 .0275537
806.623 .0275398
807.325 .0275251
808.027 .0275089
808.728 .0274916
809.429 .0274730
810.130 .0274535
810.831 .0274335
811.531 .0274133
812.231 .0273929
812.931 .0273729
813.630 .0273536
814.330 .0273345
815.029 .0273160
815.727 .0272978
816.426 .0272797
817.124 .0272621
817.821 .0272447
818.519 .0272277
819.216 .0272112
819.913 .0271961
820.609 .0271825
821.306 .0271707
822.002 .0271613
822.697 .0271539
823.393 .0271491
824.088 .0271464
824.783 .0271450
825.477 .0271446
826.171 .0271446
826.865 .0271451
827.559 .0271456
828.252 .0271462
828.945 .0271468
829.638 .0271478
830.330 .0271494
831.023 .0271516
831.714 .0271541
832.406 .0271572
833.097 .0271602
833.788 .0271624
834.479 .0271636
835.169 .0271629
835.859 .0271610
836.548 .0271579
837.238 .0271540
837.927 .0271499
838.615 .0271456
839.304 .0271419
839.992 .0271389
840.680 .0271369
841.367 .0271358
842.054 .0271351
842.741 .0271354
843.428 .0271363
844.114 .0271377
844.800 .0271397
845.485 .0271421
846.170 .0271445
846.855 .0271467
847.540 .0271482
848.224 .0271489
848.908 .0271493
849.592 .0271491
850.275 .0271485
850.958 .0271475
851.641 .0271459
852.323 .0271436
853.005 .0271406
853.687 .0271368
854.368 .0271313
855.049 .0271243
855.730 .0271158
856.410 .0271055
857.090 .0270938
857.769 .0270814
858.449 .0270687
859.128 .0270559
859.806 .0270434
860.485 .0270311
861.163 .0270192
861.840 .0270080
862.518 .0269971
863.195 .0269866
863.871 .0269764
864.548 .0269660
865.224 .0269556
865.899 .0269453
866.574 .0269348
867.249 .0269240
867.924 .0269130
868.598 .0269022
869.272 .0268912
869.946 .0268807
870.619 .0268705
871.292 .0268614
871.964 .0268527
872.636 .0268443
873.308 .0268358
873.979 .0268274
874.651 .0268184
875.321 .0268093
875.992 .0268001
876.662 .0267914
877.331 .0267831
878.001 .0267754
878.670 .0267685
879.338 .0267620
880.007 .0267555
880.675 .0267489
881.342 .0267416
882.009 .0267336
882.676 .0267242
883.343 .0267138
884.009 .0267026
884.675 .0266904
885.340 .0266779
886.005 .0266651
886.670 .0266525
887.334 .0266407
887.998 .0266295
888.662 .0266191
889.325 .0266098
889.988 .0266015
890.650 .0265942
891.312 .0265879
891.974 .0265827
892.636 .0265782
893.297 .0265742
893.957 .0265713
894.618 .0265687
895.278 .0265666
895.937 .0265651
896.596 .0265639
897.255 .0265624
897.914 .0265602
898.572 .0265567
899.230 .0265514
899.887 .0265441
900.544 .0265344
901.201 .0265219
901.857 .0265075
902.513 .0264914
903.168 .0264733
903.823 .0264539
904.478 .0264336
905.132 .0264118
905.786 .0263889
906.440 .0263650
907.093 .0263398
907.746 .0263133
908.399 .0262865
909.051 .0262591
909.703 .0262312
910.354 .0262034
911.005 .0261755
911.656 .0261479
912.306 .0261208
912.956 .0260938
913.605 .0260670
914.254 .0260407
914.903 .0260144
915.551 .0259878
916.199 .0259616
916.847 .0259361
917.494 .0259108
918.141 .0258863
918.788 .0258627
919.434 .0258402
920.079 .0258183
920.725 .0257972
921.370 .0257765
922.014 .0257561
922.658 .0257357
923.302 .0257153
923.946 .0256947
924.589 .0256739
925.231 .0256529
925.873 .0256317
926.515 .0256102
927.157 .0255885
927.798 .0255662
928.439 .0255436
929.079 .0255203
929.719 .0254962
930.359 .0254712
930.998 .0254458
931.637 .0254203
932.275 .0253943
932.913 .0253681
933.551 .0253418
934.188 .0253156
934.825 .0252900
935.462 .0252649
936.098 .0252409
936.733 .0252185
937.369 .0251982
938.004 .0251798
938.638 .0251630
939.273 .0251484
939.907 .0251355
940.540 .0251243
941.173 .0251145
941.806 .0251058
942.438 .0250984
943.070 .0250926
943.702 .0250878
944.333 .0250839
944.964 .0250807
945.594 .0250779
946.224 .0250752
946.854 .0250728
947.483 .0250704
948.112 .0250680
948.741 .0250657
949.369 .0250636
949.996 .0250608
950.624 .0250575
951.251 .0250537
951.878 .0250494
952.504 .0250442
953.130 .0250382
953.755 .0250315
954.380 .0250248
955.005 .0250180
955.629 .0250112
956.253 .0250046
956.877 .0249988
957.500 .0249933
958.123 .0249880
958.746 .0249829
959.368 .0249778
959.990 .0249727
960.611 .0249679
961.232 .0249633
961.853 .0249587
962.473 .0249543
963.093 .0249503
963.712 .0249463
964.331 .0249424
964.950 .0249383
965.569 .0249347
966.187 .0249316
966.804 .0249292
967.422 .0249277
968.039 .0249268
968.655 .0249269
969.272 .0249275
969.887 .0249280
970.503 .0249289
971.118 .0249297
971.733 .0249309
972.347 .0249324
972.961 .0249348
973.575 .0249382
974.188 .0249427
974.801 .0249479
975.414 .0249537
976.026 .0249592
976.638 .0249645
977.250 .0249688
977.861 .0249724
978.472 .0249755
979.083 .0249781
979.693 .0249802
980.303 .0249819
980.912 .0249832
981.521 .0249842
982.130 .0249846
982.738 .0249847
983.346 .0249843
983.954 .0249836
984.562 .0249831
985.169 .0249834
985.775 .0249845
986.382 .0249869
986.988 .0249898
987.594 .0249934
988.199 .0249969
988.804 .0249999
989.409 .0250020
990.013 .0250043
990.617 .0250070
991.221 .0250099
991.824 .0250139
992.427 .0250191
993.030 .0250254
993.632 .0250326
994.234 .0250404
994.836 .0250480
995.438 .0250550
996.039 .0250614
996.640 .0250665
997.240 .0250713
997.840 .0250769
998.440 .0250827
999.040 .0250899
999.639 .0250986
1000.238 .0251080
1000.836 .0251178
1001.435 .0251279
1002.033 .0251379
1002.630 .0251465
1003.228 .0251539
1003.825 .0251605
1004.422 .0251660
1005.018 .0251714
1005.614 .0251766
1006.210 .0251819
1006.806 .0251879
1007.401 .0251939
1007.996 .0251993
1008.591 .0252046
1009.186 .0252100
1009.780 .0252146
1010.374 .0252180
1010.967 .0252208
1011.561 .0252230
1012.154 .0252244
1012.746 .0252254
1013.339 .0252263
1013.931 .0252268
1014.523 .0252277
1015.115 .0252288
1015.706 .0252310
1016.298 .0252336
1016.888 .0252374
1017.479 .0252422
1018.069 .0252477
1018.660 .0252535
1019.250 .0252595
1019.839 .0252657
1020.429 .0252725
1021.018 .0252800
1021.607 .0252884
1022.195 .0252975
1022.784 .0253083
1023.372 .0253200
1023.960 .0253327
1024.547 .0253462
1025.135 .0253601
1025.722 .0253734
1026.309 .0253865
1026.896 .0253986
1027.483 .0254097
1028.069 .0254199
1028.655 .0254298
1029.241 .0254382
1029.827 .0254457
1030.412 .0254521
1030.997 .0254569
1031.582 .0254602
1032.167 .0254628
1032.752 .0254637
1033.336 .0254647
1033.921 .0254653
1034.505 .0254657
1035.089 .0254654
1035.672 .0254648
1036.256 .0254626
1036.839 .0254592
1037.422 .0254541
1038.005 .0254477
1038.588 .0254390
1039.171 .0254306
1039.753 .0254220
1040.335 .0254148
1040.918 .0254094
1041.500 .0254054
1042.081 .0254016
1042.663 .0253990
1043.244 .0253962
1043.826 .0253929
1044.407 .0253887
1044.988 .0253854
1045.569 .0253816
1046.150 .0253787
1046.730 .0253760
1047.311 .0253744
1047.891 .0253729
1048.471 .0253721
1049.052 .0253691
1049.632 .0253653
1050.211 .0253601
1050.791 .0253526
1051.371 .0253442
1051.950 .0253360
1052.530 .0253273
1053.109 .0253182
1053.688 .0253091
1054.268 .0253000
1054.847 .0252893
1055.426 .0252779
1056.005 .0252648
1056.583 .0252516
1057.162 .0252386
1057.741 .0252261
1058.319 .0252154
1058.898 .0252076
1059.476 .0252011
1060.055 .0251951
1060.633 .0251895
1061.211 .0251829
1061.790 .0251748
1062.368 .0251650
1062.946 .0251539
1063.524 .0251425
1064.102 .0251307
1064.680 .0251189
1065.258 .0251076
1065.836 .0250974
1066.414 .0250862
1066.992 .0250738
1067.570 .0250607
1068.148 .0250464
1068.726 .0250324
1069.304 .0250197
1069.882 .0250090
1070.460 .0250005
1071.038 .0249944
1071.616 .0249893
1072.194 .0249841
1072.772 .0249776
1073.350 .0249687
1073.928 .0249574
1074.506 .0249447
1075.084 .0249310
1075.662 .0249177
1076.240 .0249071
1076.819 .0248997
1077.397 .0248956
1077.976 .0248932
1078.554 .0248910
1079.133 .0248878
1079.711 .0248825
1080.290 .0248747
1080.869 .0248638
1081.448 .0248526
1082.027 .0248424
1082.606 .0248352
1083.185 .0248319
1083.764 .0248328
1084.343 .0248388
1084.923 .0248477
1085.502 .0248583
1086.082 .0248688
1086.662 .0248774
1087.242 .0248834
1087.822 .0248871
1088.402 .0248886
1088.983 .0248897
1089.563 .0248900
1090.144 .0248907
1090.725 .0248941
1091.306 .0248977
1091.887 .0249008
1092.469 .0249035
1093.050 .0249055
1093.632 .0249067
1094.214 .0249051
1094.796 .0249026
1095.379 .0248977
1095.961 .0248924
1096.544 .0248868
1097.127 .0248803
1097.710 .0248756
1098.294 .0248738
1098.877 .0248743
1099.461 .0248788
1100.046 .0248868
1100.630 .0248986
1101.215 .0249144
1101.800 .0249337
1102.385 .0249532
1102.970 .0249714
1103.556 .0249879
1104.142 .0250027
1104.728 .0250145
1105.315 .0250268
1105.902 .0250401
1106.489 .0250561
1107.077 .0250747
1107.664 .0250946
1108.253 .0251160
1108.841 .0251383
1109.430 .0251590
1110.019 .0251780
1110.609 .0251941
1111.198 .0252074
1111.789 .0252203
1112.379 .0252357
1112.970 .0252562
1113.561 .0252820
1114.153 .0253132
1114.745 .0253497
1115.338 .0253881
1115.931 .0254244
1116.524 .0254584
1117.117 .0254920
1117.712 .0255235
1118.306 .0255500
1118.901 .0255754
1119.496 .0256023
1120.092 .0256305
1120.689 .0256603
1121.285 .0256911
1121.882 .0257228
1122.480 .0257586
1123.078 .0257936
1123.677 .0258287
1124.276 .0258688
1124.875 .0259135
1125.476 .0259620
1126.076 .0260174
1126.677 .0260790
1127.279 .0261438
1127.881 .0262154
1128.484 .0262945
1129.087 .0263758
1129.691 .0264613
1130.295 .0265496
1130.900 .0266381
1131.505 .0267266
1132.111 .0268118
1132.718 .0268888
1133.325 .0269628
1133.933 .0270288
1134.541 .0270879
1135.150 .0271448
1135.760 .0272048
1136.370 .0272681
1136.981 .0273409
1137.592 .0274223
1138.204 .0275102
1138.817 .0276023
1139.431 .0276986
1140.045 .0278039
1140.660 .0279168
1141.275 .0280420
1141.891 .0281744
1142.508 .0281499
1143.126 .0285605
1143.744 .0286515
1144.363 .0289692
1144.983 .0289361
