Measurement Sequence started on: 15-12-46-377
Integration time: 28
Scans to Average: 2 
>>>>>Begin Spectral Data<<<<<
432.689 .0000100
433.621 .0000100
434.552 .0000100
435.482 .0000100
436.410 .0000100
437.337 .0000100
438.262 .0270893
439.187 .0573524
440.110 .0949196
441.031 .1372805
441.952 .1783784
442.871 .2106444
443.789 .2282346
444.705 .2291294
445.621 .2158659
446.535 .1938672
447.447 .1690390
448.359 .1310914
449.269 .1123890
450.178 .1006567
451.086 .0923867
451.993 .0860681
452.898 .0810953
453.803 .0770251
454.706 .0736572
455.608 .0707849
456.508 .0683186
457.408 .0661928
458.306 .0643303
459.204 .0626586
460.100 .0611299
460.995 .0597198
461.888 .0584004
462.781 .0571523
463.673 .0559751
464.563 .0548870
465.452 .0538712
466.340 .0529325
467.228 .0520856
468.114 .0513186
468.999 .0506315
469.882 .0500060
470.765 .0494374
471.647 .0489205
472.528 .0484368
473.407 .0479976
474.286 .0476093
475.163 .0472702
476.040 .0469816
476.915 .0467395
477.790 .0465484
478.663 .0463964
479.535 .0462674
480.407 .0461595
481.277 .0460631
482.147 .0459730
483.015 .0458825
483.883 .0457979
484.749 .0457267
485.615 .0456705
486.479 .0456297
487.343 .0456067
488.206 .0455978
489.067 .0455996
489.928 .0456053
490.788 .0456167
491.647 .0456364
492.505 .0456600
493.362 .0456917
494.218 .0457425
495.073 .0458066
495.928 .0458962
496.781 .0460028
497.634 .0461382
498.486 .0462894
499.337 .0464611
500.187 .0466494
501.036 .0468559
501.884 .0470887
502.731 .0473485
503.578 .0476294
504.424 .0479508
505.268 .0482915
506.113 .0486633
506.956 .0490597
507.798 .0494959
508.640 .0499605
509.480 .0504801
510.320 .0510635
511.160 .0517410
511.998 .0525193
512.836 .0534171
513.672 .0544257
514.508 .0555796
515.344 .0568703
516.178 .0583255
517.012 .0599589
517.845 .0618171
518.677 .0639184
519.508 .0663129
520.339 .0690285
521.169 .0721200
521.998 .0755804
522.826 .0794548
523.654 .0837269
524.481 .0883930
525.307 .0934688
526.133 .0989634
526.958 .1048851
527.782 .1112394
528.605 .1178601
529.428 .1247316
530.250 .1313742
531.072 .1376296
531.892 .1430408
532.712 .1473454
533.532 .1503601
534.350 .1518488
535.168 .1517325
535.986 .1500644
536.802 .1469319
537.618 .1426410
538.434 .1372696
539.249 .1312713
540.063 .1247327
540.876 .1180648
541.689 .1114232
542.501 .1050085
543.313 .0990145
544.124 .0935277
544.934 .0885222
545.744 .0839995
546.553 .0798612
547.361 .0761254
548.169 .0727586
548.976 .0697316
549.783 .0669794
550.589 .0645357
551.395 .0623324
552.200 .0603849
553.004 .0586551
553.808 .0571244
554.611 .0557502
555.414 .0545363
556.216 .0534433
557.018 .0524434
557.819 .0515162
558.619 .0506323
559.419 .0497836
560.218 .0489933
561.017 .0482296
561.815 .0475055
562.613 .0468189
563.410 .0461778
564.207 .0455549
565.003 .0449555
565.799 .0443710
566.594 .0437886
567.388 .0432253
568.182 .0426697
568.976 .0421124
569.769 .0415671
570.562 .0410298
571.354 .0404998
572.145 .0399820
572.936 .0394747
573.727 .0389740
574.517 .0384904
575.307 .0380242
576.096 .0375734
576.885 .0371443
577.673 .0367466
578.461 .0363760
579.248 .0360313
580.035 .0357157
580.821 .0354199
581.607 .0351457
582.392 .0348929
583.177 .0346592
583.962 .0344471
584.746 .0342574
585.529 .0340870
586.313 .0339359
587.095 .0338015
587.878 .0336815
588.660 .0335714
589.441 .0334710
590.222 .0333756
591.003 .0332838
591.783 .0331941
592.563 .0331061
593.342 .0330203
594.121 .0329361
594.899 .0328545
595.678 .0327757
596.455 .0327003
597.233 .0326294
598.009 .0325624
598.786 .0325021
599.562 .0324462
600.338 .0323944
601.113 .0323456
601.888 .0322993
602.663 .0322542
603.437 .0322105
604.211 .0321687
604.984 .0321293
605.757 .0320927
606.530 .0320591
607.302 .0320291
608.074 .0320020
608.845 .0319780
609.616 .0319558
610.387 .0319338
611.158 .0319114
611.928 .0318867
612.697 .0318600
613.467 .0318322
614.236 .0318034
615.004 .0317749
615.773 .0317476
616.541 .0317233
617.308 .0317022
618.076 .0316853
618.843 .0316725
619.609 .0316628
620.375 .0316555
621.141 .0316492
621.907 .0316421
622.672 .0316341
623.437 .0316249
624.202 .0316145
624.966 .0316035
625.730 .0315926
626.493 .0315809
627.257 .0315695
628.020 .0315578
628.782 .0315448
629.545 .0315293
630.307 .0315105
631.068 .0314875
631.830 .0314599
632.591 .0314285
633.352 .0313935
634.112 .0313569
634.872 .0313201
635.632 .0312839
636.392 .0312489
637.151 .0312160
637.910 .0311842
638.668 .0311542
639.427 .0311257
640.185 .0310976
640.943 .0310700
641.700 .0310437
642.457 .0310185
643.214 .0309949
643.971 .0309723
644.727 .0309509
645.483 .0309304
646.239 .0309107
646.994 .0308898
647.750 .0308678
648.505 .0308445
649.259 .0308203
650.014 .0307950
650.768 .0307695
651.521 .0307436
652.275 .0307178
653.028 .0306926
653.781 .0306673
654.534 .0306416
655.286 .0306157
656.039 .0305883
656.791 .0305600
657.542 .0305301
658.294 .0304993
659.045 .0304681
659.796 .0304379
660.546 .0304084
661.297 .0303792
662.047 .0303508
662.796 .0303229
663.546 .0302948
664.295 .0302672
665.044 .0302399
665.793 .0302133
666.542 .0301878
667.290 .0301639
668.038 .0301414
668.786 .0301210
669.533 .0301027
670.281 .0300862
671.028 .0300714
671.774 .0300577
672.521 .0300444
673.267 .0300320
674.013 .0300200
674.759 .0300082
675.505 .0299966
676.250 .0299854
676.995 .0299743
677.740 .0299635
678.484 .0299528
679.229 .0299429
679.973 .0299337
680.717 .0299248
681.460 .0299156
682.204 .0299060
682.947 .0298964
683.690 .0298864
684.433 .0298760
685.175 .0298657
685.917 .0298553
686.659 .0298458
687.401 .0298368
688.142 .0298287
688.884 .0298205
689.625 .0298118
690.365 .0298019
691.106 .0297901
691.846 .0297760
692.586 .0297597
693.326 .0297416
694.066 .0297234
694.805 .0297048
695.545 .0296862
696.284 .0296679
697.022 .0296501
697.761 .0296321
698.499 .0296135
699.237 .0295940
699.975 .0295734
700.713 .0295519
701.450 .0295302
702.187 .0295086
702.924 .0294877
703.661 .0294678
704.397 .0294488
705.133 .0294309
705.869 .0294133
706.605 .0293959
707.341 .0293787
708.076 .0293613
708.811 .0293440
709.546 .0293258
710.281 .0293070
711.015 .0292878
711.749 .0292678
712.483 .0292470
713.217 .0292247
713.950 .0292013
714.684 .0291764
715.417 .0291502
716.150 .0291231
716.882 .0290947
717.615 .0290656
718.347 .0290360
719.079 .0290055
719.811 .0289746
720.542 .0289436
721.273 .0289121
722.005 .0288811
722.735 .0288508
723.466 .0288213
724.196 .0287930
724.927 .0287657
725.656 .0287397
726.386 .0287150
727.116 .0286916
727.845 .0286693
728.574 .0286481
729.303 .0286284
730.031 .0286096
730.760 .0285920
731.488 .0285753
732.216 .0285587
732.944 .0285429
733.671 .0285272
734.398 .0285111
735.125 .0284951
735.852 .0284790
736.579 .0284627
737.305 .0284473
738.031 .0284328
738.757 .0284193
739.483 .0284068
740.208 .0283950
740.933 .0283835
741.658 .0283718
742.383 .0283599
743.108 .0283474
743.832 .0283347
744.556 .0283226
745.280 .0283104
746.004 .0282988
746.727 .0282886
747.450 .0282793
748.173 .0282710
748.896 .0282632
749.618 .0282550
750.340 .0282462
751.062 .0282372
751.784 .0282283
752.506 .0282202
753.227 .0282130
753.948 .0282075
754.669 .0282034
755.389 .0282008
756.110 .0281993
756.830 .0281977
757.550 .0281962
758.269 .0281940
758.989 .0281902
759.708 .0281851
760.427 .0281789
761.146 .0281727
761.864 .0281662
762.582 .0281598
763.300 .0281536
764.018 .0281470
764.736 .0281401
765.453 .0281325
766.170 .0281243
766.887 .0281156
767.603 .0281066
768.320 .0280973
769.036 .0280884
769.751 .0280802
770.467 .0280726
771.182 .0280660
771.897 .0280601
772.612 .0280544
773.327 .0280487
774.041 .0280429
774.755 .0280370
775.469 .0280307
776.183 .0280241
776.896 .0280172
777.609 .0280101
778.322 .0280030
779.035 .0279954
779.747 .0279884
780.459 .0279815
781.171 .0279747
781.882 .0279675
782.594 .0279601
783.305 .0279520
784.016 .0279433
784.726 .0279341
785.436 .0279242
786.147 .0279134
786.856 .0279023
787.566 .0278905
788.275 .0278783
788.984 .0278665
789.693 .0278544
790.401 .0278421
791.110 .0278299
791.818 .0278169
792.525 .0278034
793.233 .0277893
793.940 .0277746
794.647 .0277592
795.353 .0277441
796.060 .0277287
796.766 .0277132
797.472 .0276978
798.177 .0276824
798.883 .0276664
799.588 .0276495
800.292 .0276315
800.997 .0276119
801.701 .0275907
802.405 .0275680
803.109 .0275437
803.812 .0275190
804.515 .0274936
805.218 .0274678
805.921 .0274417
806.623 .0274156
807.325 .0273898
808.027 .0273646
808.728 .0273400
809.429 .0273156
810.130 .0272916
810.831 .0272677
811.531 .0272436
812.231 .0272190
812.931 .0271939
813.630 .0271681
814.330 .0271417
815.029 .0271147
815.727 .0270872
816.426 .0270601
817.124 .0270335
817.821 .0270075
818.519 .0269821
819.216 .0269570
819.913 .0269323
820.609 .0269078
821.306 .0268841
822.002 .0268616
822.697 .0268411
823.393 .0268231
824.088 .0268082
824.783 .0267962
825.477 .0267866
826.171 .0267792
826.865 .0267736
827.559 .0267687
828.252 .0267643
828.945 .0267601
829.638 .0267562
830.330 .0267527
831.023 .0267502
831.714 .0267482
832.406 .0267470
833.097 .0267459
833.788 .0267445
834.479 .0267428
835.169 .0267407
835.859 .0267381
836.548 .0267356
837.238 .0267332
837.927 .0267312
838.615 .0267293
839.304 .0267279
839.992 .0267267
840.680 .0267257
841.367 .0267247
842.054 .0267236
842.741 .0267223
843.428 .0267216
844.114 .0267215
844.800 .0267221
845.485 .0267232
846.170 .0267245
846.855 .0267259
847.540 .0267267
848.224 .0267265
848.908 .0267259
849.592 .0267250
850.275 .0267244
850.958 .0267239
851.641 .0267240
852.323 .0267245
853.005 .0267257
853.687 .0267268
854.368 .0267271
855.049 .0267269
855.730 .0267254
856.410 .0267228
857.090 .0267191
857.769 .0267144
858.449 .0267090
859.128 .0267035
859.806 .0266982
860.485 .0266928
861.163 .0266877
861.840 .0266829
862.518 .0266782
863.195 .0266736
863.871 .0266686
864.548 .0266636
865.224 .0266588
865.899 .0266543
866.574 .0266499
867.249 .0266462
867.924 .0266431
868.598 .0266408
869.272 .0266392
869.946 .0266380
870.619 .0266372
871.292 .0266363
871.964 .0266352
872.636 .0266337
873.308 .0266320
873.979 .0266298
874.651 .0266273
875.321 .0266252
875.992 .0266231
876.662 .0266213
877.331 .0266199
878.001 .0266187
878.670 .0266175
879.338 .0266160
880.007 .0266140
880.675 .0266111
881.342 .0266079
882.009 .0266036
882.676 .0265988
883.343 .0265935
884.009 .0265880
884.675 .0265819
885.340 .0265755
886.005 .0265686
886.670 .0265615
887.334 .0265535
887.998 .0265451
888.662 .0265359
889.325 .0265265
889.988 .0265160
890.650 .0265053
891.312 .0264942
891.974 .0264836
892.636 .0264731
893.297 .0264632
893.957 .0264539
894.618 .0264454
895.278 .0264367
895.937 .0264281
896.596 .0264193
897.255 .0264102
897.914 .0263996
898.572 .0263884
899.230 .0263758
899.887 .0263622
900.544 .0263473
901.201 .0263316
901.857 .0263147
902.513 .0262971
903.168 .0262783
903.823 .0262576
904.478 .0262355
905.132 .0262116
905.786 .0261858
906.440 .0261583
907.093 .0261293
907.746 .0260991
908.399 .0260679
909.051 .0260365
909.703 .0260044
910.354 .0259718
911.005 .0259391
911.656 .0259057
912.306 .0258723
912.956 .0258385
913.605 .0258046
914.254 .0257709
914.903 .0257380
915.551 .0257060
916.199 .0256750
916.847 .0256449
917.494 .0256158
918.141 .0255873
918.788 .0255595
919.434 .0255320
920.079 .0255042
920.725 .0254765
921.370 .0254490
922.014 .0254216
922.658 .0253944
923.302 .0253676
923.946 .0253417
924.589 .0253164
925.231 .0252910
925.873 .0252654
926.515 .0252398
927.157 .0252137
927.798 .0251871
928.439 .0251596
929.079 .0251319
929.719 .0251036
930.359 .0250753
930.998 .0250473
931.637 .0250199
932.275 .0249933
932.913 .0249673
933.551 .0249418
934.188 .0249171
934.825 .0248930
935.462 .0248694
936.098 .0248466
936.733 .0248250
937.369 .0248042
938.004 .0247846
938.638 .0247660
939.273 .0247489
939.907 .0247327
940.540 .0247172
941.173 .0247025
941.806 .0246885
942.438 .0246755
943.070 .0246633
943.702 .0246525
944.333 .0246435
944.964 .0246361
945.594 .0246306
946.224 .0246262
946.854 .0246240
947.483 .0246228
948.112 .0246228
948.741 .0246234
949.369 .0246249
949.996 .0246268
950.624 .0246293
951.251 .0246323
951.878 .0246361
952.504 .0246399
953.130 .0246443
953.755 .0246486
954.380 .0246528
955.005 .0246563
955.629 .0246595
956.253 .0246613
956.877 .0246631
957.500 .0246633
958.123 .0246631
958.746 .0246624
959.368 .0246615
959.990 .0246602
960.611 .0246587
961.232 .0246575
961.853 .0246572
962.473 .0246576
963.093 .0246595
963.712 .0246621
964.331 .0246656
964.950 .0246695
965.569 .0246738
966.187 .0246781
966.804 .0246822
967.422 .0246861
968.039 .0246904
968.655 .0246947
969.272 .0246993
969.887 .0247041
970.503 .0247096
971.118 .0247156
971.733 .0247216
972.347 .0247271
972.961 .0247324
973.575 .0247373
974.188 .0247418
974.801 .0247456
975.414 .0247491
976.026 .0247527
976.638 .0247562
977.250 .0247595
977.861 .0247636
978.472 .0247680
979.083 .0247731
979.693 .0247786
980.303 .0247847
980.912 .0247912
981.521 .0247979
982.130 .0248047
982.738 .0248118
983.346 .0248192
983.954 .0248264
984.562 .0248335
985.169 .0248404
985.775 .0248469
986.382 .0248525
986.988 .0248578
987.594 .0248630
988.199 .0248678
988.804 .0248724
989.409 .0248773
990.013 .0248823
990.617 .0248874
991.221 .0248922
991.824 .0248974
992.427 .0249027
993.030 .0249084
993.632 .0249140
994.234 .0249199
994.836 .0249267
995.438 .0249342
996.039 .0249418
996.640 .0249500
997.240 .0249585
997.840 .0249675
998.440 .0249761
999.040 .0249850
999.639 .0249935
1000.238 .0250020
1000.836 .0250103
1001.435 .0250179
1002.033 .0250246
1002.630 .0250310
1003.228 .0250371
1003.825 .0250427
1004.422 .0250482
1005.018 .0250532
1005.614 .0250582
1006.210 .0250633
1006.806 .0250681
1007.401 .0250720
1007.996 .0250747
1008.591 .0250766
1009.186 .0250775
1009.780 .0250771
1010.374 .0250764
1010.967 .0250758
1011.561 .0250763
1012.154 .0250773
1012.746 .0250789
1013.339 .0250802
1013.931 .0250817
1014.523 .0250821
1015.115 .0250814
1015.706 .0250795
1016.298 .0250770
1016.888 .0250744
1017.479 .0250724
1018.069 .0250717
1018.660 .0250720
1019.250 .0250733
1019.839 .0250757
1020.429 .0250779
1021.018 .0250797
1021.607 .0250805
1022.195 .0250803
1022.784 .0250790
1023.372 .0250775
1023.960 .0250751
1024.547 .0250732
1025.135 .0250717
1025.722 .0250706
1026.309 .0250696
1026.896 .0250687
1027.483 .0250675
1028.069 .0250653
1028.655 .0250623
1029.241 .0250582
1029.827 .0250527
1030.412 .0250464
1030.997 .0250387
1031.582 .0250299
1032.167 .0250204
1032.752 .0250107
1033.336 .0250001
1033.921 .0249898
1034.505 .0249802
1035.089 .0249704
1035.672 .0249606
1036.256 .0249504
1036.839 .0249391
1037.422 .0249267
1038.005 .0249130
1038.588 .0248986
1039.171 .0248837
1039.753 .0248694
1040.335 .0248558
1040.918 .0248434
1041.500 .0248329
1042.081 .0248234
1042.663 .0248143
1043.244 .0248060
1043.826 .0247977
1044.407 .0247881
1044.988 .0247775
1045.569 .0247657
1046.150 .0247529
1046.730 .0247396
1047.311 .0247260
1047.891 .0247129
1048.471 .0247001
1049.052 .0246875
1049.632 .0246749
1050.211 .0246629
1050.791 .0246512
1051.371 .0246385
1051.950 .0246263
1052.530 .0246136
1053.109 .0246007
1053.688 .0245867
1054.268 .0245723
1054.847 .0245575
1055.426 .0245427
1056.005 .0245275
1056.583 .0245112
1057.162 .0244946
1057.741 .0244776
1058.319 .0244602
1058.898 .0244435
1059.476 .0244261
1060.055 .0244087
1060.633 .0243901
1061.211 .0243710
1061.790 .0243507
1062.368 .0243296
1062.946 .0243083
1063.524 .0242878
1064.102 .0242683
1064.680 .0242506
1065.258 .0242357
1065.836 .0242243
1066.414 .0242153
1066.992 .0242091
1067.570 .0242045
1068.148 .0241999
1068.726 .0241946
1069.304 .0241897
1069.882 .0241833
1070.460 .0241768
1071.038 .0241696
1071.616 .0241611
1072.194 .0241529
1072.772 .0241439
1073.350 .0241336
1073.928 .0241221
1074.506 .0241099
1075.084 .0240955
1075.662 .0240779
1076.240 .0240603
1076.819 .0240414
1077.397 .0240233
1077.976 .0240069
1078.554 .0239923
1079.133 .0239792
1079.711 .0239692
1080.290 .0239627
1080.869 .0239597
1081.448 .0239613
1082.027 .0239652
1082.606 .0239721
1083.185 .0239817
1083.764 .0239940
1084.343 .0240074
1084.923 .0240230
1085.502 .0240422
1086.082 .0240617
1086.662 .0240827
1087.242 .0241038
1087.822 .0241254
1088.402 .0241467
1088.983 .0241658
1089.563 .0241820
1090.144 .0241935
1090.725 .0242017
1091.306 .0242054
1091.887 .0242079
1092.469 .0242096
1093.050 .0242113
1093.632 .0242142
1094.214 .0242200
1094.796 .0242285
1095.379 .0242374
1095.961 .0242496
1096.544 .0242626
1097.127 .0242759
1097.710 .0242889
1098.294 .0243014
1098.877 .0243167
1099.461 .0243337
1100.046 .0243548
1100.630 .0243788
1101.215 .0244089
1101.800 .0244439
1102.385 .0244807
1102.970 .0245201
1103.556 .0245600
1104.142 .0245969
1104.728 .0246300
1105.315 .0246578
1105.902 .0246819
1106.489 .0247024
1107.077 .0247196
1107.664 .0247348
1108.253 .0247514
1108.841 .0247685
1109.430 .0247862
1110.019 .0248025
1110.609 .0248178
1111.198 .0248283
1111.789 .0248351
1112.379 .0248377
1112.970 .0248373
1113.561 .0248387
1114.153 .0248432
1114.745 .0248529
1115.338 .0248717
1115.931 .0248976
1116.524 .0249308
1117.117 .0249711
1117.712 .0250180
1118.306 .0250670
1118.901 .0251218
1119.496 .0251807
1120.092 .0252468
1120.689 .0253213
1121.285 .0254029
1121.882 .0254898
1122.480 .0255851
1123.078 .0256851
1123.677 .0257845
1124.276 .0258844
1124.875 .0259868
1125.476 .0260867
1126.076 .0261869
1126.677 .0262857
1127.279 .0263837
1127.881 .0264799
1128.484 .0265735
1129.087 .0266585
1129.691 .0267380
1130.295 .0268127
1130.900 .0268819
1131.505 .0269493
1132.111 .0270231
1132.718 .0271014
1133.325 .0271861
1133.933 .0272792
1134.541 .0273797
1135.150 .0274828
1135.760 .0275904
1136.370 .0276966
1136.981 .0278050
1137.592 .0279147
1138.204 .0280315
1138.817 .0281605
1139.431 .0283044
1140.045 .0284568
1140.660 .0286186
1141.275 .0287796
1141.891 .0289325
1142.508 .0292181
1143.126 .0292306
1143.744 .0294244
1144.363 .0294185
1144.983 .0293990
