Measurement Sequence started on: 15-12-46-377
Integration time: 28
Scans to Average: 2 
>>>>>Begin Spectral Data<<<<<
432.689 .0000100
433.621 .0000100
434.552 .0000100
435.482 .0000100
436.410 .0000100
437.337 .0000100
438.262 .0273340
439.187 .0578892
440.110 .0958544
441.031 .1386446
441.952 .1801254
442.871 .2127024
443.789 .2303968
444.705 .2312273
445.621 .2176987
446.535 .1953013
447.447 .1700042
448.359 .1314536
449.269 .1123250
450.178 .1002354
451.086 .0917101
451.993 .0852142
452.898 .0800700
453.803 .0758902
454.706 .0724063
455.608 .0694572
456.508 .0669256
457.408 .0647551
458.306 .0628616
459.204 .0612001
460.100 .0597351
460.995 .0584385
461.888 .0572814
462.781 .0562324
463.673 .0552658
464.563 .0543685
465.452 .0535133
466.340 .0526936
467.228 .0519169
468.114 .0511883
468.999 .0505010
469.882 .0498580
470.765 .0492636
471.647 .0487153
472.528 .0482111
473.407 .0477521
474.286 .0473454
475.163 .0469876
476.040 .0466754
476.915 .0464112
477.790 .0461887
478.663 .0460089
479.535 .0458705
480.407 .0457692
481.277 .0456968
482.147 .0456436
483.015 .0456036
483.883 .0455768
484.749 .0455668
485.615 .0455713
486.479 .0455877
487.343 .0456226
488.206 .0456710
489.067 .0457199
489.928 .0457669
490.788 .0458209
491.647 .0458709
492.505 .0459263
493.362 .0459856
494.218 .0460488
495.073 .0461242
495.928 .0462225
496.781 .0463444
497.634 .0464960
498.486 .0466741
499.337 .0468723
500.187 .0470762
501.036 .0473022
501.884 .0475365
502.731 .0477892
503.578 .0480657
504.424 .0483780
505.268 .0487106
506.113 .0490838
506.956 .0494917
507.798 .0499529
508.640 .0504745
509.480 .0510654
510.320 .0517273
511.160 .0524864
511.998 .0533508
512.836 .0543353
513.672 .0554399
514.508 .0566714
515.344 .0580140
516.178 .0594963
517.012 .0611146
517.845 .0629123
518.677 .0648999
519.508 .0671156
520.339 .0696004
521.169 .0724341
521.998 .0756254
522.826 .0792141
523.654 .0832365
524.481 .0876576
525.307 .0924771
526.133 .0976707
526.958 .1031972
527.782 .1090811
528.605 .1152245
529.428 .1215628
530.250 .1276699
531.072 .1334009
531.892 .1383902
532.712 .1423772
533.532 .1451684
534.350 .1464996
535.168 .1462312
535.986 .1444564
536.802 .1412475
537.618 .1368447
538.434 .1314776
539.249 .1255371
540.063 .1191934
540.876 .1127636
541.689 .1063959
542.501 .1003243
543.313 .0947003
544.124 .0896041
544.934 .0849287
545.744 .0806790
546.553 .0768206
547.361 .0733251
548.169 .0702078
548.976 .0674085
549.783 .0648788
550.589 .0626274
551.395 .0605741
552.200 .0587378
553.004 .0570883
553.808 .0556064
554.611 .0542847
555.414 .0531026
556.216 .0520494
557.018 .0511109
557.819 .0502613
558.619 .0494923
559.419 .0487788
560.218 .0481073
561.017 .0474656
561.815 .0468486
562.613 .0462498
563.410 .0456586
564.207 .0450798
565.003 .0445076
565.799 .0439334
566.594 .0433557
567.388 .0427920
568.182 .0422296
568.976 .0416806
569.769 .0411483
570.562 .0406343
571.354 .0401413
572.145 .0396712
572.936 .0392148
573.727 .0387751
574.517 .0383508
575.307 .0379353
576.096 .0375271
576.885 .0371348
577.673 .0367571
578.461 .0364007
579.248 .0360699
580.035 .0357658
580.821 .0354813
581.607 .0352198
582.392 .0349737
583.177 .0347418
583.962 .0345231
584.746 .0343190
585.529 .0341276
586.313 .0339512
587.095 .0337893
587.878 .0336409
588.660 .0335084
589.441 .0333876
590.222 .0332780
591.003 .0331778
591.783 .0330837
592.563 .0329935
593.342 .0329080
594.121 .0328282
594.899 .0327540
595.678 .0326870
596.455 .0326275
597.233 .0325733
598.009 .0325237
598.786 .0324768
599.562 .0324313
600.338 .0323865
601.113 .0323418
601.888 .0322961
602.663 .0322510
603.437 .0322060
604.211 .0321613
604.984 .0321187
605.757 .0320785
606.530 .0320390
607.302 .0320001
608.074 .0319619
608.845 .0319242
609.616 .0318865
610.387 .0318498
611.158 .0318150
611.928 .0317828
612.697 .0317533
613.467 .0317256
614.236 .0317011
615.004 .0316800
615.773 .0316615
616.541 .0316459
617.308 .0316330
618.076 .0316223
618.843 .0316130
619.609 .0316048
620.375 .0315967
621.141 .0315882
621.907 .0315783
622.672 .0315665
623.437 .0315536
624.202 .0315390
624.966 .0315230
625.730 .0315059
626.493 .0314879
627.257 .0314681
628.020 .0314453
628.782 .0314205
629.545 .0313933
630.307 .0313638
631.068 .0313325
631.830 .0312995
632.591 .0312656
633.352 .0312314
634.112 .0311970
634.872 .0311627
635.632 .0311293
636.392 .0310962
637.151 .0310639
637.910 .0310326
638.668 .0310024
639.427 .0309740
640.185 .0309471
640.943 .0309215
641.700 .0308960
642.457 .0308702
643.214 .0308442
643.971 .0308171
644.727 .0307911
645.483 .0307658
646.239 .0307422
646.994 .0307205
647.750 .0307011
648.505 .0306837
649.259 .0306677
650.014 .0306512
650.768 .0306331
651.521 .0306126
652.275 .0305894
653.028 .0305638
653.781 .0305372
654.534 .0305110
655.286 .0304854
656.039 .0304603
656.791 .0304366
657.542 .0304128
658.294 .0303894
659.045 .0303651
659.796 .0303394
660.546 .0303126
661.297 .0302843
662.047 .0302549
662.796 .0302255
663.546 .0301977
664.295 .0301715
665.044 .0301477
665.793 .0301264
666.542 .0301071
667.290 .0300891
668.038 .0300721
668.786 .0300555
669.533 .0300383
670.281 .0300211
671.028 .0300036
671.774 .0299864
672.521 .0299703
673.267 .0299550
674.013 .0299408
674.759 .0299273
675.505 .0299145
676.250 .0299010
676.995 .0298871
677.740 .0298727
678.484 .0298572
679.229 .0298411
679.973 .0298243
680.717 .0298074
681.460 .0297902
682.204 .0297732
682.947 .0297556
683.690 .0297379
684.433 .0297201
685.175 .0297017
685.917 .0296831
686.659 .0296650
687.401 .0296477
688.142 .0296314
688.884 .0296167
689.625 .0296035
690.365 .0295916
691.106 .0295811
691.846 .0295710
692.586 .0295611
693.326 .0295506
694.066 .0295396
694.805 .0295273
695.545 .0295141
696.284 .0294997
697.022 .0294840
697.761 .0294675
698.499 .0294503
699.237 .0294317
699.975 .0294125
700.713 .0293919
701.450 .0293704
702.187 .0293474
702.924 .0293232
703.661 .0292978
704.397 .0292721
705.133 .0292468
705.869 .0292222
706.605 .0291989
707.341 .0291779
708.076 .0291592
708.811 .0291430
709.546 .0291288
710.281 .0291165
711.015 .0291051
711.749 .0290947
712.483 .0290839
713.217 .0290726
713.950 .0290604
714.684 .0290470
715.417 .0290323
716.150 .0290166
716.882 .0289999
717.615 .0289824
718.347 .0289644
719.079 .0289463
719.811 .0289275
720.542 .0289087
721.273 .0288891
722.005 .0288689
722.735 .0288481
723.466 .0288267
724.196 .0288045
724.927 .0287820
725.656 .0287596
726.386 .0287376
727.116 .0287169
727.845 .0286980
728.574 .0286806
729.303 .0286648
730.031 .0286504
730.760 .0286373
731.488 .0286252
732.216 .0286137
732.944 .0286019
733.671 .0285899
734.398 .0285776
735.125 .0285643
735.852 .0285506
736.579 .0285370
737.305 .0285235
738.031 .0285104
738.757 .0284977
739.483 .0284857
740.208 .0284739
740.933 .0284627
741.658 .0284513
742.383 .0284393
743.108 .0284263
743.832 .0284122
744.556 .0283977
745.280 .0283831
746.004 .0283684
746.727 .0283540
747.450 .0283404
748.173 .0283276
748.896 .0283155
749.618 .0283039
750.340 .0282927
751.062 .0282815
751.784 .0282694
752.506 .0282564
753.227 .0282422
753.948 .0282270
754.669 .0282114
755.389 .0281957
756.110 .0281803
756.830 .0281652
757.550 .0281515
758.269 .0281391
758.989 .0281280
759.708 .0281175
760.427 .0281072
761.146 .0280968
761.864 .0280858
762.582 .0280740
763.300 .0280616
764.018 .0280490
764.736 .0280366
765.453 .0280244
766.170 .0280128
766.887 .0280016
767.603 .0279905
768.320 .0279790
769.036 .0279667
769.751 .0279532
770.467 .0279383
771.182 .0279228
771.897 .0279070
772.612 .0278913
773.327 .0278761
774.041 .0278624
774.755 .0278497
775.469 .0278385
776.183 .0278283
776.896 .0278187
777.609 .0278098
778.322 .0278014
779.035 .0277931
779.747 .0277856
780.459 .0277787
781.171 .0277723
781.882 .0277659
782.594 .0277600
783.305 .0277540
784.016 .0277481
784.726 .0277426
785.436 .0277369
786.147 .0277303
786.856 .0277237
787.566 .0277163
788.275 .0277085
788.984 .0277004
789.693 .0276917
790.401 .0276826
791.110 .0276733
791.818 .0276637
792.525 .0276543
793.233 .0276453
793.940 .0276368
794.647 .0276279
795.353 .0276190
796.060 .0276095
796.766 .0275995
797.472 .0275888
798.177 .0275781
798.883 .0275672
799.588 .0275564
800.292 .0275457
800.997 .0275351
801.701 .0275248
802.405 .0275145
803.109 .0275035
803.812 .0274924
804.515 .0274805
805.218 .0274680
805.921 .0274547
806.623 .0274414
807.325 .0274282
808.027 .0274152
808.728 .0274018
809.429 .0273884
810.130 .0273745
810.831 .0273602
811.531 .0273449
812.231 .0273289
812.931 .0273121
813.630 .0272948
814.330 .0272772
815.029 .0272598
815.727 .0272424
816.426 .0272255
817.124 .0272085
817.821 .0271917
818.519 .0271748
819.216 .0271579
819.913 .0271411
820.609 .0271254
821.306 .0271107
822.002 .0270976
822.697 .0270864
823.393 .0270777
824.088 .0270711
824.783 .0270663
825.477 .0270623
826.171 .0270589
826.865 .0270557
827.559 .0270527
828.252 .0270497
828.945 .0270476
829.638 .0270462
830.330 .0270457
831.023 .0270458
831.714 .0270464
832.406 .0270468
833.097 .0270467
833.788 .0270456
834.479 .0270431
835.169 .0270392
835.859 .0270347
836.548 .0270297
837.238 .0270250
837.927 .0270206
838.615 .0270164
839.304 .0270122
839.992 .0270077
840.680 .0270022
841.367 .0269958
842.054 .0269885
842.741 .0269808
843.428 .0269728
844.114 .0269650
844.800 .0269578
845.485 .0269509
846.170 .0269440
846.855 .0269370
847.540 .0269292
848.224 .0269207
848.908 .0269114
849.592 .0269013
850.275 .0268907
850.958 .0268798
851.641 .0268687
852.323 .0268575
853.005 .0268460
853.687 .0268335
854.368 .0268202
855.049 .0268059
855.730 .0267903
856.410 .0267737
857.090 .0267563
857.769 .0267382
858.449 .0267197
859.128 .0267005
859.806 .0266809
860.485 .0266610
861.163 .0266411
861.840 .0266210
862.518 .0266010
863.195 .0265815
863.871 .0265620
864.548 .0265433
865.224 .0265252
865.899 .0265074
866.574 .0264900
867.249 .0264728
867.924 .0264560
868.598 .0264395
869.272 .0264237
869.946 .0264087
870.619 .0263948
871.292 .0263819
871.964 .0263696
872.636 .0263578
873.308 .0263463
873.979 .0263345
874.651 .0263225
875.321 .0263108
875.992 .0262991
876.662 .0262880
877.331 .0262777
878.001 .0262680
878.670 .0262591
879.338 .0262501
880.007 .0262409
880.675 .0262316
881.342 .0262214
882.009 .0262105
882.676 .0261987
883.343 .0261868
884.009 .0261753
884.675 .0261643
885.340 .0261544
886.005 .0261454
886.670 .0261377
887.334 .0261311
887.998 .0261255
888.662 .0261208
889.325 .0261167
889.988 .0261131
890.650 .0261102
891.312 .0261075
891.974 .0261052
892.636 .0261037
893.297 .0261032
893.957 .0261038
894.618 .0261051
895.278 .0261069
895.937 .0261092
896.596 .0261117
897.255 .0261137
897.914 .0261146
898.572 .0261141
899.230 .0261122
899.887 .0261082
900.544 .0261026
901.201 .0260955
901.857 .0260870
902.513 .0260772
903.168 .0260664
903.823 .0260541
904.478 .0260407
905.132 .0260262
905.786 .0260104
906.440 .0259930
907.093 .0259744
907.746 .0259543
908.399 .0259328
909.051 .0259105
909.703 .0258879
910.354 .0258650
911.005 .0258430
911.656 .0258221
912.306 .0258028
912.956 .0257849
913.605 .0257685
914.254 .0257533
914.903 .0257390
915.551 .0257256
916.199 .0257130
916.847 .0257010
917.494 .0256902
918.141 .0256803
918.788 .0256716
919.434 .0256640
920.079 .0256575
920.725 .0256516
921.370 .0256463
922.014 .0256410
922.658 .0256355
923.302 .0256294
923.946 .0256229
924.589 .0256160
925.231 .0256082
925.873 .0255997
926.515 .0255903
927.157 .0255799
927.798 .0255687
928.439 .0255563
929.079 .0255429
929.719 .0255282
930.359 .0255127
930.998 .0254958
931.637 .0254780
932.275 .0254599
932.913 .0254412
933.551 .0254221
934.188 .0254034
934.825 .0253851
935.462 .0253679
936.098 .0253522
936.733 .0253381
937.369 .0253257
938.004 .0253151
938.638 .0253059
939.273 .0252980
939.907 .0252915
940.540 .0252863
941.173 .0252824
941.806 .0252801
942.438 .0252790
943.070 .0252784
943.702 .0252786
944.333 .0252793
944.964 .0252798
945.594 .0252798
946.224 .0252795
946.854 .0252790
947.483 .0252785
948.112 .0252776
948.741 .0252766
949.369 .0252753
949.996 .0252737
950.624 .0252709
951.251 .0252673
951.878 .0252628
952.504 .0252577
953.130 .0252519
953.755 .0252460
954.380 .0252401
955.005 .0252344
955.629 .0252289
956.253 .0252236
956.877 .0252183
957.500 .0252122
958.123 .0252053
958.746 .0251978
959.368 .0251900
959.990 .0251816
960.611 .0251729
961.232 .0251649
961.853 .0251576
962.473 .0251513
963.093 .0251454
963.712 .0251402
964.331 .0251351
964.950 .0251295
965.569 .0251235
966.187 .0251166
966.804 .0251098
967.422 .0251032
968.039 .0250972
968.655 .0250922
969.272 .0250880
969.887 .0250843
970.503 .0250805
971.118 .0250769
971.733 .0250727
972.347 .0250678
972.961 .0250626
973.575 .0250571
974.188 .0250512
974.801 .0250455
975.414 .0250395
976.026 .0250329
976.638 .0250257
977.250 .0250171
977.861 .0250064
978.472 .0249939
979.083 .0249797
979.693 .0249641
980.303 .0249473
980.912 .0249302
981.521 .0249128
982.130 .0248951
982.738 .0248776
983.346 .0248596
983.954 .0248418
984.562 .0248242
985.169 .0248065
985.775 .0247891
986.382 .0247723
986.988 .0247561
987.594 .0247409
988.199 .0247264
988.804 .0247134
989.409 .0247008
990.013 .0246893
990.617 .0246784
991.221 .0246677
991.824 .0246577
992.427 .0246483
993.030 .0246398
993.632 .0246322
994.234 .0246253
994.836 .0246191
995.438 .0246134
996.039 .0246081
996.640 .0246021
997.240 .0245959
997.840 .0245893
998.440 .0245831
999.040 .0245766
999.639 .0245707
1000.238 .0245657
1000.836 .0245616
1001.435 .0245582
1002.033 .0245552
1002.630 .0245518
1003.228 .0245481
1003.825 .0245436
1004.422 .0245385
1005.018 .0245324
1005.614 .0245262
1006.210 .0245198
1006.806 .0245139
1007.401 .0245082
1007.996 .0245021
1008.591 .0244954
1009.186 .0244882
1009.780 .0244799
1010.374 .0244696
1010.967 .0244579
1011.561 .0244450
1012.154 .0244313
1012.746 .0244178
1013.339 .0244043
1013.931 .0243914
1014.523 .0243797
1015.115 .0243685
1015.706 .0243576
1016.298 .0243474
1016.888 .0243385
1017.479 .0243307
1018.069 .0243256
1018.660 .0243224
1019.250 .0243216
1019.839 .0243229
1020.429 .0243262
1021.018 .0243306
1021.607 .0243355
1022.195 .0243402
1022.784 .0243443
1023.372 .0243480
1023.960 .0243519
1024.547 .0243558
1025.135 .0243611
1025.722 .0243670
1026.309 .0243735
1026.896 .0243801
1027.483 .0243865
1028.069 .0243916
1028.655 .0243965
1029.241 .0244006
1029.827 .0244045
1030.412 .0244077
1030.997 .0244114
1031.582 .0244162
1032.167 .0244217
1032.752 .0244277
1033.336 .0244336
1033.921 .0244392
1034.505 .0244454
1035.089 .0244507
1035.672 .0244564
1036.256 .0244621
1036.839 .0244684
1037.422 .0244746
1038.005 .0244813
1038.588 .0244883
1039.171 .0244952
1039.753 .0245024
1040.335 .0245097
1040.918 .0245163
1041.500 .0245224
1042.081 .0245280
1042.663 .0245337
1043.244 .0245391
1043.826 .0245439
1044.407 .0245477
1044.988 .0245515
1045.569 .0245539
1046.150 .0245554
1046.730 .0245553
1047.311 .0245543
1047.891 .0245516
1048.471 .0245468
1049.052 .0245408
1049.632 .0245341
1050.211 .0245277
1050.791 .0245224
1051.371 .0245181
1051.950 .0245164
1052.530 .0245154
1053.109 .0245160
1053.688 .0245170
1054.268 .0245175
1054.847 .0245174
1055.426 .0245173
1056.005 .0245170
1056.583 .0245174
1057.162 .0245189
1057.741 .0245230
1058.319 .0245300
1058.898 .0245395
1059.476 .0245499
1060.055 .0245619
1060.633 .0245750
1061.211 .0245882
1061.790 .0246009
1062.368 .0246147
1062.946 .0246290
1063.524 .0246435
1064.102 .0246577
1064.680 .0246713
1065.258 .0246845
1065.836 .0246983
1066.414 .0247108
1066.992 .0247238
1067.570 .0247371
1068.148 .0247504
1068.726 .0247622
1069.304 .0247734
1069.882 .0247826
1070.460 .0247893
1071.038 .0247928
1071.616 .0247937
1072.194 .0247911
1072.772 .0247870
1073.350 .0247819
1073.928 .0247768
1074.506 .0247725
1075.084 .0247687
1075.662 .0247636
1076.240 .0247591
1076.819 .0247536
1077.397 .0247468
1077.976 .0247389
1078.554 .0247327
1079.133 .0247287
1079.711 .0247265
1080.290 .0247281
1080.869 .0247340
1081.448 .0247442
1082.027 .0247580
1082.606 .0247733
1083.185 .0247906
1083.764 .0248101
1084.343 .0248297
1084.923 .0248497
1085.502 .0248713
1086.082 .0248944
1086.662 .0249184
1087.242 .0249431
1087.822 .0249678
1088.402 .0249913
1088.983 .0250129
1089.563 .0250320
1090.144 .0250468
1090.725 .0250596
1091.306 .0250671
1091.887 .0250718
1092.469 .0250750
1093.050 .0250776
1093.632 .0250813
1094.214 .0250889
1094.796 .0251018
1095.379 .0251207
1095.961 .0251459
1096.544 .0251772
1097.127 .0252120
1097.710 .0252497
1098.294 .0252870
1098.877 .0253232
1099.461 .0253573
1100.046 .0253896
1100.630 .0254201
1101.215 .0254512
1101.800 .0254828
1102.385 .0255166
1102.970 .0255525
1103.556 .0255883
1104.142 .0256228
1104.728 .0256545
1105.315 .0256815
1105.902 .0257038
1106.489 .0257210
1107.077 .0257363
1107.664 .0257520
1108.253 .0257704
1108.841 .0257905
1109.430 .0258152
1110.019 .0258432
1110.609 .0258727
1111.198 .0259053
1111.789 .0259407
1112.379 .0259773
1112.970 .0260170
1113.561 .0260590
1114.153 .0261050
1114.745 .0261538
1115.338 .0262039
1115.931 .0262530
1116.524 .0263008
1117.117 .0263462
1117.712 .0263882
1118.306 .0264274
1118.901 .0264703
1119.496 .0265140
1120.092 .0265603
1120.689 .0266079
1121.285 .0266565
1121.882 .0267058
1122.480 .0267547
1123.078 .0268023
1123.677 .0268506
1124.276 .0268964
1124.875 .0269453
1125.476 .0269950
1126.076 .0270486
1126.677 .0271064
1127.279 .0271665
1127.881 .0272270
1128.484 .0272906
1129.087 .0273507
1129.691 .0274136
1130.295 .0274801
1130.900 .0275555
1131.505 .0276380
1132.111 .0277286
1132.718 .0278254
1133.325 .0279260
1133.933 .0280277
1134.541 .0281285
1135.150 .0282212
1135.760 .0283184
1136.370 .0284153
1136.981 .0285163
1137.592 .0286219
1138.204 .0287379
1138.817 .0288597
1139.431 .0289846
1140.045 .0291117
1140.660 .0292449
1141.275 .0293971
1141.891 .0295469
1142.508 .0295559
1143.126 .0297704
1143.744 .0300525
1144.363 .0306295
1144.983 .0302416
