Measurement Sequence started on: 15-12-46-377
Integration time: 28
Scans to Average: 2 
>>>>>Begin Spectral Data<<<<<
432.689 .0000100
433.621 .0000100
434.552 .0000100
435.482 .0000100
436.410 .0000100
437.337 .0000100
438.262 .0301100
439.187 .0636467
440.110 .1052909
441.031 .1522730
441.952 .1977546
442.871 .2334195
443.789 .2527274
444.705 .2534864
445.621 .2384979
446.535 .2137678
447.447 .1858780
448.359 .1434098
449.269 .1224199
450.178 .1091486
451.086 .0997505
451.993 .0926655
452.898 .0870885
453.803 .0825821
454.706 .0788743
455.608 .0757194
456.508 .0730240
457.408 .0706971
458.306 .0686441
459.204 .0668143
460.100 .0651886
460.995 .0637328
461.888 .0624317
462.781 .0612659
463.673 .0601949
464.563 .0592082
465.452 .0582989
466.340 .0574290
467.228 .0565990
468.114 .0558136
468.999 .0550745
469.882 .0543769
470.765 .0537531
471.647 .0531885
472.528 .0526960
473.407 .0522845
474.286 .0519389
475.163 .0516328
476.040 .0513619
476.915 .0511079
477.790 .0508669
478.663 .0506360
479.535 .0504204
480.407 .0502202
481.277 .0500547
482.147 .0499247
483.015 .0498346
483.883 .0497816
484.749 .0497667
485.615 .0497680
486.479 .0497775
487.343 .0497921
488.206 .0497993
489.067 .0498017
489.928 .0498023
490.788 .0498072
491.647 .0498248
492.505 .0498605
493.362 .0499246
494.218 .0500218
495.073 .0501465
495.928 .0503025
496.781 .0504702
497.634 .0506612
498.486 .0508653
499.337 .0510832
500.187 .0513231
501.036 .0515958
501.884 .0519049
502.731 .0522676
503.578 .0526859
504.424 .0531740
505.268 .0537163
506.113 .0543162
506.956 .0549511
507.798 .0556242
508.640 .0563237
509.480 .0570540
510.320 .0578229
511.160 .0586559
511.998 .0595465
512.836 .0605164
513.672 .0615766
514.508 .0627499
515.344 .0640226
516.178 .0654367
517.012 .0670089
517.845 .0687695
518.677 .0707655
519.508 .0730277
520.339 .0756090
521.169 .0786135
521.998 .0820611
522.826 .0860091
523.654 .0905131
524.481 .0955940
525.307 .1013336
526.133 .1077114
526.958 .1147178
527.782 .1222753
528.605 .1301451
529.428 .1382334
530.250 .1458503
531.072 .1527268
531.892 .1584261
532.712 .1626186
533.532 .1651581
534.350 .1658225
535.168 .1646372
535.986 .1617477
536.802 .1573454
537.618 .1517820
538.434 .1451765
539.249 .1380604
540.063 .1305748
540.876 .1230135
541.689 .1156237
542.501 .1085949
543.313 .1021266
544.124 .0963173
544.934 .0911205
545.744 .0864928
546.553 .0823673
547.361 .0787355
548.169 .0755587
548.976 .0727088
549.783 .0701596
550.589 .0678619
551.395 .0657630
552.200 .0638516
553.004 .0621079
553.808 .0605203
554.611 .0591013
555.414 .0578327
556.216 .0566993
557.018 .0556922
557.819 .0547958
558.619 .0539650
559.419 .0531832
560.218 .0524490
561.017 .0517393
561.815 .0510347
562.613 .0503390
563.410 .0496445
564.207 .0489580
565.003 .0482865
565.799 .0476349
566.594 .0470030
567.388 .0464018
568.182 .0458204
568.976 .0452545
569.769 .0447006
570.562 .0441569
571.354 .0436188
572.145 .0430853
572.936 .0425510
573.727 .0420129
574.517 .0414779
575.307 .0409576
576.096 .0404534
576.885 .0399751
577.673 .0395280
578.461 .0391126
579.248 .0387284
580.035 .0383727
580.821 .0380421
581.607 .0377347
582.392 .0374478
583.177 .0371813
583.962 .0369324
584.746 .0367025
585.529 .0364939
586.313 .0363053
587.095 .0361371
587.878 .0359840
588.660 .0358427
589.441 .0357146
590.222 .0355953
591.003 .0354839
591.783 .0353799
592.563 .0352831
593.342 .0351924
594.121 .0351048
594.899 .0350218
595.678 .0349420
596.455 .0348668
597.233 .0347956
598.009 .0347278
598.786 .0346633
599.562 .0346019
600.338 .0345433
601.113 .0344870
601.888 .0344341
602.663 .0343831
603.437 .0343343
604.211 .0342869
604.984 .0342407
605.757 .0341957
606.530 .0341512
607.302 .0341085
608.074 .0340670
608.845 .0340268
609.616 .0339887
610.387 .0339534
611.158 .0339206
611.928 .0338903
612.697 .0338622
613.467 .0338355
614.236 .0338097
615.004 .0337841
615.773 .0337584
616.541 .0337315
617.308 .0337041
618.076 .0336759
618.843 .0336464
619.609 .0336174
620.375 .0335886
621.141 .0335603
621.907 .0335321
622.672 .0335032
623.437 .0334731
624.202 .0334415
624.966 .0334086
625.730 .0333739
626.493 .0333378
627.257 .0333017
628.020 .0332652
628.782 .0332291
629.545 .0331948
630.307 .0331620
631.068 .0331309
631.830 .0331009
632.591 .0330706
633.352 .0330394
634.112 .0330066
634.872 .0329721
635.632 .0329357
636.392 .0328978
637.151 .0328593
637.910 .0328204
638.668 .0327827
639.427 .0327462
640.185 .0327117
640.943 .0326795
641.700 .0326489
642.457 .0326189
643.214 .0325890
643.971 .0325591
644.727 .0325292
645.483 .0324998
646.239 .0324711
646.994 .0324431
647.750 .0324168
648.505 .0323918
649.259 .0323679
650.014 .0323450
650.768 .0323231
651.521 .0323009
652.275 .0322780
653.028 .0322544
653.781 .0322293
654.534 .0322029
655.286 .0321759
656.039 .0321479
656.791 .0321184
657.542 .0320882
658.294 .0320574
659.045 .0320260
659.796 .0319952
660.546 .0319652
661.297 .0319361
662.047 .0319090
662.796 .0318841
663.546 .0318605
664.295 .0318385
665.044 .0318176
665.793 .0317965
666.542 .0317749
667.290 .0317533
668.038 .0317311
668.786 .0317087
669.533 .0316871
670.281 .0316661
671.028 .0316465
671.774 .0316282
672.521 .0316107
673.267 .0315937
674.013 .0315768
674.759 .0315592
675.505 .0315395
676.250 .0315181
676.995 .0314953
677.740 .0314715
678.484 .0314467
679.229 .0314214
679.973 .0313960
680.717 .0313708
681.460 .0313459
682.204 .0313207
682.947 .0312953
683.690 .0312699
684.433 .0312439
685.175 .0312170
685.917 .0311895
686.659 .0311623
687.401 .0311349
688.142 .0311075
688.884 .0310804
689.625 .0310532
690.365 .0310264
691.106 .0309999
691.846 .0309739
692.586 .0309479
693.326 .0309224
694.066 .0308968
694.805 .0308714
695.545 .0308456
696.284 .0308191
697.022 .0307919
697.761 .0307641
698.499 .0307359
699.237 .0307074
699.975 .0306792
700.713 .0306529
701.450 .0306285
702.187 .0306065
702.924 .0305868
703.661 .0305696
704.397 .0305538
705.133 .0305397
705.869 .0305265
706.605 .0305139
707.341 .0305020
708.076 .0304915
708.811 .0304813
709.546 .0304722
710.281 .0304639
711.015 .0304561
711.749 .0304482
712.483 .0304401
713.217 .0304300
713.950 .0304186
714.684 .0304054
715.417 .0303904
716.150 .0303738
716.882 .0303565
717.615 .0303387
718.347 .0303203
719.079 .0303015
719.811 .0302829
720.542 .0302640
721.273 .0302456
722.005 .0302271
722.735 .0302091
723.466 .0301913
724.196 .0301739
724.927 .0301562
725.656 .0301387
726.386 .0301211
727.116 .0301033
727.845 .0300848
728.574 .0300660
729.303 .0300471
730.031 .0300284
730.760 .0300102
731.488 .0299937
732.216 .0299784
732.944 .0299644
733.671 .0299515
734.398 .0299396
735.125 .0299282
735.852 .0299169
736.579 .0299054
737.305 .0298939
738.031 .0298827
738.757 .0298711
739.483 .0298592
740.208 .0298475
740.933 .0298360
741.658 .0298243
742.383 .0298120
743.108 .0297990
743.832 .0297849
744.556 .0297693
745.280 .0297517
746.004 .0297323
746.727 .0297115
747.450 .0296894
748.173 .0296663
748.896 .0296426
749.618 .0296189
750.340 .0295957
751.062 .0295733
751.784 .0295521
752.506 .0295314
753.227 .0295112
753.948 .0294911
754.669 .0294713
755.389 .0294520
756.110 .0294331
756.830 .0294147
757.550 .0293969
758.269 .0293793
758.989 .0293623
759.708 .0293454
760.427 .0293289
761.146 .0293123
761.864 .0292950
762.582 .0292770
763.300 .0292580
764.018 .0292381
764.736 .0292176
765.453 .0291966
766.170 .0291756
766.887 .0291544
767.603 .0291336
768.320 .0291128
769.036 .0290925
769.751 .0290732
770.467 .0290545
771.182 .0290364
771.897 .0290192
772.612 .0290028
773.327 .0289878
774.041 .0289740
774.755 .0289614
775.469 .0289502
776.183 .0289406
776.896 .0289322
777.609 .0289246
778.322 .0289179
779.035 .0289120
779.747 .0289066
780.459 .0289017
781.171 .0288975
781.882 .0288937
782.594 .0288906
783.305 .0288882
784.016 .0288869
784.726 .0288864
785.436 .0288865
786.147 .0288870
786.856 .0288879
787.566 .0288889
788.275 .0288897
788.984 .0288904
789.693 .0288911
790.401 .0288915
791.110 .0288908
791.818 .0288891
792.525 .0288866
793.233 .0288833
793.940 .0288791
794.647 .0288742
795.353 .0288691
796.060 .0288636
796.766 .0288573
797.472 .0288502
798.177 .0288426
798.883 .0288341
799.588 .0288246
800.292 .0288148
800.997 .0288047
801.701 .0287952
802.405 .0287867
803.109 .0287797
803.812 .0287745
804.515 .0287705
805.218 .0287668
805.921 .0287633
806.623 .0287598
807.325 .0287555
808.027 .0287500
808.728 .0287444
809.429 .0287386
810.130 .0287326
810.831 .0287268
811.531 .0287214
812.231 .0287162
812.931 .0287106
813.630 .0287038
814.330 .0286963
815.029 .0286880
815.727 .0286788
816.426 .0286693
817.124 .0286603
817.821 .0286519
818.519 .0286444
819.216 .0286376
819.913 .0286323
820.609 .0286275
821.306 .0286226
822.002 .0286179
822.697 .0286134
823.393 .0286091
824.088 .0286044
824.783 .0285998
825.477 .0285957
826.171 .0285909
826.865 .0285859
827.559 .0285799
828.252 .0285731
828.945 .0285652
829.638 .0285559
830.330 .0285451
831.023 .0285335
831.714 .0285212
832.406 .0285081
833.097 .0284946
833.788 .0284808
834.479 .0284664
835.169 .0284517
835.859 .0284374
836.548 .0284232
837.238 .0284092
837.927 .0283959
838.615 .0283827
839.304 .0283699
839.992 .0283571
840.680 .0283436
841.367 .0283293
842.054 .0283140
842.741 .0282978
843.428 .0282807
844.114 .0282634
844.800 .0282457
845.485 .0282282
846.170 .0282105
846.855 .0281923
847.540 .0281734
848.224 .0281535
848.908 .0281320
849.592 .0281086
850.275 .0280833
850.958 .0280566
851.641 .0280287
852.323 .0280004
853.005 .0279724
853.687 .0279450
854.368 .0279183
855.049 .0278917
855.730 .0278656
856.410 .0278399
857.090 .0278137
857.769 .0277871
858.449 .0277606
859.128 .0277343
859.806 .0277088
860.485 .0276848
861.163 .0276631
861.840 .0276437
862.518 .0276264
863.195 .0276111
863.871 .0275972
864.548 .0275845
865.224 .0275722
865.899 .0275597
866.574 .0275474
867.249 .0275346
867.924 .0275213
868.598 .0275082
869.272 .0274952
869.946 .0274826
870.619 .0274700
871.292 .0274572
871.964 .0274433
872.636 .0274283
873.308 .0274117
873.979 .0273935
874.651 .0273742
875.321 .0273539
875.992 .0273328
876.662 .0273123
877.331 .0272928
878.001 .0272741
878.670 .0272571
879.338 .0272418
880.007 .0272281
880.675 .0272161
881.342 .0272054
882.009 .0271959
882.676 .0271877
883.343 .0271811
884.009 .0271756
884.675 .0271711
885.340 .0271674
886.005 .0271642
886.670 .0271617
887.334 .0271602
887.998 .0271589
888.662 .0271581
889.325 .0271584
889.988 .0271588
890.650 .0271595
891.312 .0271603
891.974 .0271610
892.636 .0271621
893.297 .0271635
893.957 .0271649
894.618 .0271670
895.278 .0271706
895.937 .0271752
896.596 .0271810
897.255 .0271880
897.914 .0271955
898.572 .0272031
899.230 .0272108
899.887 .0272183
900.544 .0272255
901.201 .0272328
901.857 .0272400
902.513 .0272470
903.168 .0272539
903.823 .0272595
904.478 .0272636
905.132 .0272658
905.786 .0272653
906.440 .0272617
907.093 .0272559
907.746 .0272485
908.399 .0272398
909.051 .0272307
909.703 .0272221
910.354 .0272136
911.005 .0272052
911.656 .0271969
912.306 .0271879
912.956 .0271786
913.605 .0271686
914.254 .0271582
914.903 .0271481
915.551 .0271394
916.199 .0271326
916.847 .0271278
917.494 .0271251
918.141 .0271243
918.788 .0271244
919.434 .0271254
920.079 .0271263
920.725 .0271266
921.370 .0271267
922.014 .0271267
922.658 .0271262
923.302 .0271255
923.946 .0271245
924.589 .0271232
925.231 .0271206
925.873 .0271167
926.515 .0271107
927.157 .0271029
927.798 .0270936
928.439 .0270825
929.079 .0270698
929.719 .0270570
930.359 .0270434
930.998 .0270298
931.637 .0270161
932.275 .0270025
932.913 .0269881
933.551 .0269736
934.188 .0269585
934.825 .0269431
935.462 .0269276
936.098 .0269128
936.733 .0268985
937.369 .0268854
938.004 .0268732
938.638 .0268616
939.273 .0268507
939.907 .0268406
940.540 .0268304
941.173 .0268204
941.806 .0268107
942.438 .0268015
943.070 .0267923
943.702 .0267839
944.333 .0267755
944.964 .0267676
945.594 .0267599
946.224 .0267521
946.854 .0267444
947.483 .0267369
948.112 .0267296
948.741 .0267228
949.369 .0267162
949.996 .0267101
950.624 .0267035
951.251 .0266971
951.878 .0266904
952.504 .0266833
953.130 .0266751
953.755 .0266665
954.380 .0266568
955.005 .0266464
955.629 .0266347
956.253 .0266224
956.877 .0266096
957.500 .0265967
958.123 .0265832
958.746 .0265689
959.368 .0265535
959.990 .0265376
960.611 .0265203
961.232 .0265028
961.853 .0264843
962.473 .0264661
963.093 .0264477
963.712 .0264296
964.331 .0264116
964.950 .0263940
965.569 .0263768
966.187 .0263596
966.804 .0263419
967.422 .0263236
968.039 .0263049
968.655 .0262853
969.272 .0262649
969.887 .0262439
970.503 .0262223
971.118 .0262007
971.733 .0261791
972.347 .0261580
972.961 .0261366
973.575 .0261151
974.188 .0260934
974.801 .0260703
975.414 .0260465
976.026 .0260214
976.638 .0259953
977.250 .0259686
977.861 .0259421
978.472 .0259157
979.083 .0258897
979.693 .0258644
980.303 .0258390
980.912 .0258130
981.521 .0257859
982.130 .0257576
982.738 .0257284
983.346 .0256985
983.954 .0256687
984.562 .0256391
985.169 .0256106
985.775 .0255829
986.382 .0255564
986.988 .0255309
987.594 .0255059
988.199 .0254809
988.804 .0254562
989.409 .0254317
990.013 .0254086
990.617 .0253868
991.221 .0253673
991.824 .0253502
992.427 .0253353
993.030 .0253216
993.632 .0253091
994.234 .0252974
994.836 .0252858
995.438 .0252741
996.039 .0252623
996.640 .0252499
997.240 .0252382
997.840 .0252280
998.440 .0252191
999.040 .0252110
999.639 .0252039
1000.238 .0251972
1000.836 .0251908
1001.435 .0251838
1002.033 .0251761
1002.630 .0251677
1003.228 .0251587
1003.825 .0251488
1004.422 .0251384
1005.018 .0251281
1005.614 .0251184
1006.210 .0251085
1006.806 .0250994
1007.401 .0250906
1007.996 .0250817
1008.591 .0250732
1009.186 .0250660
1009.780 .0250600
1010.374 .0250543
1010.967 .0250490
1011.561 .0250442
1012.154 .0250394
1012.746 .0250351
1013.339 .0250304
1013.931 .0250257
1014.523 .0250214
1015.115 .0250174
1015.706 .0250134
1016.298 .0250104
1016.888 .0250088
1017.479 .0250078
1018.069 .0250073
1018.660 .0250068
1019.250 .0250056
1019.839 .0250042
1020.429 .0250028
1021.018 .0250020
1021.607 .0250019
1022.195 .0250033
1022.784 .0250065
1023.372 .0250122
1023.960 .0250208
1024.547 .0250318
1025.135 .0250444
1025.722 .0250586
1026.309 .0250737
1026.896 .0250892
1027.483 .0251049
1028.069 .0251206
1028.655 .0251368
1029.241 .0251532
1029.827 .0251689
1030.412 .0251844
1030.997 .0251994
1031.582 .0252146
1032.167 .0252289
1032.752 .0252423
1033.336 .0252554
1033.921 .0252678
1034.505 .0252802
1035.089 .0252921
1035.672 .0253038
1036.256 .0253156
1036.839 .0253263
1037.422 .0253366
1038.005 .0253470
1038.588 .0253580
1039.171 .0253702
1039.753 .0253841
1040.335 .0254001
1040.918 .0254171
1041.500 .0254351
1042.081 .0254536
1042.663 .0254725
1043.244 .0254909
1043.826 .0255079
1044.407 .0255232
1044.988 .0255382
1045.569 .0255522
1046.150 .0255651
1046.730 .0255781
1047.311 .0255912
1047.891 .0256038
1048.471 .0256151
1049.052 .0256248
1049.632 .0256339
1050.211 .0256424
1050.791 .0256510
1051.371 .0256597
1051.950 .0256699
1052.530 .0256807
1053.109 .0256929
1053.688 .0257070
1054.268 .0257220
1054.847 .0257377
1055.426 .0257542
1056.005 .0257704
1056.583 .0257868
1057.162 .0258027
1057.741 .0258187
1058.319 .0258352
1058.898 .0258521
1059.476 .0258675
1060.055 .0258823
1060.633 .0258956
1061.211 .0259072
1061.790 .0259177
1062.368 .0259283
1062.946 .0259382
1063.524 .0259483
1064.102 .0259600
1064.680 .0259730
1065.258 .0259877
1065.836 .0260045
1066.414 .0260227
1066.992 .0260432
1067.570 .0260656
1068.148 .0260889
1068.726 .0261141
1069.304 .0261424
1069.882 .0261715
1070.460 .0262007
1071.038 .0262301
1071.616 .0262585
1072.194 .0262848
1072.772 .0263087
1073.350 .0263296
1073.928 .0263473
1074.506 .0263615
1075.084 .0263726
1075.662 .0263811
1076.240 .0263889
1076.819 .0263938
1077.397 .0263975
1077.976 .0264021
1078.554 .0264064
1079.133 .0264113
1079.711 .0264173
1080.290 .0264244
1080.869 .0264317
1081.448 .0264373
1082.027 .0264411
1082.606 .0264439
1083.185 .0264478
1083.764 .0264518
1084.343 .0264576
1084.923 .0264666
1085.502 .0264780
1086.082 .0264915
1086.662 .0265076
1087.242 .0265248
1087.822 .0265406
1088.402 .0265549
1088.983 .0265666
1089.563 .0265772
1090.144 .0265879
1090.725 .0266003
1091.306 .0266159
1091.887 .0266367
1092.469 .0266605
1093.050 .0266865
1093.632 .0267139
1094.214 .0267424
1094.796 .0267692
1095.379 .0267947
1095.961 .0268189
1096.544 .0268437
1097.127 .0268683
1097.710 .0268936
1098.294 .0269205
1098.877 .0269493
1099.461 .0269770
1100.046 .0270047
1100.630 .0270295
1101.215 .0270518
1101.800 .0270714
1102.385 .0270882
1102.970 .0271028
1103.556 .0271160
1104.142 .0271285
1104.728 .0271409
1105.315 .0271549
1105.902 .0271693
1106.489 .0271825
1107.077 .0271957
1107.664 .0272084
1108.253 .0272190
1108.841 .0272274
1109.430 .0272358
1110.019 .0272445
1110.609 .0272561
1111.198 .0272706
1111.789 .0272869
1112.379 .0273075
1112.970 .0273294
1113.561 .0273528
1114.153 .0273754
1114.745 .0273972
1115.338 .0274201
1115.931 .0274427
1116.524 .0274667
1117.117 .0274934
1117.712 .0275247
1118.306 .0275595
1118.901 .0275986
1119.496 .0276394
1120.092 .0276814
1120.689 .0277229
1121.285 .0277651
1121.882 .0278050
1122.480 .0278457
1123.078 .0278886
1123.677 .0279310
1124.276 .0279759
1124.875 .0280265
1125.476 .0280781
1126.076 .0281345
1126.677 .0281930
1127.279 .0282544
1127.881 .0283161
1128.484 .0283804
1129.087 .0284441
1129.691 .0285123
1130.295 .0285856
1130.900 .0286645
1131.505 .0287503
1132.111 .0288444
1132.718 .0289446
1133.325 .0290519
1133.933 .0291665
1134.541 .0292892
1135.150 .0294166
1135.760 .0295493
1136.370 .0296827
1136.981 .0298164
1137.592 .0299454
1138.204 .0300708
1138.817 .0301840
1139.431 .0302912
1140.045 .0303928
1140.660 .0304848
1141.275 .0305630
1141.891 .0306062
1142.508 .0307751
1143.126 .0309318
1143.744 .0308884
1144.363 .0307243
1144.983 .0300236
