Measurement Sequence started on: 15-12-46-377
Integration time: 28
Scans to Average: 2 
>>>>>Begin Spectral Data<<<<<
432.689 .0000100
433.621 .0000100
434.552 .0000100
435.482 .0000100
436.410 .0000100
437.337 .0000100
438.262 .0279858
439.187 .0593035
440.110 .0981583
441.031 .1419510
441.952 .1844704
442.871 .2179341
443.789 .2362747
444.705 .2374399
445.621 .2240486
446.535 .2016918
447.447 .1764130
448.359 .1375726
449.269 .1185154
450.178 .1066094
451.086 .0981892
451.993 .0916634
452.898 .0864151
453.803 .0820541
454.706 .0783728
455.608 .0751696
456.508 .0723771
457.408 .0699546
458.306 .0677981
459.204 .0658775
460.100 .0641432
460.995 .0625872
461.888 .0611783
462.781 .0598916
463.673 .0587034
464.563 .0576136
465.452 .0565939
466.340 .0556289
467.228 .0547381
468.114 .0539230
468.999 .0531871
469.882 .0525213
470.765 .0519295
471.647 .0514158
472.528 .0509667
473.407 .0505877
474.286 .0502636
475.163 .0499874
476.040 .0497430
476.915 .0495198
477.790 .0493124
478.663 .0491186
479.535 .0489364
480.407 .0487800
481.277 .0486425
482.147 .0485322
483.015 .0484396
483.883 .0483689
484.749 .0483152
485.615 .0482783
486.479 .0482418
487.343 .0482105
488.206 .0481800
489.067 .0481565
489.928 .0481424
490.788 .0481556
491.647 .0481940
492.505 .0482671
493.362 .0483770
494.218 .0485237
495.073 .0486943
495.928 .0489057
496.781 .0491368
497.634 .0494002
498.486 .0496785
499.337 .0499706
500.187 .0502768
501.036 .0505993
501.884 .0509363
502.731 .0512853
503.578 .0516451
504.424 .0520204
505.268 .0524007
506.113 .0528044
506.956 .0532269
507.798 .0536897
508.640 .0542072
509.480 .0547842
510.320 .0554388
511.160 .0562012
511.998 .0570631
512.836 .0580500
513.672 .0591815
514.508 .0604703
515.344 .0619362
516.178 .0636030
517.012 .0655081
517.845 .0676797
518.677 .0701553
519.508 .0729346
520.339 .0760344
521.169 .0795300
521.998 .0834126
522.826 .0877152
523.654 .0925004
524.481 .0977430
525.307 .1034734
526.133 .1097794
526.958 .1166407
527.782 .1239838
528.605 .1316616
529.428 .1395662
530.250 .1471039
531.072 .1539879
531.892 .1597976
532.712 .1641639
533.532 .1668986
534.350 .1677976
535.168 .1667221
535.986 .1638628
536.802 .1594367
537.618 .1537309
538.434 .1469970
539.249 .1397439
540.063 .1321313
540.876 .1244574
541.689 .1169816
542.501 .1098778
543.313 .1032781
544.124 .0972699
544.934 .0918099
545.744 .0868762
546.553 .0824645
547.361 .0785441
548.169 .0751494
548.976 .0722259
549.783 .0696982
550.589 .0674986
551.395 .0655533
552.200 .0638056
553.004 .0621983
553.808 .0606883
554.611 .0592708
555.414 .0579325
556.216 .0566864
557.018 .0555384
557.819 .0544997
558.619 .0535585
559.419 .0526990
560.218 .0519018
561.017 .0511580
561.815 .0504265
562.613 .0496928
563.410 .0489484
564.207 .0481883
565.003 .0474305
565.799 .0466797
566.594 .0459419
567.388 .0452422
568.182 .0445692
568.976 .0439287
569.769 .0433167
570.562 .0427350
571.354 .0421787
572.145 .0416411
572.936 .0411230
573.727 .0406164
574.517 .0401247
575.307 .0396468
576.096 .0391814
576.885 .0387368
577.673 .0383146
578.461 .0379109
579.248 .0375293
580.035 .0371705
580.821 .0368319
581.607 .0365120
582.392 .0362114
583.177 .0359302
583.962 .0356723
584.746 .0354366
585.529 .0352229
586.313 .0350295
587.095 .0348578
587.878 .0347049
588.660 .0345678
589.441 .0344469
590.222 .0343375
591.003 .0342413
591.783 .0341569
592.563 .0340830
593.342 .0340195
594.121 .0339639
594.899 .0339166
595.678 .0338741
596.455 .0338350
597.233 .0337989
598.009 .0337628
598.786 .0337270
599.562 .0336902
600.338 .0336519
601.113 .0336112
601.888 .0335695
602.663 .0335259
603.437 .0334818
604.211 .0334359
604.984 .0333892
605.757 .0333417
606.530 .0332943
607.302 .0332467
608.074 .0331988
608.845 .0331522
609.616 .0331072
610.387 .0330640
611.158 .0330240
611.928 .0329856
612.697 .0329501
613.467 .0329176
614.236 .0328880
615.004 .0328610
615.773 .0328364
616.541 .0328147
617.308 .0327953
618.076 .0327778
618.843 .0327613
619.609 .0327455
620.375 .0327304
621.141 .0327158
621.907 .0327009
622.672 .0326856
623.437 .0326694
624.202 .0326523
624.966 .0326342
625.730 .0326154
626.493 .0325955
627.257 .0325743
628.020 .0325517
628.782 .0325284
629.545 .0325025
630.307 .0324745
631.068 .0324445
631.830 .0324126
632.591 .0323785
633.352 .0323429
634.112 .0323057
634.872 .0322679
635.632 .0322289
636.392 .0321889
637.151 .0321480
637.910 .0321067
638.668 .0320645
639.427 .0320215
640.185 .0319789
640.943 .0319367
641.700 .0318946
642.457 .0318538
643.214 .0318143
643.971 .0317763
644.727 .0317404
645.483 .0317058
646.239 .0316726
646.994 .0316410
647.750 .0316102
648.505 .0315800
649.259 .0315505
650.014 .0315213
650.768 .0314927
651.521 .0314649
652.275 .0314375
653.028 .0314105
653.781 .0313838
654.534 .0313580
655.286 .0313322
656.039 .0313068
656.791 .0312823
657.542 .0312574
658.294 .0312338
659.045 .0312108
659.796 .0311877
660.546 .0311651
661.297 .0311417
662.047 .0311182
662.796 .0310944
663.546 .0310707
664.295 .0310475
665.044 .0310244
665.793 .0310018
666.542 .0309794
667.290 .0309572
668.038 .0309351
668.786 .0309124
669.533 .0308895
670.281 .0308667
671.028 .0308432
671.774 .0308201
672.521 .0307985
673.267 .0307788
674.013 .0307621
674.759 .0307472
675.505 .0307340
676.250 .0307222
676.995 .0307108
677.740 .0306993
678.484 .0306870
679.229 .0306739
679.973 .0306593
680.717 .0306437
681.460 .0306278
682.204 .0306112
682.947 .0305951
683.690 .0305792
684.433 .0305636
685.175 .0305477
685.917 .0305315
686.659 .0305148
687.401 .0304978
688.142 .0304805
688.884 .0304626
689.625 .0304444
690.365 .0304261
691.106 .0304078
691.846 .0303903
692.586 .0303728
693.326 .0303558
694.066 .0303388
694.805 .0303215
695.545 .0303037
696.284 .0302854
697.022 .0302659
697.761 .0302460
698.499 .0302255
699.237 .0302043
699.975 .0301824
700.713 .0301603
701.450 .0301374
702.187 .0301138
702.924 .0300904
703.661 .0300665
704.397 .0300423
705.133 .0300186
705.869 .0299951
706.605 .0299728
707.341 .0299514
708.076 .0299304
708.811 .0299102
709.546 .0298907
710.281 .0298708
711.015 .0298496
711.749 .0298272
712.483 .0298032
713.217 .0297774
713.950 .0297505
714.684 .0297224
715.417 .0296930
716.150 .0296636
716.882 .0296339
717.615 .0296039
718.347 .0295743
719.079 .0295444
719.811 .0295144
720.542 .0294846
721.273 .0294549
722.005 .0294250
722.735 .0293960
723.466 .0293683
724.196 .0293416
724.927 .0293157
725.656 .0292910
726.386 .0292669
727.116 .0292437
727.845 .0292213
728.574 .0291985
729.303 .0291759
730.031 .0291535
730.760 .0291311
731.488 .0291089
732.216 .0290871
732.944 .0290657
733.671 .0290444
734.398 .0290234
735.125 .0290026
735.852 .0289822
736.579 .0289622
737.305 .0289436
738.031 .0289262
738.757 .0289100
739.483 .0288950
740.208 .0288813
740.933 .0288693
741.658 .0288587
742.383 .0288491
743.108 .0288405
743.832 .0288333
744.556 .0288272
745.280 .0288220
746.004 .0288175
746.727 .0288135
747.450 .0288096
748.173 .0288051
748.896 .0288006
749.618 .0287954
750.340 .0287900
751.062 .0287852
751.784 .0287807
752.506 .0287768
753.227 .0287731
753.948 .0287695
754.669 .0287658
755.389 .0287611
756.110 .0287553
756.830 .0287475
757.550 .0287384
758.269 .0287280
758.989 .0287163
759.708 .0287039
760.427 .0286916
761.146 .0286791
761.864 .0286667
762.582 .0286541
763.300 .0286413
764.018 .0286280
764.736 .0286147
765.453 .0286014
766.170 .0285884
766.887 .0285758
767.603 .0285645
768.320 .0285541
769.036 .0285452
769.751 .0285375
770.467 .0285308
771.182 .0285251
771.897 .0285203
772.612 .0285157
773.327 .0285110
774.041 .0285069
774.755 .0285028
775.469 .0284988
776.183 .0284953
776.896 .0284919
777.609 .0284885
778.322 .0284858
779.035 .0284836
779.747 .0284813
780.459 .0284792
781.171 .0284772
781.882 .0284752
782.594 .0284734
783.305 .0284716
784.016 .0284698
784.726 .0284681
785.436 .0284670
786.147 .0284654
786.856 .0284639
787.566 .0284624
788.275 .0284603
788.984 .0284577
789.693 .0284545
790.401 .0284503
791.110 .0284448
791.818 .0284384
792.525 .0284308
793.233 .0284221
793.940 .0284123
794.647 .0284013
795.353 .0283895
796.060 .0283767
796.766 .0283626
797.472 .0283471
798.177 .0283302
798.883 .0283123
799.588 .0282932
800.292 .0282733
800.997 .0282525
801.701 .0282313
802.405 .0282094
803.109 .0281871
803.812 .0281642
804.515 .0281407
805.218 .0281163
805.921 .0280913
806.623 .0280658
807.325 .0280399
808.027 .0280138
808.728 .0279880
809.429 .0279621
810.130 .0279363
810.831 .0279104
811.531 .0278843
812.231 .0278579
812.931 .0278315
813.630 .0278044
814.330 .0277769
815.029 .0277497
815.727 .0277227
816.426 .0276961
817.124 .0276701
817.821 .0276450
818.519 .0276203
819.216 .0275958
819.913 .0275718
820.609 .0275483
821.306 .0275254
822.002 .0275037
822.697 .0274829
823.393 .0274635
824.088 .0274455
824.783 .0274289
825.477 .0274137
826.171 .0273995
826.865 .0273860
827.559 .0273730
828.252 .0273604
828.945 .0273483
829.638 .0273363
830.330 .0273248
831.023 .0273141
831.714 .0273037
832.406 .0272935
833.097 .0272833
833.788 .0272730
834.479 .0272623
835.169 .0272508
835.859 .0272389
836.548 .0272262
837.238 .0272132
837.927 .0271999
838.615 .0271868
839.304 .0271743
839.992 .0271625
840.680 .0271514
841.367 .0271408
842.054 .0271308
842.741 .0271206
843.428 .0271106
844.114 .0271007
844.800 .0270911
845.485 .0270815
846.170 .0270722
846.855 .0270635
847.540 .0270552
848.224 .0270475
848.908 .0270401
849.592 .0270331
850.275 .0270259
850.958 .0270179
851.641 .0270100
852.323 .0270013
853.005 .0269922
853.687 .0269826
854.368 .0269729
855.049 .0269629
855.730 .0269526
856.410 .0269418
857.090 .0269305
857.769 .0269190
858.449 .0269071
859.128 .0268947
859.806 .0268820
860.485 .0268700
861.163 .0268583
861.840 .0268473
862.518 .0268371
863.195 .0268273
863.871 .0268182
864.548 .0268093
865.224 .0268005
865.899 .0267918
866.574 .0267837
867.249 .0267763
867.924 .0267696
868.598 .0267641
869.272 .0267599
869.946 .0267573
870.619 .0267560
871.292 .0267556
871.964 .0267560
872.636 .0267566
873.308 .0267578
873.979 .0267592
874.651 .0267610
875.321 .0267634
875.992 .0267665
876.662 .0267702
877.331 .0267749
878.001 .0267800
878.670 .0267856
879.338 .0267916
880.007 .0267981
880.675 .0268049
881.342 .0268117
882.009 .0268190
882.676 .0268262
883.343 .0268332
884.009 .0268402
884.675 .0268461
885.340 .0268515
886.005 .0268562
886.670 .0268602
887.334 .0268640
887.998 .0268679
888.662 .0268724
889.325 .0268774
889.988 .0268836
890.650 .0268906
891.312 .0268981
891.974 .0269061
892.636 .0269141
893.297 .0269223
893.957 .0269306
894.618 .0269388
895.278 .0269471
895.937 .0269562
896.596 .0269659
897.255 .0269755
897.914 .0269856
898.572 .0269953
899.230 .0270045
899.887 .0270127
900.544 .0270195
901.201 .0270242
901.857 .0270268
902.513 .0270273
903.168 .0270254
903.823 .0270209
904.478 .0270139
905.132 .0270045
905.786 .0269926
906.440 .0269787
907.093 .0269624
907.746 .0269438
908.399 .0269237
909.051 .0269016
909.703 .0268777
910.354 .0268527
911.005 .0268267
911.656 .0268003
912.306 .0267734
912.956 .0267464
913.605 .0267191
914.254 .0266918
914.903 .0266651
915.551 .0266385
916.199 .0266125
916.847 .0265870
917.494 .0265620
918.141 .0265378
918.788 .0265140
919.434 .0264907
920.079 .0264680
920.725 .0264456
921.370 .0264233
922.014 .0264011
922.658 .0263792
923.302 .0263576
923.946 .0263363
924.589 .0263149
925.231 .0262932
925.873 .0262708
926.515 .0262477
927.157 .0262236
927.798 .0261981
928.439 .0261709
929.079 .0261421
929.719 .0261123
930.359 .0260816
930.998 .0260503
931.637 .0260188
932.275 .0259875
932.913 .0259561
933.551 .0259245
934.188 .0258925
934.825 .0258604
935.462 .0258282
936.098 .0257957
936.733 .0257633
937.369 .0257316
938.004 .0257007
938.638 .0256709
939.273 .0256427
939.907 .0256159
940.540 .0255904
941.173 .0255662
941.806 .0255434
942.438 .0255218
943.070 .0255010
943.702 .0254809
944.333 .0254611
944.964 .0254420
945.594 .0254228
946.224 .0254036
946.854 .0253851
947.483 .0253670
948.112 .0253496
948.741 .0253327
949.369 .0253164
949.996 .0253009
950.624 .0252859
951.251 .0252708
951.878 .0252552
952.504 .0252388
953.130 .0252212
953.755 .0252025
954.380 .0251830
955.005 .0251628
955.629 .0251424
956.253 .0251223
956.877 .0251029
957.500 .0250841
958.123 .0250667
958.746 .0250498
959.368 .0250335
959.990 .0250177
960.611 .0250013
961.232 .0249845
961.853 .0249674
962.473 .0249499
963.093 .0249327
963.712 .0249159
964.331 .0248994
964.950 .0248831
965.569 .0248679
966.187 .0248531
966.804 .0248391
967.422 .0248264
968.039 .0248144
968.655 .0248027
969.272 .0247914
969.887 .0247800
970.503 .0247685
971.118 .0247576
971.733 .0247470
972.347 .0247374
972.961 .0247283
973.575 .0247199
974.188 .0247122
974.801 .0247052
975.414 .0246981
976.026 .0246903
976.638 .0246816
977.250 .0246712
977.861 .0246597
978.472 .0246477
979.083 .0246351
979.693 .0246226
980.303 .0246105
980.912 .0245989
981.521 .0245879
982.130 .0245778
982.738 .0245689
983.346 .0245616
983.954 .0245558
984.562 .0245507
985.169 .0245466
985.775 .0245432
986.382 .0245404
986.988 .0245379
987.594 .0245353
988.199 .0245325
988.804 .0245293
989.409 .0245257
990.013 .0245220
990.617 .0245184
991.221 .0245149
991.824 .0245115
992.427 .0245088
993.030 .0245061
993.632 .0245031
994.234 .0245007
994.836 .0244985
995.438 .0244965
996.039 .0244955
996.640 .0244955
997.240 .0244971
997.840 .0245013
998.440 .0245077
999.040 .0245163
999.639 .0245270
1000.238 .0245389
1000.836 .0245511
1001.435 .0245641
1002.033 .0245771
1002.630 .0245892
1003.228 .0246014
1003.825 .0246139
1004.422 .0246258
1005.018 .0246381
1005.614 .0246511
1006.210 .0246643
1006.806 .0246782
1007.401 .0246920
1007.996 .0247049
1008.591 .0247176
1009.186 .0247297
1009.780 .0247410
1010.374 .0247517
1010.967 .0247622
1011.561 .0247721
1012.154 .0247815
1012.746 .0247913
1013.339 .0248010
1013.931 .0248110
1014.523 .0248224
1015.115 .0248347
1015.706 .0248480
1016.298 .0248623
1016.888 .0248775
1017.479 .0248937
1018.069 .0249106
1018.660 .0249271
1019.250 .0249439
1019.839 .0249612
1020.429 .0249798
1021.018 .0249994
1021.607 .0250208
1022.195 .0250438
1022.784 .0250681
1023.372 .0250927
1023.960 .0251177
1024.547 .0251423
1025.135 .0251665
1025.722 .0251900
1026.309 .0252135
1026.896 .0252366
1027.483 .0252604
1028.069 .0252845
1028.655 .0253095
1029.241 .0253338
1029.827 .0253567
1030.412 .0253771
1030.997 .0253959
1031.582 .0254122
1032.167 .0254267
1032.752 .0254400
1033.336 .0254540
1033.921 .0254685
1034.505 .0254841
1035.089 .0255004
1035.672 .0255175
1036.256 .0255344
1036.839 .0255505
1037.422 .0255642
1038.005 .0255767
1038.588 .0255876
1039.171 .0255986
1039.753 .0256103
1040.335 .0256235
1040.918 .0256379
1041.500 .0256537
1042.081 .0256713
1042.663 .0256893
1043.244 .0257059
1043.826 .0257210
1044.407 .0257333
1044.988 .0257432
1045.569 .0257499
1046.150 .0257539
1046.730 .0257566
1047.311 .0257593
1047.891 .0257627
1048.471 .0257661
1049.052 .0257711
1049.632 .0257781
1050.211 .0257866
1050.791 .0257967
1051.371 .0258071
1051.950 .0258177
1052.530 .0258282
1053.109 .0258391
1053.688 .0258493
1054.268 .0258582
1054.847 .0258667
1055.426 .0258746
1056.005 .0258818
1056.583 .0258879
1057.162 .0258929
1057.741 .0258955
1058.319 .0258984
1058.898 .0258997
1059.476 .0258986
1060.055 .0258958
1060.633 .0258913
1061.211 .0258848
1061.790 .0258758
1062.368 .0258662
1062.946 .0258554
1063.524 .0258448
1064.102 .0258371
1064.680 .0258301
1065.258 .0258253
1065.836 .0258233
1066.414 .0258232
1066.992 .0258250
1067.570 .0258284
1068.148 .0258306
1068.726 .0258312
1069.304 .0258315
1069.882 .0258306
1070.460 .0258274
1071.038 .0258233
1071.616 .0258183
1072.194 .0258104
1072.772 .0258018
1073.350 .0257907
1073.928 .0257771
1074.506 .0257638
1075.084 .0257492
1075.662 .0257337
1076.240 .0257176
1076.819 .0257021
1077.397 .0256865
1077.976 .0256728
1078.554 .0256609
1079.133 .0256494
1079.711 .0256403
1080.290 .0256334
1080.869 .0256286
1081.448 .0256267
1082.027 .0256270
1082.606 .0256279
1083.185 .0256295
1083.764 .0256317
1084.343 .0256331
1084.923 .0256348
1085.502 .0256374
1086.082 .0256405
1086.662 .0256440
1087.242 .0256484
1087.822 .0256528
1088.402 .0256574
1088.983 .0256627
1089.563 .0256662
1090.144 .0256695
1090.725 .0256724
1091.306 .0256751
1091.887 .0256785
1092.469 .0256822
1093.050 .0256870
1093.632 .0256913
1094.214 .0256948
1094.796 .0256974
1095.379 .0256973
1095.961 .0256968
1096.544 .0256946
1097.127 .0256921
1097.710 .0256888
1098.294 .0256852
1098.877 .0256840
1099.461 .0256834
1100.046 .0256831
1100.630 .0256826
1101.215 .0256812
1101.800 .0256800
1102.385 .0256767
1102.970 .0256729
1103.556 .0256681
1104.142 .0256630
1104.728 .0256598
1105.315 .0256563
1105.902 .0256537
1106.489 .0256532
1107.077 .0256530
1107.664 .0256549
1108.253 .0256587
1108.841 .0256625
1109.430 .0256661
1110.019 .0256694
1110.609 .0256729
1111.198 .0256734
1111.789 .0256757
1112.379 .0256819
1112.970 .0256900
1113.561 .0257041
1114.153 .0257222
1114.745 .0257410
1115.338 .0257632
1115.931 .0257859
1116.524 .0258069
1117.117 .0258285
1117.712 .0258519
1118.306 .0258759
1118.901 .0259028
1119.496 .0259368
1120.092 .0259783
1120.689 .0260260
1121.285 .0260833
1121.882 .0261413
1122.480 .0262006
1123.078 .0262612
1123.677 .0263162
1124.276 .0263675
1124.875 .0264152
1125.476 .0264594
1126.076 .0265022
1126.677 .0265449
1127.279 .0265885
1127.881 .0266307
1128.484 .0266763
1129.087 .0267185
1129.691 .0267551
1130.295 .0267862
1130.900 .0268122
1131.505 .0268347
1132.111 .0268576
1132.718 .0268829
1133.325 .0269158
1133.933 .0269615
1134.541 .0270201
1135.150 .0270963
1135.760 .0271943
1136.370 .0273109
1136.981 .0274441
1137.592 .0275892
1138.204 .0277426
1138.817 .0279037
1139.431 .0280746
1140.045 .0282569
1140.660 .0284524
1141.275 .0286859
1141.891 .0289117
1142.508 .0291251
1143.126 .0294518
1143.744 .0296776
1144.363 .0305125
1144.983 .0297899
