Measurement Sequence started on: 15-12-46-377
Integration time: 28
Scans to Average: 2 
>>>>>Begin Spectral Data<<<<<
432.689 .0000100
433.621 .0000100
434.552 .0000100
435.482 .0000100
436.410 .0000100
437.337 .0000100
438.262 .0288293
439.187 .0610180
440.110 .1009353
441.031 .1459208
441.952 .1895407
442.871 .2237630
443.789 .2423616
444.705 .2432025
445.621 .2290187
446.535 .2055596
447.447 .1790967
448.359 .1386749
449.269 .1187310
450.178 .1061835
451.086 .0972931
451.993 .0904701
452.898 .0850599
453.803 .0806127
454.706 .0769158
455.608 .0737336
456.508 .0709888
457.408 .0686109
458.306 .0665131
459.204 .0646523
460.100 .0629959
460.995 .0614987
461.888 .0601452
462.781 .0589255
463.673 .0578111
464.563 .0568022
465.452 .0558586
466.340 .0549812
467.228 .0541759
468.114 .0534428
468.999 .0527804
469.882 .0521801
470.765 .0516424
471.647 .0511520
472.528 .0507015
473.407 .0502946
474.286 .0499085
475.163 .0495528
476.040 .0492266
476.915 .0489265
477.790 .0486475
478.663 .0483977
479.535 .0481738
480.407 .0479885
481.277 .0478301
482.147 .0476872
483.015 .0475557
483.883 .0474389
484.749 .0473312
485.615 .0472348
486.479 .0471580
487.343 .0471063
488.206 .0470699
489.067 .0470557
489.928 .0470501
490.788 .0470534
491.647 .0470689
492.505 .0470968
493.362 .0471349
494.218 .0471895
495.073 .0472649
495.928 .0473712
496.781 .0475125
497.634 .0477005
498.486 .0479298
499.337 .0481975
500.187 .0485097
501.036 .0488455
501.884 .0492128
502.731 .0496162
503.578 .0500476
504.424 .0505125
505.268 .0509928
506.113 .0514934
506.956 .0520156
507.798 .0525745
508.640 .0531811
509.480 .0538507
510.320 .0546087
511.160 .0554687
511.998 .0564307
512.836 .0574935
513.672 .0586689
514.508 .0599538
515.344 .0613568
516.178 .0628857
517.012 .0645906
517.845 .0665204
518.677 .0687064
519.508 .0712177
520.339 .0740841
521.169 .0773814
521.998 .0810979
522.826 .0852338
523.654 .0898291
524.481 .0948985
525.307 .1004746
526.133 .1065351
526.958 .1131009
527.782 .1200972
528.605 .1273651
529.428 .1347918
530.250 .1418334
531.072 .1482521
531.892 .1537072
532.712 .1579375
533.532 .1607568
534.350 .1619795
535.168 .1614935
535.986 .1593651
536.802 .1557419
537.618 .1507724
538.434 .1445982
539.249 .1377015
540.063 .1302812
540.876 .1226480
541.689 .1151018
542.501 .1079010
543.313 .1012880
544.124 .0953581
544.934 .0900206
545.744 .0852131
546.553 .0809200
547.361 .0771280
548.169 .0737584
548.976 .0707541
549.783 .0680920
550.589 .0657231
551.395 .0636040
552.200 .0617062
553.004 .0599983
553.808 .0584571
554.611 .0570740
555.414 .0558161
556.216 .0546666
557.018 .0536324
557.819 .0526937
558.619 .0518300
559.419 .0510433
560.218 .0503267
561.017 .0496405
561.815 .0489888
562.613 .0483556
563.410 .0477280
564.207 .0471098
565.003 .0464962
565.799 .0458864
566.594 .0452850
567.388 .0446996
568.182 .0441248
568.976 .0435678
569.769 .0430351
570.562 .0425151
571.354 .0420077
572.145 .0415149
572.936 .0410261
573.727 .0405335
574.517 .0400448
575.307 .0395545
576.096 .0390665
576.885 .0385876
577.673 .0381235
578.461 .0376833
579.248 .0372734
580.035 .0368980
580.821 .0365526
581.607 .0362345
582.392 .0359442
583.177 .0356772
583.962 .0354333
584.746 .0352116
585.529 .0350112
586.313 .0348332
587.095 .0346782
587.878 .0345441
588.660 .0344292
589.441 .0343323
590.222 .0342478
591.003 .0341719
591.783 .0341008
592.563 .0340313
593.342 .0339628
594.121 .0338922
594.899 .0338217
595.678 .0337504
596.455 .0336802
597.233 .0336112
598.009 .0335462
598.786 .0334846
599.562 .0334264
600.338 .0333706
601.113 .0333172
601.888 .0332636
602.663 .0332083
603.437 .0331514
604.211 .0330941
604.984 .0330363
605.757 .0329799
606.530 .0329245
607.302 .0328737
608.074 .0328275
608.845 .0327868
609.616 .0327500
610.387 .0327183
611.158 .0326897
611.928 .0326633
612.697 .0326374
613.467 .0326125
614.236 .0325875
615.004 .0325639
615.773 .0325422
616.541 .0325227
617.308 .0325052
618.076 .0324911
618.843 .0324787
619.609 .0324689
620.375 .0324592
621.141 .0324493
621.907 .0324370
622.672 .0324229
623.437 .0324051
624.202 .0323832
624.966 .0323579
625.730 .0323297
626.493 .0322983
627.257 .0322651
628.020 .0322307
628.782 .0321958
629.545 .0321609
630.307 .0321266
631.068 .0320922
631.830 .0320579
632.591 .0320230
633.352 .0319874
634.112 .0319507
634.872 .0319137
635.632 .0318759
636.392 .0318380
637.151 .0318016
637.910 .0317665
638.668 .0317332
639.427 .0317023
640.185 .0316732
640.943 .0316458
641.700 .0316196
642.457 .0315947
643.214 .0315700
643.971 .0315451
644.727 .0315203
645.483 .0314953
646.239 .0314705
646.994 .0314464
647.750 .0314229
648.505 .0314004
649.259 .0313787
650.014 .0313576
650.768 .0313361
651.521 .0313146
652.275 .0312925
653.028 .0312689
653.781 .0312441
654.534 .0312181
655.286 .0311904
656.039 .0311619
656.791 .0311330
657.542 .0311032
658.294 .0310734
659.045 .0310439
659.796 .0310139
660.546 .0309843
661.297 .0309549
662.047 .0309257
662.796 .0308969
663.546 .0308694
664.295 .0308429
665.044 .0308176
665.793 .0307940
666.542 .0307717
667.290 .0307510
668.038 .0307319
668.786 .0307128
669.533 .0306947
670.281 .0306768
671.028 .0306586
671.774 .0306407
672.521 .0306236
673.267 .0306069
674.013 .0305913
674.759 .0305763
675.505 .0305613
676.250 .0305458
676.995 .0305301
677.740 .0305136
678.484 .0304961
679.229 .0304779
679.973 .0304583
680.717 .0304379
681.460 .0304180
682.204 .0303985
682.947 .0303805
683.690 .0303641
684.433 .0303489
685.175 .0303345
685.917 .0303207
686.659 .0303072
687.401 .0302934
688.142 .0302788
688.884 .0302635
689.625 .0302470
690.365 .0302292
691.106 .0302109
691.846 .0301921
692.586 .0301732
693.326 .0301536
694.066 .0301336
694.805 .0301125
695.545 .0300898
696.284 .0300661
697.022 .0300410
697.761 .0300151
698.499 .0299894
699.237 .0299638
699.975 .0299392
700.713 .0299164
701.450 .0298955
702.187 .0298760
702.924 .0298583
703.661 .0298415
704.397 .0298248
705.133 .0298085
705.869 .0297930
706.605 .0297774
707.341 .0297622
708.076 .0297477
708.811 .0297328
709.546 .0297179
710.281 .0297023
711.015 .0296855
711.749 .0296670
712.483 .0296470
713.217 .0296251
713.950 .0296015
714.684 .0295772
715.417 .0295521
716.150 .0295269
716.882 .0295019
717.615 .0294771
718.347 .0294526
719.079 .0294283
719.811 .0294045
720.542 .0293806
721.273 .0293568
722.005 .0293330
722.735 .0293092
723.466 .0292855
724.196 .0292623
724.927 .0292398
725.656 .0292178
726.386 .0291964
727.116 .0291757
727.845 .0291552
728.574 .0291351
729.303 .0291154
730.031 .0290961
730.760 .0290768
731.488 .0290575
732.216 .0290384
732.944 .0290197
733.671 .0290020
734.398 .0289847
735.125 .0289684
735.852 .0289529
736.579 .0289379
737.305 .0289236
738.031 .0289100
738.757 .0288971
739.483 .0288845
740.208 .0288721
740.933 .0288597
741.658 .0288473
742.383 .0288351
743.108 .0288225
743.832 .0288106
744.556 .0287990
745.280 .0287879
746.004 .0287772
746.727 .0287678
747.450 .0287590
748.173 .0287505
748.896 .0287423
749.618 .0287337
750.340 .0287250
751.062 .0287159
751.784 .0287062
752.506 .0286967
753.227 .0286876
753.948 .0286780
754.669 .0286680
755.389 .0286574
756.110 .0286460
756.830 .0286331
757.550 .0286190
758.269 .0286033
758.989 .0285866
759.708 .0285690
760.427 .0285510
761.146 .0285328
761.864 .0285150
762.582 .0284971
763.300 .0284796
764.018 .0284620
764.736 .0284448
765.453 .0284275
766.170 .0284109
766.887 .0283952
767.603 .0283807
768.320 .0283671
769.036 .0283549
769.751 .0283439
770.467 .0283342
771.182 .0283250
771.897 .0283165
772.612 .0283082
773.327 .0283004
774.041 .0282929
774.755 .0282855
775.469 .0282784
776.183 .0282721
776.896 .0282652
777.609 .0282588
778.322 .0282518
779.035 .0282453
779.747 .0282390
780.459 .0282337
781.171 .0282295
781.882 .0282267
782.594 .0282253
783.305 .0282250
784.016 .0282252
784.726 .0282263
785.436 .0282270
786.147 .0282277
786.856 .0282278
787.566 .0282278
788.275 .0282275
788.984 .0282278
789.693 .0282281
790.401 .0282288
791.110 .0282289
791.818 .0282282
792.525 .0282258
793.233 .0282217
793.940 .0282151
794.647 .0282065
795.353 .0281958
796.060 .0281841
796.766 .0281710
797.472 .0281577
798.177 .0281439
798.883 .0281303
799.588 .0281169
800.292 .0281036
800.997 .0280903
801.701 .0280770
802.405 .0280639
803.109 .0280508
803.812 .0280380
804.515 .0280254
805.218 .0280127
805.921 .0279999
806.623 .0279866
807.325 .0279729
808.027 .0279589
808.728 .0279443
809.429 .0279290
810.130 .0279128
810.831 .0278963
811.531 .0278786
812.231 .0278603
812.931 .0278416
813.630 .0278223
814.330 .0278025
815.029 .0277823
815.727 .0277618
816.426 .0277416
817.124 .0277216
817.821 .0277019
818.519 .0276824
819.216 .0276638
819.913 .0276454
820.609 .0276276
821.306 .0276106
822.002 .0275948
822.697 .0275797
823.393 .0275660
824.088 .0275533
824.783 .0275418
825.477 .0275310
826.171 .0275206
826.865 .0275108
827.559 .0275014
828.252 .0274923
828.945 .0274832
829.638 .0274745
830.330 .0274668
831.023 .0274594
831.714 .0274528
832.406 .0274465
833.097 .0274401
833.788 .0274334
834.479 .0274257
835.169 .0274171
835.859 .0274076
836.548 .0273975
837.238 .0273873
837.927 .0273774
838.615 .0273677
839.304 .0273584
839.992 .0273488
840.680 .0273395
841.367 .0273291
842.054 .0273179
842.741 .0273060
843.428 .0272936
844.114 .0272816
844.800 .0272701
845.485 .0272591
846.170 .0272493
846.855 .0272401
847.540 .0272313
848.224 .0272216
848.908 .0272113
849.592 .0271996
850.275 .0271866
850.958 .0271726
851.641 .0271576
852.323 .0271416
853.005 .0271259
853.687 .0271097
854.368 .0270926
855.049 .0270747
855.730 .0270559
856.410 .0270354
857.090 .0270140
857.769 .0269912
858.449 .0269676
859.128 .0269437
859.806 .0269201
860.485 .0268967
861.163 .0268743
861.840 .0268534
862.518 .0268334
863.195 .0268146
863.871 .0267972
864.548 .0267804
865.224 .0267651
865.899 .0267511
866.574 .0267381
867.249 .0267260
867.924 .0267150
868.598 .0267048
869.272 .0266954
869.946 .0266871
870.619 .0266792
871.292 .0266721
871.964 .0266657
872.636 .0266593
873.308 .0266531
873.979 .0266473
874.651 .0266417
875.321 .0266359
875.992 .0266304
876.662 .0266248
877.331 .0266191
878.001 .0266137
878.670 .0266085
879.338 .0266041
880.007 .0266008
880.675 .0265988
881.342 .0265978
882.009 .0265980
882.676 .0265987
883.343 .0265995
884.009 .0266004
884.675 .0266006
885.340 .0266002
886.005 .0265996
886.670 .0265992
887.334 .0265997
887.998 .0266010
888.662 .0266039
889.325 .0266080
889.988 .0266130
890.650 .0266178
891.312 .0266222
891.974 .0266261
892.636 .0266289
893.297 .0266304
893.957 .0266313
894.618 .0266324
895.278 .0266340
895.937 .0266364
896.596 .0266405
897.255 .0266455
897.914 .0266516
898.572 .0266578
899.230 .0266639
899.887 .0266694
900.544 .0266741
901.201 .0266774
901.857 .0266800
902.513 .0266818
903.168 .0266824
903.823 .0266823
904.478 .0266817
905.132 .0266799
905.786 .0266765
906.440 .0266719
907.093 .0266656
907.746 .0266574
908.399 .0266477
909.051 .0266363
909.703 .0266235
910.354 .0266096
911.005 .0265943
911.656 .0265782
912.306 .0265621
912.956 .0265455
913.605 .0265287
914.254 .0265121
914.903 .0264958
915.551 .0264801
916.199 .0264655
916.847 .0264523
917.494 .0264397
918.141 .0264282
918.788 .0264174
919.434 .0264069
920.079 .0263967
920.725 .0263867
921.370 .0263767
922.014 .0263670
922.658 .0263572
923.302 .0263471
923.946 .0263371
924.589 .0263267
925.231 .0263156
925.873 .0263035
926.515 .0262902
927.157 .0262757
927.798 .0262595
928.439 .0262419
929.079 .0262229
929.719 .0262027
930.359 .0261818
930.998 .0261604
931.637 .0261389
932.275 .0261179
932.913 .0260973
933.551 .0260774
934.188 .0260582
934.825 .0260395
935.462 .0260214
936.098 .0260039
936.733 .0259871
937.369 .0259711
938.004 .0259564
938.638 .0259425
939.273 .0259298
939.907 .0259183
940.540 .0259079
941.173 .0258982
941.806 .0258891
942.438 .0258802
943.070 .0258715
943.702 .0258626
944.333 .0258533
944.964 .0258431
945.594 .0258329
946.224 .0258220
946.854 .0258112
947.483 .0258008
948.112 .0257913
948.741 .0257824
949.369 .0257747
949.996 .0257681
950.624 .0257625
951.251 .0257577
951.878 .0257534
952.504 .0257489
953.130 .0257443
953.755 .0257388
954.380 .0257322
955.005 .0257250
955.629 .0257177
956.253 .0257095
956.877 .0257011
957.500 .0256926
958.123 .0256838
958.746 .0256744
959.368 .0256639
959.990 .0256521
960.611 .0256389
961.232 .0256239
961.853 .0256070
962.473 .0255885
963.093 .0255699
963.712 .0255502
964.331 .0255305
964.950 .0255109
965.569 .0254918
966.187 .0254734
966.804 .0254558
967.422 .0254391
968.039 .0254232
968.655 .0254078
969.272 .0253927
969.887 .0253773
970.503 .0253624
971.118 .0253469
971.733 .0253313
972.347 .0253158
972.961 .0253001
973.575 .0252845
974.188 .0252693
974.801 .0252539
975.414 .0252388
976.026 .0252227
976.638 .0252053
977.250 .0251868
977.861 .0251679
978.472 .0251480
979.083 .0251275
979.693 .0251071
980.303 .0250867
980.912 .0250663
981.521 .0250462
982.130 .0250255
982.738 .0250049
983.346 .0249845
983.954 .0249634
984.562 .0249421
985.169 .0249220
985.775 .0249027
986.382 .0248844
986.988 .0248674
987.594 .0248515
988.199 .0248361
988.804 .0248214
989.409 .0248068
990.013 .0247920
990.617 .0247776
991.221 .0247633
991.824 .0247494
992.427 .0247368
993.030 .0247248
993.632 .0247137
994.234 .0247037
994.836 .0246942
995.438 .0246848
996.039 .0246758
996.640 .0246675
997.240 .0246601
997.840 .0246539
998.440 .0246488
999.040 .0246446
999.639 .0246413
1000.238 .0246382
1000.836 .0246346
1001.435 .0246301
1002.033 .0246247
1002.630 .0246187
1003.228 .0246128
1003.825 .0246069
1004.422 .0246017
1005.018 .0245978
1005.614 .0245951
1006.210 .0245929
1006.806 .0245913
1007.401 .0245893
1007.996 .0245866
1008.591 .0245833
1009.186 .0245793
1009.780 .0245745
1010.374 .0245696
1010.967 .0245651
1011.561 .0245609
1012.154 .0245571
1012.746 .0245534
1013.339 .0245496
1013.931 .0245465
1014.523 .0245439
1015.115 .0245414
1015.706 .0245397
1016.298 .0245395
1016.888 .0245409
1017.479 .0245440
1018.069 .0245485
1018.660 .0245542
1019.250 .0245608
1019.839 .0245678
1020.429 .0245748
1021.018 .0245815
1021.607 .0245884
1022.195 .0245946
1022.784 .0246008
1023.372 .0246072
1023.960 .0246134
1024.547 .0246199
1025.135 .0246282
1025.722 .0246364
1026.309 .0246447
1026.896 .0246527
1027.483 .0246599
1028.069 .0246662
1028.655 .0246712
1029.241 .0246746
1029.827 .0246776
1030.412 .0246812
1030.997 .0246859
1031.582 .0246921
1032.167 .0247018
1032.752 .0247140
1033.336 .0247283
1033.921 .0247439
1034.505 .0247600
1035.089 .0247750
1035.672 .0247890
1036.256 .0248010
1036.839 .0248108
1037.422 .0248188
1038.005 .0248259
1038.588 .0248327
1039.171 .0248403
1039.753 .0248487
1040.335 .0248579
1040.918 .0248681
1041.500 .0248793
1042.081 .0248901
1042.663 .0249007
1043.244 .0249110
1043.826 .0249211
1044.407 .0249293
1044.988 .0249367
1045.569 .0249425
1046.150 .0249476
1046.730 .0249520
1047.311 .0249558
1047.891 .0249593
1048.471 .0249639
1049.052 .0249685
1049.632 .0249736
1050.211 .0249786
1050.791 .0249834
1051.371 .0249874
1051.950 .0249915
1052.530 .0249953
1053.109 .0249992
1053.688 .0250033
1054.268 .0250080
1054.847 .0250125
1055.426 .0250175
1056.005 .0250226
1056.583 .0250275
1057.162 .0250327
1057.741 .0250380
1058.319 .0250429
1058.898 .0250493
1059.476 .0250556
1060.055 .0250629
1060.633 .0250705
1061.211 .0250777
1061.790 .0250841
1062.368 .0250903
1062.946 .0250962
1063.524 .0251022
1064.102 .0251092
1064.680 .0251184
1065.258 .0251284
1065.836 .0251409
1066.414 .0251558
1066.992 .0251718
1067.570 .0251895
1068.148 .0252085
1068.726 .0252261
1069.304 .0252442
1069.882 .0252634
1070.460 .0252827
1071.038 .0253029
1071.616 .0253249
1072.194 .0253478
1072.772 .0253707
1073.350 .0253939
1073.928 .0254158
1074.506 .0254344
1075.084 .0254518
1075.662 .0254666
1076.240 .0254781
1076.819 .0254906
1077.397 .0255030
1077.976 .0255152
1078.554 .0255292
1079.133 .0255440
1079.711 .0255581
1080.290 .0255728
1080.869 .0255872
1081.448 .0255997
1082.027 .0256103
1082.606 .0256200
1083.185 .0256272
1083.764 .0256342
1084.343 .0256417
1084.923 .0256483
1085.502 .0256562
1086.082 .0256670
1086.662 .0256779
1087.242 .0256906
1087.822 .0257045
1088.402 .0257192
1088.983 .0257338
1089.563 .0257479
1090.144 .0257612
1090.725 .0257752
1091.306 .0257910
1091.887 .0258078
1092.469 .0258265
1093.050 .0258495
1093.632 .0258744
1094.214 .0259021
1094.796 .0259319
1095.379 .0259632
1095.961 .0259954
1096.544 .0260281
1097.127 .0260589
1097.710 .0260887
1098.294 .0261174
1098.877 .0261443
1099.461 .0261692
1100.046 .0261923
1100.630 .0262138
1101.215 .0262353
1101.800 .0262580
1102.385 .0262827
1102.970 .0263089
1103.556 .0263387
1104.142 .0263693
1104.728 .0264024
1105.315 .0264346
1105.902 .0264640
1106.489 .0264913
1107.077 .0265158
1107.664 .0265392
1108.253 .0265614
1108.841 .0265852
1109.430 .0266111
1110.019 .0266393
1110.609 .0266694
1111.198 .0266977
1111.789 .0267257
1112.379 .0267508
1112.970 .0267719
1113.561 .0267912
1114.153 .0268097
1114.745 .0268279
1115.338 .0268494
1115.931 .0268776
1116.524 .0269114
1117.117 .0269523
1117.712 .0269977
1118.306 .0270484
1118.901 .0271023
1119.496 .0271589
1120.092 .0272153
1120.689 .0272726
1121.285 .0273312
1121.882 .0273859
1122.480 .0274390
1123.078 .0274882
1123.677 .0275344
1124.276 .0275791
1124.875 .0276224
1125.476 .0276623
1126.076 .0276993
1126.677 .0277346
1127.279 .0277647
1127.881 .0277935
1128.484 .0278215
1129.087 .0278441
1129.691 .0278700
1130.295 .0279009
1130.900 .0279366
1131.505 .0279835
1132.111 .0280467
1132.718 .0281202
1133.325 .0282084
1133.933 .0283056
1134.541 .0284071
1135.150 .0285088
1135.760 .0286192
1136.370 .0287313
1136.981 .0288491
1137.592 .0289780
1138.204 .0291133
1138.817 .0292619
1139.431 .0294257
1140.045 .0295905
1140.660 .0297671
1141.275 .0299631
1141.891 .0301766
1142.508 .0303600
1143.126 .0303638
1143.744 .0307055
1144.363 .0313297
1144.983 .0316160
