Measurement Sequence started on: 15-12-46-377
Integration time: 28
Scans to Average: 2 
>>>>>Begin Spectral Data<<<<<
432.689 .0000100
433.621 .0000100
434.552 .0000100
435.482 .0000100
436.410 .0000100
437.337 .0000100
438.262 .0280118
439.187 .0594302
440.110 .0984768
441.031 .1425876
441.952 .1855078
442.871 .2193983
443.789 .2381146
444.705 .2395921
445.621 .2263521
446.535 .2039644
447.447 .1785181
448.359 .1393813
449.269 .1199985
450.178 .1077871
451.086 .0991326
451.993 .0924873
452.898 .0872369
453.803 .0829561
454.706 .0793472
455.608 .0762608
456.508 .0735788
457.408 .0712386
458.306 .0691713
459.204 .0673074
460.100 .0656472
460.995 .0641577
461.888 .0628207
462.781 .0615983
463.673 .0604778
464.563 .0594521
465.452 .0584829
466.340 .0575700
467.228 .0567250
468.114 .0559332
468.999 .0552206
469.882 .0545718
470.765 .0539936
471.647 .0534823
472.528 .0530215
473.407 .0526052
474.286 .0522373
475.163 .0519051
476.040 .0516114
476.915 .0513461
477.790 .0511228
478.663 .0509246
479.535 .0507559
480.407 .0506115
481.277 .0504813
482.147 .0503648
483.015 .0502599
483.883 .0501513
484.749 .0500481
485.615 .0499494
486.479 .0498563
487.343 .0497776
488.206 .0497157
489.067 .0496655
489.928 .0496248
490.788 .0495967
491.647 .0495845
492.505 .0495821
493.362 .0496045
494.218 .0496491
495.073 .0497326
495.928 .0498610
496.781 .0500284
497.634 .0502473
498.486 .0505166
499.337 .0508356
500.187 .0511878
501.036 .0515702
501.884 .0519817
502.731 .0524162
503.578 .0528828
504.424 .0533808
505.268 .0539147
506.113 .0544920
506.956 .0551231
507.798 .0558092
508.640 .0565486
509.480 .0573412
510.320 .0581871
511.160 .0590952
511.998 .0600490
512.836 .0610615
513.672 .0621441
514.508 .0633295
515.344 .0646536
516.178 .0661417
517.012 .0678595
517.845 .0698305
518.677 .0720958
519.508 .0746522
520.339 .0775302
521.169 .0807749
521.998 .0843800
522.826 .0883906
523.654 .0928409
524.481 .0977787
525.307 .1032335
526.133 .1092531
526.958 .1157820
527.782 .1227774
528.605 .1300830
529.428 .1375351
530.250 .1446261
531.072 .1510606
531.892 .1564856
532.712 .1606539
533.532 .1633536
534.350 .1643666
535.168 .1635533
535.986 .1610588
536.802 .1569800
537.618 .1515818
538.434 .1450702
539.249 .1379281
540.063 .1304137
540.876 .1228537
541.689 .1154825
542.501 .1085625
543.313 .1022471
544.124 .0965797
544.934 .0914565
545.744 .0868313
546.553 .0826455
547.361 .0789055
548.169 .0755832
548.976 .0726251
549.783 .0700045
550.589 .0676930
551.395 .0656189
552.200 .0637906
553.004 .0621466
553.808 .0606577
554.611 .0593090
555.414 .0581113
556.216 .0570307
557.018 .0560710
557.819 .0552105
558.619 .0544184
559.419 .0536872
560.218 .0530013
561.017 .0523381
561.815 .0516793
562.613 .0510197
563.410 .0503480
564.207 .0496669
565.003 .0489900
565.799 .0483055
566.594 .0476227
567.388 .0469517
568.182 .0462935
568.976 .0456412
569.769 .0449971
570.562 .0443685
571.354 .0437571
572.145 .0431700
572.936 .0425940
573.727 .0420303
574.517 .0414794
575.307 .0409445
576.096 .0404286
576.885 .0399356
577.673 .0394750
578.461 .0390468
579.248 .0386542
580.035 .0382962
580.821 .0379679
581.607 .0376681
582.392 .0373922
583.177 .0371401
583.962 .0369076
584.746 .0366960
585.529 .0365030
586.313 .0363300
587.095 .0361774
587.878 .0360392
588.660 .0359165
589.441 .0358066
590.222 .0357061
591.003 .0356131
591.783 .0355255
592.563 .0354435
593.342 .0353664
594.121 .0352924
594.899 .0352220
595.678 .0351529
596.455 .0350870
597.233 .0350227
598.009 .0349594
598.786 .0348974
599.562 .0348360
600.338 .0347747
601.113 .0347145
601.888 .0346552
602.663 .0345965
603.437 .0345385
604.211 .0344826
604.984 .0344283
605.757 .0343764
606.530 .0343262
607.302 .0342781
608.074 .0342325
608.845 .0341887
609.616 .0341461
610.387 .0341048
611.158 .0340653
611.928 .0340266
612.697 .0339892
613.467 .0339538
614.236 .0339190
615.004 .0338855
615.773 .0338537
616.541 .0338226
617.308 .0337920
618.076 .0337617
618.843 .0337310
619.609 .0337008
620.375 .0336711
621.141 .0336408
621.907 .0336104
622.672 .0335807
623.437 .0335503
624.202 .0335196
624.966 .0334892
625.730 .0334587
626.493 .0334275
627.257 .0333965
628.020 .0333643
628.782 .0333310
629.545 .0332974
630.307 .0332627
631.068 .0332278
631.830 .0331931
632.591 .0331575
633.352 .0331220
634.112 .0330871
634.872 .0330534
635.632 .0330195
636.392 .0329861
637.151 .0329521
637.910 .0329174
638.668 .0328829
639.427 .0328483
640.185 .0328142
640.943 .0327806
641.700 .0327475
642.457 .0327145
643.214 .0326812
643.971 .0326472
644.727 .0326129
645.483 .0325788
646.239 .0325442
646.994 .0325097
647.750 .0324759
648.505 .0324437
649.259 .0324146
650.014 .0323878
650.768 .0323631
651.521 .0323394
652.275 .0323159
653.028 .0322918
653.781 .0322679
654.534 .0322441
655.286 .0322208
656.039 .0321993
656.791 .0321797
657.542 .0321608
658.294 .0321437
659.045 .0321274
659.796 .0321112
660.546 .0320943
661.297 .0320751
662.047 .0320530
662.796 .0320300
663.546 .0320062
664.295 .0319820
665.044 .0319588
665.793 .0319370
666.542 .0319161
667.290 .0318963
668.038 .0318775
668.786 .0318586
669.533 .0318398
670.281 .0318210
671.028 .0318014
671.774 .0317817
672.521 .0317620
673.267 .0317423
674.013 .0317238
674.759 .0317059
675.505 .0316870
676.250 .0316671
676.995 .0316462
677.740 .0316238
678.484 .0315995
679.229 .0315742
679.973 .0315480
680.717 .0315220
681.460 .0314965
682.204 .0314708
682.947 .0314458
683.690 .0314218
684.433 .0313973
685.175 .0313724
685.917 .0313468
686.659 .0313200
687.401 .0312921
688.142 .0312645
688.884 .0312370
689.625 .0312093
690.365 .0311819
691.106 .0311550
691.846 .0311280
692.586 .0311006
693.326 .0310723
694.066 .0310430
694.805 .0310129
695.545 .0309816
696.284 .0309485
697.022 .0309150
697.761 .0308816
698.499 .0308487
699.237 .0308160
699.975 .0307847
700.713 .0307541
701.450 .0307246
702.187 .0306969
702.924 .0306703
703.661 .0306448
704.397 .0306207
705.133 .0305974
705.869 .0305749
706.605 .0305533
707.341 .0305326
708.076 .0305127
708.811 .0304939
709.546 .0304760
710.281 .0304582
711.015 .0304409
711.749 .0304242
712.483 .0304074
713.217 .0303908
713.950 .0303742
714.684 .0303572
715.417 .0303406
716.150 .0303245
716.882 .0303087
717.615 .0302933
718.347 .0302782
719.079 .0302634
719.811 .0302478
720.542 .0302325
721.273 .0302168
722.005 .0302009
722.735 .0301849
723.466 .0301687
724.196 .0301527
724.927 .0301366
725.656 .0301207
726.386 .0301058
727.116 .0300916
727.845 .0300787
728.574 .0300664
729.303 .0300552
730.031 .0300454
730.760 .0300369
731.488 .0300292
732.216 .0300235
732.944 .0300191
733.671 .0300159
734.398 .0300140
735.125 .0300135
735.852 .0300140
736.579 .0300150
737.305 .0300168
738.031 .0300182
738.757 .0300187
739.483 .0300181
740.208 .0300156
740.933 .0300121
741.658 .0300073
742.383 .0300011
743.108 .0299941
743.832 .0299869
744.556 .0299790
745.280 .0299707
746.004 .0299620
746.727 .0299529
747.450 .0299430
748.173 .0299321
748.896 .0299208
749.618 .0299092
750.340 .0298978
751.062 .0298868
751.784 .0298763
752.506 .0298664
753.227 .0298560
753.948 .0298452
754.669 .0298338
755.389 .0298212
756.110 .0298071
756.830 .0297914
757.550 .0297744
758.269 .0297564
758.989 .0297372
759.708 .0297171
760.427 .0296971
761.146 .0296767
761.864 .0296558
762.582 .0296342
763.300 .0296118
764.018 .0295886
764.736 .0295650
765.453 .0295409
766.170 .0295166
766.887 .0294925
767.603 .0294687
768.320 .0294452
769.036 .0294220
769.751 .0293992
770.467 .0293761
771.182 .0293527
771.897 .0293287
772.612 .0293036
773.327 .0292784
774.041 .0292533
774.755 .0292286
775.469 .0292049
776.183 .0291824
776.896 .0291609
777.609 .0291405
778.322 .0291213
779.035 .0291026
779.747 .0290840
780.459 .0290663
781.171 .0290491
781.882 .0290328
782.594 .0290179
783.305 .0290045
784.016 .0289925
784.726 .0289818
785.436 .0289713
786.147 .0289605
786.856 .0289491
787.566 .0289369
788.275 .0289231
788.984 .0289088
789.693 .0288942
790.401 .0288794
791.110 .0288646
791.818 .0288500
792.525 .0288347
793.233 .0288193
793.940 .0288029
794.647 .0287855
795.353 .0287673
796.060 .0287491
796.766 .0287308
797.472 .0287132
798.177 .0286964
798.883 .0286809
799.588 .0286662
800.292 .0286527
800.997 .0286395
801.701 .0286263
802.405 .0286134
803.109 .0286011
803.812 .0285894
804.515 .0285789
805.218 .0285692
805.921 .0285603
806.623 .0285519
807.325 .0285445
808.027 .0285368
808.728 .0285292
809.429 .0285219
810.130 .0285145
810.831 .0285072
811.531 .0285005
812.231 .0284941
812.931 .0284880
813.630 .0284825
814.330 .0284772
815.029 .0284721
815.727 .0284675
816.426 .0284638
817.124 .0284612
817.821 .0284598
818.519 .0284600
819.216 .0284614
819.913 .0284646
820.609 .0284689
821.306 .0284741
822.002 .0284802
822.697 .0284875
823.393 .0284955
824.088 .0285045
824.783 .0285140
825.477 .0285240
826.171 .0285343
826.865 .0285442
827.559 .0285536
828.252 .0285624
828.945 .0285698
829.638 .0285762
830.330 .0285816
831.023 .0285866
831.714 .0285907
832.406 .0285948
833.097 .0285984
833.788 .0286015
834.479 .0286040
835.169 .0286060
835.859 .0286075
836.548 .0286096
837.238 .0286115
837.927 .0286135
838.615 .0286160
839.304 .0286189
839.992 .0286214
840.680 .0286241
841.367 .0286262
842.054 .0286279
842.741 .0286285
843.428 .0286284
844.114 .0286274
844.800 .0286255
845.485 .0286226
846.170 .0286180
846.855 .0286120
847.540 .0286044
848.224 .0285948
848.908 .0285839
849.592 .0285718
850.275 .0285584
850.958 .0285436
851.641 .0285282
852.323 .0285117
853.005 .0284943
853.687 .0284756
854.368 .0284557
855.049 .0284346
855.730 .0284125
856.410 .0283894
857.090 .0283661
857.769 .0283431
858.449 .0283206
859.128 .0282984
859.806 .0282770
860.485 .0282564
861.163 .0282365
861.840 .0282172
862.518 .0281983
863.195 .0281797
863.871 .0281610
864.548 .0281423
865.224 .0281234
865.899 .0281039
866.574 .0280839
867.249 .0280633
867.924 .0280421
868.598 .0280203
869.272 .0279980
869.946 .0279755
870.619 .0279528
871.292 .0279295
871.964 .0279053
872.636 .0278803
873.308 .0278543
873.979 .0278270
874.651 .0277984
875.321 .0277691
875.992 .0277392
876.662 .0277091
877.331 .0276799
878.001 .0276520
878.670 .0276255
879.338 .0276006
880.007 .0275772
880.675 .0275550
881.342 .0275335
882.009 .0275122
882.676 .0274904
883.343 .0274685
884.009 .0274458
884.675 .0274222
885.340 .0273985
886.005 .0273748
886.670 .0273513
887.334 .0273289
887.998 .0273074
888.662 .0272867
889.325 .0272672
889.988 .0272487
890.650 .0272311
891.312 .0272144
891.974 .0271979
892.636 .0271814
893.297 .0271655
893.957 .0271501
894.618 .0271348
895.278 .0271203
895.937 .0271067
896.596 .0270940
897.255 .0270822
897.914 .0270713
898.572 .0270609
899.230 .0270513
899.887 .0270421
900.544 .0270323
901.201 .0270223
901.857 .0270116
902.513 .0270001
903.168 .0269879
903.823 .0269752
904.478 .0269618
905.132 .0269477
905.786 .0269334
906.440 .0269189
907.093 .0269042
907.746 .0268895
908.399 .0268748
909.051 .0268606
909.703 .0268465
910.354 .0268319
911.005 .0268172
911.656 .0268024
912.306 .0267871
912.956 .0267723
913.605 .0267574
914.254 .0267437
914.903 .0267313
915.551 .0267204
916.199 .0267114
916.847 .0267043
917.494 .0266990
918.141 .0266948
918.788 .0266914
919.434 .0266887
920.079 .0266857
920.725 .0266834
921.370 .0266820
922.014 .0266813
922.658 .0266813
923.302 .0266822
923.946 .0266836
924.589 .0266850
925.231 .0266855
925.873 .0266847
926.515 .0266825
927.157 .0266786
927.798 .0266728
928.439 .0266653
929.079 .0266573
929.719 .0266488
930.359 .0266404
930.998 .0266321
931.637 .0266240
932.275 .0266162
932.913 .0266087
933.551 .0266014
934.188 .0265946
934.825 .0265879
935.462 .0265822
936.098 .0265774
936.733 .0265741
937.369 .0265721
938.004 .0265721
938.638 .0265735
939.273 .0265767
939.907 .0265809
940.540 .0265864
941.173 .0265931
941.806 .0266010
942.438 .0266093
943.070 .0266183
943.702 .0266281
944.333 .0266378
944.964 .0266473
945.594 .0266570
946.224 .0266658
946.854 .0266740
947.483 .0266813
948.112 .0266879
948.741 .0266941
949.369 .0267004
949.996 .0267066
950.624 .0267129
951.251 .0267196
951.878 .0267265
952.504 .0267334
953.130 .0267405
953.755 .0267469
954.380 .0267520
955.005 .0267559
955.629 .0267583
956.253 .0267589
956.877 .0267590
957.500 .0267587
958.123 .0267586
958.746 .0267585
959.368 .0267586
959.990 .0267588
960.611 .0267593
961.232 .0267594
961.853 .0267587
962.473 .0267570
963.093 .0267549
963.712 .0267516
964.331 .0267479
964.950 .0267445
965.569 .0267419
966.187 .0267404
966.804 .0267404
967.422 .0267415
968.039 .0267439
968.655 .0267466
969.272 .0267492
969.887 .0267510
970.503 .0267511
971.118 .0267492
971.733 .0267458
972.347 .0267409
972.961 .0267350
973.575 .0267281
974.188 .0267210
974.801 .0267131
975.414 .0267048
976.026 .0266954
976.638 .0266842
977.250 .0266715
977.861 .0266575
978.472 .0266413
979.083 .0266244
979.693 .0266070
980.303 .0265891
980.912 .0265713
981.521 .0265536
982.130 .0265356
982.738 .0265171
983.346 .0264984
983.954 .0264788
984.562 .0264582
985.169 .0264372
985.775 .0264154
986.382 .0263937
986.988 .0263726
987.594 .0263514
988.199 .0263305
988.804 .0263098
989.409 .0262888
990.013 .0262674
990.617 .0262457
991.221 .0262233
991.824 .0262007
992.427 .0261783
993.030 .0261564
993.632 .0261351
994.234 .0261151
994.836 .0260962
995.438 .0260787
996.039 .0260621
996.640 .0260458
997.240 .0260301
997.840 .0260155
998.440 .0260009
999.040 .0259869
999.639 .0259734
1000.238 .0259604
1000.836 .0259475
1001.435 .0259347
1002.033 .0259218
1002.630 .0259081
1003.228 .0258937
1003.825 .0258784
1004.422 .0258628
1005.018 .0258475
1005.614 .0258321
1006.210 .0258169
1006.806 .0258018
1007.401 .0257863
1007.996 .0257699
1008.591 .0257530
1009.186 .0257359
1009.780 .0257182
1010.374 .0257002
1010.967 .0256826
1011.561 .0256658
1012.154 .0256503
1012.746 .0256354
1013.339 .0256211
1013.931 .0256069
1014.523 .0255919
1015.115 .0255752
1015.706 .0255572
1016.298 .0255376
1016.888 .0255167
1017.479 .0254948
1018.069 .0254724
1018.660 .0254493
1019.250 .0254268
1019.839 .0254052
1020.429 .0253842
1021.018 .0253645
1021.607 .0253456
1022.195 .0253270
1022.784 .0253095
1023.372 .0252932
1023.960 .0252777
1024.547 .0252637
1025.135 .0252519
1025.722 .0252417
1026.309 .0252335
1026.896 .0252276
1027.483 .0252233
1028.069 .0252205
1028.655 .0252187
1029.241 .0252160
1029.827 .0252124
1030.412 .0252084
1030.997 .0252042
1031.582 .0252006
1032.167 .0251983
1032.752 .0251978
1033.336 .0251994
1033.921 .0252033
1034.505 .0252086
1035.089 .0252141
1035.672 .0252191
1036.256 .0252235
1036.839 .0252262
1037.422 .0252272
1038.005 .0252270
1038.588 .0252269
1039.171 .0252273
1039.753 .0252280
1040.335 .0252286
1040.918 .0252276
1041.500 .0252251
1042.081 .0252208
1042.663 .0252138
1043.244 .0252047
1043.826 .0251946
1044.407 .0251834
1044.988 .0251722
1045.569 .0251618
1046.150 .0251516
1046.730 .0251418
1047.311 .0251334
1047.891 .0251255
1048.471 .0251176
1049.052 .0251105
1049.632 .0251045
1050.211 .0250999
1050.791 .0250981
1051.371 .0250980
1051.950 .0251004
1052.530 .0251051
1053.109 .0251111
1053.688 .0251178
1054.268 .0251259
1054.847 .0251342
1055.426 .0251427
1056.005 .0251522
1056.583 .0251619
1057.162 .0251715
1057.741 .0251820
1058.319 .0251935
1058.898 .0252069
1059.476 .0252220
1060.055 .0252384
1060.633 .0252564
1061.211 .0252764
1061.790 .0252974
1062.368 .0253188
1062.946 .0253396
1063.524 .0253590
1064.102 .0253751
1064.680 .0253882
1065.258 .0253981
1065.836 .0254058
1066.414 .0254122
1066.992 .0254187
1067.570 .0254260
1068.148 .0254336
1068.726 .0254410
1069.304 .0254495
1069.882 .0254580
1070.460 .0254652
1071.038 .0254702
1071.616 .0254735
1072.194 .0254749
1072.772 .0254772
1073.350 .0254804
1073.928 .0254863
1074.506 .0254957
1075.084 .0255079
1075.662 .0255218
1076.240 .0255390
1076.819 .0255581
1077.397 .0255779
1077.976 .0255980
1078.554 .0256190
1079.133 .0256390
1079.711 .0256582
1080.290 .0256781
1080.869 .0256978
1081.448 .0257171
1082.027 .0257364
1082.606 .0257553
1083.185 .0257754
1083.764 .0257969
1084.343 .0258209
1084.923 .0258475
1085.502 .0258760
1086.082 .0259045
1086.662 .0259311
1087.242 .0259560
1087.822 .0259781
1088.402 .0259972
1088.983 .0260140
1089.563 .0260314
1090.144 .0260493
1090.725 .0260700
1091.306 .0260934
1091.887 .0261212
1092.469 .0261523
1093.050 .0261849
1093.632 .0262171
1094.214 .0262485
1094.796 .0262784
1095.379 .0263084
1095.961 .0263399
1096.544 .0263742
1097.127 .0264113
1097.710 .0264537
1098.294 .0264983
1098.877 .0265453
1099.461 .0265920
1100.046 .0266392
1100.630 .0266840
1101.215 .0267284
1101.800 .0267699
1102.385 .0268076
1102.970 .0268440
1103.556 .0268794
1104.142 .0269124
1104.728 .0269465
1105.315 .0269800
1105.902 .0270134
1106.489 .0270483
1107.077 .0270866
1107.664 .0271267
1108.253 .0271706
1108.841 .0272154
1109.430 .0272597
1110.019 .0273005
1110.609 .0273384
1111.198 .0273698
1111.789 .0273997
1112.379 .0274295
1112.970 .0274600
1113.561 .0274948
1114.153 .0275376
1114.745 .0275885
1115.338 .0276503
1115.931 .0277185
1116.524 .0277914
1117.117 .0278643
1117.712 .0279352
1118.306 .0280007
1118.901 .0280618
1119.496 .0281199
1120.092 .0281770
1120.689 .0282347
1121.285 .0282957
1121.882 .0283568
1122.480 .0284195
1123.078 .0284800
1123.677 .0285401
1124.276 .0285950
1124.875 .0286454
1125.476 .0286899
1126.076 .0287316
1126.677 .0287732
1127.279 .0288183
1127.881 .0288699
1128.484 .0289283
1129.087 .0289947
1129.691 .0290694
1130.295 .0291460
1130.900 .0292258
1131.505 .0293066
1132.111 .0293910
1132.718 .0294764
1133.325 .0295671
1133.933 .0296575
1134.541 .0297532
1135.150 .0298543
1135.760 .0299601
1136.370 .0300683
1136.981 .0301790
1137.592 .0302878
1138.204 .0303974
1138.817 .0305087
1139.431 .0306304
1140.045 .0307595
1140.660 .0309087
1141.275 .0310806
1141.891 .0312499
1142.508 .0314712
1143.126 .0316169
1143.744 .0319253
1144.363 .0323515
1144.983 .0318463
