Measurement Sequence started on: 15-12-46-377
Integration time: 28
Scans to Average: 2 
>>>>>Begin Spectral Data<<<<<
432.689 .0000100
433.621 .0000100
434.552 .0000100
435.482 .0000100
436.410 .0000100
437.337 .0000100
438.262 .0267067
439.187 .0565564
440.110 .0936996
441.031 .1355798
441.952 .1762230
442.871 .2082611
443.789 .2258609
444.705 .2270380
445.621 .2142477
446.535 .1927783
447.447 .1684293
448.359 .1310332
449.269 .1124914
450.178 .1006859
451.086 .0922736
451.993 .0857944
452.898 .0805938
453.803 .0763383
454.706 .0728142
455.608 .0698118
456.508 .0672359
457.408 .0649848
458.306 .0629682
459.204 .0611374
460.100 .0594622
460.995 .0579442
461.888 .0565584
462.781 .0552968
463.673 .0541488
464.563 .0531001
465.452 .0521319
466.340 .0512336
467.228 .0504106
468.114 .0496594
468.999 .0489776
469.882 .0483576
470.765 .0478082
471.647 .0473184
472.528 .0468895
473.407 .0465143
474.286 .0461930
475.163 .0459176
476.040 .0456783
476.915 .0454756
477.790 .0453064
478.663 .0451635
479.535 .0450513
480.407 .0449632
481.277 .0448922
482.147 .0448280
483.015 .0447741
483.883 .0447189
484.749 .0446606
485.615 .0446004
486.479 .0445385
487.343 .0444815
488.206 .0444338
489.067 .0443909
489.928 .0443535
490.788 .0443302
491.647 .0443140
492.505 .0443055
493.362 .0443110
494.218 .0443292
495.073 .0443697
495.928 .0444375
496.781 .0445400
497.634 .0446768
498.486 .0448600
499.337 .0450896
500.187 .0453511
501.036 .0456440
501.884 .0459613
502.731 .0462976
503.578 .0466584
504.424 .0470447
505.268 .0474513
506.113 .0478839
506.956 .0483516
507.798 .0488624
508.640 .0494100
509.480 .0499994
510.320 .0506465
511.160 .0513469
511.998 .0521269
512.836 .0529825
513.672 .0539392
514.508 .0550186
515.344 .0562448
516.178 .0576278
517.012 .0592078
517.845 .0610126
518.677 .0630549
519.508 .0653603
520.339 .0679986
521.169 .0709802
521.998 .0743144
522.826 .0781077
523.654 .0823899
524.481 .0871614
525.307 .0924714
526.133 .0982740
526.958 .1045167
527.782 .1111362
528.605 .1180012
529.428 .1249695
530.250 .1315716
531.072 .1375787
531.892 .1426201
532.712 .1464938
533.532 .1490087
534.350 .1499319
535.168 .1492171
535.986 .1469790
536.802 .1432809
537.618 .1383449
538.434 .1323856
539.249 .1258817
540.063 .1189922
540.876 .1119933
541.689 .1051255
542.501 .0986332
543.313 .0926994
544.124 .0873992
544.934 .0826530
545.744 .0784396
546.553 .0746921
547.361 .0713764
548.169 .0684253
548.976 .0657810
549.783 .0633958
550.589 .0612532
551.395 .0593106
552.200 .0575673
553.004 .0559860
553.808 .0545733
554.611 .0533376
555.414 .0522420
556.216 .0512591
557.018 .0503787
557.819 .0495702
558.619 .0488100
559.419 .0480801
560.218 .0473734
561.017 .0466816
561.815 .0460079
562.613 .0453569
563.410 .0447189
564.207 .0440950
565.003 .0434942
565.799 .0429030
566.594 .0423218
567.388 .0417514
568.182 .0411878
568.976 .0406306
569.769 .0400903
570.562 .0395633
571.354 .0390538
572.145 .0385680
572.936 .0381094
573.727 .0376736
574.517 .0372605
575.307 .0368657
576.096 .0364877
576.885 .0361274
577.673 .0357894
578.461 .0354680
579.248 .0351709
580.035 .0348999
580.821 .0346524
581.607 .0344248
582.392 .0342158
583.177 .0340192
583.962 .0338326
584.746 .0336544
585.529 .0334840
586.313 .0333214
587.095 .0331675
587.878 .0330244
588.660 .0328938
589.441 .0327734
590.222 .0326639
591.003 .0325666
591.783 .0324792
592.563 .0323987
593.342 .0323251
594.121 .0322559
594.899 .0321919
595.678 .0321321
596.455 .0320756
597.233 .0320227
598.009 .0319733
598.786 .0319261
599.562 .0318808
600.338 .0318371
601.113 .0317936
601.888 .0317509
602.663 .0317095
603.437 .0316686
604.211 .0316275
604.984 .0315871
605.757 .0315479
606.530 .0315090
607.302 .0314710
608.074 .0314344
608.845 .0313990
609.616 .0313656
610.387 .0313335
611.158 .0313025
611.928 .0312734
612.697 .0312456
613.467 .0312187
614.236 .0311937
615.004 .0311699
615.773 .0311475
616.541 .0311265
617.308 .0311069
618.076 .0310885
618.843 .0310704
619.609 .0310535
620.375 .0310362
621.141 .0310186
621.907 .0310012
622.672 .0309831
623.437 .0309655
624.202 .0309486
624.966 .0309321
625.730 .0309163
626.493 .0309008
627.257 .0308854
628.020 .0308693
628.782 .0308523
629.545 .0308338
630.307 .0308134
631.068 .0307920
631.830 .0307694
632.591 .0307455
633.352 .0307221
634.112 .0306989
634.872 .0306753
635.632 .0306518
636.392 .0306278
637.151 .0306030
637.910 .0305769
638.668 .0305497
639.427 .0305215
640.185 .0304926
640.943 .0304639
641.700 .0304354
642.457 .0304084
643.214 .0303830
643.971 .0303577
644.727 .0303331
645.483 .0303087
646.239 .0302833
646.994 .0302578
647.750 .0302321
648.505 .0302072
649.259 .0301830
650.014 .0301605
650.768 .0301399
651.521 .0301213
652.275 .0301042
653.028 .0300885
653.781 .0300729
654.534 .0300575
655.286 .0300417
656.039 .0300259
656.791 .0300098
657.542 .0299934
658.294 .0299766
659.045 .0299596
659.796 .0299418
660.546 .0299242
661.297 .0299052
662.047 .0298859
662.796 .0298652
663.546 .0298432
664.295 .0298203
665.044 .0297966
665.793 .0297724
666.542 .0297477
667.290 .0297231
668.038 .0296994
668.786 .0296761
669.533 .0296545
670.281 .0296350
671.028 .0296172
671.774 .0296006
672.521 .0295852
673.267 .0295705
674.013 .0295559
674.759 .0295416
675.505 .0295271
676.250 .0295123
676.995 .0294973
677.740 .0294830
678.484 .0294691
679.229 .0294565
679.973 .0294451
680.717 .0294339
681.460 .0294229
682.204 .0294116
682.947 .0293987
683.690 .0293853
684.433 .0293714
685.175 .0293568
685.917 .0293421
686.659 .0293284
687.401 .0293152
688.142 .0293035
688.884 .0292932
689.625 .0292837
690.365 .0292739
691.106 .0292637
691.846 .0292519
692.586 .0292385
693.326 .0292236
694.066 .0292074
694.805 .0291899
695.545 .0291725
696.284 .0291549
697.022 .0291379
697.761 .0291219
698.499 .0291064
699.237 .0290906
699.975 .0290740
700.713 .0290564
701.450 .0290375
702.187 .0290171
702.924 .0289967
703.661 .0289758
704.397 .0289555
705.133 .0289359
705.869 .0289172
706.605 .0288994
707.341 .0288828
708.076 .0288667
708.811 .0288510
709.546 .0288352
710.281 .0288193
711.015 .0288031
711.749 .0287870
712.483 .0287709
713.217 .0287549
713.950 .0287396
714.684 .0287247
715.417 .0287099
716.150 .0286960
716.882 .0286826
717.615 .0286696
718.347 .0286568
719.079 .0286439
719.811 .0286309
720.542 .0286175
721.273 .0286041
722.005 .0285901
722.735 .0285763
723.466 .0285624
724.196 .0285481
724.927 .0285334
725.656 .0285183
726.386 .0285025
727.116 .0284864
727.845 .0284698
728.574 .0284529
729.303 .0284362
730.031 .0284201
730.760 .0284047
731.488 .0283903
732.216 .0283773
732.944 .0283653
733.671 .0283539
734.398 .0283431
735.125 .0283322
735.852 .0283217
736.579 .0283116
737.305 .0283023
738.031 .0282940
738.757 .0282864
739.483 .0282792
740.208 .0282723
740.933 .0282656
741.658 .0282588
742.383 .0282514
743.108 .0282431
743.832 .0282345
744.556 .0282253
745.280 .0282156
746.004 .0282055
746.727 .0281951
747.450 .0281844
748.173 .0281729
748.896 .0281607
749.618 .0281478
750.340 .0281346
751.062 .0281216
751.784 .0281088
752.506 .0280966
753.227 .0280852
753.948 .0280744
754.669 .0280641
755.389 .0280544
756.110 .0280444
756.830 .0280339
757.550 .0280231
758.269 .0280117
758.989 .0279996
759.708 .0279867
760.427 .0279740
761.146 .0279616
761.864 .0279496
762.582 .0279376
763.300 .0279254
764.018 .0279133
764.736 .0279008
765.453 .0278871
766.170 .0278724
766.887 .0278568
767.603 .0278404
768.320 .0278232
769.036 .0278060
769.751 .0277890
770.467 .0277733
771.182 .0277587
771.897 .0277455
772.612 .0277333
773.327 .0277222
774.041 .0277117
774.755 .0277020
775.469 .0276931
776.183 .0276852
776.896 .0276784
777.609 .0276732
778.322 .0276692
779.035 .0276665
779.747 .0276648
780.459 .0276641
781.171 .0276638
781.882 .0276630
782.594 .0276615
783.305 .0276594
784.016 .0276567
784.726 .0276529
785.436 .0276482
786.147 .0276429
786.856 .0276370
787.566 .0276300
788.275 .0276221
788.984 .0276130
789.693 .0276028
790.401 .0275913
791.110 .0275783
791.818 .0275642
792.525 .0275494
793.233 .0275340
793.940 .0275185
794.647 .0275031
795.353 .0274880
796.060 .0274732
796.766 .0274592
797.472 .0274455
798.177 .0274326
798.883 .0274204
799.588 .0274088
800.292 .0273982
800.997 .0273883
801.701 .0273786
802.405 .0273694
803.109 .0273601
803.812 .0273502
804.515 .0273395
805.218 .0273279
805.921 .0273145
806.623 .0273000
807.325 .0272839
808.027 .0272664
808.728 .0272474
809.429 .0272275
810.130 .0272065
810.831 .0271849
811.531 .0271633
812.231 .0271410
812.931 .0271187
813.630 .0270965
814.330 .0270742
815.029 .0270524
815.727 .0270313
816.426 .0270111
817.124 .0269919
817.821 .0269741
818.519 .0269575
819.216 .0269428
819.913 .0269303
820.609 .0269199
821.306 .0269111
822.002 .0269042
822.697 .0268983
823.393 .0268930
824.088 .0268884
824.783 .0268839
825.477 .0268792
826.171 .0268746
826.865 .0268697
827.559 .0268654
828.252 .0268618
828.945 .0268590
829.638 .0268569
830.330 .0268555
831.023 .0268543
831.714 .0268527
832.406 .0268506
833.097 .0268479
833.788 .0268444
834.479 .0268403
835.169 .0268352
835.859 .0268300
836.548 .0268250
837.238 .0268200
837.927 .0268151
838.615 .0268107
839.304 .0268060
839.992 .0268013
840.680 .0267963
841.367 .0267912
842.054 .0267860
842.741 .0267809
843.428 .0267760
844.114 .0267713
844.800 .0267670
845.485 .0267623
846.170 .0267569
846.855 .0267514
847.540 .0267448
848.224 .0267374
848.908 .0267300
849.592 .0267226
850.275 .0267156
850.958 .0267090
851.641 .0267023
852.323 .0266955
853.005 .0266880
853.687 .0266792
854.368 .0266687
855.049 .0266567
855.730 .0266434
856.410 .0266288
857.090 .0266138
857.769 .0265984
858.449 .0265828
859.128 .0265675
859.806 .0265519
860.485 .0265362
861.163 .0265201
861.840 .0265037
862.518 .0264867
863.195 .0264696
863.871 .0264521
864.548 .0264353
865.224 .0264191
865.899 .0264042
866.574 .0263903
867.249 .0263777
867.924 .0263661
868.598 .0263557
869.272 .0263463
869.946 .0263380
870.619 .0263303
871.292 .0263236
871.964 .0263172
872.636 .0263117
873.308 .0263067
873.979 .0263021
874.651 .0262975
875.321 .0262931
875.992 .0262884
876.662 .0262839
877.331 .0262794
878.001 .0262753
878.670 .0262715
879.338 .0262684
880.007 .0262652
880.675 .0262622
881.342 .0262596
882.009 .0262572
882.676 .0262545
883.343 .0262520
884.009 .0262492
884.675 .0262459
885.340 .0262424
886.005 .0262388
886.670 .0262351
887.334 .0262319
887.998 .0262289
888.662 .0262259
889.325 .0262232
889.988 .0262205
890.650 .0262172
891.312 .0262139
891.974 .0262103
892.636 .0262059
893.297 .0262010
893.957 .0261957
894.618 .0261899
895.278 .0261842
895.937 .0261790
896.596 .0261740
897.255 .0261694
897.914 .0261651
898.572 .0261604
899.230 .0261557
899.887 .0261503
900.544 .0261436
901.201 .0261359
901.857 .0261272
902.513 .0261176
903.168 .0261070
903.823 .0260966
904.478 .0260859
905.132 .0260755
905.786 .0260651
906.440 .0260541
907.093 .0260427
907.746 .0260304
908.399 .0260172
909.051 .0260030
909.703 .0259877
910.354 .0259711
911.005 .0259540
911.656 .0259365
912.306 .0259185
912.956 .0259003
913.605 .0258818
914.254 .0258632
914.903 .0258438
915.551 .0258238
916.199 .0258037
916.847 .0257835
917.494 .0257640
918.141 .0257446
918.788 .0257262
919.434 .0257088
920.079 .0256919
920.725 .0256755
921.370 .0256595
922.014 .0256432
922.658 .0256265
923.302 .0256092
923.946 .0255914
924.589 .0255729
925.231 .0255533
925.873 .0255332
926.515 .0255126
927.157 .0254914
927.798 .0254691
928.439 .0254456
929.079 .0254213
929.719 .0253962
930.359 .0253700
930.998 .0253432
931.637 .0253161
932.275 .0252895
932.913 .0252634
933.551 .0252381
934.188 .0252144
934.825 .0251922
935.462 .0251721
936.098 .0251540
936.733 .0251378
937.369 .0251239
938.004 .0251120
938.638 .0251018
939.273 .0250932
939.907 .0250860
940.540 .0250795
941.173 .0250740
941.806 .0250697
942.438 .0250663
943.070 .0250634
943.702 .0250611
944.333 .0250591
944.964 .0250564
945.594 .0250534
946.224 .0250491
946.854 .0250438
947.483 .0250379
948.112 .0250307
948.741 .0250226
949.369 .0250143
949.996 .0250062
950.624 .0249978
951.251 .0249898
951.878 .0249819
952.504 .0249738
953.130 .0249655
953.755 .0249570
954.380 .0249482
955.005 .0249388
955.629 .0249295
956.253 .0249198
956.877 .0249106
957.500 .0249021
958.123 .0248943
958.746 .0248871
959.368 .0248806
959.990 .0248744
960.611 .0248678
961.232 .0248616
961.853 .0248558
962.473 .0248501
963.093 .0248449
963.712 .0248401
964.331 .0248356
964.950 .0248317
965.569 .0248288
966.187 .0248265
966.804 .0248252
967.422 .0248248
968.039 .0248249
968.655 .0248255
969.272 .0248264
969.887 .0248270
970.503 .0248273
971.118 .0248275
971.733 .0248269
972.347 .0248254
972.961 .0248241
973.575 .0248228
974.188 .0248216
974.801 .0248203
975.414 .0248187
976.026 .0248163
976.638 .0248134
977.250 .0248095
977.861 .0248043
978.472 .0247982
979.083 .0247910
979.693 .0247825
980.303 .0247730
980.912 .0247625
981.521 .0247505
982.130 .0247372
982.738 .0247232
983.346 .0247080
983.954 .0246921
984.562 .0246760
985.169 .0246604
985.775 .0246452
986.382 .0246309
986.988 .0246175
987.594 .0246048
988.199 .0245930
988.804 .0245816
989.409 .0245708
990.013 .0245608
990.617 .0245515
991.221 .0245432
991.824 .0245369
992.427 .0245330
993.030 .0245313
993.632 .0245320
994.234 .0245350
994.836 .0245397
995.438 .0245451
996.039 .0245507
996.640 .0245562
997.240 .0245611
997.840 .0245660
998.440 .0245709
999.040 .0245761
999.639 .0245825
1000.238 .0245897
1000.836 .0245980
1001.435 .0246070
1002.033 .0246156
1002.630 .0246232
1003.228 .0246300
1003.825 .0246351
1004.422 .0246387
1005.018 .0246410
1005.614 .0246436
1006.210 .0246466
1006.806 .0246512
1007.401 .0246574
1007.996 .0246643
1008.591 .0246726
1009.186 .0246810
1009.780 .0246887
1010.374 .0246956
1010.967 .0247012
1011.561 .0247060
1012.154 .0247102
1012.746 .0247141
1013.339 .0247178
1013.931 .0247221
1014.523 .0247274
1015.115 .0247328
1015.706 .0247382
1016.298 .0247433
1016.888 .0247472
1017.479 .0247498
1018.069 .0247511
1018.660 .0247507
1019.250 .0247499
1019.839 .0247488
1020.429 .0247476
1021.018 .0247477
1021.607 .0247488
1022.195 .0247510
1022.784 .0247544
1023.372 .0247590
1023.960 .0247637
1024.547 .0247680
1025.135 .0247728
1025.722 .0247775
1026.309 .0247830
1026.896 .0247905
1027.483 .0247997
1028.069 .0248115
1028.655 .0248252
1029.241 .0248404
1029.827 .0248565
1030.412 .0248735
1030.997 .0248901
1031.582 .0249062
1032.167 .0249217
1032.752 .0249366
1033.336 .0249505
1033.921 .0249642
1034.505 .0249778
1035.089 .0249904
1035.672 .0250018
1036.256 .0250111
1036.839 .0250176
1037.422 .0250216
1038.005 .0250237
1038.588 .0250245
1039.171 .0250242
1039.753 .0250241
1040.335 .0250239
1040.918 .0250233
1041.500 .0250232
1042.081 .0250223
1042.663 .0250210
1043.244 .0250189
1043.826 .0250165
1044.407 .0250129
1044.988 .0250097
1045.569 .0250067
1046.150 .0250046
1046.730 .0250028
1047.311 .0250018
1047.891 .0250004
1048.471 .0249994
1049.052 .0249977
1049.632 .0249955
1050.211 .0249931
1050.791 .0249908
1051.371 .0249878
1051.950 .0249859
1052.530 .0249843
1053.109 .0249836
1053.688 .0249826
1054.268 .0249819
1054.847 .0249803
1055.426 .0249787
1056.005 .0249754
1056.583 .0249709
1057.162 .0249651
1057.741 .0249585
1058.319 .0249504
1058.898 .0249424
1059.476 .0249349
1060.055 .0249270
1060.633 .0249189
1061.211 .0249104
1061.790 .0249008
1062.368 .0248908
1062.946 .0248793
1063.524 .0248673
1064.102 .0248540
1064.680 .0248413
1065.258 .0248278
1065.836 .0248153
1066.414 .0248043
1066.992 .0247953
1067.570 .0247882
1068.148 .0247825
1068.726 .0247786
1069.304 .0247760
1069.882 .0247745
1070.460 .0247747
1071.038 .0247751
1071.616 .0247764
1072.194 .0247763
1072.772 .0247754
1073.350 .0247728
1073.928 .0247700
1074.506 .0247668
1075.084 .0247632
1075.662 .0247600
1076.240 .0247588
1076.819 .0247577
1077.397 .0247579
1077.976 .0247600
1078.554 .0247622
1079.133 .0247636
1079.711 .0247640
1080.290 .0247623
1080.869 .0247602
1081.448 .0247592
1082.027 .0247592
1082.606 .0247614
1083.185 .0247683
1083.764 .0247787
1084.343 .0247911
1084.923 .0248069
1085.502 .0248240
1086.082 .0248404
1086.662 .0248563
1087.242 .0248695
1087.822 .0248788
1088.402 .0248860
1088.983 .0248910
1089.563 .0248947
1090.144 .0248985
1090.725 .0249030
1091.306 .0249065
1091.887 .0249102
1092.469 .0249151
1093.050 .0249202
1093.632 .0249265
1094.214 .0249347
1094.796 .0249433
1095.379 .0249535
1095.961 .0249662
1096.544 .0249811
1097.127 .0249995
1097.710 .0250211
1098.294 .0250456
1098.877 .0250714
1099.461 .0250986
1100.046 .0251266
1100.630 .0251556
1101.215 .0251841
1101.800 .0252121
1102.385 .0252379
1102.970 .0252615
1103.556 .0252807
1104.142 .0252971
1104.728 .0253118
1105.315 .0253246
1105.902 .0253355
1106.489 .0253461
1107.077 .0253555
1107.664 .0253658
1108.253 .0253743
1108.841 .0253831
1109.430 .0253932
1110.019 .0254042
1110.609 .0254148
1111.198 .0254278
1111.789 .0254462
1112.379 .0254700
1112.970 .0254988
1113.561 .0255368
1114.153 .0255792
1114.745 .0256271
1115.338 .0256772
1115.931 .0257279
1116.524 .0257797
1117.117 .0258307
1117.712 .0258798
1118.306 .0259310
1118.901 .0259864
1119.496 .0260447
1120.092 .0261065
1120.689 .0261752
1121.285 .0262431
1121.882 .0263092
1122.480 .0263728
1123.078 .0264321
1123.677 .0264868
1124.276 .0265406
1124.875 .0265906
1125.476 .0266427
1126.076 .0267002
1126.677 .0267603
1127.279 .0268233
1127.881 .0268900
1128.484 .0269582
1129.087 .0270217
1129.691 .0270840
1130.295 .0271456
1130.900 .0272045
1131.505 .0272695
1132.111 .0273371
1132.718 .0274084
1133.325 .0274850
1133.933 .0275663
1134.541 .0276474
1135.150 .0277290
1135.760 .0278111
1136.370 .0278882
1136.981 .0279608
1137.592 .0280317
1138.204 .0280966
1138.817 .0281620
1139.431 .0282217
1140.045 .0282763
1140.660 .0283233
1141.275 .0283733
1141.891 .0283880
1142.508 .0284201
1143.126 .0284514
1143.744 .0284598
1144.363 .0287169
1144.983 .0278622
