Measurement Sequence started on: 15-12-46-377
Integration time: 28
Scans to Average: 2 
>>>>>Begin Spectral Data<<<<<
432.689 .0000100
433.621 .0000100
434.552 .0000100
435.482 .0000100
436.410 .0000100
437.337 .0000100
438.262 .0274349
439.187 .0581099
440.110 .0962884
441.031 .1393249
441.952 .1810862
442.871 .2139401
443.789 .2319112
444.705 .2329211
445.621 .2195119
446.535 .1971497
447.447 .1718108
448.359 .1331182
449.269 .1138674
450.178 .1016290
451.086 .0929953
451.993 .0864186
452.898 .0812413
453.803 .0770556
454.706 .0736478
455.608 .0707729
456.508 .0683329
457.408 .0662444
458.306 .0643952
459.204 .0627439
460.100 .0612541
460.995 .0599136
461.888 .0587055
462.781 .0576045
463.673 .0565982
464.563 .0556808
465.452 .0548264
466.340 .0540130
467.228 .0532464
468.114 .0525168
468.999 .0518160
469.882 .0511464
470.765 .0505120
471.647 .0499176
472.528 .0493775
473.407 .0488938
474.286 .0484676
475.163 .0481011
476.040 .0477856
476.915 .0475050
477.790 .0472670
478.663 .0470599
479.535 .0468776
480.407 .0467206
481.277 .0465835
482.147 .0464622
483.015 .0463570
483.883 .0462713
484.749 .0461988
485.615 .0461472
486.479 .0461120
487.343 .0460890
488.206 .0460858
489.067 .0460969
489.928 .0461216
490.788 .0461624
491.647 .0462211
492.505 .0462948
493.362 .0463864
494.218 .0464998
495.073 .0466304
495.928 .0467959
496.781 .0469820
497.634 .0472022
498.486 .0474524
499.337 .0477369
500.187 .0480423
501.036 .0483667
501.884 .0487089
502.731 .0490605
503.578 .0494206
504.424 .0497901
505.268 .0501641
506.113 .0505554
506.956 .0509615
507.798 .0513918
508.640 .0518543
509.480 .0523717
510.320 .0529370
511.160 .0535781
511.998 .0542937
512.836 .0551171
513.672 .0560427
514.508 .0570961
515.344 .0583006
516.178 .0596746
517.012 .0612576
517.845 .0630847
518.677 .0652090
519.508 .0676485
520.339 .0704717
521.169 .0737096
521.998 .0774062
522.826 .0816218
523.654 .0863755
524.481 .0916757
525.307 .0975708
526.133 .1039965
526.958 .1108751
527.782 .1181584
528.605 .1256680
529.428 .1332490
530.250 .1404021
531.072 .1468265
531.892 .1521382
532.712 .1559969
533.532 .1582607
534.350 .1586709
535.168 .1572725
535.986 .1541817
536.802 .1495644
537.618 .1437636
538.434 .1370551
539.249 .1298951
540.063 .1225033
540.876 .1151488
541.689 .1080250
542.501 .1012897
543.313 .0951300
544.124 .0895848
544.934 .0846354
545.744 .0802420
546.553 .0763586
547.361 .0729207
548.169 .0699502
548.976 .0673173
549.783 .0650064
550.589 .0629636
551.395 .0610890
552.200 .0593957
553.004 .0578325
553.808 .0563868
554.611 .0550639
555.414 .0538662
556.216 .0527782
557.018 .0518002
557.819 .0509168
558.619 .0501064
559.419 .0493630
560.218 .0486657
561.017 .0479925
561.815 .0473328
562.613 .0466957
563.410 .0460647
564.207 .0454462
565.003 .0448537
565.799 .0442754
566.594 .0437213
567.388 .0431931
568.182 .0426868
568.976 .0421944
569.769 .0417180
570.562 .0412584
571.354 .0408056
572.145 .0403648
572.936 .0399256
573.727 .0394894
574.517 .0390558
575.307 .0386227
576.096 .0381881
576.885 .0377580
577.673 .0373418
578.461 .0369407
579.248 .0365587
580.035 .0362063
580.821 .0358793
581.607 .0355794
582.392 .0353063
583.177 .0350577
583.962 .0348275
584.746 .0346140
585.529 .0344158
586.313 .0342318
587.095 .0340617
587.878 .0339068
588.660 .0337644
589.441 .0336385
590.222 .0335272
591.003 .0334272
591.783 .0333372
592.563 .0332551
593.342 .0331763
594.121 .0330986
594.899 .0330232
595.678 .0329482
596.455 .0328749
597.233 .0328061
598.009 .0327402
598.786 .0326782
599.562 .0326208
600.338 .0325677
601.113 .0325179
601.888 .0324713
602.663 .0324266
603.437 .0323834
604.211 .0323408
604.984 .0322984
605.757 .0322564
606.530 .0322151
607.302 .0321749
608.074 .0321354
608.845 .0320970
609.616 .0320599
610.387 .0320234
611.158 .0319887
611.928 .0319548
612.697 .0319217
613.467 .0318898
614.236 .0318591
615.004 .0318304
615.773 .0318037
616.541 .0317785
617.308 .0317560
618.076 .0317360
618.843 .0317172
619.609 .0316999
620.375 .0316838
621.141 .0316684
621.907 .0316533
622.672 .0316379
623.437 .0316220
624.202 .0316059
624.966 .0315902
625.730 .0315740
626.493 .0315567
627.257 .0315392
628.020 .0315201
628.782 .0314990
629.545 .0314756
630.307 .0314489
631.068 .0314203
631.830 .0313899
632.591 .0313576
633.352 .0313255
634.112 .0312940
634.872 .0312640
635.632 .0312357
636.392 .0312090
637.151 .0311839
637.910 .0311596
638.668 .0311368
639.427 .0311148
640.185 .0310933
640.943 .0310725
641.700 .0310521
642.457 .0310334
643.214 .0310159
643.971 .0309990
644.727 .0309827
645.483 .0309670
646.239 .0309510
646.994 .0309341
647.750 .0309165
648.505 .0308983
649.259 .0308803
650.014 .0308615
650.768 .0308421
651.521 .0308225
652.275 .0308026
653.028 .0307820
653.781 .0307605
654.534 .0307379
655.286 .0307140
656.039 .0306894
656.791 .0306647
657.542 .0306396
658.294 .0306154
659.045 .0305917
659.796 .0305684
660.546 .0305453
661.297 .0305218
662.047 .0304973
662.796 .0304722
663.546 .0304462
664.295 .0304196
665.044 .0303926
665.793 .0303666
666.542 .0303415
667.290 .0303185
668.038 .0302972
668.786 .0302772
669.533 .0302580
670.281 .0302391
671.028 .0302193
671.774 .0301990
672.521 .0301782
673.267 .0301572
674.013 .0301363
674.759 .0301162
675.505 .0300970
676.250 .0300787
676.995 .0300609
677.740 .0300437
678.484 .0300256
679.229 .0300070
679.973 .0299871
680.717 .0299665
681.460 .0299457
682.204 .0299248
682.947 .0299051
683.690 .0298868
684.433 .0298698
685.175 .0298538
685.917 .0298384
686.659 .0298233
687.401 .0298079
688.142 .0297916
688.884 .0297748
689.625 .0297576
690.365 .0297399
691.106 .0297219
691.846 .0297042
692.586 .0296867
693.326 .0296690
694.066 .0296508
694.805 .0296323
695.545 .0296129
696.284 .0295933
697.022 .0295727
697.761 .0295518
698.499 .0295305
699.237 .0295086
699.975 .0294860
700.713 .0294635
701.450 .0294406
702.187 .0294174
702.924 .0293949
703.661 .0293736
704.397 .0293530
705.133 .0293338
705.869 .0293156
706.605 .0292988
707.341 .0292826
708.076 .0292666
708.811 .0292503
709.546 .0292340
710.281 .0292176
711.015 .0292006
711.749 .0291841
712.483 .0291680
713.217 .0291520
713.950 .0291369
714.684 .0291219
715.417 .0291062
716.150 .0290898
716.882 .0290724
717.615 .0290536
718.347 .0290344
719.079 .0290149
719.811 .0289953
720.542 .0289770
721.273 .0289598
722.005 .0289435
722.735 .0289281
723.466 .0289138
724.196 .0288990
724.927 .0288840
725.656 .0288685
726.386 .0288515
727.116 .0288343
727.845 .0288176
728.574 .0288007
729.303 .0287848
730.031 .0287703
730.760 .0287565
731.488 .0287434
732.216 .0287311
732.944 .0287191
733.671 .0287072
734.398 .0286955
735.125 .0286839
735.852 .0286725
736.579 .0286621
737.305 .0286528
738.031 .0286446
738.757 .0286382
739.483 .0286324
740.208 .0286266
740.933 .0286207
741.658 .0286145
742.383 .0286075
743.108 .0285998
743.832 .0285913
744.556 .0285820
745.280 .0285717
746.004 .0285609
746.727 .0285494
747.450 .0285379
748.173 .0285264
748.896 .0285150
749.618 .0285036
750.340 .0284928
751.062 .0284822
751.784 .0284725
752.506 .0284636
753.227 .0284549
753.948 .0284461
754.669 .0284371
755.389 .0284274
756.110 .0284173
756.830 .0284067
757.550 .0283960
758.269 .0283848
758.989 .0283732
759.708 .0283610
760.427 .0283482
761.146 .0283349
761.864 .0283204
762.582 .0283048
763.300 .0282880
764.018 .0282701
764.736 .0282512
765.453 .0282325
766.170 .0282141
766.887 .0281962
767.603 .0281795
768.320 .0281638
769.036 .0281492
769.751 .0281356
770.467 .0281226
771.182 .0281102
771.897 .0280982
772.612 .0280863
773.327 .0280743
774.041 .0280626
774.755 .0280515
775.469 .0280411
776.183 .0280317
776.896 .0280232
777.609 .0280153
778.322 .0280077
779.035 .0279999
779.747 .0279913
780.459 .0279814
781.171 .0279705
781.882 .0279587
782.594 .0279465
783.305 .0279345
784.016 .0279232
784.726 .0279131
785.436 .0279045
786.147 .0278972
786.856 .0278903
787.566 .0278834
788.275 .0278762
788.984 .0278683
789.693 .0278600
790.401 .0278509
791.110 .0278417
791.818 .0278325
792.525 .0278238
793.233 .0278151
793.940 .0278064
794.647 .0277975
795.353 .0277882
796.060 .0277785
796.766 .0277682
797.472 .0277568
798.177 .0277452
798.883 .0277337
799.588 .0277220
800.292 .0277099
800.997 .0276974
801.701 .0276844
802.405 .0276711
803.109 .0276573
803.812 .0276433
804.515 .0276292
805.218 .0276150
805.921 .0276003
806.623 .0275853
807.325 .0275703
808.027 .0275546
808.728 .0275382
809.429 .0275213
810.130 .0275031
810.831 .0274837
811.531 .0274630
812.231 .0274410
812.931 .0274182
813.630 .0273940
814.330 .0273685
815.029 .0273423
815.727 .0273162
816.426 .0272903
817.124 .0272651
817.821 .0272412
818.519 .0272189
819.216 .0271975
819.913 .0271776
820.609 .0271583
821.306 .0271399
822.002 .0271225
822.697 .0271063
823.393 .0270918
824.088 .0270797
824.783 .0270702
825.477 .0270634
826.171 .0270595
826.865 .0270582
827.559 .0270581
828.252 .0270589
828.945 .0270598
829.638 .0270600
830.330 .0270587
831.023 .0270562
831.714 .0270522
832.406 .0270473
833.097 .0270412
833.788 .0270343
834.479 .0270267
835.169 .0270189
835.859 .0270110
836.548 .0270029
837.238 .0269951
837.927 .0269872
838.615 .0269787
839.304 .0269706
839.992 .0269626
840.680 .0269552
841.367 .0269483
842.054 .0269428
842.741 .0269382
843.428 .0269347
844.114 .0269321
844.800 .0269299
845.485 .0269279
846.170 .0269256
846.855 .0269220
847.540 .0269174
848.224 .0269116
848.908 .0269048
849.592 .0268968
850.275 .0268881
850.958 .0268781
851.641 .0268671
852.323 .0268551
853.005 .0268427
853.687 .0268298
854.368 .0268166
855.049 .0268034
855.730 .0267906
856.410 .0267779
857.090 .0267656
857.769 .0267534
858.449 .0267417
859.128 .0267299
859.806 .0267184
860.485 .0267070
861.163 .0266961
861.840 .0266862
862.518 .0266769
863.195 .0266682
863.871 .0266597
864.548 .0266505
865.224 .0266405
865.899 .0266293
866.574 .0266171
867.249 .0266039
867.924 .0265905
868.598 .0265773
869.272 .0265649
869.946 .0265539
870.619 .0265441
871.292 .0265354
871.964 .0265274
872.636 .0265196
873.308 .0265113
873.979 .0265024
874.651 .0264929
875.321 .0264834
875.992 .0264742
876.662 .0264658
877.331 .0264590
878.001 .0264540
878.670 .0264508
879.338 .0264494
880.007 .0264497
880.675 .0264511
881.342 .0264529
882.009 .0264552
882.676 .0264570
883.343 .0264586
884.009 .0264600
884.675 .0264613
885.340 .0264629
886.005 .0264647
886.670 .0264665
887.334 .0264688
887.998 .0264716
888.662 .0264745
889.325 .0264771
889.988 .0264799
890.650 .0264827
891.312 .0264851
891.974 .0264874
892.636 .0264899
893.297 .0264925
893.957 .0264957
894.618 .0264991
895.278 .0265031
895.937 .0265076
896.596 .0265131
897.255 .0265190
897.914 .0265249
898.572 .0265306
899.230 .0265357
899.887 .0265398
900.544 .0265427
901.201 .0265437
901.857 .0265434
902.513 .0265416
903.168 .0265385
903.823 .0265334
904.478 .0265264
905.132 .0265176
905.786 .0265065
906.440 .0264926
907.093 .0264764
907.746 .0264578
908.399 .0264373
909.051 .0264156
909.703 .0263935
910.354 .0263713
911.005 .0263496
911.656 .0263286
912.306 .0263082
912.956 .0262879
913.605 .0262677
914.254 .0262471
914.903 .0262267
915.551 .0262067
916.199 .0261871
916.847 .0261683
917.494 .0261511
918.141 .0261350
918.788 .0261202
919.434 .0261063
920.079 .0260931
920.725 .0260799
921.370 .0260664
922.014 .0260522
922.658 .0260369
923.302 .0260205
923.946 .0260030
924.589 .0259842
925.231 .0259641
925.873 .0259429
926.515 .0259207
927.157 .0258978
927.798 .0258742
928.439 .0258498
929.079 .0258249
929.719 .0257993
930.359 .0257736
930.998 .0257475
931.637 .0257213
932.275 .0256956
932.913 .0256702
933.551 .0256457
934.188 .0256220
934.825 .0255998
935.462 .0255790
936.098 .0255595
936.733 .0255411
937.369 .0255236
938.004 .0255071
938.638 .0254912
939.273 .0254760
939.907 .0254613
940.540 .0254475
941.173 .0254346
941.806 .0254230
942.438 .0254125
943.070 .0254027
943.702 .0253936
944.333 .0253840
944.964 .0253738
945.594 .0253630
946.224 .0253514
946.854 .0253395
947.483 .0253278
948.112 .0253169
948.741 .0253061
949.369 .0252964
949.996 .0252874
950.624 .0252788
951.251 .0252700
951.878 .0252606
952.504 .0252500
953.130 .0252382
953.755 .0252255
954.380 .0252115
955.005 .0251971
955.629 .0251829
956.253 .0251684
956.877 .0251542
957.500 .0251405
958.123 .0251271
958.746 .0251135
959.368 .0251001
959.990 .0250861
960.611 .0250721
961.232 .0250580
961.853 .0250436
962.473 .0250291
963.093 .0250152
963.712 .0250014
964.331 .0249871
964.950 .0249732
965.569 .0249597
966.187 .0249469
966.804 .0249351
967.422 .0249245
968.039 .0249150
968.655 .0249067
969.272 .0248992
969.887 .0248918
970.503 .0248845
971.118 .0248769
971.733 .0248687
972.347 .0248603
972.961 .0248518
973.575 .0248439
974.188 .0248364
974.801 .0248298
975.414 .0248231
976.026 .0248160
976.638 .0248072
977.250 .0247969
977.861 .0247847
978.472 .0247708
979.083 .0247554
979.693 .0247386
980.303 .0247209
980.912 .0247027
981.521 .0246840
982.130 .0246652
982.738 .0246460
983.346 .0246270
983.954 .0246070
984.562 .0245864
985.169 .0245653
985.775 .0245444
986.382 .0245244
986.988 .0245052
987.594 .0244866
988.199 .0244688
988.804 .0244509
989.409 .0244336
990.013 .0244168
990.617 .0244010
991.221 .0243861
991.824 .0243722
992.427 .0243602
993.030 .0243506
993.632 .0243427
994.234 .0243377
994.836 .0243345
995.438 .0243329
996.039 .0243317
996.640 .0243305
997.240 .0243295
997.840 .0243293
998.440 .0243296
999.040 .0243308
999.639 .0243325
1000.238 .0243353
1000.836 .0243384
1001.435 .0243425
1002.033 .0243473
1002.630 .0243518
1003.228 .0243557
1003.825 .0243593
1004.422 .0243615
1005.018 .0243630
1005.614 .0243634
1006.210 .0243636
1006.806 .0243635
1007.401 .0243633
1007.996 .0243627
1008.591 .0243623
1009.186 .0243626
1009.780 .0243632
1010.374 .0243643
1010.967 .0243663
1011.561 .0243680
1012.154 .0243698
1012.746 .0243716
1013.339 .0243732
1013.931 .0243743
1014.523 .0243757
1015.115 .0243771
1015.706 .0243799
1016.298 .0243841
1016.888 .0243893
1017.479 .0243959
1018.069 .0244038
1018.660 .0244117
1019.250 .0244200
1019.839 .0244287
1020.429 .0244375
1021.018 .0244469
1021.607 .0244576
1022.195 .0244693
1022.784 .0244819
1023.372 .0244958
1023.960 .0245102
1024.547 .0245250
1025.135 .0245403
1025.722 .0245547
1026.309 .0245693
1026.896 .0245851
1027.483 .0246020
1028.069 .0246199
1028.655 .0246392
1029.241 .0246588
1029.827 .0246782
1030.412 .0246972
1030.997 .0247143
1031.582 .0247295
1032.167 .0247433
1032.752 .0247569
1033.336 .0247706
1033.921 .0247852
1034.505 .0248010
1035.089 .0248183
1035.672 .0248365
1036.256 .0248543
1036.839 .0248698
1037.422 .0248825
1038.005 .0248925
1038.588 .0249001
1039.171 .0249059
1039.753 .0249110
1040.335 .0249167
1040.918 .0249236
1041.500 .0249316
1042.081 .0249405
1042.663 .0249492
1043.244 .0249579
1043.826 .0249663
1044.407 .0249732
1044.988 .0249797
1045.569 .0249861
1046.150 .0249930
1046.730 .0250011
1047.311 .0250111
1047.891 .0250225
1048.471 .0250357
1049.052 .0250489
1049.632 .0250626
1050.211 .0250758
1050.791 .0250884
1051.371 .0250996
1051.950 .0251105
1052.530 .0251203
1053.109 .0251285
1053.688 .0251346
1054.268 .0251393
1054.847 .0251423
1055.426 .0251450
1056.005 .0251460
1056.583 .0251472
1057.162 .0251490
1057.741 .0251519
1058.319 .0251549
1058.898 .0251600
1059.476 .0251660
1060.055 .0251722
1060.633 .0251781
1061.211 .0251832
1061.790 .0251880
1062.368 .0251940
1062.946 .0252003
1063.524 .0252076
1064.102 .0252170
1064.680 .0252285
1065.258 .0252414
1065.836 .0252562
1066.414 .0252716
1066.992 .0252863
1067.570 .0253016
1068.148 .0253160
1068.726 .0253292
1069.304 .0253424
1069.882 .0253560
1070.460 .0253697
1071.038 .0253845
1071.616 .0253993
1072.194 .0254130
1072.772 .0254265
1073.350 .0254387
1073.928 .0254476
1074.506 .0254543
1075.084 .0254579
1075.662 .0254604
1076.240 .0254617
1076.819 .0254622
1077.397 .0254620
1077.976 .0254619
1078.554 .0254619
1079.133 .0254610
1079.711 .0254586
1080.290 .0254539
1080.869 .0254466
1081.448 .0254368
1082.027 .0254240
1082.606 .0254105
1083.185 .0253989
1083.764 .0253905
1084.343 .0253847
1084.923 .0253838
1085.502 .0253857
1086.082 .0253909
1086.662 .0253978
1087.242 .0254048
1087.822 .0254122
1088.402 .0254197
1088.983 .0254277
1089.563 .0254363
1090.144 .0254501
1090.725 .0254699
1091.306 .0254935
1091.887 .0255237
1092.469 .0255579
1093.050 .0255941
1093.632 .0256308
1094.214 .0256677
1094.796 .0257025
1095.379 .0257344
1095.961 .0257653
1096.544 .0257939
1097.127 .0258220
1097.710 .0258496
1098.294 .0258754
1098.877 .0259017
1099.461 .0259285
1100.046 .0259527
1100.630 .0259749
1101.215 .0259987
1101.800 .0260223
1102.385 .0260443
1102.970 .0260660
1103.556 .0260870
1104.142 .0261072
1104.728 .0261258
1105.315 .0261439
1105.902 .0261617
1106.489 .0261818
1107.077 .0262035
1107.664 .0262279
1108.253 .0262566
1108.841 .0262847
1109.430 .0263124
1110.019 .0263385
1110.609 .0263622
1111.198 .0263816
1111.789 .0263969
1112.379 .0264134
1112.970 .0264329
1113.561 .0264588
1114.153 .0264915
1114.745 .0265334
1115.338 .0265838
1115.931 .0266377
1116.524 .0266923
1117.117 .0267454
1117.712 .0267969
1118.306 .0268463
1118.901 .0268963
1119.496 .0269477
1120.092 .0270046
1120.689 .0270659
1121.285 .0271306
1121.882 .0271982
1122.480 .0272622
1123.078 .0273195
1123.677 .0273656
1124.276 .0274008
1124.875 .0274263
1125.476 .0274440
1126.076 .0274583
1126.677 .0274742
1127.279 .0274961
1127.881 .0275245
1128.484 .0275598
1129.087 .0276023
1129.691 .0276512
1130.295 .0277023
1130.900 .0277529
1131.505 .0278040
1132.111 .0278563
1132.718 .0279093
1133.325 .0279647
1133.933 .0280261
1134.541 .0280948
1135.150 .0281704
1135.760 .0282541
1136.370 .0283466
1136.981 .0284470
1137.592 .0285518
1138.204 .0286573
1138.817 .0287607
1139.431 .0288695
1140.045 .0289784
1140.660 .0291000
1141.275 .0292384
1141.891 .0294045
1142.508 .0294752
1143.126 .0296251
1143.744 .0300345
1144.363 .0303259
1144.983 .0307230
