Measurement Sequence started on: 15-12-46-377
Integration time: 28
Scans to Average: 2 
>>>>>Begin Spectral Data<<<<<
432.689 .0000100
433.621 .0000100
434.552 .0000100
435.482 .0000100
436.410 .0000100
437.337 .0000100
438.262 .0268334
439.187 .0569173
440.110 .0944426
441.031 .1368113
441.952 .1780328
442.871 .2106294
443.789 .2286937
444.705 .2301603
445.621 .2174208
446.535 .1958124
447.447 .1711754
448.359 .1333689
449.269 .1144481
450.178 .1023362
451.086 .0937543
451.993 .0871850
452.898 .0819928
453.803 .0777923
454.706 .0743300
455.608 .0714045
456.508 .0688839
457.408 .0666998
458.306 .0647491
459.204 .0630002
460.100 .0614106
460.995 .0599833
461.888 .0586940
462.781 .0575162
463.673 .0564349
464.563 .0554617
465.452 .0545589
466.340 .0537084
467.228 .0529092
468.114 .0521660
468.999 .0514660
469.882 .0508160
470.765 .0502104
471.647 .0496620
472.528 .0491625
473.407 .0487234
474.286 .0483342
475.163 .0479933
476.040 .0476928
476.915 .0474325
477.790 .0472040
478.663 .0470101
479.535 .0468451
480.407 .0467104
481.277 .0465942
482.147 .0465009
483.015 .0464153
483.883 .0463412
484.749 .0462704
485.615 .0462015
486.479 .0461297
487.343 .0460642
488.206 .0460014
489.067 .0459389
489.928 .0458895
490.788 .0458545
491.647 .0458323
492.505 .0458328
493.362 .0458487
494.218 .0458824
495.073 .0459356
495.928 .0460118
496.781 .0461038
497.634 .0462264
498.486 .0463817
499.337 .0465764
500.187 .0468164
501.036 .0471063
501.884 .0474435
502.731 .0478309
503.578 .0482685
504.424 .0487398
505.268 .0492273
506.113 .0497418
506.956 .0502682
507.798 .0508255
508.640 .0514157
509.480 .0520493
510.320 .0527562
511.160 .0535458
511.998 .0544203
512.836 .0553859
513.672 .0564513
514.508 .0576312
515.344 .0589211
516.178 .0603783
517.012 .0620198
517.845 .0639076
518.677 .0660907
519.508 .0686233
520.339 .0714952
521.169 .0747821
521.998 .0784855
522.826 .0826230
523.654 .0872654
524.481 .0923994
525.307 .0980935
526.133 .1043729
526.958 .1111648
527.782 .1184093
528.605 .1259417
529.428 .1336303
530.250 .1408080
531.072 .1472765
531.892 .1525767
532.712 .1563838
533.532 .1585726
534.350 .1589652
535.168 .1575029
535.986 .1544070
536.802 .1498590
537.618 .1441285
538.434 .1374846
539.249 .1304510
540.063 .1230899
540.876 .1157990
541.689 .1087645
542.501 .1021331
543.313 .0960572
544.124 .0906360
544.934 .0857381
545.744 .0813185
546.553 .0773334
547.361 .0737450
548.169 .0705346
548.976 .0676808
549.783 .0651329
550.589 .0628778
551.395 .0608893
552.200 .0591321
553.004 .0575626
553.808 .0561556
554.611 .0548890
555.414 .0537277
556.216 .0526812
557.018 .0517269
557.819 .0508630
558.619 .0500768
559.419 .0493654
560.218 .0487126
561.017 .0480968
561.815 .0475067
562.613 .0469296
563.410 .0463491
564.207 .0457784
565.003 .0452007
565.799 .0446305
566.594 .0440625
567.388 .0435101
568.182 .0429624
568.976 .0424277
569.769 .0418962
570.562 .0413654
571.354 .0408369
572.145 .0403161
572.936 .0397988
573.727 .0392897
574.517 .0387994
575.307 .0383343
576.096 .0378961
576.885 .0374884
577.673 .0371038
578.461 .0367469
579.248 .0364129
580.035 .0360965
580.821 .0357989
581.607 .0355164
582.392 .0352521
583.177 .0350050
583.962 .0347804
584.746 .0345726
585.529 .0343829
586.313 .0342133
587.095 .0340600
587.878 .0339194
588.660 .0337901
589.441 .0336710
590.222 .0335605
591.003 .0334597
591.783 .0333663
592.563 .0332794
593.342 .0332010
594.121 .0331273
594.899 .0330596
595.678 .0329963
596.455 .0329374
597.233 .0328815
598.009 .0328289
598.786 .0327798
599.562 .0327327
600.338 .0326898
601.113 .0326510
601.888 .0326148
602.663 .0325800
603.437 .0325462
604.211 .0325110
604.984 .0324744
605.757 .0324354
606.530 .0323931
607.302 .0323494
608.074 .0323055
608.845 .0322617
609.616 .0322193
610.387 .0321789
611.158 .0321410
611.928 .0321047
612.697 .0320700
613.467 .0320348
614.236 .0319992
615.004 .0319641
615.773 .0319297
616.541 .0318963
617.308 .0318657
618.076 .0318382
618.843 .0318151
619.609 .0317961
620.375 .0317803
621.141 .0317665
621.907 .0317542
622.672 .0317417
623.437 .0317281
624.202 .0317138
624.966 .0316992
625.730 .0316842
626.493 .0316699
627.257 .0316556
628.020 .0316409
628.782 .0316248
629.545 .0316066
630.307 .0315849
631.068 .0315596
631.830 .0315305
632.591 .0314978
633.352 .0314625
634.112 .0314261
634.872 .0313883
635.632 .0313500
636.392 .0313109
637.151 .0312713
637.910 .0312304
638.668 .0311883
639.427 .0311451
640.185 .0311013
640.943 .0310581
641.700 .0310164
642.457 .0309770
643.214 .0309411
643.971 .0309081
644.727 .0308785
645.483 .0308516
646.239 .0308266
646.994 .0308025
647.750 .0307798
648.505 .0307587
649.259 .0307397
650.014 .0307226
650.768 .0307079
651.521 .0306957
652.275 .0306848
653.028 .0306742
653.781 .0306623
654.534 .0306493
655.286 .0306342
656.039 .0306165
656.791 .0305967
657.542 .0305750
658.294 .0305523
659.045 .0305291
659.796 .0305052
660.546 .0304813
661.297 .0304570
662.047 .0304324
662.796 .0304066
663.546 .0303799
664.295 .0303521
665.044 .0303237
665.793 .0302949
666.542 .0302673
667.290 .0302408
668.038 .0302165
668.786 .0301945
669.533 .0301751
670.281 .0301575
671.028 .0301415
671.774 .0301264
672.521 .0301119
673.267 .0300976
674.013 .0300835
674.759 .0300694
675.505 .0300563
676.250 .0300438
676.995 .0300316
677.740 .0300196
678.484 .0300083
679.229 .0299966
679.973 .0299842
680.717 .0299714
681.460 .0299577
682.204 .0299433
682.947 .0299284
683.690 .0299130
684.433 .0298976
685.175 .0298823
685.917 .0298667
686.659 .0298508
687.401 .0298346
688.142 .0298181
688.884 .0298012
689.625 .0297847
690.365 .0297682
691.106 .0297518
691.846 .0297356
692.586 .0297199
693.326 .0297037
694.066 .0296876
694.805 .0296707
695.545 .0296535
696.284 .0296352
697.022 .0296161
697.761 .0295965
698.499 .0295764
699.237 .0295561
699.975 .0295355
700.713 .0295145
701.450 .0294936
702.187 .0294724
702.924 .0294515
703.661 .0294304
704.397 .0294093
705.133 .0293881
705.869 .0293664
706.605 .0293449
707.341 .0293236
708.076 .0293024
708.811 .0292817
709.546 .0292613
710.281 .0292405
711.015 .0292196
711.749 .0291982
712.483 .0291763
713.217 .0291537
713.950 .0291308
714.684 .0291069
715.417 .0290829
716.150 .0290590
716.882 .0290354
717.615 .0290120
718.347 .0289894
719.079 .0289670
719.811 .0289441
720.542 .0289211
721.273 .0288974
722.005 .0288731
722.735 .0288487
723.466 .0288244
724.196 .0287999
724.927 .0287758
725.656 .0287520
726.386 .0287279
727.116 .0287040
727.845 .0286802
728.574 .0286557
729.303 .0286310
730.031 .0286064
730.760 .0285818
731.488 .0285580
732.216 .0285360
732.944 .0285155
733.671 .0284969
734.398 .0284808
735.125 .0284663
735.852 .0284537
736.579 .0284425
737.305 .0284324
738.031 .0284230
738.757 .0284143
739.483 .0284056
740.208 .0283965
740.933 .0283877
741.658 .0283792
742.383 .0283710
743.108 .0283634
743.832 .0283566
744.556 .0283505
745.280 .0283452
746.004 .0283403
746.727 .0283354
747.450 .0283304
748.173 .0283244
748.896 .0283178
749.618 .0283101
750.340 .0283014
751.062 .0282923
751.784 .0282834
752.506 .0282747
753.227 .0282657
753.948 .0282567
754.669 .0282474
755.389 .0282369
756.110 .0282250
756.830 .0282111
757.550 .0281954
758.269 .0281789
758.989 .0281616
759.708 .0281442
760.427 .0281278
761.146 .0281126
761.864 .0280989
762.582 .0280867
763.300 .0280760
764.018 .0280660
764.736 .0280568
765.453 .0280489
766.170 .0280413
766.887 .0280341
767.603 .0280281
768.320 .0280226
769.036 .0280179
769.751 .0280134
770.467 .0280086
771.182 .0280040
771.897 .0279993
772.612 .0279943
773.327 .0279891
774.041 .0279844
774.755 .0279802
775.469 .0279764
776.183 .0279736
776.896 .0279712
777.609 .0279693
778.322 .0279680
779.035 .0279670
779.747 .0279661
780.459 .0279659
781.171 .0279664
781.882 .0279678
782.594 .0279700
783.305 .0279727
784.016 .0279756
784.726 .0279787
785.436 .0279813
786.147 .0279828
786.856 .0279830
787.566 .0279821
788.275 .0279793
788.984 .0279754
789.693 .0279703
790.401 .0279641
791.110 .0279570
791.818 .0279492
792.525 .0279404
793.233 .0279310
793.940 .0279212
794.647 .0279108
795.353 .0278997
796.060 .0278885
796.766 .0278766
797.472 .0278644
798.177 .0278520
798.883 .0278400
799.588 .0278278
800.292 .0278161
800.997 .0278044
801.701 .0277927
802.405 .0277811
803.109 .0277695
803.812 .0277572
804.515 .0277441
805.218 .0277298
805.921 .0277139
806.623 .0276966
807.325 .0276784
808.027 .0276591
808.728 .0276392
809.429 .0276187
810.130 .0275975
810.831 .0275758
811.531 .0275537
812.231 .0275310
812.931 .0275080
813.630 .0274845
814.330 .0274605
815.029 .0274365
815.727 .0274130
816.426 .0273900
817.124 .0273677
817.821 .0273460
818.519 .0273249
819.216 .0273043
819.913 .0272840
820.609 .0272638
821.306 .0272441
822.002 .0272249
822.697 .0272062
823.393 .0271885
824.088 .0271723
824.783 .0271573
825.477 .0271437
826.171 .0271309
826.865 .0271190
827.559 .0271075
828.252 .0270966
828.945 .0270861
829.638 .0270762
830.330 .0270673
831.023 .0270591
831.714 .0270516
832.406 .0270448
833.097 .0270383
833.788 .0270316
834.479 .0270240
835.169 .0270151
835.859 .0270053
836.548 .0269945
837.238 .0269831
837.927 .0269714
838.615 .0269595
839.304 .0269477
839.992 .0269361
840.680 .0269246
841.367 .0269127
842.054 .0269003
842.741 .0268873
843.428 .0268736
844.114 .0268590
844.800 .0268443
845.485 .0268294
846.170 .0268145
846.855 .0267997
847.540 .0267846
848.224 .0267691
848.908 .0267536
849.592 .0267374
850.275 .0267206
850.958 .0267030
851.641 .0266847
852.323 .0266658
853.005 .0266465
853.687 .0266266
854.368 .0266065
855.049 .0265866
855.730 .0265675
856.410 .0265487
857.090 .0265309
857.769 .0265140
858.449 .0264981
859.128 .0264827
859.806 .0264674
860.485 .0264520
861.163 .0264366
861.840 .0264207
862.518 .0264048
863.195 .0263890
863.871 .0263734
864.548 .0263586
865.224 .0263447
865.899 .0263318
866.574 .0263202
867.249 .0263092
867.924 .0262991
868.598 .0262895
869.272 .0262804
869.946 .0262716
870.619 .0262632
871.292 .0262556
871.964 .0262485
872.636 .0262422
873.308 .0262369
873.979 .0262319
874.651 .0262273
875.321 .0262228
875.992 .0262182
876.662 .0262133
877.331 .0262084
878.001 .0262033
878.670 .0261985
879.338 .0261936
880.007 .0261893
880.675 .0261857
881.342 .0261829
882.009 .0261813
882.676 .0261806
883.343 .0261811
884.009 .0261830
884.675 .0261858
885.340 .0261899
886.005 .0261951
886.670 .0262017
887.334 .0262095
887.998 .0262185
888.662 .0262291
889.325 .0262408
889.988 .0262536
890.650 .0262675
891.312 .0262815
891.974 .0262958
892.636 .0263099
893.297 .0263235
893.957 .0263368
894.618 .0263496
895.278 .0263620
895.937 .0263744
896.596 .0263873
897.255 .0264003
897.914 .0264129
898.572 .0264254
899.230 .0264372
899.887 .0264474
900.544 .0264559
901.201 .0264623
901.857 .0264669
902.513 .0264702
903.168 .0264722
903.823 .0264731
904.478 .0264734
905.132 .0264730
905.786 .0264719
906.440 .0264696
907.093 .0264660
907.746 .0264604
908.399 .0264527
909.051 .0264433
909.703 .0264316
910.354 .0264183
911.005 .0264044
911.656 .0263901
912.306 .0263760
912.956 .0263622
913.605 .0263487
914.254 .0263355
914.903 .0263227
915.551 .0263099
916.199 .0262967
916.847 .0262834
917.494 .0262701
918.141 .0262569
918.788 .0262445
919.434 .0262333
920.079 .0262227
920.725 .0262137
921.370 .0262052
922.014 .0261969
922.658 .0261886
923.302 .0261797
923.946 .0261703
924.589 .0261599
925.231 .0261481
925.873 .0261353
926.515 .0261216
927.157 .0261075
927.798 .0260926
928.439 .0260771
929.079 .0260609
929.719 .0260437
930.359 .0260254
930.998 .0260065
931.637 .0259864
932.275 .0259659
932.913 .0259451
933.551 .0259242
934.188 .0259033
934.825 .0258829
935.462 .0258631
936.098 .0258443
936.733 .0258268
937.369 .0258106
938.004 .0257957
938.638 .0257823
939.273 .0257699
939.907 .0257583
940.540 .0257479
941.173 .0257383
941.806 .0257296
942.438 .0257224
943.070 .0257162
943.702 .0257108
944.333 .0257063
944.964 .0257021
945.594 .0256975
946.224 .0256919
946.854 .0256848
947.483 .0256754
948.112 .0256645
948.741 .0256514
949.369 .0256369
949.996 .0256216
950.624 .0256061
951.251 .0255900
951.878 .0255738
952.504 .0255572
953.130 .0255403
953.755 .0255226
954.380 .0255045
955.005 .0254852
955.629 .0254652
956.253 .0254444
956.877 .0254241
957.500 .0254039
958.123 .0253847
958.746 .0253660
959.368 .0253480
959.990 .0253305
960.611 .0253129
961.232 .0252950
961.853 .0252767
962.473 .0252580
963.093 .0252384
963.712 .0252178
964.331 .0251968
964.950 .0251760
965.569 .0251556
966.187 .0251360
966.804 .0251176
967.422 .0251004
968.039 .0250844
968.655 .0250691
969.272 .0250545
969.887 .0250401
970.503 .0250255
971.118 .0250109
971.733 .0249955
972.347 .0249797
972.961 .0249636
973.575 .0249475
974.188 .0249314
974.801 .0249147
975.414 .0248971
976.026 .0248782
976.638 .0248582
977.250 .0248367
977.861 .0248136
978.472 .0247898
979.083 .0247656
979.693 .0247405
980.303 .0247149
980.912 .0246894
981.521 .0246636
982.130 .0246383
982.738 .0246135
983.346 .0245889
983.954 .0245647
984.562 .0245413
985.169 .0245183
985.775 .0244958
986.382 .0244741
986.988 .0244526
987.594 .0244316
988.199 .0244118
988.804 .0243923
989.409 .0243737
990.013 .0243567
990.617 .0243412
991.221 .0243265
991.824 .0243135
992.427 .0243012
993.030 .0242899
993.632 .0242801
994.234 .0242718
994.836 .0242646
995.438 .0242588
996.039 .0242535
996.640 .0242480
997.240 .0242429
997.840 .0242374
998.440 .0242310
999.040 .0242246
999.639 .0242176
1000.238 .0242096
1000.836 .0242005
1001.435 .0241912
1002.033 .0241804
1002.630 .0241688
1003.228 .0241568
1003.825 .0241445
1004.422 .0241321
1005.018 .0241205
1005.614 .0241100
1006.210 .0241014
1006.806 .0240952
1007.401 .0240907
1007.996 .0240878
1008.591 .0240862
1009.186 .0240848
1009.780 .0240834
1010.374 .0240819
1010.967 .0240809
1011.561 .0240797
1012.154 .0240791
1012.746 .0240795
1013.339 .0240803
1013.931 .0240814
1014.523 .0240827
1015.115 .0240837
1015.706 .0240845
1016.298 .0240844
1016.888 .0240837
1017.479 .0240831
1018.069 .0240831
1018.660 .0240843
1019.250 .0240870
1019.839 .0240921
1020.429 .0240994
1021.018 .0241079
1021.607 .0241177
1022.195 .0241282
1022.784 .0241387
1023.372 .0241492
1023.960 .0241599
1024.547 .0241703
1025.135 .0241810
1025.722 .0241916
1026.309 .0242024
1026.896 .0242141
1027.483 .0242258
1028.069 .0242375
1028.655 .0242489
1029.241 .0242607
1029.827 .0242716
1030.412 .0242819
1030.997 .0242923
1031.582 .0243027
1032.167 .0243135
1032.752 .0243246
1033.336 .0243357
1033.921 .0243476
1034.505 .0243601
1035.089 .0243728
1035.672 .0243854
1036.256 .0243985
1036.839 .0244113
1037.422 .0244237
1038.005 .0244359
1038.588 .0244477
1039.171 .0244586
1039.753 .0244695
1040.335 .0244807
1040.918 .0244921
1041.500 .0245040
1042.081 .0245165
1042.663 .0245292
1043.244 .0245431
1043.826 .0245565
1044.407 .0245690
1044.988 .0245799
1045.569 .0245900
1046.150 .0245983
1046.730 .0246045
1047.311 .0246097
1047.891 .0246143
1048.471 .0246191
1049.052 .0246248
1049.632 .0246310
1050.211 .0246394
1050.791 .0246493
1051.371 .0246603
1051.950 .0246726
1052.530 .0246863
1053.109 .0247008
1053.688 .0247158
1054.268 .0247312
1054.847 .0247473
1055.426 .0247633
1056.005 .0247800
1056.583 .0247980
1057.162 .0248170
1057.741 .0248366
1058.319 .0248548
1058.898 .0248709
1059.476 .0248854
1060.055 .0248963
1060.633 .0249041
1061.211 .0249090
1061.790 .0249122
1062.368 .0249153
1062.946 .0249187
1063.524 .0249238
1064.102 .0249316
1064.680 .0249424
1065.258 .0249559
1065.836 .0249702
1066.414 .0249859
1066.992 .0250025
1067.570 .0250198
1068.148 .0250389
1068.726 .0250597
1069.304 .0250826
1069.882 .0251076
1070.460 .0251332
1071.038 .0251591
1071.616 .0251841
1072.194 .0252066
1072.772 .0252263
1073.350 .0252444
1073.928 .0252615
1074.506 .0252774
1075.084 .0252926
1075.662 .0253087
1076.240 .0253249
1076.819 .0253402
1077.397 .0253542
1077.976 .0253670
1078.554 .0253786
1079.133 .0253889
1079.711 .0253976
1080.290 .0254074
1080.869 .0254183
1081.448 .0254308
1082.027 .0254437
1082.606 .0254578
1083.185 .0254727
1083.764 .0254871
1084.343 .0255015
1084.923 .0255158
1085.502 .0255297
1086.082 .0255432
1086.662 .0255575
1087.242 .0255737
1087.822 .0255902
1088.402 .0256085
1088.983 .0256265
1089.563 .0256447
1090.144 .0256610
1090.725 .0256761
1091.306 .0256900
1091.887 .0257047
1092.469 .0257199
1093.050 .0257349
1093.632 .0257510
1094.214 .0257674
1094.796 .0257845
1095.379 .0258006
1095.961 .0258153
1096.544 .0258296
1097.127 .0258415
1097.710 .0258546
1098.294 .0258670
1098.877 .0258807
1099.461 .0258955
1100.046 .0259127
1100.630 .0259305
1101.215 .0259471
1101.800 .0259640
1102.385 .0259805
1102.970 .0259965
1103.556 .0260124
1104.142 .0260304
1104.728 .0260514
1105.315 .0260775
1105.902 .0261088
1106.489 .0261428
1107.077 .0261813
1107.664 .0262224
1108.253 .0262652
1108.841 .0263085
1109.430 .0263520
1110.019 .0263962
1110.609 .0264407
1111.198 .0264890
1111.789 .0265393
1112.379 .0265914
1112.970 .0266453
1113.561 .0266995
1114.153 .0267499
1114.745 .0267970
1115.338 .0268395
1115.931 .0268778
1116.524 .0269109
1117.117 .0269404
1117.712 .0269688
1118.306 .0269977
1118.901 .0270299
1119.496 .0270642
1120.092 .0271011
1120.689 .0271435
1121.285 .0271881
1121.882 .0272329
1122.480 .0272815
1123.078 .0273325
1123.677 .0273849
1124.276 .0274384
1124.875 .0274922
1125.476 .0275469
1126.076 .0276053
1126.677 .0276672
1127.279 .0277320
1127.881 .0278009
1128.484 .0278773
1129.087 .0279548
1129.691 .0280396
1130.295 .0281262
1130.900 .0282129
1131.505 .0283000
1132.111 .0283869
1132.718 .0284703
1133.325 .0285548
1133.933 .0286396
1134.541 .0287254
1135.150 .0288115
1135.760 .0288983
1136.370 .0289820
1136.981 .0290632
1137.592 .0291389
1138.204 .0292073
1138.817 .0292672
1139.431 .0293249
1140.045 .0293765
1140.660 .0294196
1141.275 .0294713
1141.891 .0295103
1142.508 .0296402
1143.126 .0296726
1143.744 .0294745
1144.363 .0298890
1144.983 .0295068
