Measurement Sequence started on: 15-12-46-377
Integration time: 28
Scans to Average: 2 
>>>>>Begin Spectral Data<<<<<
432.689 .0000100
433.621 .0000100
434.552 .0000100
435.482 .0000100
436.410 .0000100
437.337 .0000100
438.262 .0271942
439.187 .0574307
440.110 .0950898
441.031 .1376156
441.952 .1789129
442.871 .2115065
443.789 .2294915
444.705 .2308463
445.621 .2180264
446.535 .1964306
447.447 .1718875
448.359 .1340362
449.269 .1154326
450.178 .1035465
451.086 .0950696
451.993 .0885644
452.898 .0833644
453.803 .0791096
454.706 .0755928
455.608 .0725964
456.508 .0699890
457.408 .0677243
458.306 .0657066
459.204 .0638896
460.100 .0622355
460.995 .0607161
461.888 .0593189
462.781 .0580221
463.673 .0568101
464.563 .0556756
465.452 .0546206
466.340 .0536284
467.228 .0527173
468.114 .0518837
468.999 .0511360
469.882 .0504591
470.765 .0498535
471.647 .0493234
472.528 .0488576
473.407 .0484485
474.286 .0480979
475.163 .0478030
476.040 .0475588
476.915 .0473545
477.790 .0471955
478.663 .0470726
479.535 .0469885
480.407 .0469354
481.277 .0469060
482.147 .0468945
483.015 .0468914
483.883 .0468857
484.749 .0468811
485.615 .0468694
486.479 .0468490
487.343 .0468236
488.206 .0468010
489.067 .0467825
489.928 .0467709
490.788 .0467737
491.647 .0467947
492.505 .0468361
493.362 .0468924
494.218 .0469617
495.073 .0470472
495.928 .0471555
496.781 .0472779
497.634 .0474343
498.486 .0476245
499.337 .0478481
500.187 .0481103
501.036 .0484172
501.884 .0487620
502.731 .0491433
503.578 .0495533
504.424 .0499910
505.268 .0504532
506.113 .0509468
506.956 .0514646
507.798 .0520226
508.640 .0526254
509.480 .0532764
510.320 .0539721
511.160 .0547459
511.998 .0555964
512.836 .0565431
513.672 .0575990
514.508 .0587836
515.344 .0600832
516.178 .0615355
517.012 .0631491
517.845 .0649448
518.677 .0669450
519.508 .0691696
520.339 .0716482
521.169 .0744284
521.998 .0775694
522.826 .0811112
523.654 .0851044
524.481 .0896241
525.307 .0946429
526.133 .1001524
526.958 .1060872
527.782 .1124305
528.605 .1189518
529.428 .1256192
530.250 .1318998
531.072 .1376610
531.892 .1426211
532.712 .1465646
533.532 .1492746
534.350 .1506099
535.168 .1504764
535.986 .1488417
536.802 .1457475
537.618 .1414407
538.434 .1359956
539.249 .1299177
540.063 .1233137
540.876 .1165377
541.689 .1098149
542.501 .1034295
543.313 .0974884
544.124 .0920556
544.934 .0871381
545.744 .0826455
546.553 .0785564
547.361 .0748681
548.169 .0715854
548.976 .0686471
549.783 .0660372
550.589 .0637513
551.395 .0617094
552.200 .0599020
553.004 .0582958
553.808 .0568504
554.611 .0555702
555.414 .0544288
556.216 .0533997
557.018 .0524744
557.819 .0516507
558.619 .0508898
559.419 .0501781
560.218 .0494990
561.017 .0488512
561.815 .0482012
562.613 .0475700
563.410 .0469497
564.207 .0463350
565.003 .0457327
565.799 .0451405
566.594 .0445508
567.388 .0439787
568.182 .0434100
568.976 .0428522
569.769 .0423060
570.562 .0417764
571.354 .0412560
572.145 .0407484
572.936 .0402559
573.727 .0397747
574.517 .0392968
575.307 .0388282
576.096 .0383677
576.885 .0379196
577.673 .0374932
578.461 .0370914
579.248 .0367188
580.035 .0363739
580.821 .0360600
581.607 .0357703
582.392 .0354998
583.177 .0352514
583.962 .0350179
584.746 .0348012
585.529 .0346032
586.313 .0344237
587.095 .0342651
587.878 .0341236
588.660 .0339983
589.441 .0338837
590.222 .0337778
591.003 .0336762
591.783 .0335759
592.563 .0334802
593.342 .0333905
594.121 .0333040
594.899 .0332249
595.678 .0331531
596.455 .0330887
597.233 .0330302
598.009 .0329748
598.786 .0329208
599.562 .0328666
600.338 .0328114
601.113 .0327567
601.888 .0327012
602.663 .0326474
603.437 .0325966
604.211 .0325483
604.984 .0325033
605.757 .0324605
606.530 .0324186
607.302 .0323776
608.074 .0323363
608.845 .0322949
609.616 .0322527
610.387 .0322120
611.158 .0321738
611.928 .0321376
612.697 .0321052
613.467 .0320757
614.236 .0320490
615.004 .0320257
615.773 .0320047
616.541 .0319845
617.308 .0319647
618.076 .0319454
618.843 .0319251
619.609 .0319042
620.375 .0318831
621.141 .0318616
621.907 .0318406
622.672 .0318209
623.437 .0318020
624.202 .0317839
624.966 .0317676
625.730 .0317519
626.493 .0317364
627.257 .0317204
628.020 .0317033
628.782 .0316843
629.545 .0316638
630.307 .0316422
631.068 .0316192
631.830 .0315959
632.591 .0315727
633.352 .0315492
634.112 .0315259
634.872 .0315018
635.632 .0314770
636.392 .0314504
637.151 .0314228
637.910 .0313937
638.668 .0313632
639.427 .0313318
640.185 .0313007
640.943 .0312698
641.700 .0312399
642.457 .0312109
643.214 .0311830
643.971 .0311562
644.727 .0311298
645.483 .0311033
646.239 .0310774
646.994 .0310520
647.750 .0310276
648.505 .0310035
649.259 .0309811
650.014 .0309600
650.768 .0309395
651.521 .0309198
652.275 .0309002
653.028 .0308799
653.781 .0308584
654.534 .0308354
655.286 .0308114
656.039 .0307869
656.791 .0307621
657.542 .0307379
658.294 .0307147
659.045 .0306928
659.796 .0306714
660.546 .0306495
661.297 .0306270
662.047 .0306026
662.796 .0305757
663.546 .0305470
664.295 .0305165
665.044 .0304850
665.793 .0304532
666.542 .0304222
667.290 .0303925
668.038 .0303640
668.786 .0303362
669.533 .0303088
670.281 .0302812
671.028 .0302531
671.774 .0302242
672.521 .0301955
673.267 .0301682
674.013 .0301421
674.759 .0301181
675.505 .0300966
676.250 .0300769
676.995 .0300584
677.740 .0300407
678.484 .0300229
679.229 .0300045
679.973 .0299852
680.717 .0299656
681.460 .0299458
682.204 .0299268
682.947 .0299090
683.690 .0298925
684.433 .0298772
685.175 .0298622
685.917 .0298467
686.659 .0298307
687.401 .0298134
688.142 .0297949
688.884 .0297757
689.625 .0297568
690.365 .0297381
691.106 .0297202
691.846 .0297034
692.586 .0296874
693.326 .0296712
694.066 .0296545
694.805 .0296367
695.545 .0296178
696.284 .0295978
697.022 .0295764
697.761 .0295544
698.499 .0295326
699.237 .0295104
699.975 .0294883
700.713 .0294667
701.450 .0294457
702.187 .0294247
702.924 .0294044
703.661 .0293848
704.397 .0293656
705.133 .0293471
705.869 .0293290
706.605 .0293114
707.341 .0292941
708.076 .0292765
708.811 .0292590
709.546 .0292416
710.281 .0292247
711.015 .0292082
711.749 .0291926
712.483 .0291782
713.217 .0291644
713.950 .0291505
714.684 .0291365
715.417 .0291220
716.150 .0291063
716.882 .0290892
717.615 .0290721
718.347 .0290548
719.079 .0290381
719.811 .0290224
720.542 .0290077
721.273 .0289936
722.005 .0289803
722.735 .0289666
723.466 .0289522
724.196 .0289373
724.927 .0289219
725.656 .0289054
726.386 .0288892
727.116 .0288728
727.845 .0288564
728.574 .0288399
729.303 .0288235
730.031 .0288063
730.760 .0287891
731.488 .0287715
732.216 .0287539
732.944 .0287366
733.671 .0287206
734.398 .0287054
735.125 .0286915
735.852 .0286791
736.579 .0286677
737.305 .0286565
738.031 .0286456
738.757 .0286346
739.483 .0286233
740.208 .0286116
740.933 .0286000
741.658 .0285888
742.383 .0285780
743.108 .0285678
743.832 .0285581
744.556 .0285489
745.280 .0285396
746.004 .0285295
746.727 .0285188
747.450 .0285075
748.173 .0284952
748.896 .0284817
749.618 .0284678
750.340 .0284540
751.062 .0284402
751.784 .0284268
752.506 .0284141
753.227 .0284020
753.948 .0283904
754.669 .0283787
755.389 .0283666
756.110 .0283545
756.830 .0283419
757.550 .0283292
758.269 .0283159
758.989 .0283024
759.708 .0282882
760.427 .0282733
761.146 .0282580
761.864 .0282417
762.582 .0282243
763.300 .0282060
764.018 .0281868
764.736 .0281676
765.453 .0281480
766.170 .0281287
766.887 .0281095
767.603 .0280908
768.320 .0280721
769.036 .0280537
769.751 .0280360
770.467 .0280191
771.182 .0280032
771.897 .0279881
772.612 .0279736
773.327 .0279598
774.041 .0279467
774.755 .0279334
775.469 .0279199
776.183 .0279059
776.896 .0278911
777.609 .0278761
778.322 .0278606
779.035 .0278450
779.747 .0278293
780.459 .0278139
781.171 .0277987
781.882 .0277838
782.594 .0277695
783.305 .0277554
784.016 .0277422
784.726 .0277303
785.436 .0277189
786.147 .0277087
786.856 .0276997
787.566 .0276919
788.275 .0276850
788.984 .0276789
789.693 .0276732
790.401 .0276678
791.110 .0276622
791.818 .0276563
792.525 .0276494
793.233 .0276418
793.940 .0276327
794.647 .0276224
795.353 .0276111
796.060 .0275985
796.766 .0275847
797.472 .0275703
798.177 .0275556
798.883 .0275408
799.588 .0275259
800.292 .0275117
800.997 .0274976
801.701 .0274836
802.405 .0274698
803.109 .0274565
803.812 .0274439
804.515 .0274320
805.218 .0274204
805.921 .0274097
806.623 .0273995
807.325 .0273894
808.027 .0273793
808.728 .0273694
809.429 .0273589
810.130 .0273472
810.831 .0273345
811.531 .0273211
812.231 .0273068
812.931 .0272921
813.630 .0272766
814.330 .0272609
815.029 .0272450
815.727 .0272288
816.426 .0272127
817.124 .0271972
817.821 .0271819
818.519 .0271668
819.216 .0271523
819.913 .0271385
820.609 .0271252
821.306 .0271132
822.002 .0271026
822.697 .0270936
823.393 .0270862
824.088 .0270800
824.783 .0270749
825.477 .0270709
826.171 .0270675
826.865 .0270643
827.559 .0270610
828.252 .0270572
828.945 .0270528
829.638 .0270477
830.330 .0270425
831.023 .0270369
831.714 .0270315
832.406 .0270264
833.097 .0270210
833.788 .0270159
834.479 .0270106
835.169 .0270052
835.859 .0269998
836.548 .0269942
837.238 .0269887
837.927 .0269832
838.615 .0269779
839.304 .0269731
839.992 .0269687
840.680 .0269650
841.367 .0269614
842.054 .0269579
842.741 .0269544
843.428 .0269509
844.114 .0269470
844.800 .0269427
845.485 .0269375
846.170 .0269313
846.855 .0269242
847.540 .0269157
848.224 .0269063
848.908 .0268960
849.592 .0268853
850.275 .0268741
850.958 .0268625
851.641 .0268508
852.323 .0268390
853.005 .0268274
853.687 .0268154
854.368 .0268032
855.049 .0267911
855.730 .0267786
856.410 .0267660
857.090 .0267536
857.769 .0267418
858.449 .0267304
859.128 .0267198
859.806 .0267099
860.485 .0267009
861.163 .0266925
861.840 .0266846
862.518 .0266767
863.195 .0266687
863.871 .0266598
864.548 .0266498
865.224 .0266389
865.899 .0266274
866.574 .0266153
867.249 .0266033
867.924 .0265921
868.598 .0265820
869.272 .0265731
869.946 .0265658
870.619 .0265597
871.292 .0265546
871.964 .0265499
872.636 .0265450
873.308 .0265396
873.979 .0265337
874.651 .0265275
875.321 .0265207
875.992 .0265143
876.662 .0265084
877.331 .0265033
878.001 .0264983
878.670 .0264936
879.338 .0264886
880.007 .0264831
880.675 .0264767
881.342 .0264691
882.009 .0264601
882.676 .0264504
883.343 .0264400
884.009 .0264294
884.675 .0264188
885.340 .0264088
886.005 .0263991
886.670 .0263902
887.334 .0263819
887.998 .0263743
888.662 .0263669
889.325 .0263605
889.988 .0263546
890.650 .0263493
891.312 .0263445
891.974 .0263403
892.636 .0263369
893.297 .0263345
893.957 .0263328
894.618 .0263318
895.278 .0263312
895.937 .0263308
896.596 .0263304
897.255 .0263296
897.914 .0263285
898.572 .0263269
899.230 .0263247
899.887 .0263219
900.544 .0263185
901.201 .0263144
901.857 .0263092
902.513 .0263026
903.168 .0262944
903.823 .0262839
904.478 .0262712
905.132 .0262562
905.786 .0262392
906.440 .0262207
907.093 .0262010
907.746 .0261806
908.399 .0261599
909.051 .0261394
909.703 .0261186
910.354 .0260974
911.005 .0260759
911.656 .0260541
912.306 .0260316
912.956 .0260091
913.605 .0259866
914.254 .0259647
914.903 .0259439
915.551 .0259239
916.199 .0259055
916.847 .0258883
917.494 .0258722
918.141 .0258572
918.788 .0258430
919.434 .0258300
920.079 .0258175
920.725 .0258060
921.370 .0257949
922.014 .0257845
922.658 .0257740
923.302 .0257630
923.946 .0257514
924.589 .0257380
925.231 .0257223
925.873 .0257045
926.515 .0256848
927.157 .0256635
927.798 .0256409
928.439 .0256175
929.079 .0255937
929.719 .0255698
930.359 .0255451
930.998 .0255198
931.637 .0254939
932.275 .0254672
932.913 .0254393
933.551 .0254105
934.188 .0253821
934.825 .0253544
935.462 .0253287
936.098 .0253052
936.733 .0252844
937.369 .0252656
938.004 .0252485
938.638 .0252325
939.273 .0252170
939.907 .0252013
940.540 .0251856
941.173 .0251698
941.806 .0251547
942.438 .0251403
943.070 .0251271
943.702 .0251147
944.333 .0251033
944.964 .0250919
945.594 .0250799
946.224 .0250670
946.854 .0250538
947.483 .0250399
948.112 .0250260
948.741 .0250124
949.369 .0249994
949.996 .0249872
950.624 .0249760
951.251 .0249652
951.878 .0249545
952.504 .0249435
953.130 .0249322
953.755 .0249202
954.380 .0249087
955.005 .0248971
955.629 .0248863
956.253 .0248761
956.877 .0248667
957.500 .0248579
958.123 .0248491
958.746 .0248404
959.368 .0248311
959.990 .0248210
960.611 .0248106
961.232 .0247997
961.853 .0247894
962.473 .0247797
963.093 .0247707
963.712 .0247621
964.331 .0247537
964.950 .0247451
965.569 .0247362
966.187 .0247269
966.804 .0247175
967.422 .0247080
968.039 .0246986
968.655 .0246901
969.272 .0246823
969.887 .0246756
970.503 .0246698
971.118 .0246642
971.733 .0246590
972.347 .0246533
972.961 .0246474
973.575 .0246411
974.188 .0246343
974.801 .0246274
975.414 .0246199
976.026 .0246124
976.638 .0246048
977.250 .0245972
977.861 .0245898
978.472 .0245821
979.083 .0245740
979.693 .0245649
980.303 .0245553
980.912 .0245448
981.521 .0245337
982.130 .0245221
982.738 .0245107
983.346 .0244996
983.954 .0244890
984.562 .0244787
985.169 .0244689
985.775 .0244589
986.382 .0244494
986.988 .0244394
987.594 .0244296
988.199 .0244203
988.804 .0244121
989.409 .0244047
990.013 .0243986
990.617 .0243934
991.221 .0243893
991.824 .0243854
992.427 .0243819
993.030 .0243779
993.632 .0243743
994.234 .0243712
994.836 .0243692
995.438 .0243682
996.039 .0243690
996.640 .0243705
997.240 .0243730
997.840 .0243760
998.440 .0243792
999.040 .0243823
999.639 .0243857
1000.238 .0243897
1000.836 .0243940
1001.435 .0243990
1002.033 .0244050
1002.630 .0244115
1003.228 .0244187
1003.825 .0244257
1004.422 .0244324
1005.018 .0244388
1005.614 .0244449
1006.210 .0244507
1006.806 .0244562
1007.401 .0244626
1007.996 .0244688
1008.591 .0244746
1009.186 .0244804
1009.780 .0244858
1010.374 .0244898
1010.967 .0244933
1011.561 .0244962
1012.154 .0244987
1012.746 .0245010
1013.339 .0245036
1013.931 .0245059
1014.523 .0245090
1015.115 .0245126
1015.706 .0245168
1016.298 .0245215
1016.888 .0245274
1017.479 .0245343
1018.069 .0245428
1018.660 .0245532
1019.250 .0245648
1019.839 .0245777
1020.429 .0245921
1021.018 .0246069
1021.607 .0246219
1022.195 .0246368
1022.784 .0246526
1023.372 .0246690
1023.960 .0246866
1024.547 .0247049
1025.135 .0247246
1025.722 .0247446
1026.309 .0247646
1026.896 .0247846
1027.483 .0248028
1028.069 .0248196
1028.655 .0248343
1029.241 .0248471
1029.827 .0248582
1030.412 .0248685
1030.997 .0248789
1031.582 .0248899
1032.167 .0249021
1032.752 .0249146
1033.336 .0249275
1033.921 .0249409
1034.505 .0249538
1035.089 .0249648
1035.672 .0249739
1036.256 .0249819
1036.839 .0249879
1037.422 .0249928
1038.005 .0249969
1038.588 .0250008
1039.171 .0250045
1039.753 .0250083
1040.335 .0250126
1040.918 .0250169
1041.500 .0250214
1042.081 .0250250
1042.663 .0250281
1043.244 .0250304
1043.826 .0250312
1044.407 .0250303
1044.988 .0250288
1045.569 .0250268
1046.150 .0250242
1046.730 .0250214
1047.311 .0250198
1047.891 .0250194
1048.471 .0250201
1049.052 .0250211
1049.632 .0250217
1050.211 .0250209
1050.791 .0250193
1051.371 .0250161
1051.950 .0250130
1052.530 .0250098
1053.109 .0250085
1053.688 .0250087
1054.268 .0250122
1054.847 .0250182
1055.426 .0250268
1056.005 .0250370
1056.583 .0250492
1057.162 .0250601
1057.741 .0250708
1058.319 .0250809
1058.898 .0250928
1059.476 .0251052
1060.055 .0251184
1060.633 .0251312
1061.211 .0251437
1061.790 .0251553
1062.368 .0251651
1062.946 .0251707
1063.524 .0251751
1064.102 .0251766
1064.680 .0251774
1065.258 .0251762
1065.836 .0251747
1066.414 .0251739
1066.992 .0251742
1067.570 .0251743
1068.148 .0251732
1068.726 .0251704
1069.304 .0251680
1069.882 .0251646
1070.460 .0251607
1071.038 .0251573
1071.616 .0251535
1072.194 .0251506
1072.772 .0251475
1073.350 .0251439
1073.928 .0251411
1074.506 .0251387
1075.084 .0251380
1075.662 .0251371
1076.240 .0251374
1076.819 .0251396
1077.397 .0251418
1077.976 .0251462
1078.554 .0251504
1079.133 .0251548
1079.711 .0251590
1080.290 .0251636
1080.869 .0251678
1081.448 .0251731
1082.027 .0251793
1082.606 .0251854
1083.185 .0251918
1083.764 .0251972
1084.343 .0252006
1084.923 .0252021
1085.502 .0252030
1086.082 .0252030
1086.662 .0252029
1087.242 .0252055
1087.822 .0252093
1088.402 .0252155
1088.983 .0252229
1089.563 .0252319
1090.144 .0252420
1090.725 .0252526
1091.306 .0252621
1091.887 .0252714
1092.469 .0252829
1093.050 .0252965
1093.632 .0253127
1094.214 .0253320
1094.796 .0253548
1095.379 .0253803
1095.961 .0254048
1096.544 .0254292
1097.127 .0254510
1097.710 .0254702
1098.294 .0254873
1098.877 .0255034
1099.461 .0255180
1100.046 .0255307
1100.630 .0255419
1101.215 .0255519
1101.800 .0255607
1102.385 .0255671
1102.970 .0255703
1103.556 .0255710
1104.142 .0255717
1104.728 .0255702
1105.315 .0255702
1105.902 .0255727
1106.489 .0255778
1107.077 .0255864
1107.664 .0255961
1108.253 .0256063
1108.841 .0256172
1109.430 .0256298
1110.019 .0256430
1110.609 .0256570
1111.198 .0256721
1111.789 .0256861
1112.379 .0257022
1112.970 .0257190
1113.561 .0257371
1114.153 .0257570
1114.745 .0257813
1115.338 .0258066
1115.931 .0258349
1116.524 .0258682
1117.117 .0259045
1117.712 .0259485
1118.306 .0260000
1118.901 .0260576
1119.496 .0261187
1120.092 .0261857
1120.689 .0262558
1121.285 .0263280
1121.882 .0264035
1122.480 .0264797
1123.078 .0265560
1123.677 .0266340
1124.276 .0267102
1124.875 .0267816
1125.476 .0268499
1126.076 .0269159
1126.677 .0269706
1127.279 .0270179
1127.881 .0270578
1128.484 .0270936
1129.087 .0271238
1129.691 .0271555
1130.295 .0271877
1130.900 .0272253
1131.505 .0272703
1132.111 .0273213
1132.718 .0273788
1133.325 .0274452
1133.933 .0275183
1134.541 .0275960
1135.150 .0276829
1135.760 .0277785
1136.370 .0278792
1136.981 .0279950
1137.592 .0281204
1138.204 .0282564
1138.817 .0284061
1139.431 .0285700
1140.045 .0287464
1140.660 .0289315
1141.275 .0291293
1141.891 .0293505
1142.508 .0295806
1143.126 .0297787
1143.744 .0299161
1144.363 .0302482
1144.983 .0309272
