Measurement Sequence started on: 15-12-46-377
Integration time: 28
Scans to Average: 2 
>>>>>Begin Spectral Data<<<<<
432.689 .0000100
433.621 .0000100
434.552 .0000100
435.482 .0000100
436.410 .0000100
437.337 .0000100
438.262 .0261329
439.187 .0554917
440.110 .0920003
441.031 .1331815
441.952 .1732484
442.871 .2048935
443.789 .2223430
444.705 .2236393
445.621 .2111615
446.535 .1901194
447.447 .1662142
448.359 .1295337
449.269 .1112454
450.178 .0996891
451.086 .0915355
451.993 .0852552
452.898 .0802689
453.803 .0762250
454.706 .0728596
455.608 .0699749
456.508 .0674787
457.408 .0652983
458.306 .0633652
459.204 .0616279
460.100 .0600479
460.995 .0586231
461.888 .0573482
462.781 .0562061
463.673 .0551812
464.563 .0542648
465.452 .0534333
466.340 .0526602
467.228 .0519536
468.114 .0513059
468.999 .0507111
469.882 .0501662
470.765 .0496787
471.647 .0492479
472.528 .0488670
473.407 .0485374
474.286 .0482576
475.163 .0480141
476.040 .0478013
476.915 .0476094
477.790 .0474313
478.663 .0472722
479.535 .0471400
480.407 .0470308
481.277 .0469432
482.147 .0468799
483.015 .0468330
483.883 .0468019
484.749 .0467806
485.615 .0467659
486.479 .0467551
487.343 .0467543
488.206 .0467532
489.067 .0467465
489.928 .0467472
490.788 .0467582
491.647 .0467762
492.505 .0468096
493.362 .0468575
494.218 .0469188
495.073 .0469980
495.928 .0471046
496.781 .0472295
497.634 .0473858
498.486 .0475715
499.337 .0477854
500.187 .0480249
501.036 .0482936
501.884 .0485922
502.731 .0489305
503.578 .0493146
504.424 .0497385
505.268 .0501985
506.113 .0507102
506.956 .0512670
507.798 .0518799
508.640 .0525507
509.480 .0532863
510.320 .0540969
511.160 .0550000
511.998 .0559877
512.836 .0570644
513.672 .0582507
514.508 .0595545
515.344 .0609713
516.178 .0625208
517.012 .0642165
517.845 .0661053
518.677 .0682207
519.508 .0705763
520.339 .0731965
521.169 .0761678
521.998 .0795010
522.826 .0832202
523.654 .0873981
524.481 .0920328
525.307 .0971491
526.133 .1027893
526.958 .1089004
527.782 .1153824
528.605 .1221255
529.428 .1290451
530.250 .1356072
531.072 .1415982
531.892 .1466336
532.712 .1504202
533.532 .1528351
534.350 .1536454
535.168 .1527464
535.986 .1502560
536.802 .1463418
537.618 .1412111
538.434 .1350620
539.249 .1284014
540.063 .1213849
540.876 .1143522
541.689 .1075273
542.501 .1010951
543.313 .0952423
544.124 .0900111
544.934 .0853454
545.744 .0811816
546.553 .0774484
547.361 .0741040
548.169 .0711191
548.976 .0684367
549.783 .0660123
550.589 .0638203
551.395 .0617984
552.200 .0599611
553.004 .0582863
553.808 .0567502
554.611 .0553605
555.414 .0541147
556.216 .0529872
557.018 .0519666
557.819 .0510564
558.619 .0502085
559.419 .0494044
560.218 .0486574
561.017 .0479409
561.815 .0472481
562.613 .0465872
563.410 .0459570
564.207 .0453537
565.003 .0447900
565.799 .0442451
566.594 .0437110
567.388 .0431958
568.182 .0426905
568.976 .0421845
569.769 .0416793
570.562 .0411812
571.354 .0406845
572.145 .0401935
572.936 .0397115
573.727 .0392381
574.517 .0387767
575.307 .0383297
576.096 .0378991
576.885 .0374831
577.673 .0370907
578.461 .0367225
579.248 .0363762
580.035 .0360530
580.821 .0357534
581.607 .0354731
582.392 .0352119
583.177 .0349715
583.962 .0347470
584.746 .0345410
585.529 .0343572
586.313 .0341914
587.095 .0340450
587.878 .0339171
588.660 .0338069
589.441 .0337100
590.222 .0336266
591.003 .0335527
591.783 .0334857
592.563 .0334263
593.342 .0333737
594.121 .0333241
594.899 .0332793
595.678 .0332372
596.455 .0331976
597.233 .0331584
598.009 .0331180
598.786 .0330742
599.562 .0330289
600.338 .0329803
601.113 .0329299
601.888 .0328780
602.663 .0328264
603.437 .0327750
604.211 .0327239
604.984 .0326733
605.757 .0326230
606.530 .0325712
607.302 .0325188
608.074 .0324646
608.845 .0324106
609.616 .0323564
610.387 .0323039
611.158 .0322546
611.928 .0322096
612.697 .0321688
613.467 .0321323
614.236 .0320991
615.004 .0320684
615.773 .0320397
616.541 .0320126
617.308 .0319869
618.076 .0319627
618.843 .0319399
619.609 .0319192
620.375 .0319005
621.141 .0318836
621.907 .0318675
622.672 .0318522
623.437 .0318368
624.202 .0318193
624.966 .0318007
625.730 .0317808
626.493 .0317596
627.257 .0317365
628.020 .0317126
628.782 .0316877
629.545 .0316629
630.307 .0316376
631.068 .0316124
631.830 .0315878
632.591 .0315643
633.352 .0315408
634.112 .0315182
634.872 .0314967
635.632 .0314764
636.392 .0314569
637.151 .0314390
637.910 .0314215
638.668 .0314046
639.427 .0313872
640.185 .0313697
640.943 .0313515
641.700 .0313329
642.457 .0313128
643.214 .0312927
643.971 .0312725
644.727 .0312523
645.483 .0312331
646.239 .0312152
646.994 .0311980
647.750 .0311823
648.505 .0311668
649.259 .0311517
650.014 .0311358
650.768 .0311190
651.521 .0311005
652.275 .0310811
653.028 .0310614
653.781 .0310412
654.534 .0310205
655.286 .0310001
656.039 .0309787
656.791 .0309557
657.542 .0309302
658.294 .0309026
659.045 .0308729
659.796 .0308411
660.546 .0308075
661.297 .0307731
662.047 .0307392
662.796 .0307068
663.546 .0306752
664.295 .0306448
665.044 .0306162
665.793 .0305882
666.542 .0305609
667.290 .0305342
668.038 .0305076
668.786 .0304809
669.533 .0304541
670.281 .0304268
671.028 .0303989
671.774 .0303708
672.521 .0303431
673.267 .0303161
674.013 .0302900
674.759 .0302639
675.505 .0302387
676.250 .0302136
676.995 .0301888
677.740 .0301634
678.484 .0301380
679.229 .0301125
679.973 .0300871
680.717 .0300623
681.460 .0300384
682.204 .0300164
682.947 .0299969
683.690 .0299791
684.433 .0299626
685.175 .0299468
685.917 .0299309
686.659 .0299144
687.401 .0298974
688.142 .0298792
688.884 .0298605
689.625 .0298413
690.365 .0298218
691.106 .0298020
691.846 .0297828
692.586 .0297642
693.326 .0297457
694.066 .0297283
694.805 .0297111
695.545 .0296942
696.284 .0296776
697.022 .0296615
697.761 .0296463
698.499 .0296316
699.237 .0296174
699.975 .0296035
700.713 .0295907
701.450 .0295793
702.187 .0295689
702.924 .0295603
703.661 .0295532
704.397 .0295468
705.133 .0295409
705.869 .0295347
706.605 .0295283
707.341 .0295215
708.076 .0295141
708.811 .0295060
709.546 .0294975
710.281 .0294888
711.015 .0294801
711.749 .0294714
712.483 .0294631
713.217 .0294541
713.950 .0294444
714.684 .0294341
715.417 .0294229
716.150 .0294117
716.882 .0294007
717.615 .0293895
718.347 .0293786
719.079 .0293674
719.811 .0293557
720.542 .0293432
721.273 .0293297
722.005 .0293146
722.735 .0292978
723.466 .0292800
724.196 .0292612
724.927 .0292419
725.656 .0292225
726.386 .0292033
727.116 .0291834
727.845 .0291627
728.574 .0291401
729.303 .0291159
730.031 .0290902
730.760 .0290634
731.488 .0290353
732.216 .0290072
732.944 .0289794
733.671 .0289528
734.398 .0289271
735.125 .0289025
735.852 .0288786
736.579 .0288550
737.305 .0288313
738.031 .0288081
738.757 .0287851
739.483 .0287627
740.208 .0287414
740.933 .0287210
741.658 .0287010
742.383 .0286813
743.108 .0286614
743.832 .0286412
744.556 .0286204
745.280 .0285989
746.004 .0285758
746.727 .0285521
747.450 .0285279
748.173 .0285030
748.896 .0284780
749.618 .0284528
750.340 .0284269
751.062 .0284007
751.784 .0283744
752.506 .0283476
753.227 .0283215
753.948 .0282962
754.669 .0282717
755.389 .0282487
756.110 .0282274
756.830 .0282073
757.550 .0281884
758.269 .0281712
758.989 .0281545
759.708 .0281379
760.427 .0281210
761.146 .0281035
761.864 .0280855
762.582 .0280671
763.300 .0280481
764.018 .0280290
764.736 .0280105
765.453 .0279924
766.170 .0279743
766.887 .0279567
767.603 .0279398
768.320 .0279231
769.036 .0279069
769.751 .0278912
770.467 .0278761
771.182 .0278626
771.897 .0278509
772.612 .0278411
773.327 .0278338
774.041 .0278288
774.755 .0278258
775.469 .0278244
776.183 .0278245
776.896 .0278251
777.609 .0278262
778.322 .0278279
779.035 .0278299
779.747 .0278318
780.459 .0278344
781.171 .0278377
781.882 .0278420
782.594 .0278472
783.305 .0278530
784.016 .0278594
784.726 .0278663
785.436 .0278730
786.147 .0278792
786.856 .0278846
787.566 .0278897
788.275 .0278943
788.984 .0278985
789.693 .0279022
790.401 .0279058
791.110 .0279093
791.818 .0279127
792.525 .0279158
793.233 .0279187
793.940 .0279207
794.647 .0279220
795.353 .0279222
796.060 .0279209
796.766 .0279186
797.472 .0279151
798.177 .0279107
798.883 .0279052
799.588 .0278986
800.292 .0278908
800.997 .0278824
801.701 .0278735
802.405 .0278634
803.109 .0278525
803.812 .0278404
804.515 .0278264
805.218 .0278104
805.921 .0277924
806.623 .0277723
807.325 .0277506
808.027 .0277276
808.728 .0277036
809.429 .0276795
810.130 .0276552
810.831 .0276312
811.531 .0276075
812.231 .0275835
812.931 .0275588
813.630 .0275325
814.330 .0275051
815.029 .0274764
815.727 .0274467
816.426 .0274167
817.124 .0273869
817.821 .0273581
818.519 .0273302
819.216 .0273035
819.913 .0272780
820.609 .0272538
821.306 .0272300
822.002 .0272069
822.697 .0271844
823.393 .0271623
824.088 .0271409
824.783 .0271199
825.477 .0271001
826.171 .0270808
826.865 .0270621
827.559 .0270442
828.252 .0270265
828.945 .0270092
829.638 .0269917
830.330 .0269748
831.023 .0269582
831.714 .0269423
832.406 .0269265
833.097 .0269106
833.788 .0268946
834.479 .0268780
835.169 .0268605
835.859 .0268423
836.548 .0268236
837.238 .0268046
837.927 .0267850
838.615 .0267661
839.304 .0267479
839.992 .0267308
840.680 .0267140
841.367 .0266979
842.054 .0266817
842.741 .0266653
843.428 .0266485
844.114 .0266313
844.800 .0266134
845.485 .0265957
846.170 .0265774
846.855 .0265594
847.540 .0265418
848.224 .0265251
848.908 .0265088
849.592 .0264936
850.275 .0264786
850.958 .0264632
851.641 .0264476
852.323 .0264314
853.005 .0264143
853.687 .0263964
854.368 .0263778
855.049 .0263590
855.730 .0263403
856.410 .0263227
857.090 .0263059
857.769 .0262905
858.449 .0262762
859.128 .0262622
859.806 .0262484
860.485 .0262343
861.163 .0262197
861.840 .0262049
862.518 .0261904
863.195 .0261763
863.871 .0261633
864.548 .0261519
865.224 .0261425
865.899 .0261350
866.574 .0261291
867.249 .0261243
867.924 .0261202
868.598 .0261168
869.272 .0261140
869.946 .0261125
870.619 .0261122
871.292 .0261133
871.964 .0261161
872.636 .0261203
873.308 .0261259
873.979 .0261324
874.651 .0261395
875.321 .0261469
875.992 .0261545
876.662 .0261615
877.331 .0261683
878.001 .0261750
878.670 .0261812
879.338 .0261872
880.007 .0261927
880.675 .0261980
881.342 .0262027
882.009 .0262073
882.676 .0262117
883.343 .0262158
884.009 .0262203
884.675 .0262249
885.340 .0262299
886.005 .0262354
886.670 .0262416
887.334 .0262488
887.998 .0262569
888.662 .0262660
889.325 .0262760
889.988 .0262869
890.650 .0262986
891.312 .0263111
891.974 .0263242
892.636 .0263377
893.297 .0263517
893.957 .0263658
894.618 .0263798
895.278 .0263938
895.937 .0264075
896.596 .0264206
897.255 .0264327
897.914 .0264439
898.572 .0264533
899.230 .0264612
899.887 .0264674
900.544 .0264713
901.201 .0264735
901.857 .0264736
902.513 .0264714
903.168 .0264667
903.823 .0264597
904.478 .0264507
905.132 .0264395
905.786 .0264270
906.440 .0264131
907.093 .0263983
907.746 .0263828
908.399 .0263667
909.051 .0263501
909.703 .0263327
910.354 .0263142
911.005 .0262946
911.656 .0262738
912.306 .0262515
912.956 .0262279
913.605 .0262030
914.254 .0261771
914.903 .0261505
915.551 .0261235
916.199 .0260966
916.847 .0260700
917.494 .0260440
918.141 .0260182
918.788 .0259927
919.434 .0259676
920.079 .0259416
920.725 .0259157
921.370 .0258893
922.014 .0258622
922.658 .0258353
923.302 .0258087
923.946 .0257826
924.589 .0257567
925.231 .0257311
925.873 .0257053
926.515 .0256787
927.157 .0256513
927.798 .0256223
928.439 .0255920
929.079 .0255603
929.719 .0255269
930.359 .0254925
930.998 .0254575
931.637 .0254220
932.275 .0253862
932.913 .0253504
933.551 .0253145
934.188 .0252787
934.825 .0252429
935.462 .0252081
936.098 .0251742
936.733 .0251412
937.369 .0251097
938.004 .0250791
938.638 .0250494
939.273 .0250206
939.907 .0249924
940.540 .0249651
941.173 .0249386
941.806 .0249138
942.438 .0248901
943.070 .0248685
943.702 .0248484
944.333 .0248293
944.964 .0248106
945.594 .0247923
946.224 .0247738
946.854 .0247550
947.483 .0247360
948.112 .0247175
948.741 .0246998
949.369 .0246834
949.996 .0246683
950.624 .0246544
951.251 .0246414
951.878 .0246287
952.504 .0246152
953.130 .0246007
953.755 .0245850
954.380 .0245686
955.005 .0245517
955.629 .0245348
956.253 .0245180
956.877 .0245019
957.500 .0244868
958.123 .0244725
958.746 .0244582
959.368 .0244437
959.990 .0244285
960.611 .0244125
961.232 .0243963
961.853 .0243800
962.473 .0243642
963.093 .0243494
963.712 .0243350
964.331 .0243209
964.950 .0243069
965.569 .0242935
966.187 .0242807
966.804 .0242681
967.422 .0242567
968.039 .0242458
968.655 .0242363
969.272 .0242275
969.887 .0242196
970.503 .0242121
971.118 .0242049
971.733 .0241973
972.347 .0241893
972.961 .0241813
973.575 .0241734
974.188 .0241656
974.801 .0241584
975.414 .0241514
976.026 .0241446
976.638 .0241376
977.250 .0241309
977.861 .0241239
978.472 .0241174
979.083 .0241108
979.693 .0241050
980.303 .0240997
980.912 .0240951
981.521 .0240908
982.130 .0240877
982.738 .0240853
983.346 .0240838
983.954 .0240831
984.562 .0240841
985.169 .0240861
985.775 .0240890
986.382 .0240923
986.988 .0240958
987.594 .0240988
988.199 .0241013
988.804 .0241026
989.409 .0241040
990.013 .0241050
990.617 .0241065
991.221 .0241088
991.824 .0241125
992.427 .0241172
993.030 .0241224
993.632 .0241282
994.234 .0241345
994.836 .0241409
995.438 .0241476
996.039 .0241550
996.640 .0241635
997.240 .0241733
997.840 .0241847
998.440 .0241973
999.040 .0242114
999.639 .0242268
1000.238 .0242422
1000.836 .0242577
1001.435 .0242729
1002.033 .0242874
1002.630 .0243008
1003.228 .0243142
1003.825 .0243272
1004.422 .0243400
1005.018 .0243537
1005.614 .0243682
1006.210 .0243837
1006.806 .0244007
1007.401 .0244185
1007.996 .0244373
1008.591 .0244571
1009.186 .0244771
1009.780 .0244966
1010.374 .0245163
1010.967 .0245359
1011.561 .0245552
1012.154 .0245743
1012.746 .0245938
1013.339 .0246135
1013.931 .0246336
1014.523 .0246540
1015.115 .0246738
1015.706 .0246931
1016.298 .0247114
1016.888 .0247278
1017.479 .0247431
1018.069 .0247571
1018.660 .0247698
1019.250 .0247823
1019.839 .0247949
1020.429 .0248078
1021.018 .0248205
1021.607 .0248337
1022.195 .0248461
1022.784 .0248577
1023.372 .0248680
1023.960 .0248772
1024.547 .0248860
1025.135 .0248953
1025.722 .0249047
1026.309 .0249154
1026.896 .0249284
1027.483 .0249428
1028.069 .0249580
1028.655 .0249745
1029.241 .0249905
1029.827 .0250061
1030.412 .0250205
1030.997 .0250340
1031.582 .0250461
1032.167 .0250575
1032.752 .0250687
1033.336 .0250796
1033.921 .0250909
1034.505 .0251021
1035.089 .0251128
1035.672 .0251238
1036.256 .0251340
1036.839 .0251426
1037.422 .0251498
1038.005 .0251563
1038.588 .0251613
1039.171 .0251650
1039.753 .0251681
1040.335 .0251720
1040.918 .0251763
1041.500 .0251812
1042.081 .0251870
1042.663 .0251933
1043.244 .0252001
1043.826 .0252059
1044.407 .0252101
1044.988 .0252125
1045.569 .0252120
1046.150 .0252092
1046.730 .0252044
1047.311 .0251986
1047.891 .0251923
1048.471 .0251856
1049.052 .0251789
1049.632 .0251717
1050.211 .0251629
1050.791 .0251529
1051.371 .0251419
1051.950 .0251309
1052.530 .0251193
1053.109 .0251076
1053.688 .0250963
1054.268 .0250860
1054.847 .0250752
1055.426 .0250642
1056.005 .0250525
1056.583 .0250400
1057.162 .0250261
1057.741 .0250113
1058.319 .0249969
1058.898 .0249831
1059.476 .0249695
1060.055 .0249571
1060.633 .0249447
1061.211 .0249328
1061.790 .0249196
1062.368 .0249065
1062.946 .0248937
1063.524 .0248813
1064.102 .0248695
1064.680 .0248589
1065.258 .0248495
1065.836 .0248406
1066.414 .0248311
1066.992 .0248208
1067.570 .0248085
1068.148 .0247947
1068.726 .0247784
1069.304 .0247616
1069.882 .0247443
1070.460 .0247266
1071.038 .0247083
1071.616 .0246906
1072.194 .0246724
1072.772 .0246539
1073.350 .0246359
1073.928 .0246193
1074.506 .0246044
1075.084 .0245918
1075.662 .0245811
1076.240 .0245734
1076.819 .0245686
1077.397 .0245653
1077.976 .0245620
1078.554 .0245602
1079.133 .0245589
1079.711 .0245585
1080.290 .0245587
1080.869 .0245588
1081.448 .0245587
1082.027 .0245562
1082.606 .0245503
1083.185 .0245404
1083.764 .0245271
1084.343 .0245103
1084.923 .0244912
1085.502 .0244720
1086.082 .0244531
1086.662 .0244348
1087.242 .0244168
1087.822 .0243987
1088.402 .0243797
1088.983 .0243597
1089.563 .0243378
1090.144 .0243158
1090.725 .0242970
1091.306 .0242804
1091.887 .0242687
1092.469 .0242615
1093.050 .0242578
1093.632 .0242546
1094.214 .0242507
1094.796 .0242456
1095.379 .0242379
1095.961 .0242286
1096.544 .0242215
1097.127 .0242174
1097.710 .0242191
1098.294 .0242263
1098.877 .0242393
1099.461 .0242560
1100.046 .0242743
1100.630 .0242914
1101.215 .0243078
1101.800 .0243219
1102.385 .0243357
1102.970 .0243480
1103.556 .0243608
1104.142 .0243753
1104.728 .0243895
1105.315 .0244027
1105.902 .0244162
1106.489 .0244246
1107.077 .0244290
1107.664 .0244273
1108.253 .0244218
1108.841 .0244125
1109.430 .0244027
1110.019 .0243947
1110.609 .0243882
1111.198 .0243859
1111.789 .0243896
1112.379 .0243972
1112.970 .0244140
1113.561 .0244383
1114.153 .0244689
1114.745 .0245057
1115.338 .0245480
1115.931 .0245913
1116.524 .0246368
1117.117 .0246848
1117.712 .0247350
1118.306 .0247864
1118.901 .0248405
1119.496 .0248956
1120.092 .0249516
1120.689 .0250099
1121.285 .0250629
1121.882 .0251104
1122.480 .0251543
1123.078 .0251907
1123.677 .0252231
1124.276 .0252540
1124.875 .0252905
1125.476 .0253345
1126.076 .0253881
1126.677 .0254518
1127.279 .0255233
1127.881 .0256040
1128.484 .0256878
1129.087 .0257717
1129.691 .0258574
1130.295 .0259416
1130.900 .0260259
1131.505 .0261136
1132.111 .0262054
1132.718 .0263013
1133.325 .0264031
1133.933 .0265072
1134.541 .0266161
1135.150 .0267248
1135.760 .0268319
1136.370 .0269389
1136.981 .0270480
1137.592 .0271573
1138.204 .0272654
1138.817 .0273810
1139.431 .0275038
1140.045 .0276337
1140.660 .0277742
1141.275 .0279270
1141.891 .0281110
1142.508 .0282238
1143.126 .0284475
1143.744 .0286118
1144.363 .0289363
1144.983 .0295642
