Measurement Sequence started on: 15-12-46-377
Integration time: 28
Scans to Average: 2 
>>>>>Begin Spectral Data<<<<<
432.689 .0000100
433.621 .0000100
434.552 .0000100
435.482 .0000100
436.410 .0000100
437.337 .0000100
438.262 .0275123
439.187 .0581450
440.110 .0962152
441.031 .1391233
441.952 .1806928
442.871 .2132840
443.789 .2309662
444.705 .2317201
445.621 .2181050
446.535 .1956239
447.447 .1702859
448.359 .1316055
449.269 .1125322
450.178 .1004530
451.086 .0918927
451.993 .0853568
452.898 .0801796
453.803 .0759466
454.706 .0724546
455.608 .0694890
456.508 .0669591
457.408 .0647709
458.306 .0628750
459.204 .0611798
460.100 .0596587
460.995 .0582963
461.888 .0570618
462.781 .0559408
463.673 .0549144
464.563 .0539757
465.452 .0531136
466.340 .0522944
467.228 .0515192
468.114 .0507731
468.999 .0500590
469.882 .0493801
470.765 .0487564
471.647 .0481936
472.528 .0477023
473.407 .0472754
474.286 .0469198
475.163 .0466180
476.040 .0463611
476.915 .0461354
477.790 .0459310
478.663 .0457453
479.535 .0455746
480.407 .0454227
481.277 .0453014
482.147 .0452108
483.015 .0451593
483.883 .0451345
484.749 .0451364
485.615 .0451498
486.479 .0451676
487.343 .0451848
488.206 .0452042
489.067 .0452148
489.928 .0452209
490.788 .0452288
491.647 .0452441
492.505 .0452643
493.362 .0452954
494.218 .0453366
495.073 .0453930
495.928 .0454716
496.781 .0455674
497.634 .0456870
498.486 .0458495
499.337 .0460413
500.187 .0462678
501.036 .0465293
501.884 .0468274
502.731 .0471573
503.578 .0475165
504.424 .0479086
505.268 .0483159
506.113 .0487549
506.956 .0492308
507.798 .0497522
508.640 .0503330
509.480 .0509687
510.320 .0516840
511.160 .0524907
511.998 .0533822
512.836 .0543619
513.672 .0554419
514.508 .0566287
515.344 .0579271
516.178 .0593692
517.012 .0609753
517.845 .0628024
518.677 .0648820
519.508 .0672417
520.339 .0699585
521.169 .0730897
521.998 .0766716
522.826 .0807819
523.654 .0854572
524.481 .0906821
525.307 .0965057
526.133 .1028882
526.958 .1097253
527.782 .1169310
528.605 .1243164
529.428 .1317132
530.250 .1385954
531.072 .1448259
531.892 .1499924
532.712 .1539805
533.532 .1566143
534.350 .1576462
535.168 .1570303
535.986 .1547963
536.802 .1510060
537.618 .1458586
538.434 .1395115
539.249 .1324778
540.063 .1249231
540.876 .1173063
541.689 .1098544
542.501 .1029002
543.313 .0966349
544.124 .0910969
544.934 .0862038
545.744 .0818771
546.553 .0779917
547.361 .0745351
548.169 .0714348
548.976 .0686076
549.783 .0660476
550.589 .0637234
551.395 .0615940
552.200 .0596783
553.004 .0579474
553.808 .0564012
554.611 .0550265
555.414 .0538373
556.216 .0527803
557.018 .0518426
557.819 .0510086
558.619 .0502344
559.419 .0495103
560.218 .0488191
561.017 .0481435
561.815 .0474723
562.613 .0468144
563.410 .0461594
564.207 .0455097
565.003 .0448816
565.799 .0442662
566.594 .0436628
567.388 .0430750
568.182 .0424949
568.976 .0419126
569.769 .0413359
570.562 .0407674
571.354 .0402004
572.145 .0396462
572.936 .0391077
573.727 .0385841
574.517 .0380834
575.307 .0376051
576.096 .0371508
576.885 .0367228
577.673 .0363254
578.461 .0359496
579.248 .0356001
580.035 .0352737
580.821 .0349707
581.607 .0346836
582.392 .0344114
583.177 .0341565
583.962 .0339205
584.746 .0337055
585.529 .0335104
586.313 .0333370
587.095 .0331852
587.878 .0330523
588.660 .0329379
589.441 .0328368
590.222 .0327465
591.003 .0326647
591.783 .0325887
592.563 .0325177
593.342 .0324519
594.121 .0323900
594.899 .0323335
595.678 .0322832
596.455 .0322380
597.233 .0321961
598.009 .0321555
598.786 .0321159
599.562 .0320752
600.338 .0320325
601.113 .0319883
601.888 .0319421
602.663 .0318957
603.437 .0318497
604.211 .0318048
604.984 .0317611
605.757 .0317184
606.530 .0316765
607.302 .0316345
608.074 .0315920
608.845 .0315493
609.616 .0315059
610.387 .0314638
611.158 .0314243
611.928 .0313882
612.697 .0313568
613.467 .0313301
614.236 .0313073
615.004 .0312880
615.773 .0312712
616.541 .0312562
617.308 .0312418
618.076 .0312278
618.843 .0312146
619.609 .0312016
620.375 .0311896
621.141 .0311786
621.907 .0311683
622.672 .0311589
623.437 .0311491
624.202 .0311384
624.966 .0311261
625.730 .0311114
626.493 .0310945
627.257 .0310752
628.020 .0310535
628.782 .0310285
629.545 .0310002
630.307 .0309698
631.068 .0309373
631.830 .0309029
632.591 .0308674
633.352 .0308317
634.112 .0307967
634.872 .0307622
635.632 .0307280
636.392 .0306941
637.151 .0306605
637.910 .0306258
638.668 .0305892
639.427 .0305517
640.185 .0305138
640.943 .0304762
641.700 .0304407
642.457 .0304084
643.214 .0303798
643.971 .0303542
644.727 .0303323
645.483 .0303129
646.239 .0302947
646.994 .0302770
647.750 .0302591
648.505 .0302420
649.259 .0302257
650.014 .0302108
650.768 .0301977
651.521 .0301872
652.275 .0301781
653.028 .0301696
653.781 .0301608
654.534 .0301512
655.286 .0301391
656.039 .0301238
656.791 .0301057
657.542 .0300845
658.294 .0300614
659.045 .0300377
659.796 .0300135
660.546 .0299903
661.297 .0299675
662.047 .0299452
662.796 .0299223
663.546 .0298994
664.295 .0298763
665.044 .0298525
665.793 .0298286
666.542 .0298054
667.290 .0297827
668.038 .0297617
668.786 .0297421
669.533 .0297237
670.281 .0297056
671.028 .0296878
671.774 .0296691
672.521 .0296499
673.267 .0296301
674.013 .0296101
674.759 .0295899
675.505 .0295704
676.250 .0295513
676.995 .0295328
677.740 .0295154
678.484 .0294986
679.229 .0294821
679.973 .0294659
680.717 .0294495
681.460 .0294333
682.204 .0294175
682.947 .0294023
683.690 .0293879
684.433 .0293744
685.175 .0293617
685.917 .0293491
686.659 .0293371
687.401 .0293254
688.142 .0293133
688.884 .0293009
689.625 .0292881
690.365 .0292743
691.106 .0292601
691.846 .0292448
692.586 .0292293
693.326 .0292133
694.066 .0291970
694.805 .0291803
695.545 .0291637
696.284 .0291468
697.022 .0291298
697.761 .0291127
698.499 .0290956
699.237 .0290776
699.975 .0290591
700.713 .0290403
701.450 .0290213
702.187 .0290023
702.924 .0289831
703.661 .0289641
704.397 .0289455
705.133 .0289268
705.869 .0289080
706.605 .0288896
707.341 .0288714
708.076 .0288532
708.811 .0288352
709.546 .0288172
710.281 .0287989
711.015 .0287805
711.749 .0287615
712.483 .0287417
713.217 .0287210
713.950 .0286996
714.684 .0286771
715.417 .0286546
716.150 .0286317
716.882 .0286082
717.615 .0285848
718.347 .0285612
719.079 .0285367
719.811 .0285114
720.542 .0284854
721.273 .0284587
722.005 .0284311
722.735 .0284034
723.466 .0283753
724.196 .0283475
724.927 .0283201
725.656 .0282930
726.386 .0282662
727.116 .0282400
727.845 .0282138
728.574 .0281878
729.303 .0281630
730.031 .0281389
730.760 .0281164
731.488 .0280957
732.216 .0280776
732.944 .0280615
733.671 .0280471
734.398 .0280346
735.125 .0280229
735.852 .0280124
736.579 .0280024
737.305 .0279932
738.031 .0279853
738.757 .0279786
739.483 .0279732
740.208 .0279690
740.933 .0279663
741.658 .0279644
742.383 .0279626
743.108 .0279612
743.832 .0279591
744.556 .0279564
745.280 .0279530
746.004 .0279494
746.727 .0279451
747.450 .0279409
748.173 .0279361
748.896 .0279314
749.618 .0279267
750.340 .0279216
751.062 .0279167
751.784 .0279120
752.506 .0279075
753.227 .0279028
753.948 .0278978
754.669 .0278930
755.389 .0278878
756.110 .0278826
756.830 .0278769
757.550 .0278711
758.269 .0278651
758.989 .0278589
759.708 .0278527
760.427 .0278463
761.146 .0278397
761.864 .0278327
762.582 .0278251
763.300 .0278169
764.018 .0278078
764.736 .0277978
765.453 .0277875
766.170 .0277773
766.887 .0277671
767.603 .0277569
768.320 .0277472
769.036 .0277379
769.751 .0277289
770.467 .0277201
771.182 .0277118
771.897 .0277040
772.612 .0276968
773.327 .0276900
774.041 .0276837
774.755 .0276779
775.469 .0276723
776.183 .0276670
776.896 .0276614
777.609 .0276555
778.322 .0276489
779.035 .0276414
779.747 .0276334
780.459 .0276252
781.171 .0276167
781.882 .0276081
782.594 .0275998
783.305 .0275914
784.016 .0275828
784.726 .0275741
785.436 .0275652
786.147 .0275558
786.856 .0275461
787.566 .0275357
788.275 .0275247
788.984 .0275132
789.693 .0275010
790.401 .0274881
791.110 .0274742
791.818 .0274590
792.525 .0274427
793.233 .0274252
793.940 .0274065
794.647 .0273868
795.353 .0273660
796.060 .0273444
796.766 .0273219
797.472 .0272987
798.177 .0272750
798.883 .0272510
799.588 .0272266
800.292 .0272023
800.997 .0271778
801.701 .0271532
802.405 .0271285
803.109 .0271037
803.812 .0270790
804.515 .0270540
805.218 .0270286
805.921 .0270029
806.623 .0269771
807.325 .0269514
808.027 .0269257
808.728 .0269004
809.429 .0268756
810.130 .0268509
810.831 .0268266
811.531 .0268024
812.231 .0267782
812.931 .0267541
813.630 .0267302
814.330 .0267065
815.029 .0266833
815.727 .0266608
816.426 .0266391
817.124 .0266180
817.821 .0265972
818.519 .0265767
819.216 .0265566
819.913 .0265370
820.609 .0265174
821.306 .0264983
822.002 .0264801
822.697 .0264629
823.393 .0264470
824.088 .0264324
824.783 .0264194
825.477 .0264079
826.171 .0263976
826.865 .0263887
827.559 .0263812
828.252 .0263749
828.945 .0263698
829.638 .0263658
830.330 .0263632
831.023 .0263617
831.714 .0263613
832.406 .0263620
833.097 .0263634
833.788 .0263655
834.479 .0263678
835.169 .0263704
835.859 .0263734
836.548 .0263770
837.238 .0263810
837.927 .0263858
838.615 .0263914
839.304 .0263973
839.992 .0264040
840.680 .0264108
841.367 .0264175
842.054 .0264245
842.741 .0264314
843.428 .0264389
844.114 .0264467
844.800 .0264547
845.485 .0264623
846.170 .0264697
846.855 .0264767
847.540 .0264831
848.224 .0264888
848.908 .0264941
849.592 .0264987
850.275 .0265027
850.958 .0265062
851.641 .0265090
852.323 .0265113
853.005 .0265129
853.687 .0265130
854.368 .0265114
855.049 .0265083
855.730 .0265041
856.410 .0264986
857.090 .0264927
857.769 .0264864
858.449 .0264795
859.128 .0264724
859.806 .0264652
860.485 .0264578
861.163 .0264507
861.840 .0264438
862.518 .0264368
863.195 .0264302
863.871 .0264239
864.548 .0264182
865.224 .0264132
865.899 .0264094
866.574 .0264065
867.249 .0264040
867.924 .0264024
868.598 .0264008
869.272 .0263992
869.946 .0263975
870.619 .0263954
871.292 .0263927
871.964 .0263894
872.636 .0263850
873.308 .0263796
873.979 .0263735
874.651 .0263667
875.321 .0263590
875.992 .0263511
876.662 .0263426
877.331 .0263338
878.001 .0263243
878.670 .0263146
879.338 .0263048
880.007 .0262952
880.675 .0262855
881.342 .0262760
882.009 .0262665
882.676 .0262572
883.343 .0262476
884.009 .0262382
884.675 .0262290
885.340 .0262199
886.005 .0262110
886.670 .0262028
887.334 .0261950
887.998 .0261872
888.662 .0261794
889.325 .0261713
889.988 .0261621
890.650 .0261517
891.312 .0261402
891.974 .0261279
892.636 .0261153
893.297 .0261029
893.957 .0260906
894.618 .0260789
895.278 .0260678
895.937 .0260564
896.596 .0260447
897.255 .0260325
897.914 .0260193
898.572 .0260051
899.230 .0259903
899.887 .0259747
900.544 .0259583
901.201 .0259420
901.857 .0259252
902.513 .0259076
903.168 .0258892
903.823 .0258692
904.478 .0258477
905.132 .0258238
905.786 .0257978
906.440 .0257698
907.093 .0257401
907.746 .0257088
908.399 .0256761
909.051 .0256425
909.703 .0256080
910.354 .0255728
911.005 .0255372
911.656 .0255014
912.306 .0254651
912.956 .0254291
913.605 .0253931
914.254 .0253574
914.903 .0253223
915.551 .0252881
916.199 .0252553
916.847 .0252235
917.494 .0251929
918.141 .0251633
918.788 .0251347
919.434 .0251073
920.079 .0250800
920.725 .0250536
921.370 .0250276
922.014 .0250020
922.658 .0249766
923.302 .0249516
923.946 .0249269
924.589 .0249021
925.231 .0248768
925.873 .0248509
926.515 .0248242
927.157 .0247968
927.798 .0247691
928.439 .0247408
929.079 .0247123
929.719 .0246841
930.359 .0246558
930.998 .0246279
931.637 .0246006
932.275 .0245742
932.913 .0245484
933.551 .0245232
934.188 .0244988
934.825 .0244753
935.462 .0244533
936.098 .0244330
936.733 .0244144
937.369 .0243980
938.004 .0243838
938.638 .0243715
939.273 .0243613
939.907 .0243536
940.540 .0243474
941.173 .0243427
941.806 .0243394
942.438 .0243374
943.070 .0243361
943.702 .0243362
944.333 .0243370
944.964 .0243389
945.594 .0243415
946.224 .0243449
946.854 .0243491
947.483 .0243542
948.112 .0243597
948.741 .0243652
949.369 .0243708
949.996 .0243768
950.624 .0243826
951.251 .0243886
951.878 .0243953
952.504 .0244023
953.130 .0244093
953.755 .0244164
954.380 .0244234
955.005 .0244304
955.629 .0244372
956.253 .0244435
956.877 .0244496
957.500 .0244560
958.123 .0244629
958.746 .0244700
959.368 .0244777
959.990 .0244857
960.611 .0244934
961.232 .0245009
961.853 .0245081
962.473 .0245151
963.093 .0245223
963.712 .0245298
964.331 .0245375
964.950 .0245457
965.569 .0245550
966.187 .0245650
966.804 .0245759
967.422 .0245876
968.039 .0245994
968.655 .0246113
969.272 .0246232
969.887 .0246346
970.503 .0246457
971.118 .0246569
971.733 .0246680
972.347 .0246790
972.961 .0246902
973.575 .0247017
974.188 .0247125
974.801 .0247233
975.414 .0247331
976.026 .0247417
976.638 .0247488
977.250 .0247544
977.861 .0247589
978.472 .0247631
979.083 .0247669
979.693 .0247710
980.303 .0247753
980.912 .0247802
981.521 .0247849
982.130 .0247892
982.738 .0247929
983.346 .0247957
983.954 .0247974
984.562 .0247982
985.169 .0247978
985.775 .0247973
986.382 .0247967
986.988 .0247965
987.594 .0247972
988.199 .0247980
988.804 .0247996
989.409 .0248019
990.013 .0248045
990.617 .0248074
991.221 .0248102
991.824 .0248134
992.427 .0248173
993.030 .0248211
993.632 .0248257
994.234 .0248310
994.836 .0248373
995.438 .0248446
996.039 .0248520
996.640 .0248591
997.240 .0248664
997.840 .0248729
998.440 .0248783
999.040 .0248819
999.639 .0248841
1000.238 .0248838
1000.836 .0248819
1001.435 .0248787
1002.033 .0248739
1002.630 .0248688
1003.228 .0248639
1003.825 .0248588
1004.422 .0248547
1005.018 .0248518
1005.614 .0248499
1006.210 .0248492
1006.806 .0248501
1007.401 .0248517
1007.996 .0248538
1008.591 .0248571
1009.186 .0248608
1009.780 .0248649
1010.374 .0248696
1010.967 .0248747
1011.561 .0248795
1012.154 .0248845
1012.746 .0248887
1013.339 .0248920
1013.931 .0248947
1014.523 .0248965
1015.115 .0248966
1015.706 .0248956
1016.298 .0248935
1016.888 .0248899
1017.479 .0248851
1018.069 .0248797
1018.660 .0248730
1019.250 .0248656
1019.839 .0248571
1020.429 .0248481
1021.018 .0248387
1021.607 .0248293
1022.195 .0248197
1022.784 .0248105
1023.372 .0248011
1023.960 .0247917
1024.547 .0247816
1025.135 .0247722
1025.722 .0247632
1026.309 .0247545
1026.896 .0247468
1027.483 .0247403
1028.069 .0247345
1028.655 .0247299
1029.241 .0247256
1029.827 .0247221
1030.412 .0247184
1030.997 .0247138
1031.582 .0247079
1032.167 .0247013
1032.752 .0246942
1033.336 .0246877
1033.921 .0246817
1034.505 .0246762
1035.089 .0246705
1035.672 .0246643
1036.256 .0246577
1036.839 .0246499
1037.422 .0246406
1038.005 .0246303
1038.588 .0246190
1039.171 .0246071
1039.753 .0245944
1040.335 .0245815
1040.918 .0245686
1041.500 .0245551
1042.081 .0245401
1042.663 .0245221
1043.244 .0245021
1043.826 .0244800
1044.407 .0244561
1044.988 .0244306
1045.569 .0244046
1046.150 .0243774
1046.730 .0243492
1047.311 .0243203
1047.891 .0242911
1048.471 .0242623
1049.052 .0242344
1049.632 .0242072
1050.211 .0241824
1050.791 .0241594
1051.371 .0241387
1051.950 .0241197
1052.530 .0241030
1053.109 .0240867
1053.688 .0240700
1054.268 .0240526
1054.847 .0240347
1055.426 .0240164
1056.005 .0239988
1056.583 .0239819
1057.162 .0239658
1057.741 .0239503
1058.319 .0239345
1058.898 .0239187
1059.476 .0239025
1060.055 .0238852
1060.633 .0238667
1061.211 .0238487
1061.790 .0238319
1062.368 .0238163
1062.946 .0238033
1063.524 .0237942
1064.102 .0237882
1064.680 .0237850
1065.258 .0237829
1065.836 .0237818
1066.414 .0237814
1066.992 .0237810
1067.570 .0237798
1068.148 .0237775
1068.726 .0237737
1069.304 .0237696
1069.882 .0237653
1070.460 .0237617
1071.038 .0237585
1071.616 .0237566
1072.194 .0237561
1072.772 .0237557
1073.350 .0237552
1073.928 .0237536
1074.506 .0237509
1075.084 .0237470
1075.662 .0237406
1076.240 .0237332
1076.819 .0237255
1077.397 .0237199
1077.976 .0237169
1078.554 .0237173
1079.133 .0237197
1079.711 .0237239
1080.290 .0237292
1080.869 .0237338
1081.448 .0237360
1082.027 .0237361
1082.606 .0237342
1083.185 .0237324
1083.764 .0237311
1084.343 .0237324
1084.923 .0237369
1085.502 .0237467
1086.082 .0237587
1086.662 .0237741
1087.242 .0237904
1087.822 .0238069
1088.402 .0238231
1088.983 .0238403
1089.563 .0238556
1090.144 .0238717
1090.725 .0238892
1091.306 .0239083
1091.887 .0239282
1092.469 .0239493
1093.050 .0239686
1093.632 .0239883
1094.214 .0240062
1094.796 .0240227
1095.379 .0240357
1095.961 .0240492
1096.544 .0240610
1097.127 .0240731
1097.710 .0240857
1098.294 .0240998
1098.877 .0241159
1099.461 .0241353
1100.046 .0241551
1100.630 .0241767
1101.215 .0241989
1101.800 .0242230
1102.385 .0242487
1102.970 .0242774
1103.556 .0243088
1104.142 .0243454
1104.728 .0243881
1105.315 .0244359
1105.902 .0244876
1106.489 .0245430
1107.077 .0245996
1107.664 .0246557
1108.253 .0247092
1108.841 .0247572
1109.430 .0248021
1110.019 .0248432
1110.609 .0248811
1111.198 .0249164
1111.789 .0249522
1112.379 .0249875
1112.970 .0250220
1113.561 .0250580
1114.153 .0250939
1114.745 .0251283
1115.338 .0251625
1115.931 .0251940
1116.524 .0252250
1117.117 .0252543
1117.712 .0252848
1118.306 .0253167
1118.901 .0253540
1119.496 .0253961
1120.092 .0254425
1120.689 .0254947
1121.285 .0255540
1121.882 .0256147
1122.480 .0256802
1123.078 .0257507
1123.677 .0258249
1124.276 .0259026
1124.875 .0259851
1125.476 .0260710
1126.076 .0261577
1126.677 .0262424
1127.279 .0263240
1127.881 .0264003
1128.484 .0264766
1129.087 .0265480
1129.691 .0266200
1130.295 .0266962
1130.900 .0267780
1131.505 .0268641
1132.111 .0269544
1132.718 .0270471
1133.325 .0271389
1133.933 .0272241
1134.541 .0273056
1135.150 .0273824
1135.760 .0274628
1136.370 .0275485
1136.981 .0276436
1137.592 .0277479
1138.204 .0278621
1138.817 .0279851
1139.431 .0281148
1140.045 .0282521
1140.660 .0283908
1141.275 .0285318
1141.891 .0286493
1142.508 .0287799
1143.126 .0290738
1143.744 .0290689
1144.363 .0292945
1144.983 .0287165
