Measurement Sequence started on: 15-12-46-377
Integration time: 28
Scans to Average: 2 
>>>>>Begin Spectral Data<<<<<
432.689 .0000100
433.621 .0000100
434.552 .0000100
435.482 .0000100
436.410 .0000100
437.337 .0000100
438.262 .0278572
439.187 .0589584
440.110 .0976617
441.031 .1412460
441.952 .1835039
442.871 .2166736
443.789 .2347186
444.705 .2355918
445.621 .2218648
446.535 .1991429
447.447 .1735159
448.359 .1344180
449.269 .1151628
450.178 .1030316
451.086 .0945693
451.993 .0881414
452.898 .0830819
453.803 .0789445
454.706 .0755286
455.608 .0726269
456.508 .0701330
457.408 .0679873
458.306 .0661054
459.204 .0644206
460.100 .0629092
460.995 .0615369
461.888 .0602906
462.781 .0591381
463.673 .0580684
464.563 .0570680
465.452 .0561412
466.340 .0552575
467.228 .0544233
468.114 .0536435
468.999 .0529289
469.882 .0522638
470.765 .0516633
471.647 .0511234
472.528 .0506457
473.407 .0502285
474.286 .0498561
475.163 .0495155
476.040 .0491992
476.915 .0488948
477.790 .0486038
478.663 .0483266
479.535 .0480743
480.407 .0478472
481.277 .0476548
482.147 .0475040
483.015 .0473893
483.883 .0473075
484.749 .0472622
485.615 .0472364
486.479 .0472292
487.343 .0472312
488.206 .0472338
489.067 .0472372
489.928 .0472470
490.788 .0472671
491.647 .0472988
492.505 .0473454
493.362 .0474142
494.218 .0475010
495.073 .0476159
495.928 .0477515
496.781 .0479044
497.634 .0480824
498.486 .0482831
499.337 .0484943
500.187 .0487295
501.036 .0489883
501.884 .0492761
502.731 .0495978
503.578 .0499614
504.424 .0503585
505.268 .0507921
506.113 .0512633
506.956 .0517751
507.798 .0523248
508.640 .0529234
509.480 .0535717
510.320 .0542950
511.160 .0550964
511.998 .0559696
512.836 .0569146
513.672 .0579625
514.508 .0591039
515.344 .0603473
516.178 .0617237
517.012 .0632771
517.845 .0650457
518.677 .0670810
519.508 .0694120
520.339 .0721093
521.169 .0752365
521.998 .0788227
522.826 .0829065
523.654 .0875177
524.481 .0926444
525.307 .0983382
526.133 .1045621
526.958 .1112899
527.782 .1183985
528.605 .1257341
529.428 .1331886
530.250 .1402716
531.072 .1467095
531.892 .1521509
532.712 .1563107
533.532 .1590089
534.350 .1599742
535.168 .1591352
535.986 .1565926
536.802 .1525038
537.618 .1471315
538.434 .1406859
539.249 .1336623
540.063 .1263221
540.876 .1189685
541.689 .1118451
542.501 .1051648
543.313 .0990765
544.124 .0936403
544.934 .0887565
545.744 .0844020
546.553 .0805054
547.361 .0770361
548.169 .0739765
548.976 .0712442
549.783 .0687848
550.589 .0665689
551.395 .0645005
552.200 .0625987
553.004 .0608303
553.808 .0591832
554.611 .0576736
555.414 .0563034
556.216 .0550701
557.018 .0539806
557.819 .0530154
558.619 .0521669
559.419 .0513918
560.218 .0506819
561.017 .0500081
561.815 .0493464
562.613 .0486993
563.410 .0480560
564.207 .0474203
565.003 .0467997
565.799 .0461795
566.594 .0455662
567.388 .0449603
568.182 .0443615
568.976 .0437606
569.769 .0431637
570.562 .0425736
571.354 .0419839
572.145 .0414028
572.936 .0408395
573.727 .0402979
574.517 .0397800
575.307 .0392917
576.096 .0388301
576.885 .0384018
577.673 .0380028
578.461 .0376311
579.248 .0372881
580.035 .0369699
580.821 .0366732
581.607 .0363935
582.392 .0361312
583.177 .0358902
583.962 .0356668
584.746 .0354644
585.529 .0352782
586.313 .0351109
587.095 .0349559
587.878 .0348128
588.660 .0346801
589.441 .0345541
590.222 .0344345
591.003 .0343231
591.783 .0342174
592.563 .0341191
593.342 .0340279
594.121 .0339429
594.899 .0338626
595.678 .0337888
596.455 .0337188
597.233 .0336523
598.009 .0335874
598.786 .0335254
599.562 .0334648
600.338 .0334065
601.113 .0333505
601.888 .0332970
602.663 .0332455
603.437 .0331965
604.211 .0331491
604.984 .0331042
605.757 .0330606
606.530 .0330184
607.302 .0329768
608.074 .0329370
608.845 .0328977
609.616 .0328596
610.387 .0328228
611.158 .0327883
611.928 .0327546
612.697 .0327213
613.467 .0326894
614.236 .0326579
615.004 .0326275
615.773 .0325989
616.541 .0325708
617.308 .0325441
618.076 .0325190
618.843 .0324954
619.609 .0324739
620.375 .0324550
621.141 .0324380
621.907 .0324221
622.672 .0324081
623.437 .0323944
624.202 .0323803
624.966 .0323670
625.730 .0323540
626.493 .0323404
627.257 .0323274
628.020 .0323142
628.782 .0322999
629.545 .0322857
630.307 .0322710
631.068 .0322548
631.830 .0322379
632.591 .0322197
633.352 .0322002
634.112 .0321796
634.872 .0321578
635.632 .0321333
636.392 .0321070
637.151 .0320793
637.910 .0320490
638.668 .0320164
639.427 .0319822
640.185 .0319466
640.943 .0319103
641.700 .0318740
642.457 .0318380
643.214 .0318025
643.971 .0317678
644.727 .0317335
645.483 .0316999
646.239 .0316669
646.994 .0316342
647.750 .0316027
648.505 .0315723
649.259 .0315434
650.014 .0315152
650.768 .0314881
651.521 .0314624
652.275 .0314370
653.028 .0314111
653.781 .0313847
654.534 .0313572
655.286 .0313289
656.039 .0312992
656.791 .0312684
657.542 .0312359
658.294 .0312017
659.045 .0311661
659.796 .0311292
660.546 .0310914
661.297 .0310531
662.047 .0310151
662.796 .0309785
663.546 .0309434
664.295 .0309100
665.044 .0308789
665.793 .0308505
666.542 .0308236
667.290 .0307982
668.038 .0307737
668.786 .0307503
669.533 .0307279
670.281 .0307066
671.028 .0306865
671.774 .0306669
672.521 .0306483
673.267 .0306306
674.013 .0306135
674.759 .0305970
675.505 .0305806
676.250 .0305645
676.995 .0305483
677.740 .0305319
678.484 .0305151
679.229 .0304991
679.973 .0304832
680.717 .0304678
681.460 .0304525
682.204 .0304380
682.947 .0304246
683.690 .0304117
684.433 .0304002
685.175 .0303897
685.917 .0303797
686.659 .0303704
687.401 .0303614
688.142 .0303536
688.884 .0303460
689.625 .0303393
690.365 .0303332
691.106 .0303277
691.846 .0303226
692.586 .0303177
693.326 .0303128
694.066 .0303078
694.805 .0303016
695.545 .0302939
696.284 .0302844
697.022 .0302731
697.761 .0302596
698.499 .0302441
699.237 .0302272
699.975 .0302090
700.713 .0301895
701.450 .0301693
702.187 .0301484
702.924 .0301271
703.661 .0301056
704.397 .0300832
705.133 .0300608
705.869 .0300384
706.605 .0300157
707.341 .0299931
708.076 .0299709
708.811 .0299489
709.546 .0299270
710.281 .0299050
711.015 .0298838
711.749 .0298622
712.483 .0298406
713.217 .0298185
713.950 .0297962
714.684 .0297733
715.417 .0297493
716.150 .0297245
716.882 .0296990
717.615 .0296725
718.347 .0296452
719.079 .0296169
719.811 .0295888
720.542 .0295606
721.273 .0295324
722.005 .0295036
722.735 .0294753
723.466 .0294464
724.196 .0294169
724.927 .0293867
725.656 .0293561
726.386 .0293249
727.116 .0292939
727.845 .0292635
728.574 .0292337
729.303 .0292047
730.031 .0291773
730.760 .0291510
731.488 .0291257
732.216 .0291017
732.944 .0290785
733.671 .0290564
734.398 .0290361
735.125 .0290172
735.852 .0290002
736.579 .0289853
737.305 .0289723
738.031 .0289604
738.757 .0289490
739.483 .0289377
740.208 .0289255
740.933 .0289129
741.658 .0288992
742.383 .0288840
743.108 .0288682
743.832 .0288524
744.556 .0288363
745.280 .0288206
746.004 .0288059
746.727 .0287920
747.450 .0287789
748.173 .0287662
748.896 .0287543
749.618 .0287434
750.340 .0287338
751.062 .0287252
751.784 .0287175
752.506 .0287110
753.227 .0287054
753.948 .0287009
754.669 .0286980
755.389 .0286965
756.110 .0286964
756.830 .0286972
757.550 .0286988
758.269 .0287010
758.989 .0287032
759.708 .0287051
760.427 .0287066
761.146 .0287071
761.864 .0287065
762.582 .0287051
763.300 .0287036
764.018 .0287024
764.736 .0287020
765.453 .0287026
766.170 .0287038
766.887 .0287057
767.603 .0287079
768.320 .0287092
769.036 .0287099
769.751 .0287093
770.467 .0287072
771.182 .0287036
771.897 .0286990
772.612 .0286941
773.327 .0286889
774.041 .0286847
774.755 .0286807
775.469 .0286775
776.183 .0286750
776.896 .0286721
777.609 .0286689
778.322 .0286653
779.035 .0286611
779.747 .0286560
780.459 .0286511
781.171 .0286465
781.882 .0286424
782.594 .0286390
783.305 .0286368
784.016 .0286353
784.726 .0286344
785.436 .0286340
786.147 .0286329
786.856 .0286314
787.566 .0286288
788.275 .0286246
788.984 .0286191
789.693 .0286119
790.401 .0286031
791.110 .0285923
791.818 .0285798
792.525 .0285656
793.233 .0285496
793.940 .0285322
794.647 .0285134
795.353 .0284931
796.060 .0284716
796.766 .0284488
797.472 .0284243
798.177 .0283985
798.883 .0283714
799.588 .0283431
800.292 .0283143
800.997 .0282855
801.701 .0282574
802.405 .0282303
803.109 .0282050
803.812 .0281811
804.515 .0281581
805.218 .0281356
805.921 .0281127
806.623 .0280885
807.325 .0280627
808.027 .0280351
808.728 .0280058
809.429 .0279756
810.130 .0279446
810.831 .0279134
811.531 .0278825
812.231 .0278520
812.931 .0278213
813.630 .0277907
814.330 .0277600
815.029 .0277287
815.727 .0276969
816.426 .0276651
817.124 .0276332
817.821 .0276022
818.519 .0275723
819.216 .0275440
819.913 .0275178
820.609 .0274936
821.306 .0274709
822.002 .0274501
822.697 .0274310
823.393 .0274136
824.088 .0273977
824.783 .0273835
825.477 .0273700
826.171 .0273570
826.865 .0273447
827.559 .0273327
828.252 .0273209
828.945 .0273096
829.638 .0272985
830.330 .0272885
831.023 .0272792
831.714 .0272707
832.406 .0272631
833.097 .0272561
833.788 .0272491
834.479 .0272416
835.169 .0272337
835.859 .0272260
836.548 .0272189
837.238 .0272128
837.927 .0272079
838.615 .0272047
839.304 .0272033
839.992 .0272034
840.680 .0272047
841.367 .0272068
842.054 .0272096
842.741 .0272132
843.428 .0272174
844.114 .0272224
844.800 .0272286
845.485 .0272360
846.170 .0272444
846.855 .0272533
847.540 .0272617
848.224 .0272693
848.908 .0272760
849.592 .0272814
850.275 .0272857
850.958 .0272892
851.641 .0272924
852.323 .0272957
853.005 .0272994
853.687 .0273034
854.368 .0273075
855.049 .0273118
855.730 .0273158
856.410 .0273190
857.090 .0273216
857.769 .0273232
858.449 .0273244
859.128 .0273256
859.806 .0273267
860.485 .0273287
861.163 .0273319
861.840 .0273362
862.518 .0273416
863.195 .0273484
863.871 .0273560
864.548 .0273641
865.224 .0273725
865.899 .0273811
866.574 .0273894
867.249 .0273976
867.924 .0274058
868.598 .0274139
869.272 .0274224
869.946 .0274312
870.619 .0274400
871.292 .0274492
871.964 .0274581
872.636 .0274667
873.308 .0274742
873.979 .0274810
874.651 .0274866
875.321 .0274907
875.992 .0274936
876.662 .0274954
877.331 .0274961
878.001 .0274958
878.670 .0274946
879.338 .0274926
880.007 .0274897
880.675 .0274861
881.342 .0274814
882.009 .0274763
882.676 .0274702
883.343 .0274633
884.009 .0274556
884.675 .0274469
885.340 .0274370
886.005 .0274262
886.670 .0274146
887.334 .0274025
887.998 .0273903
888.662 .0273782
889.325 .0273662
889.988 .0273543
890.650 .0273427
891.312 .0273305
891.974 .0273180
892.636 .0273053
893.297 .0272918
893.957 .0272775
894.618 .0272626
895.278 .0272469
895.937 .0272309
896.596 .0272150
897.255 .0271989
897.914 .0271827
898.572 .0271666
899.230 .0271499
899.887 .0271325
900.544 .0271149
901.201 .0270967
901.857 .0270774
902.513 .0270577
903.168 .0270368
903.823 .0270147
904.478 .0269911
905.132 .0269657
905.786 .0269382
906.440 .0269085
907.093 .0268766
907.746 .0268422
908.399 .0268057
909.051 .0267681
909.703 .0267290
910.354 .0266892
911.005 .0266491
911.656 .0266087
912.306 .0265681
912.956 .0265279
913.605 .0264873
914.254 .0264467
914.903 .0264066
915.551 .0263672
916.199 .0263285
916.847 .0262914
917.494 .0262561
918.141 .0262228
918.788 .0261915
919.434 .0261617
920.079 .0261327
920.725 .0261044
921.370 .0260760
922.014 .0260468
922.658 .0260168
923.302 .0259859
923.946 .0259545
924.589 .0259224
925.231 .0258904
925.873 .0258585
926.515 .0258265
927.157 .0257943
927.798 .0257621
928.439 .0257293
929.079 .0256961
929.719 .0256624
930.359 .0256287
930.998 .0255946
931.637 .0255610
932.275 .0255277
932.913 .0254955
933.551 .0254643
934.188 .0254342
934.825 .0254051
935.462 .0253776
936.098 .0253510
936.733 .0253255
937.369 .0253012
938.004 .0252783
938.638 .0252562
939.273 .0252353
939.907 .0252156
940.540 .0251971
941.173 .0251803
941.806 .0251655
942.438 .0251526
943.070 .0251424
943.702 .0251337
944.333 .0251263
944.964 .0251200
945.594 .0251142
946.224 .0251088
946.854 .0251040
947.483 .0250997
948.112 .0250959
948.741 .0250932
949.369 .0250916
949.996 .0250911
950.624 .0250914
951.251 .0250923
951.878 .0250930
952.504 .0250934
953.130 .0250933
953.755 .0250927
954.380 .0250923
955.005 .0250926
955.629 .0250932
956.253 .0250945
956.877 .0250969
957.500 .0251003
958.123 .0251050
958.746 .0251103
959.368 .0251160
959.990 .0251220
960.611 .0251280
961.232 .0251340
961.853 .0251400
962.473 .0251468
963.093 .0251539
963.712 .0251617
964.331 .0251699
964.950 .0251783
965.569 .0251874
966.187 .0251972
966.804 .0252079
967.422 .0252191
968.039 .0252311
968.655 .0252435
969.272 .0252570
969.887 .0252710
970.503 .0252854
971.118 .0253002
971.733 .0253152
972.347 .0253302
972.961 .0253446
973.575 .0253588
974.188 .0253726
974.801 .0253857
975.414 .0253986
976.026 .0254106
976.638 .0254226
977.250 .0254345
977.861 .0254464
978.472 .0254583
979.083 .0254701
979.693 .0254813
980.303 .0254921
980.912 .0255025
981.521 .0255127
982.130 .0255225
982.738 .0255324
983.346 .0255424
983.954 .0255522
984.562 .0255623
985.169 .0255720
985.775 .0255810
986.382 .0255898
986.988 .0255976
987.594 .0256050
988.199 .0256124
988.804 .0256200
989.409 .0256277
990.013 .0256364
990.617 .0256461
991.221 .0256566
991.824 .0256677
992.427 .0256799
993.030 .0256927
993.632 .0257068
994.234 .0257223
994.836 .0257388
995.438 .0257566
996.039 .0257758
996.640 .0257950
997.240 .0258146
997.840 .0258332
998.440 .0258510
999.040 .0258671
999.639 .0258820
1000.238 .0258953
1000.836 .0259071
1001.435 .0259178
1002.033 .0259276
1002.630 .0259361
1003.228 .0259433
1003.825 .0259489
1004.422 .0259537
1005.018 .0259571
1005.614 .0259598
1006.210 .0259621
1006.806 .0259646
1007.401 .0259667
1007.996 .0259685
1008.591 .0259693
1009.186 .0259694
1009.780 .0259688
1010.374 .0259665
1010.967 .0259625
1011.561 .0259571
1012.154 .0259502
1012.746 .0259420
1013.339 .0259330
1013.931 .0259236
1014.523 .0259135
1015.115 .0259033
1015.706 .0258932
1016.298 .0258826
1016.888 .0258727
1017.479 .0258635
1018.069 .0258555
1018.660 .0258489
1019.250 .0258443
1019.839 .0258407
1020.429 .0258387
1021.018 .0258380
1021.607 .0258379
1022.195 .0258382
1022.784 .0258389
1023.372 .0258401
1023.960 .0258416
1024.547 .0258431
1025.135 .0258443
1025.722 .0258447
1026.309 .0258451
1026.896 .0258445
1027.483 .0258429
1028.069 .0258403
1028.655 .0258368
1029.241 .0258319
1029.827 .0258258
1030.412 .0258192
1030.997 .0258120
1031.582 .0258045
1032.167 .0257961
1032.752 .0257868
1033.336 .0257770
1033.921 .0257672
1034.505 .0257567
1035.089 .0257452
1035.672 .0257322
1036.256 .0257170
1036.839 .0256991
1037.422 .0256798
1038.005 .0256593
1038.588 .0256387
1039.171 .0256181
1039.753 .0255974
1040.335 .0255760
1040.918 .0255543
1041.500 .0255314
1042.081 .0255080
1042.663 .0254838
1043.244 .0254590
1043.826 .0254325
1044.407 .0254063
1044.988 .0253810
1045.569 .0253561
1046.150 .0253321
1046.730 .0253084
1047.311 .0252840
1047.891 .0252588
1048.471 .0252322
1049.052 .0252047
1049.632 .0251775
1050.211 .0251519
1050.791 .0251274
1051.371 .0251041
1051.950 .0250834
1052.530 .0250644
1053.109 .0250468
1053.688 .0250300
1054.268 .0250130
1054.847 .0249955
1055.426 .0249787
1056.005 .0249619
1056.583 .0249465
1057.162 .0249322
1057.741 .0249201
1058.319 .0249087
1058.898 .0248987
1059.476 .0248885
1060.055 .0248780
1060.633 .0248671
1061.211 .0248558
1061.790 .0248434
1062.368 .0248307
1062.946 .0248170
1063.524 .0248028
1064.102 .0247885
1064.680 .0247741
1065.258 .0247588
1065.836 .0247445
1066.414 .0247307
1066.992 .0247185
1067.570 .0247067
1068.148 .0246960
1068.726 .0246857
1069.304 .0246760
1069.882 .0246663
1070.460 .0246556
1071.038 .0246449
1071.616 .0246335
1072.194 .0246224
1072.772 .0246118
1073.350 .0246012
1073.928 .0245922
1074.506 .0245842
1075.084 .0245769
1075.662 .0245688
1076.240 .0245597
1076.819 .0245490
1077.397 .0245380
1077.976 .0245264
1078.554 .0245134
1079.133 .0245011
1079.711 .0244903
1080.290 .0244804
1080.869 .0244708
1081.448 .0244625
1082.027 .0244541
1082.606 .0244445
1083.185 .0244357
1083.764 .0244262
1084.343 .0244168
1084.923 .0244089
1085.502 .0244031
1086.082 .0244002
1086.662 .0244009
1087.242 .0244050
1087.822 .0244119
1088.402 .0244227
1088.983 .0244354
1089.563 .0244475
1090.144 .0244599
1090.725 .0244731
1091.306 .0244838
1091.887 .0244937
1092.469 .0245049
1093.050 .0245165
1093.632 .0245294
1094.214 .0245437
1094.796 .0245588
1095.379 .0245756
1095.961 .0245936
1096.544 .0246122
1097.127 .0246297
1097.710 .0246487
1098.294 .0246666
1098.877 .0246845
1099.461 .0247043
1100.046 .0247266
1100.630 .0247507
1101.215 .0247800
1101.800 .0248128
1102.385 .0248479
1102.970 .0248856
1103.556 .0249263
1104.142 .0249666
1104.728 .0250087
1105.315 .0250502
1105.902 .0250899
1106.489 .0251288
1107.077 .0251672
1107.664 .0252052
1108.253 .0252447
1108.841 .0252856
1109.430 .0253288
1110.019 .0253724
1110.609 .0254198
1111.198 .0254647
1111.789 .0255091
1112.379 .0255540
1112.970 .0255943
1113.561 .0256320
1114.153 .0256686
1114.745 .0257050
1115.338 .0257426
1115.931 .0257825
1116.524 .0258238
1117.117 .0258675
1117.712 .0259120
1118.306 .0259581
1118.901 .0260044
1119.496 .0260522
1120.092 .0261027
1120.689 .0261537
1121.285 .0262109
1121.882 .0262734
1122.480 .0263421
1123.078 .0264202
1123.677 .0265009
1124.276 .0265877
1124.875 .0266765
1125.476 .0267646
1126.076 .0268527
1126.677 .0269394
1127.279 .0270246
1127.881 .0271069
1128.484 .0271878
1129.087 .0272662
1129.691 .0273438
1130.295 .0274226
1130.900 .0274968
1131.505 .0275687
1132.111 .0276386
1132.718 .0277056
1133.325 .0277694
1133.933 .0278336
1134.541 .0278984
1135.150 .0279615
1135.760 .0280276
1136.370 .0280937
1136.981 .0281640
1137.592 .0282372
1138.204 .0283108
1138.817 .0283894
1139.431 .0284749
1140.045 .0285709
1140.660 .0286754
1141.275 .0287966
1141.891 .0289455
1142.508 .0290567
1143.126 .0292777
1143.744 .0293610
1144.363 .0296516
1144.983 .0300960
