Measurement Sequence started on: 15-12-46-377
Integration time: 28
Scans to Average: 2 
>>>>>Begin Spectral Data<<<<<
432.689 .0000100
433.621 .0000100
434.552 .0000100
435.482 .0000100
436.410 .0000100
437.337 .0000100
438.262 .0288650
439.187 .0611613
440.110 .1012597
441.031 .1464154
441.952 .1901928
442.871 .2245583
443.789 .2432335
444.705 .2440948
445.621 .2298237
446.535 .2062275
447.447 .1795844
448.359 .1389528
449.269 .1188185
450.178 .1061272
451.086 .0971968
451.993 .0903582
452.898 .0849522
453.803 .0805551
454.706 .0769212
455.608 .0738259
456.508 .0711612
457.408 .0688539
458.306 .0668037
459.204 .0649450
460.100 .0632778
460.995 .0617771
461.888 .0604492
462.781 .0592546
463.673 .0581934
464.563 .0572583
465.452 .0564284
466.340 .0556539
467.228 .0549518
468.114 .0542923
468.999 .0536769
469.882 .0530851
470.765 .0525305
471.647 .0520103
472.528 .0515424
473.407 .0511257
474.286 .0507705
475.163 .0504626
476.040 .0502025
476.915 .0499677
477.790 .0497593
478.663 .0495609
479.535 .0493776
480.407 .0492085
481.277 .0490642
482.147 .0489479
483.015 .0488644
483.883 .0488086
484.749 .0487870
485.615 .0487882
486.479 .0488050
487.343 .0488263
488.206 .0488557
489.067 .0488798
489.928 .0489051
490.788 .0489363
491.647 .0489808
492.505 .0490494
493.362 .0491426
494.218 .0492587
495.073 .0494008
495.928 .0495684
496.781 .0497519
497.634 .0499563
498.486 .0501872
499.337 .0504386
500.187 .0507171
501.036 .0510289
501.884 .0513818
502.731 .0517716
503.578 .0522107
504.424 .0526909
505.268 .0532021
506.113 .0537506
506.956 .0543155
507.798 .0549196
508.640 .0555521
509.480 .0562204
510.320 .0569421
511.160 .0577366
511.998 .0586193
512.836 .0595988
513.672 .0607088
514.508 .0619481
515.344 .0633188
516.178 .0648575
517.012 .0665692
517.845 .0684959
518.677 .0706802
519.508 .0731513
520.339 .0759705
521.169 .0792103
521.998 .0828833
522.826 .0870711
523.654 .0917794
524.481 .0969995
525.307 .1027481
526.133 .1089723
526.958 .1155767
527.782 .1225325
528.605 .1297254
529.428 .1369992
530.250 .1438622
531.072 .1501145
531.892 .1553251
532.712 .1591952
533.532 .1615286
534.350 .1620647
535.168 .1607589
535.986 .1577522
536.802 .1531738
537.618 .1473500
538.434 .1405859
539.249 .1333940
540.063 .1259361
540.876 .1185671
541.689 .1114779
542.501 .1048171
543.313 .0987428
544.124 .0932760
544.934 .0883496
545.744 .0839126
546.553 .0799283
547.361 .0763827
548.169 .0732362
548.976 .0704602
549.783 .0680036
550.589 .0658503
551.395 .0639148
552.200 .0621834
553.004 .0606134
553.808 .0591673
554.611 .0578397
555.414 .0566102
556.216 .0554661
557.018 .0544099
557.819 .0534253
558.619 .0524855
559.419 .0515997
560.218 .0507622
561.017 .0499611
561.815 .0491989
562.613 .0484702
563.410 .0477673
564.207 .0470858
565.003 .0464283
565.799 .0457847
566.594 .0451544
567.388 .0445568
568.182 .0439779
568.976 .0434218
569.769 .0428962
570.562 .0424005
571.354 .0419296
572.145 .0414903
572.936 .0410701
573.727 .0406629
574.517 .0402657
575.307 .0398800
576.096 .0395041
576.885 .0391372
577.673 .0387828
578.461 .0384446
579.248 .0381212
580.035 .0378133
580.821 .0375194
581.607 .0372416
582.392 .0369774
583.177 .0367245
583.962 .0364837
584.746 .0362597
585.529 .0360512
586.313 .0358611
587.095 .0356884
587.878 .0355319
588.660 .0353888
589.441 .0352564
590.222 .0351356
591.003 .0350254
591.783 .0349225
592.563 .0348274
593.342 .0347404
594.121 .0346596
594.899 .0345850
595.678 .0345162
596.455 .0344529
597.233 .0343939
598.009 .0343373
598.786 .0342831
599.562 .0342296
600.338 .0341775
601.113 .0341254
601.888 .0340727
602.663 .0340203
603.437 .0339679
604.211 .0339160
604.984 .0338654
605.757 .0338173
606.530 .0337714
607.302 .0337280
608.074 .0336873
608.845 .0336493
609.616 .0336141
610.387 .0335819
611.158 .0335527
611.928 .0335255
612.697 .0335002
613.467 .0334769
614.236 .0334549
615.004 .0334348
615.773 .0334163
616.541 .0333996
617.308 .0333841
618.076 .0333707
618.843 .0333571
619.609 .0333433
620.375 .0333285
621.141 .0333118
621.907 .0332918
622.672 .0332690
623.437 .0332432
624.202 .0332147
624.966 .0331848
625.730 .0331538
626.493 .0331216
627.257 .0330892
628.020 .0330564
628.782 .0330226
629.545 .0329872
630.307 .0329505
631.068 .0329126
631.830 .0328737
632.591 .0328344
633.352 .0327951
634.112 .0327569
634.872 .0327191
635.632 .0326824
636.392 .0326464
637.151 .0326119
637.910 .0325780
638.668 .0325453
639.427 .0325127
640.185 .0324811
640.943 .0324502
641.700 .0324200
642.457 .0323908
643.214 .0323629
643.971 .0323350
644.727 .0323082
645.483 .0322815
646.239 .0322556
646.994 .0322292
647.750 .0322044
648.505 .0321797
649.259 .0321553
650.014 .0321305
650.768 .0321051
651.521 .0320792
652.275 .0320528
653.028 .0320247
653.781 .0319952
654.534 .0319646
655.286 .0319335
656.039 .0319022
656.791 .0318717
657.542 .0318416
658.294 .0318129
659.045 .0317853
659.796 .0317588
660.546 .0317330
661.297 .0317075
662.047 .0316823
662.796 .0316565
663.546 .0316305
664.295 .0316036
665.044 .0315768
665.793 .0315511
666.542 .0315263
667.290 .0315029
668.038 .0314810
668.786 .0314600
669.533 .0314397
670.281 .0314196
671.028 .0313993
671.774 .0313779
672.521 .0313564
673.267 .0313356
674.013 .0313158
674.759 .0312975
675.505 .0312816
676.250 .0312676
676.995 .0312553
677.740 .0312436
678.484 .0312317
679.229 .0312198
679.973 .0312072
680.717 .0311934
681.460 .0311781
682.204 .0311623
682.947 .0311463
683.690 .0311304
684.433 .0311148
685.175 .0310991
685.917 .0310829
686.659 .0310660
687.401 .0310476
688.142 .0310286
688.884 .0310083
689.625 .0309876
690.365 .0309661
691.106 .0309441
691.846 .0309221
692.586 .0309002
693.326 .0308787
694.066 .0308576
694.805 .0308364
695.545 .0308146
696.284 .0307921
697.022 .0307694
697.761 .0307467
698.499 .0307238
699.237 .0307013
699.975 .0306790
700.713 .0306571
701.450 .0306359
702.187 .0306154
702.924 .0305965
703.661 .0305791
704.397 .0305620
705.133 .0305461
705.869 .0305307
706.605 .0305157
707.341 .0305005
708.076 .0304854
708.811 .0304701
709.546 .0304544
710.281 .0304383
711.015 .0304216
711.749 .0304047
712.483 .0303879
713.217 .0303699
713.950 .0303515
714.684 .0303319
715.417 .0303107
716.150 .0302884
716.882 .0302651
717.615 .0302408
718.347 .0302162
719.079 .0301919
719.811 .0301680
720.542 .0301452
721.273 .0301232
722.005 .0301018
722.735 .0300812
723.466 .0300608
724.196 .0300398
724.927 .0300181
725.656 .0299967
726.386 .0299747
727.116 .0299529
727.845 .0299320
728.574 .0299113
729.303 .0298917
730.031 .0298731
730.760 .0298553
731.488 .0298377
732.216 .0298210
732.944 .0298047
733.671 .0297890
734.398 .0297745
735.125 .0297607
735.852 .0297478
736.579 .0297360
737.305 .0297252
738.031 .0297145
738.757 .0297042
739.483 .0296940
740.208 .0296833
740.933 .0296725
741.658 .0296610
742.383 .0296489
743.108 .0296361
743.832 .0296227
744.556 .0296086
745.280 .0295936
746.004 .0295782
746.727 .0295620
747.450 .0295457
748.173 .0295295
748.896 .0295136
749.618 .0294984
750.340 .0294839
751.062 .0294704
751.784 .0294573
752.506 .0294449
753.227 .0294331
753.948 .0294218
754.669 .0294111
755.389 .0294006
756.110 .0293905
756.830 .0293805
757.550 .0293707
758.269 .0293611
758.989 .0293507
759.708 .0293398
760.427 .0293283
761.146 .0293162
761.864 .0293039
762.582 .0292911
763.300 .0292782
764.018 .0292661
764.736 .0292543
765.453 .0292426
766.170 .0292314
766.887 .0292206
767.603 .0292095
768.320 .0291980
769.036 .0291862
769.751 .0291744
770.467 .0291619
771.182 .0291493
771.897 .0291365
772.612 .0291243
773.327 .0291125
774.041 .0291013
774.755 .0290913
775.469 .0290823
776.183 .0290742
776.896 .0290672
777.609 .0290609
778.322 .0290554
779.035 .0290501
779.747 .0290455
780.459 .0290416
781.171 .0290386
781.882 .0290359
782.594 .0290336
783.305 .0290318
784.016 .0290298
784.726 .0290269
785.436 .0290231
786.147 .0290183
786.856 .0290124
787.566 .0290048
788.275 .0289962
788.984 .0289865
789.693 .0289760
790.401 .0289647
791.110 .0289524
791.818 .0289393
792.525 .0289256
793.233 .0289113
793.940 .0288967
794.647 .0288819
795.353 .0288675
796.060 .0288535
796.766 .0288400
797.472 .0288268
798.177 .0288140
798.883 .0288014
799.588 .0287890
800.292 .0287767
800.997 .0287643
801.701 .0287519
802.405 .0287394
803.109 .0287273
803.812 .0287155
804.515 .0287036
805.218 .0286912
805.921 .0286782
806.623 .0286648
807.325 .0286503
808.027 .0286353
808.728 .0286198
809.429 .0286039
810.130 .0285875
810.831 .0285706
811.531 .0285535
812.231 .0285359
812.931 .0285177
813.630 .0284992
814.330 .0284802
815.029 .0284613
815.727 .0284426
816.426 .0284249
817.124 .0284083
817.821 .0283928
818.519 .0283782
819.216 .0283643
819.913 .0283511
820.609 .0283383
821.306 .0283255
822.002 .0283133
822.697 .0283020
823.393 .0282915
824.088 .0282819
824.783 .0282733
825.477 .0282652
826.171 .0282576
826.865 .0282500
827.559 .0282423
828.252 .0282344
828.945 .0282262
829.638 .0282178
830.330 .0282101
831.023 .0282028
831.714 .0281960
832.406 .0281894
833.097 .0281830
833.788 .0281762
834.479 .0281692
835.169 .0281618
835.859 .0281548
836.548 .0281482
837.238 .0281420
837.927 .0281358
838.615 .0281297
839.304 .0281236
839.992 .0281170
840.680 .0281095
841.367 .0281014
842.054 .0280928
842.741 .0280843
843.428 .0280763
844.114 .0280693
844.800 .0280633
845.485 .0280581
846.170 .0280529
846.855 .0280469
847.540 .0280393
848.224 .0280302
848.908 .0280196
849.592 .0280078
850.275 .0279952
850.958 .0279823
851.641 .0279699
852.323 .0279580
853.005 .0279466
853.687 .0279352
854.368 .0279236
855.049 .0279115
855.730 .0278984
856.410 .0278841
857.090 .0278693
857.769 .0278542
858.449 .0278389
859.128 .0278242
859.806 .0278098
860.485 .0277963
861.163 .0277840
861.840 .0277726
862.518 .0277617
863.195 .0277509
863.871 .0277399
864.548 .0277283
865.224 .0277161
865.899 .0277038
866.574 .0276912
867.249 .0276791
867.924 .0276678
868.598 .0276572
869.272 .0276472
869.946 .0276382
870.619 .0276294
871.292 .0276211
871.964 .0276122
872.636 .0276027
873.308 .0275926
873.979 .0275825
874.651 .0275730
875.321 .0275638
875.992 .0275558
876.662 .0275493
877.331 .0275436
878.001 .0275390
878.670 .0275346
879.338 .0275307
880.007 .0275268
880.675 .0275225
881.342 .0275177
882.009 .0275130
882.676 .0275080
883.343 .0275031
884.009 .0274980
884.675 .0274926
885.340 .0274868
886.005 .0274803
886.670 .0274733
887.334 .0274656
887.998 .0274571
888.662 .0274481
889.325 .0274384
889.988 .0274287
890.650 .0274188
891.312 .0274091
891.974 .0274000
892.636 .0273917
893.297 .0273839
893.957 .0273769
894.618 .0273705
895.278 .0273649
895.937 .0273596
896.596 .0273549
897.255 .0273502
897.914 .0273459
898.572 .0273420
899.230 .0273379
899.887 .0273336
900.544 .0273290
901.201 .0273236
901.857 .0273175
902.513 .0273103
903.168 .0273018
903.823 .0272921
904.478 .0272813
905.132 .0272689
905.786 .0272556
906.440 .0272413
907.093 .0272265
907.746 .0272109
908.399 .0271946
909.051 .0271774
909.703 .0271595
910.354 .0271408
911.005 .0271215
911.656 .0271012
912.306 .0270804
912.956 .0270588
913.605 .0270372
914.254 .0270156
914.903 .0269943
915.551 .0269737
916.199 .0269543
916.847 .0269359
917.494 .0269188
918.141 .0269026
918.788 .0268873
919.434 .0268726
920.079 .0268581
920.725 .0268430
921.370 .0268278
922.014 .0268125
922.658 .0267969
923.302 .0267813
923.946 .0267658
924.589 .0267498
925.231 .0267331
925.873 .0267159
926.515 .0266978
927.157 .0266784
927.798 .0266577
928.439 .0266355
929.079 .0266118
929.719 .0265867
930.359 .0265603
930.998 .0265332
931.637 .0265059
932.275 .0264787
932.913 .0264517
933.551 .0264255
934.188 .0264008
934.825 .0263772
935.462 .0263551
936.098 .0263348
936.733 .0263159
937.369 .0262981
938.004 .0262818
938.638 .0262670
939.273 .0262534
939.907 .0262414
940.540 .0262311
941.173 .0262220
941.806 .0262146
942.438 .0262082
943.070 .0262028
943.702 .0261979
944.333 .0261935
944.964 .0261884
945.594 .0261827
946.224 .0261766
946.854 .0261702
947.483 .0261635
948.112 .0261572
948.741 .0261511
949.369 .0261452
949.996 .0261398
950.624 .0261348
951.251 .0261299
951.878 .0261256
952.504 .0261211
953.130 .0261165
953.755 .0261115
954.380 .0261062
955.005 .0261000
955.629 .0260929
956.253 .0260850
956.877 .0260759
957.500 .0260660
958.123 .0260555
958.746 .0260439
959.368 .0260320
959.990 .0260195
960.611 .0260064
961.232 .0259931
961.853 .0259794
962.473 .0259661
963.093 .0259531
963.712 .0259412
964.331 .0259304
964.950 .0259208
965.569 .0259130
966.187 .0259068
966.804 .0259026
967.422 .0259000
968.039 .0258986
968.655 .0258984
969.272 .0258990
969.887 .0258996
970.503 .0259004
971.118 .0259010
971.733 .0259015
972.347 .0259019
972.961 .0259021
973.575 .0259026
974.188 .0259033
974.801 .0259036
975.414 .0259032
976.026 .0259017
976.638 .0258992
977.250 .0258954
977.861 .0258910
978.472 .0258861
979.083 .0258808
979.693 .0258753
980.303 .0258696
980.912 .0258639
981.521 .0258582
982.130 .0258518
982.738 .0258449
983.346 .0258372
983.954 .0258285
984.562 .0258188
985.169 .0258083
985.775 .0257976
986.382 .0257867
986.988 .0257755
987.594 .0257644
988.199 .0257536
988.804 .0257435
989.409 .0257336
990.013 .0257245
990.617 .0257157
991.221 .0257069
991.824 .0256983
992.427 .0256899
993.030 .0256822
993.632 .0256758
994.234 .0256714
994.836 .0256688
995.438 .0256686
996.039 .0256707
996.640 .0256746
997.240 .0256799
997.840 .0256863
998.440 .0256931
999.040 .0256995
999.639 .0257060
1000.238 .0257124
1000.836 .0257192
1001.435 .0257275
1002.033 .0257371
1002.630 .0257479
1003.228 .0257593
1003.825 .0257710
1004.422 .0257816
1005.018 .0257914
1005.614 .0257996
1006.210 .0258059
1006.806 .0258110
1007.401 .0258150
1007.996 .0258181
1008.591 .0258211
1009.186 .0258240
1009.780 .0258271
1010.374 .0258296
1010.967 .0258316
1011.561 .0258323
1012.154 .0258324
1012.746 .0258315
1013.339 .0258299
1013.931 .0258275
1014.523 .0258249
1015.115 .0258218
1015.706 .0258192
1016.298 .0258163
1016.888 .0258135
1017.479 .0258112
1018.069 .0258094
1018.660 .0258080
1019.250 .0258076
1019.839 .0258080
1020.429 .0258102
1021.018 .0258137
1021.607 .0258183
1022.195 .0258232
1022.784 .0258291
1023.372 .0258353
1023.960 .0258413
1024.547 .0258470
1025.135 .0258533
1025.722 .0258599
1026.309 .0258680
1026.896 .0258778
1027.483 .0258892
1028.069 .0259018
1028.655 .0259154
1029.241 .0259286
1029.827 .0259415
1030.412 .0259528
1030.997 .0259627
1031.582 .0259717
1032.167 .0259803
1032.752 .0259875
1033.336 .0259944
1033.921 .0260014
1034.505 .0260085
1035.089 .0260143
1035.672 .0260185
1036.256 .0260201
1036.839 .0260189
1037.422 .0260151
1038.005 .0260094
1038.588 .0260020
1039.171 .0259949
1039.753 .0259882
1040.335 .0259824
1040.918 .0259780
1041.500 .0259740
1042.081 .0259702
1042.663 .0259673
1043.244 .0259647
1043.826 .0259612
1044.407 .0259570
1044.988 .0259540
1045.569 .0259517
1046.150 .0259499
1046.730 .0259483
1047.311 .0259470
1047.891 .0259459
1048.471 .0259447
1049.052 .0259417
1049.632 .0259381
1050.211 .0259343
1050.791 .0259289
1051.371 .0259224
1051.950 .0259149
1052.530 .0259054
1053.109 .0258952
1053.688 .0258839
1054.268 .0258724
1054.847 .0258598
1055.426 .0258468
1056.005 .0258343
1056.583 .0258228
1057.162 .0258112
1057.741 .0257992
1058.319 .0257863
1058.898 .0257738
1059.476 .0257590
1060.055 .0257436
1060.633 .0257291
1061.211 .0257158
1061.790 .0257051
1062.368 .0256971
1062.946 .0256914
1063.524 .0256894
1064.102 .0256892
1064.680 .0256906
1065.258 .0256925
1065.836 .0256948
1066.414 .0256964
1066.992 .0256981
1067.570 .0257002
1068.148 .0257028
1068.726 .0257049
1069.304 .0257081
1069.882 .0257105
1070.460 .0257109
1071.038 .0257092
1071.616 .0257050
1072.194 .0256979
1072.772 .0256878
1073.350 .0256752
1073.928 .0256612
1074.506 .0256466
1075.084 .0256324
1075.662 .0256182
1076.240 .0256058
1076.819 .0255958
1077.397 .0255873
1077.976 .0255799
1078.554 .0255757
1079.133 .0255738
1079.711 .0255742
1080.290 .0255773
1080.869 .0255822
1081.448 .0255889
1082.027 .0255975
1082.606 .0256079
1083.185 .0256196
1083.764 .0256337
1084.343 .0256499
1084.923 .0256672
1085.502 .0256852
1086.082 .0257034
1086.662 .0257204
1087.242 .0257346
1087.822 .0257469
1088.402 .0257552
1088.983 .0257593
1089.563 .0257607
1090.144 .0257591
1090.725 .0257559
1091.306 .0257502
1091.887 .0257434
1092.469 .0257355
1093.050 .0257279
1093.632 .0257208
1094.214 .0257139
1094.796 .0257089
1095.379 .0257069
1095.961 .0257076
1096.544 .0257113
1097.127 .0257173
1097.710 .0257251
1098.294 .0257361
1098.877 .0257477
1099.461 .0257592
1100.046 .0257724
1100.630 .0257875
1101.215 .0258044
1101.800 .0258223
1102.385 .0258416
1102.970 .0258608
1103.556 .0258789
1104.142 .0258931
1104.728 .0259036
1105.315 .0259113
1105.902 .0259136
1106.489 .0259128
1107.077 .0259126
1107.664 .0259135
1108.253 .0259153
1108.841 .0259193
1109.430 .0259282
1110.019 .0259402
1110.609 .0259561
1111.198 .0259748
1111.789 .0260000
1112.379 .0260319
1112.970 .0260695
1113.561 .0261128
1114.153 .0261647
1114.745 .0262222
1115.338 .0262826
1115.931 .0263461
1116.524 .0264132
1117.117 .0264809
1117.712 .0265495
1118.306 .0266165
1118.901 .0266863
1119.496 .0267525
1120.092 .0268167
1120.689 .0268763
1121.285 .0269327
1121.882 .0269852
1122.480 .0270331
1123.078 .0270789
1123.677 .0271261
1124.276 .0271745
1124.875 .0272293
1125.476 .0272880
1126.076 .0273529
1126.677 .0274213
1127.279 .0274927
1127.881 .0275661
1128.484 .0276409
1129.087 .0277155
1129.691 .0277919
1130.295 .0278716
1130.900 .0279547
1131.505 .0280417
1132.111 .0281319
1132.718 .0282254
1133.325 .0283187
1133.933 .0284100
1134.541 .0284945
1135.150 .0285753
1135.760 .0286556
1136.370 .0287381
1136.981 .0288215
1137.592 .0289102
1138.204 .0290047
1138.817 .0291108
1139.431 .0292285
1140.045 .0293635
1140.660 .0295171
1141.275 .0297108
1141.891 .0299144
1142.508 .0300104
1143.126 .0303628
1143.744 .0305976
1144.363 .0313406
1144.983 .0309987
