Measurement Sequence started on: 15-12-46-377
Integration time: 28
Scans to Average: 2 
>>>>>Begin Spectral Data<<<<<
432.689 .0000100
433.621 .0000100
434.552 .0000100
435.482 .0000100
436.410 .0000100
437.337 .0000100
438.262 .0270809
439.187 .0572862
440.110 .0949621
441.031 .1374601
441.952 .1787252
442.871 .2112489
443.789 .2291191
444.705 .2302957
445.621 .2172563
446.535 .1953806
447.447 .1705702
448.359 .1325533
449.269 .1137551
450.178 .1017729
451.086 .0933390
451.993 .0869354
452.898 .0818737
453.803 .0777373
454.706 .0743060
455.608 .0713645
456.508 .0688068
457.408 .0665690
458.306 .0645862
459.204 .0628119
460.100 .0612296
460.995 .0598284
461.888 .0585738
462.781 .0574503
463.673 .0564391
464.563 .0555044
465.452 .0546260
466.340 .0537947
467.228 .0529996
468.114 .0522461
468.999 .0515455
469.882 .0508977
470.765 .0503036
471.647 .0497753
472.528 .0493117
473.407 .0489122
474.286 .0485683
475.163 .0482714
476.040 .0480132
476.915 .0477892
477.790 .0475845
478.663 .0473959
479.535 .0472249
480.407 .0470726
481.277 .0469341
482.147 .0468063
483.015 .0466940
483.883 .0466000
484.749 .0465248
485.615 .0464737
486.479 .0464438
487.343 .0464338
488.206 .0464363
489.067 .0464491
489.928 .0464658
490.788 .0464893
491.647 .0465196
492.505 .0465622
493.362 .0466234
494.218 .0467091
495.073 .0468235
495.928 .0469763
496.781 .0471682
497.634 .0473941
498.486 .0476509
499.337 .0479329
500.187 .0482287
501.036 .0485421
501.884 .0488699
502.731 .0492191
503.578 .0495915
504.424 .0499946
505.268 .0504184
506.113 .0508765
506.956 .0513663
507.798 .0518965
508.640 .0524731
509.480 .0531032
510.320 .0537952
511.160 .0545680
511.998 .0554253
512.836 .0563752
513.672 .0574350
514.508 .0586068
515.344 .0598839
516.178 .0613140
517.012 .0628957
517.845 .0646886
518.677 .0667294
519.508 .0690523
520.339 .0717055
521.169 .0747687
521.998 .0782493
522.826 .0821895
523.654 .0866199
524.481 .0915109
525.307 .0968292
526.133 .1025701
526.958 .1086654
527.782 .1150083
528.605 .1214987
529.428 .1280769
530.250 .1342242
531.072 .1398638
531.892 .1446262
532.712 .1483049
533.532 .1507143
534.350 .1516277
535.168 .1508882
535.986 .1485058
536.802 .1446451
537.618 .1394819
538.434 .1332617
539.249 .1265399
540.063 .1194796
540.876 .1124898
541.689 .1057873
542.501 .0995892
543.313 .0939996
544.124 .0890457
544.934 .0846145
545.744 .0805875
546.553 .0769194
547.361 .0735863
548.169 .0706018
548.976 .0679344
549.783 .0655708
550.589 .0634825
551.395 .0616179
552.200 .0599680
553.004 .0584889
553.808 .0571445
554.611 .0559340
555.414 .0548298
556.216 .0538057
557.018 .0528724
557.819 .0520072
558.619 .0512033
559.419 .0504549
560.218 .0497511
561.017 .0490684
561.815 .0483843
562.613 .0477090
563.410 .0470225
564.207 .0463418
565.003 .0456723
565.799 .0450098
566.594 .0443692
567.388 .0437626
568.182 .0431790
568.976 .0426166
569.769 .0420852
570.562 .0415756
571.354 .0410773
572.145 .0405871
572.936 .0401015
573.727 .0396204
574.517 .0391481
575.307 .0386902
576.096 .0382432
576.885 .0378178
577.673 .0374133
578.461 .0370305
579.248 .0366725
580.035 .0363342
580.821 .0360138
581.607 .0357085
582.392 .0354203
583.177 .0351470
583.962 .0348926
584.746 .0346620
585.529 .0344554
586.313 .0342713
587.095 .0341071
587.878 .0339610
588.660 .0338315
589.441 .0337154
590.222 .0336104
591.003 .0335148
591.783 .0334276
592.563 .0333478
593.342 .0332752
594.121 .0332076
594.899 .0331463
595.678 .0330892
596.455 .0330360
597.233 .0329843
598.009 .0329343
598.786 .0328844
599.562 .0328350
600.338 .0327848
601.113 .0327347
601.888 .0326851
602.663 .0326368
603.437 .0325895
604.211 .0325430
604.984 .0324973
605.757 .0324522
606.530 .0324066
607.302 .0323601
608.074 .0323130
608.845 .0322664
609.616 .0322204
610.387 .0321761
611.158 .0321339
611.928 .0320947
612.697 .0320582
613.467 .0320249
614.236 .0319938
615.004 .0319641
615.773 .0319351
616.541 .0319066
617.308 .0318789
618.076 .0318527
618.843 .0318281
619.609 .0318062
620.375 .0317876
621.141 .0317722
621.907 .0317592
622.672 .0317478
623.437 .0317379
624.202 .0317282
624.966 .0317181
625.730 .0317080
626.493 .0316966
627.257 .0316845
628.020 .0316710
628.782 .0316561
629.545 .0316396
630.307 .0316206
631.068 .0315992
631.830 .0315755
632.591 .0315495
633.352 .0315215
634.112 .0314915
634.872 .0314608
635.632 .0314305
636.392 .0313997
637.151 .0313691
637.910 .0313389
638.668 .0313089
639.427 .0312798
640.185 .0312518
640.943 .0312257
641.700 .0312017
642.457 .0311796
643.214 .0311596
643.971 .0311404
644.727 .0311219
645.483 .0311032
646.239 .0310841
646.994 .0310649
647.750 .0310449
648.505 .0310239
649.259 .0310036
650.014 .0309840
650.768 .0309646
651.521 .0309446
652.275 .0309234
653.028 .0309010
653.781 .0308763
654.534 .0308490
655.286 .0308203
656.039 .0307910
656.791 .0307624
657.542 .0307336
658.294 .0307059
659.045 .0306795
659.796 .0306536
660.546 .0306276
661.297 .0306009
662.047 .0305729
662.796 .0305437
663.546 .0305134
664.295 .0304826
665.044 .0304521
665.793 .0304231
666.542 .0303953
667.290 .0303702
668.038 .0303469
668.786 .0303251
669.533 .0303039
670.281 .0302836
671.028 .0302634
671.774 .0302426
672.521 .0302216
673.267 .0302003
674.013 .0301792
674.759 .0301585
675.505 .0301377
676.250 .0301176
676.995 .0300981
677.740 .0300789
678.484 .0300588
679.229 .0300382
679.973 .0300161
680.717 .0299934
681.460 .0299694
682.204 .0299440
682.947 .0299178
683.690 .0298914
684.433 .0298647
685.175 .0298381
685.917 .0298120
686.659 .0297866
687.401 .0297619
688.142 .0297382
688.884 .0297148
689.625 .0296920
690.365 .0296698
691.106 .0296478
691.846 .0296263
692.586 .0296051
693.326 .0295832
694.066 .0295613
694.805 .0295393
695.545 .0295171
696.284 .0294943
697.022 .0294718
697.761 .0294495
698.499 .0294276
699.237 .0294063
699.975 .0293855
700.713 .0293662
701.450 .0293486
702.187 .0293319
702.924 .0293163
703.661 .0293020
704.397 .0292885
705.133 .0292754
705.869 .0292632
706.605 .0292513
707.341 .0292402
708.076 .0292298
708.811 .0292202
709.546 .0292106
710.281 .0292016
711.015 .0291924
711.749 .0291822
712.483 .0291708
713.217 .0291569
713.950 .0291406
714.684 .0291223
715.417 .0291021
716.150 .0290809
716.882 .0290597
717.615 .0290394
718.347 .0290202
719.079 .0290024
719.811 .0289858
720.542 .0289706
721.273 .0289562
722.005 .0289422
722.735 .0289284
723.466 .0289147
724.196 .0289012
724.927 .0288878
725.656 .0288743
726.386 .0288608
727.116 .0288472
727.845 .0288337
728.574 .0288195
729.303 .0288052
730.031 .0287906
730.760 .0287757
731.488 .0287609
732.216 .0287459
732.944 .0287306
733.671 .0287155
734.398 .0287008
735.125 .0286862
735.852 .0286726
736.579 .0286600
737.305 .0286488
738.031 .0286397
738.757 .0286323
739.483 .0286259
740.208 .0286203
740.933 .0286154
741.658 .0286099
742.383 .0286032
743.108 .0285957
743.832 .0285871
744.556 .0285779
745.280 .0285679
746.004 .0285570
746.727 .0285459
747.450 .0285346
748.173 .0285227
748.896 .0285102
749.618 .0284967
750.340 .0284824
751.062 .0284673
751.784 .0284520
752.506 .0284369
753.227 .0284218
753.948 .0284068
754.669 .0283923
755.389 .0283776
756.110 .0283626
756.830 .0283474
757.550 .0283320
758.269 .0283163
758.989 .0283000
759.708 .0282827
760.427 .0282646
761.146 .0282461
761.864 .0282269
762.582 .0282064
763.300 .0281857
764.018 .0281648
764.736 .0281434
765.453 .0281223
766.170 .0281017
766.887 .0280815
767.603 .0280621
768.320 .0280428
769.036 .0280237
769.751 .0280046
770.467 .0279859
771.182 .0279673
771.897 .0279487
772.612 .0279305
773.327 .0279125
774.041 .0278950
774.755 .0278780
775.469 .0278612
776.183 .0278445
776.896 .0278281
777.609 .0278118
778.322 .0277959
779.035 .0277808
779.747 .0277665
780.459 .0277534
781.171 .0277413
781.882 .0277302
782.594 .0277200
783.305 .0277103
784.016 .0277013
784.726 .0276921
785.436 .0276833
786.147 .0276744
786.856 .0276665
787.566 .0276590
788.275 .0276521
788.984 .0276455
789.693 .0276388
790.401 .0276316
791.110 .0276233
791.818 .0276136
792.525 .0276024
793.233 .0275901
793.940 .0275768
794.647 .0275625
795.353 .0275483
796.060 .0275341
796.766 .0275202
797.472 .0275062
798.177 .0274921
798.883 .0274775
799.588 .0274627
800.292 .0274476
800.997 .0274323
801.701 .0274173
802.405 .0274029
803.109 .0273893
803.812 .0273765
804.515 .0273642
805.218 .0273519
805.921 .0273396
806.623 .0273270
807.325 .0273138
808.027 .0273006
808.728 .0272874
809.429 .0272747
810.130 .0272624
810.831 .0272508
811.531 .0272396
812.231 .0272284
812.931 .0272173
813.630 .0272051
814.330 .0271920
815.029 .0271785
815.727 .0271650
816.426 .0271524
817.124 .0271412
817.821 .0271316
818.519 .0271238
819.216 .0271184
819.913 .0271145
820.609 .0271114
821.306 .0271087
822.002 .0271058
822.697 .0271023
823.393 .0270989
824.088 .0270959
824.783 .0270935
825.477 .0270929
826.171 .0270935
826.865 .0270953
827.559 .0270986
828.252 .0271028
828.945 .0271074
829.638 .0271120
830.330 .0271165
831.023 .0271202
831.714 .0271232
832.406 .0271263
833.097 .0271290
833.788 .0271325
834.479 .0271364
835.169 .0271407
835.859 .0271457
836.548 .0271509
837.238 .0271563
837.927 .0271616
838.615 .0271663
839.304 .0271701
839.992 .0271723
840.680 .0271734
841.367 .0271731
842.054 .0271721
842.741 .0271703
843.428 .0271687
844.114 .0271671
844.800 .0271659
845.485 .0271647
846.170 .0271634
846.855 .0271614
847.540 .0271584
848.224 .0271537
848.908 .0271474
849.592 .0271393
850.275 .0271302
850.958 .0271199
851.641 .0271094
852.323 .0270985
853.005 .0270876
853.687 .0270761
854.368 .0270642
855.049 .0270514
855.730 .0270377
856.410 .0270230
857.090 .0270076
857.769 .0269915
858.449 .0269753
859.128 .0269593
859.806 .0269439
860.485 .0269295
861.163 .0269161
861.840 .0269036
862.518 .0268915
863.195 .0268794
863.871 .0268670
864.548 .0268539
865.224 .0268400
865.899 .0268249
866.574 .0268093
867.249 .0267936
867.924 .0267777
868.598 .0267621
869.272 .0267469
869.946 .0267321
870.619 .0267171
871.292 .0267021
871.964 .0266862
872.636 .0266697
873.308 .0266523
873.979 .0266343
874.651 .0266159
875.321 .0265978
875.992 .0265803
876.662 .0265638
877.331 .0265486
878.001 .0265342
878.670 .0265202
879.338 .0265067
880.007 .0264934
880.675 .0264799
881.342 .0264660
882.009 .0264519
882.676 .0264377
883.343 .0264231
884.009 .0264083
884.675 .0263935
885.340 .0263793
886.005 .0263656
886.670 .0263523
887.334 .0263398
887.998 .0263283
888.662 .0263175
889.325 .0263072
889.988 .0262972
890.650 .0262875
891.312 .0262772
891.974 .0262664
892.636 .0262551
893.297 .0262440
893.957 .0262332
894.618 .0262230
895.278 .0262137
895.937 .0262049
896.596 .0261963
897.255 .0261878
897.914 .0261790
898.572 .0261691
899.230 .0261583
899.887 .0261465
900.544 .0261335
901.201 .0261198
901.857 .0261055
902.513 .0260909
903.168 .0260763
903.823 .0260610
904.478 .0260444
905.132 .0260265
905.786 .0260078
906.440 .0259878
907.093 .0259670
907.746 .0259456
908.399 .0259236
909.051 .0259010
909.703 .0258779
910.354 .0258535
911.005 .0258282
911.656 .0258022
912.306 .0257750
912.956 .0257466
913.605 .0257179
914.254 .0256894
914.903 .0256620
915.551 .0256360
916.199 .0256114
916.847 .0255879
917.494 .0255654
918.141 .0255435
918.788 .0255218
919.434 .0255007
920.079 .0254804
920.725 .0254608
921.370 .0254425
922.014 .0254256
922.658 .0254098
923.302 .0253951
923.946 .0253808
924.589 .0253664
925.231 .0253509
925.873 .0253345
926.515 .0253171
927.157 .0252990
927.798 .0252806
928.439 .0252624
929.079 .0252446
929.719 .0252274
930.359 .0252104
930.998 .0251937
931.637 .0251769
932.275 .0251603
932.913 .0251435
933.551 .0251267
934.188 .0251102
934.825 .0250951
935.462 .0250811
936.098 .0250687
936.733 .0250578
937.369 .0250484
938.004 .0250400
938.638 .0250324
939.273 .0250252
939.907 .0250183
940.540 .0250119
941.173 .0250060
941.806 .0250007
942.438 .0249970
943.070 .0249947
943.702 .0249940
944.333 .0249947
944.964 .0249966
945.594 .0249991
946.224 .0250023
946.854 .0250061
947.483 .0250101
948.112 .0250146
948.741 .0250193
949.369 .0250244
949.996 .0250302
950.624 .0250362
951.251 .0250424
951.878 .0250484
952.504 .0250540
953.130 .0250586
953.755 .0250622
954.380 .0250651
955.005 .0250669
955.629 .0250686
956.253 .0250695
956.877 .0250702
957.500 .0250705
958.123 .0250706
958.746 .0250698
959.368 .0250685
959.990 .0250664
960.611 .0250633
961.232 .0250602
961.853 .0250573
962.473 .0250547
963.093 .0250532
963.712 .0250526
964.331 .0250525
964.950 .0250526
965.569 .0250533
966.187 .0250536
966.804 .0250541
967.422 .0250551
968.039 .0250567
968.655 .0250594
969.272 .0250637
969.887 .0250693
970.503 .0250762
971.118 .0250843
971.733 .0250926
972.347 .0251005
972.961 .0251081
973.575 .0251145
974.188 .0251193
974.801 .0251228
975.414 .0251252
976.026 .0251260
976.638 .0251261
977.250 .0251259
977.861 .0251256
978.472 .0251256
979.083 .0251253
979.693 .0251248
980.303 .0251238
980.912 .0251222
981.521 .0251192
982.130 .0251151
982.738 .0251106
983.346 .0251056
983.954 .0251002
984.562 .0250959
985.169 .0250926
985.775 .0250904
986.382 .0250894
986.988 .0250886
987.594 .0250878
988.199 .0250864
988.804 .0250840
989.409 .0250808
990.013 .0250771
990.617 .0250737
991.221 .0250702
991.824 .0250682
992.427 .0250680
993.030 .0250695
993.632 .0250733
994.234 .0250787
994.836 .0250852
995.438 .0250919
996.039 .0250983
996.640 .0251039
997.240 .0251090
997.840 .0251136
998.440 .0251174
999.040 .0251205
999.639 .0251227
1000.238 .0251239
1000.836 .0251242
1001.435 .0251236
1002.033 .0251220
1002.630 .0251193
1003.228 .0251156
1003.825 .0251115
1004.422 .0251075
1005.018 .0251041
1005.614 .0251020
1006.210 .0251010
1006.806 .0251008
1007.401 .0251013
1007.996 .0251027
1008.591 .0251049
1009.186 .0251077
1009.780 .0251117
1010.374 .0251162
1010.967 .0251209
1011.561 .0251257
1012.154 .0251299
1012.746 .0251330
1013.339 .0251344
1013.931 .0251331
1014.523 .0251293
1015.115 .0251232
1015.706 .0251154
1016.298 .0251065
1016.888 .0250981
1017.479 .0250908
1018.069 .0250839
1018.660 .0250780
1019.250 .0250735
1019.839 .0250693
1020.429 .0250662
1021.018 .0250637
1021.607 .0250617
1022.195 .0250608
1022.784 .0250606
1023.372 .0250620
1023.960 .0250656
1024.547 .0250708
1025.135 .0250773
1025.722 .0250845
1026.309 .0250920
1026.896 .0250985
1027.483 .0251042
1028.069 .0251088
1028.655 .0251115
1029.241 .0251124
1029.827 .0251119
1030.412 .0251097
1030.997 .0251080
1031.582 .0251063
1032.167 .0251047
1032.752 .0251044
1033.336 .0251041
1033.921 .0251034
1034.505 .0251031
1035.089 .0251022
1035.672 .0251009
1036.256 .0250993
1036.839 .0250978
1037.422 .0250960
1038.005 .0250952
1038.588 .0250952
1039.171 .0250948
1039.753 .0250945
1040.335 .0250937
1040.918 .0250900
1041.500 .0250845
1042.081 .0250770
1042.663 .0250670
1043.244 .0250558
1043.826 .0250443
1044.407 .0250317
1044.988 .0250193
1045.569 .0250064
1046.150 .0249929
1046.730 .0249781
1047.311 .0249629
1047.891 .0249466
1048.471 .0249301
1049.052 .0249144
1049.632 .0248991
1050.211 .0248847
1050.791 .0248720
1051.371 .0248603
1051.950 .0248501
1052.530 .0248400
1053.109 .0248308
1053.688 .0248208
1054.268 .0248105
1054.847 .0248004
1055.426 .0247908
1056.005 .0247825
1056.583 .0247745
1057.162 .0247672
1057.741 .0247601
1058.319 .0247534
1058.898 .0247473
1059.476 .0247400
1060.055 .0247326
1060.633 .0247233
1061.211 .0247112
1061.790 .0246970
1062.368 .0246813
1062.946 .0246640
1063.524 .0246461
1064.102 .0246279
1064.680 .0246095
1065.258 .0245916
1065.836 .0245744
1066.414 .0245585
1066.992 .0245432
1067.570 .0245284
1068.148 .0245132
1068.726 .0244974
1069.304 .0244841
1069.882 .0244707
1070.460 .0244605
1071.038 .0244541
1071.616 .0244499
1072.194 .0244490
1072.772 .0244506
1073.350 .0244544
1073.928 .0244595
1074.506 .0244636
1075.084 .0244663
1075.662 .0244663
1076.240 .0244658
1076.819 .0244639
1077.397 .0244617
1077.976 .0244608
1078.554 .0244597
1079.133 .0244578
1079.711 .0244559
1080.290 .0244523
1080.869 .0244464
1081.448 .0244387
1082.027 .0244279
1082.606 .0244146
1083.185 .0243994
1083.764 .0243829
1084.343 .0243665
1084.923 .0243506
1085.502 .0243355
1086.082 .0243209
1086.662 .0243093
1087.242 .0243008
1087.822 .0242950
1088.402 .0242931
1088.983 .0242950
1089.563 .0242990
1090.144 .0243045
1090.725 .0243121
1091.306 .0243203
1091.887 .0243312
1092.469 .0243461
1093.050 .0243650
1093.632 .0243898
1094.214 .0244179
1094.796 .0244492
1095.379 .0244802
1095.961 .0245102
1096.544 .0245343
1097.127 .0245503
1097.710 .0245611
1098.294 .0245684
1098.877 .0245746
1099.461 .0245844
1100.046 .0245997
1100.630 .0246229
1101.215 .0246519
1101.800 .0246852
1102.385 .0247171
1102.970 .0247466
1103.556 .0247696
1104.142 .0247883
1104.728 .0248043
1105.315 .0248224
1105.902 .0248435
1106.489 .0248713
1107.077 .0249065
1107.664 .0249479
1108.253 .0249905
1108.841 .0250329
1109.430 .0250723
1110.019 .0251079
1110.609 .0251369
1111.198 .0251634
1111.789 .0251893
1112.379 .0252169
1112.970 .0252477
1113.561 .0252850
1114.153 .0253272
1114.745 .0253722
1115.338 .0254186
1115.931 .0254651
1116.524 .0255096
1117.117 .0255516
1117.712 .0255900
1118.306 .0256286
1118.901 .0256668
1119.496 .0257037
1120.092 .0257382
1120.689 .0257738
1121.285 .0258075
1121.882 .0258344
1122.480 .0258589
1123.078 .0258818
1123.677 .0259052
1124.276 .0259318
1124.875 .0259639
1125.476 .0260008
1126.076 .0260463
1126.677 .0260987
1127.279 .0261553
1127.881 .0262147
1128.484 .0262757
1129.087 .0263356
1129.691 .0263979
1130.295 .0264647
1130.900 .0265350
1131.505 .0266156
1132.111 .0267112
1132.718 .0268144
1133.325 .0269251
1133.933 .0270377
1134.541 .0271519
1135.150 .0272648
1135.760 .0273733
1136.370 .0274735
1136.981 .0275712
1137.592 .0276701
1138.204 .0277694
1138.817 .0278717
1139.431 .0279815
1140.045 .0280880
1140.660 .0282015
1141.275 .0283245
1141.891 .0284547
1142.508 .0286012
1143.126 .0284824
1143.744 .0288010
1144.363 .0292035
1144.983 .0293870
