Measurement Sequence started on: 15-12-46-377
Integration time: 28
Scans to Average: 2 
>>>>>Begin Spectral Data<<<<<
432.689 .0000100
433.621 .0000100
434.552 .0000100
435.482 .0000100
436.410 .0000100
437.337 .0000100
438.262 .0276675
439.187 .0587171
440.110 .0974171
441.031 .1411244
441.952 .1835628
442.871 .2170377
443.789 .2354664
444.705 .2367052
445.621 .2232813
446.535 .2007125
447.447 .1750863
448.359 .1359493
449.269 .1163527
450.178 .1038588
451.086 .0950214
451.993 .0883006
452.898 .0829560
453.803 .0785738
454.706 .0749491
455.608 .0718535
456.508 .0691968
457.408 .0669176
458.306 .0649354
459.204 .0631794
460.100 .0616135
460.995 .0602030
461.888 .0589253
462.781 .0577383
463.673 .0566456
464.563 .0556369
465.452 .0547090
466.340 .0538497
467.228 .0530573
468.114 .0523418
468.999 .0517006
469.882 .0511152
470.765 .0505848
471.647 .0501000
472.528 .0496507
473.407 .0492274
474.286 .0488452
475.163 .0484907
476.040 .0481733
476.915 .0478854
477.790 .0476307
478.663 .0474028
479.535 .0471995
480.407 .0470193
481.277 .0468594
482.147 .0467180
483.015 .0465956
483.883 .0464945
484.749 .0464175
485.615 .0463614
486.479 .0463296
487.343 .0463303
488.206 .0463612
489.067 .0464076
489.928 .0464790
490.788 .0465724
491.647 .0466890
492.505 .0468288
493.362 .0469904
494.218 .0471807
495.073 .0473984
495.928 .0476471
496.781 .0479217
497.634 .0482223
498.486 .0485510
499.337 .0488911
500.187 .0492421
501.036 .0496077
501.884 .0499745
502.731 .0503466
503.578 .0507377
504.424 .0511410
505.268 .0515531
506.113 .0519840
506.956 .0524375
507.798 .0529260
508.640 .0534525
509.480 .0540287
510.320 .0546560
511.160 .0553577
511.998 .0561271
512.836 .0569654
513.672 .0579086
514.508 .0589616
515.344 .0601327
516.178 .0614813
517.012 .0630488
517.845 .0648891
518.677 .0670413
519.508 .0695712
520.339 .0724987
521.169 .0758729
521.998 .0796597
522.826 .0839268
523.654 .0886553
524.481 .0938846
525.307 .0995960
526.133 .1058224
526.958 .1125122
527.782 .1195840
528.605 .1268610
529.428 .1342253
530.250 .1410963
531.072 .1472464
531.892 .1521859
532.712 .1557928
533.532 .1578177
534.350 .1581532
535.168 .1567674
535.986 .1538594
536.802 .1495656
537.618 .1441587
538.434 .1378211
539.249 .1310475
540.063 .1239883
540.876 .1169894
541.689 .1101722
542.501 .1038422
543.313 .0981107
544.124 .0930244
544.934 .0884741
545.744 .0844169
546.553 .0807229
547.361 .0773579
548.169 .0742829
548.976 .0714480
549.783 .0688473
550.589 .0664949
551.395 .0643363
552.200 .0623960
553.004 .0606279
553.808 .0590192
554.611 .0575426
555.414 .0561941
556.216 .0549525
557.018 .0538055
557.819 .0527497
558.619 .0517795
559.419 .0508934
560.218 .0500896
561.017 .0493473
561.815 .0486513
562.613 .0479837
563.410 .0473318
564.207 .0466804
565.003 .0460314
565.799 .0453801
566.594 .0447324
567.388 .0440943
568.182 .0434625
568.976 .0428370
569.769 .0422306
570.562 .0416428
571.354 .0410724
572.145 .0405248
572.936 .0399966
573.727 .0394872
574.517 .0390046
575.307 .0385476
576.096 .0381199
576.885 .0377222
577.673 .0373563
578.461 .0370161
579.248 .0367039
580.035 .0364180
580.821 .0361552
581.607 .0359119
582.392 .0356881
583.177 .0354755
583.962 .0352759
584.746 .0350895
585.529 .0349110
586.313 .0347450
587.095 .0345912
587.878 .0344469
588.660 .0343140
589.441 .0341918
590.222 .0340809
591.003 .0339803
591.783 .0338899
592.563 .0338068
593.342 .0337294
594.121 .0336570
594.899 .0335899
595.678 .0335276
596.455 .0334693
597.233 .0334139
598.009 .0333609
598.786 .0333104
599.562 .0332613
600.338 .0332127
601.113 .0331643
601.888 .0331149
602.663 .0330642
603.437 .0330110
604.211 .0329556
604.984 .0328994
605.757 .0328434
606.530 .0327885
607.302 .0327349
608.074 .0326836
608.845 .0326346
609.616 .0325887
610.387 .0325451
611.158 .0325030
611.928 .0324621
612.697 .0324217
613.467 .0323820
614.236 .0323430
615.004 .0323059
615.773 .0322718
616.541 .0322413
617.308 .0322144
618.076 .0321910
618.843 .0321697
619.609 .0321505
620.375 .0321319
621.141 .0321125
621.907 .0320918
622.672 .0320691
623.437 .0320457
624.202 .0320217
624.966 .0319980
625.730 .0319755
626.493 .0319539
627.257 .0319334
628.020 .0319129
628.782 .0318914
629.545 .0318683
630.307 .0318428
631.068 .0318151
631.830 .0317849
632.591 .0317528
633.352 .0317198
634.112 .0316868
634.872 .0316542
635.632 .0316229
636.392 .0315920
637.151 .0315627
637.910 .0315350
638.668 .0315078
639.427 .0314816
640.185 .0314569
640.943 .0314334
641.700 .0314107
642.457 .0313887
643.214 .0313674
643.971 .0313453
644.727 .0313235
645.483 .0313008
646.239 .0312782
646.994 .0312559
647.750 .0312346
648.505 .0312140
649.259 .0311947
650.014 .0311764
650.768 .0311576
651.521 .0311389
652.275 .0311193
653.028 .0310979
653.781 .0310751
654.534 .0310512
655.286 .0310260
656.039 .0310001
656.791 .0309743
657.542 .0309481
658.294 .0309231
659.045 .0308989
659.796 .0308746
660.546 .0308502
661.297 .0308255
662.047 .0307996
662.796 .0307718
663.546 .0307433
664.295 .0307143
665.044 .0306855
665.793 .0306576
666.542 .0306308
667.290 .0306064
668.038 .0305849
668.786 .0305661
669.533 .0305492
670.281 .0305337
671.028 .0305183
671.774 .0305025
672.521 .0304862
673.267 .0304694
674.013 .0304525
674.759 .0304360
675.505 .0304195
676.250 .0304035
676.995 .0303879
677.740 .0303722
678.484 .0303559
679.229 .0303393
679.973 .0303209
680.717 .0303009
681.460 .0302794
682.204 .0302570
682.947 .0302343
683.690 .0302120
684.433 .0301901
685.175 .0301687
685.917 .0301485
686.659 .0301292
687.401 .0301107
688.142 .0300937
688.884 .0300774
689.625 .0300616
690.365 .0300461
691.106 .0300304
691.846 .0300146
692.586 .0299981
693.326 .0299807
694.066 .0299629
694.805 .0299446
695.545 .0299259
696.284 .0299071
697.022 .0298885
697.761 .0298704
698.499 .0298522
699.237 .0298340
699.975 .0298150
700.713 .0297958
701.450 .0297762
702.187 .0297559
702.924 .0297356
703.661 .0297158
704.397 .0296964
705.133 .0296787
705.869 .0296618
706.605 .0296458
707.341 .0296303
708.076 .0296154
708.811 .0296002
709.546 .0295849
710.281 .0295695
711.015 .0295537
711.749 .0295372
712.483 .0295208
713.217 .0295035
713.950 .0294862
714.684 .0294683
715.417 .0294499
716.150 .0294307
716.882 .0294111
717.615 .0293908
718.347 .0293703
719.079 .0293503
719.811 .0293306
720.542 .0293109
721.273 .0292919
722.005 .0292730
722.735 .0292536
723.466 .0292340
724.196 .0292141
724.927 .0291930
725.656 .0291714
726.386 .0291491
727.116 .0291271
727.845 .0291063
728.574 .0290867
729.303 .0290684
730.031 .0290515
730.760 .0290363
731.488 .0290214
732.216 .0290072
732.944 .0289938
733.671 .0289810
734.398 .0289686
735.125 .0289571
735.852 .0289462
736.579 .0289362
737.305 .0289272
738.031 .0289192
738.757 .0289115
739.483 .0289040
740.208 .0288961
740.933 .0288879
741.658 .0288796
742.383 .0288711
743.108 .0288618
743.832 .0288523
744.556 .0288427
745.280 .0288322
746.004 .0288210
746.727 .0288092
747.450 .0287972
748.173 .0287846
748.896 .0287716
749.618 .0287582
750.340 .0287447
751.062 .0287314
751.784 .0287177
752.506 .0287034
753.227 .0286887
753.948 .0286736
754.669 .0286581
755.389 .0286422
756.110 .0286264
756.830 .0286107
757.550 .0285956
758.269 .0285808
758.989 .0285662
759.708 .0285513
760.427 .0285363
761.146 .0285210
761.864 .0285054
762.582 .0284896
763.300 .0284738
764.018 .0284587
764.736 .0284443
765.453 .0284304
766.170 .0284167
766.887 .0284031
767.603 .0283899
768.320 .0283760
769.036 .0283610
769.751 .0283450
770.467 .0283280
771.182 .0283106
771.897 .0282924
772.612 .0282743
773.327 .0282568
774.041 .0282405
774.755 .0282253
775.469 .0282116
776.183 .0282000
776.896 .0281902
777.609 .0281820
778.322 .0281755
779.035 .0281697
779.747 .0281642
780.459 .0281595
781.171 .0281556
781.882 .0281526
782.594 .0281508
783.305 .0281503
784.016 .0281519
784.726 .0281554
785.436 .0281603
786.147 .0281659
786.856 .0281719
787.566 .0281774
788.275 .0281811
788.984 .0281831
789.693 .0281834
790.401 .0281820
791.110 .0281793
791.818 .0281756
792.525 .0281713
793.233 .0281666
793.940 .0281616
794.647 .0281561
795.353 .0281500
796.060 .0281431
796.766 .0281350
797.472 .0281260
798.177 .0281165
798.883 .0281067
799.588 .0280966
800.292 .0280873
800.997 .0280780
801.701 .0280690
802.405 .0280603
803.109 .0280519
803.812 .0280439
804.515 .0280362
805.218 .0280282
805.921 .0280199
806.623 .0280112
807.325 .0280019
808.027 .0279917
808.728 .0279808
809.429 .0279691
810.130 .0279560
810.831 .0279422
811.531 .0279275
812.231 .0279116
812.931 .0278955
813.630 .0278789
814.330 .0278618
815.029 .0278449
815.727 .0278282
816.426 .0278122
817.124 .0277969
817.821 .0277825
818.519 .0277687
819.216 .0277557
819.913 .0277437
820.609 .0277323
821.306 .0277218
822.002 .0277122
822.697 .0277033
823.393 .0276955
824.088 .0276884
824.783 .0276816
825.477 .0276749
826.171 .0276682
826.865 .0276612
827.559 .0276540
828.252 .0276466
828.945 .0276389
829.638 .0276314
830.330 .0276241
831.023 .0276170
831.714 .0276100
832.406 .0276031
833.097 .0275954
833.788 .0275870
834.479 .0275773
835.169 .0275662
835.859 .0275542
836.548 .0275417
837.238 .0275288
837.927 .0275159
838.615 .0275035
839.304 .0274915
839.992 .0274797
840.680 .0274682
841.367 .0274563
842.054 .0274444
842.741 .0274322
843.428 .0274194
844.114 .0274061
844.800 .0273927
845.485 .0273794
846.170 .0273662
846.855 .0273537
847.540 .0273416
848.224 .0273299
848.908 .0273187
849.592 .0273073
850.275 .0272956
850.958 .0272829
851.641 .0272692
852.323 .0272543
853.005 .0272384
853.687 .0272208
854.368 .0272022
855.049 .0271830
855.730 .0271632
856.410 .0271429
857.090 .0271223
857.769 .0271015
858.449 .0270810
859.128 .0270610
859.806 .0270412
860.485 .0270220
861.163 .0270042
861.840 .0269867
862.518 .0269696
863.195 .0269528
863.871 .0269361
864.548 .0269195
865.224 .0269034
865.899 .0268877
866.574 .0268725
867.249 .0268589
867.924 .0268469
868.598 .0268364
869.272 .0268274
869.946 .0268192
870.619 .0268109
871.292 .0268024
871.964 .0267929
872.636 .0267817
873.308 .0267693
873.979 .0267565
874.651 .0267429
875.321 .0267298
875.992 .0267175
876.662 .0267061
877.331 .0266960
878.001 .0266872
878.670 .0266786
879.338 .0266702
880.007 .0266622
880.675 .0266542
881.342 .0266461
882.009 .0266381
882.676 .0266299
883.343 .0266224
884.009 .0266165
884.675 .0266118
885.340 .0266085
886.005 .0266075
886.670 .0266083
887.334 .0266108
887.998 .0266149
888.662 .0266199
889.325 .0266253
889.988 .0266313
890.650 .0266376
891.312 .0266432
891.974 .0266494
892.636 .0266558
893.297 .0266626
893.957 .0266703
894.618 .0266778
895.278 .0266854
895.937 .0266934
896.596 .0267014
897.255 .0267089
897.914 .0267155
898.572 .0267216
899.230 .0267267
899.887 .0267309
900.544 .0267341
901.201 .0267363
901.857 .0267379
902.513 .0267389
903.168 .0267387
903.823 .0267374
904.478 .0267353
905.132 .0267317
905.786 .0267271
906.440 .0267207
907.093 .0267126
907.746 .0267027
908.399 .0266914
909.051 .0266787
909.703 .0266648
910.354 .0266499
911.005 .0266342
911.656 .0266176
912.306 .0266008
912.956 .0265831
913.605 .0265654
914.254 .0265479
914.903 .0265312
915.551 .0265155
916.199 .0265015
916.847 .0264893
917.494 .0264795
918.141 .0264716
918.788 .0264651
919.434 .0264600
920.079 .0264555
920.725 .0264512
921.370 .0264469
922.014 .0264425
922.658 .0264380
923.302 .0264333
923.946 .0264286
924.589 .0264229
925.231 .0264164
925.873 .0264085
926.515 .0263986
927.157 .0263870
927.798 .0263735
928.439 .0263575
929.079 .0263395
929.719 .0263205
930.359 .0263002
930.998 .0262792
931.637 .0262580
932.275 .0262364
932.913 .0262148
933.551 .0261932
934.188 .0261715
934.825 .0261498
935.462 .0261290
936.098 .0261087
936.733 .0260890
937.369 .0260709
938.004 .0260538
938.638 .0260380
939.273 .0260237
939.907 .0260110
940.540 .0259993
941.173 .0259887
941.806 .0259793
942.438 .0259709
943.070 .0259635
943.702 .0259571
944.333 .0259516
944.964 .0259466
945.594 .0259424
946.224 .0259381
946.854 .0259342
947.483 .0259308
948.112 .0259276
948.741 .0259243
949.369 .0259213
949.996 .0259183
950.624 .0259147
951.251 .0259105
951.878 .0259055
952.504 .0258988
953.130 .0258907
953.755 .0258811
954.380 .0258700
955.005 .0258578
955.629 .0258450
956.253 .0258314
956.877 .0258177
957.500 .0258039
958.123 .0257898
958.746 .0257754
959.368 .0257611
959.990 .0257460
960.611 .0257303
961.232 .0257142
961.853 .0256976
962.473 .0256804
963.093 .0256629
963.712 .0256448
964.331 .0256263
964.950 .0256074
965.569 .0255884
966.187 .0255693
966.804 .0255508
967.422 .0255331
968.039 .0255159
968.655 .0254996
969.272 .0254840
969.887 .0254681
970.503 .0254524
971.118 .0254362
971.733 .0254198
972.347 .0254031
972.961 .0253867
973.575 .0253711
974.188 .0253564
974.801 .0253427
975.414 .0253295
976.026 .0253164
976.638 .0253027
977.250 .0252876
977.861 .0252708
978.472 .0252530
979.083 .0252341
979.693 .0252142
980.303 .0251940
980.912 .0251738
981.521 .0251538
982.130 .0251339
982.738 .0251142
983.346 .0250948
983.954 .0250752
984.562 .0250555
985.169 .0250357
985.775 .0250159
986.382 .0249968
986.988 .0249785
987.594 .0249609
988.199 .0249442
988.804 .0249280
989.409 .0249122
990.013 .0248969
990.617 .0248816
991.221 .0248664
991.824 .0248515
992.427 .0248379
993.030 .0248256
993.632 .0248150
994.234 .0248072
994.836 .0248026
995.438 .0248006
996.039 .0248009
996.640 .0248022
997.240 .0248044
997.840 .0248067
998.440 .0248083
999.040 .0248084
999.639 .0248076
1000.238 .0248062
1000.836 .0248045
1001.435 .0248026
1002.033 .0248010
1002.630 .0247994
1003.228 .0247984
1003.825 .0247973
1004.422 .0247955
1005.018 .0247929
1005.614 .0247896
1006.210 .0247850
1006.806 .0247798
1007.401 .0247735
1007.996 .0247670
1008.591 .0247610
1009.186 .0247559
1009.780 .0247516
1010.374 .0247484
1010.967 .0247468
1011.561 .0247470
1012.154 .0247482
1012.746 .0247498
1013.339 .0247509
1013.931 .0247516
1014.523 .0247514
1015.115 .0247499
1015.706 .0247474
1016.298 .0247446
1016.888 .0247425
1017.479 .0247414
1018.069 .0247424
1018.660 .0247456
1019.250 .0247512
1019.839 .0247586
1020.429 .0247667
1021.018 .0247749
1021.607 .0247828
1022.195 .0247904
1022.784 .0247976
1023.372 .0248056
1023.960 .0248148
1024.547 .0248255
1025.135 .0248388
1025.722 .0248544
1026.309 .0248720
1026.896 .0248911
1027.483 .0249107
1028.069 .0249292
1028.655 .0249467
1029.241 .0249628
1029.827 .0249775
1030.412 .0249916
1030.997 .0250053
1031.582 .0250186
1032.167 .0250321
1032.752 .0250469
1033.336 .0250621
1033.921 .0250774
1034.505 .0250930
1035.089 .0251078
1035.672 .0251218
1036.256 .0251348
1036.839 .0251468
1037.422 .0251583
1038.005 .0251706
1038.588 .0251827
1039.171 .0251952
1039.753 .0252094
1040.335 .0252249
1040.918 .0252414
1041.500 .0252587
1042.081 .0252765
1042.663 .0252934
1043.244 .0253088
1043.826 .0253224
1044.407 .0253342
1044.988 .0253449
1045.569 .0253543
1046.150 .0253631
1046.730 .0253718
1047.311 .0253812
1047.891 .0253909
1048.471 .0254015
1049.052 .0254128
1049.632 .0254236
1050.211 .0254341
1050.791 .0254442
1051.371 .0254541
1051.950 .0254641
1052.530 .0254747
1053.109 .0254862
1053.688 .0254985
1054.268 .0255112
1054.847 .0255240
1055.426 .0255367
1056.005 .0255494
1056.583 .0255614
1057.162 .0255716
1057.741 .0255808
1058.319 .0255891
1058.898 .0255962
1059.476 .0256024
1060.055 .0256065
1060.633 .0256092
1061.211 .0256095
1061.790 .0256081
1062.368 .0256060
1062.946 .0256034
1063.524 .0256023
1064.102 .0256024
1064.680 .0256033
1065.258 .0256057
1065.836 .0256093
1066.414 .0256148
1066.992 .0256221
1067.570 .0256320
1068.148 .0256439
1068.726 .0256582
1069.304 .0256761
1069.882 .0256972
1070.460 .0257202
1071.038 .0257447
1071.616 .0257677
1072.194 .0257874
1072.772 .0258043
1073.350 .0258178
1073.928 .0258290
1074.506 .0258385
1075.084 .0258468
1075.662 .0258536
1076.240 .0258600
1076.819 .0258660
1077.397 .0258699
1077.976 .0258719
1078.554 .0258717
1079.133 .0258680
1079.711 .0258613
1080.290 .0258529
1080.869 .0258445
1081.448 .0258388
1082.027 .0258360
1082.606 .0258346
1083.185 .0258358
1083.764 .0258406
1084.343 .0258489
1084.923 .0258594
1085.502 .0258722
1086.082 .0258878
1086.662 .0259042
1087.242 .0259227
1087.822 .0259416
1088.402 .0259623
1088.983 .0259847
1089.563 .0260092
1090.144 .0260347
1090.725 .0260611
1091.306 .0260887
1091.887 .0261177
1092.469 .0261483
1093.050 .0261805
1093.632 .0262108
1094.214 .0262392
1094.796 .0262661
1095.379 .0262913
1095.961 .0263114
1096.544 .0263305
1097.127 .0263458
1097.710 .0263579
1098.294 .0263682
1098.877 .0263757
1099.461 .0263808
1100.046 .0263854
1100.630 .0263902
1101.215 .0263937
1101.800 .0263964
1102.385 .0264001
1102.970 .0264022
1103.556 .0264055
1104.142 .0264098
1104.728 .0264126
1105.315 .0264180
1105.902 .0264268
1106.489 .0264387
1107.077 .0264549
1107.664 .0264782
1108.253 .0265063
1108.841 .0265408
1109.430 .0265799
1110.019 .0266201
1110.609 .0266576
1111.198 .0266938
1111.789 .0267252
1112.379 .0267526
1112.970 .0267765
1113.561 .0267987
1114.153 .0268198
1114.745 .0268453
1115.338 .0268702
1115.931 .0268995
1116.524 .0269324
1117.117 .0269697
1117.712 .0270092
1118.306 .0270522
1118.901 .0270973
1119.496 .0271448
1120.092 .0271969
1120.689 .0272555
1121.285 .0273152
1121.882 .0273764
1122.480 .0274353
1123.078 .0274940
1123.677 .0275475
1124.276 .0275969
1124.875 .0276412
1125.476 .0276848
1126.076 .0277265
1126.677 .0277653
1127.279 .0278020
1127.881 .0278373
1128.484 .0278712
1129.087 .0279027
1129.691 .0279300
1130.295 .0279586
1130.900 .0279889
1131.505 .0280282
1132.111 .0280806
1132.718 .0281518
1133.325 .0282409
1133.933 .0283482
1134.541 .0284729
1135.150 .0286133
1135.760 .0287613
1136.370 .0289169
1136.981 .0290746
1137.592 .0292319
1138.204 .0293900
1138.817 .0295465
1139.431 .0297037
1140.045 .0298695
1140.660 .0300367
1141.275 .0302233
1141.891 .0304033
1142.508 .0305497
1143.126 .0308445
1143.744 .0308687
1144.363 .0314914
1144.983 .0311919
