Measurement Sequence started on: 15-12-46-377
Integration time: 28
Scans to Average: 2 
>>>>>Begin Spectral Data<<<<<
432.689 .0000100
433.621 .0000100
434.552 .0000100
435.482 .0000100
436.410 .0000100
437.337 .0000100
438.262 .0246296
439.187 .0522222
440.110 .0865960
441.031 .1253744
441.952 .1631037
442.871 .1928905
443.789 .2093616
444.705 .2106321
445.621 .1989598
446.535 .1792530
447.447 .1568571
448.359 .1224731
449.269 .1055184
450.178 .0948660
451.086 .0874493
451.993 .0818365
452.898 .0774578
453.803 .0739070
454.706 .0709823
455.608 .0684596
456.508 .0662502
457.408 .0643057
458.306 .0625338
459.204 .0609104
460.100 .0594210
460.995 .0580507
461.888 .0567739
462.781 .0555887
463.673 .0544827
464.563 .0534474
465.452 .0524873
466.340 .0515842
467.228 .0507422
468.114 .0499558
468.999 .0492306
469.882 .0485560
470.765 .0479445
471.647 .0473875
472.528 .0468794
473.407 .0464292
474.286 .0460387
475.163 .0456977
476.040 .0454129
476.915 .0451826
477.790 .0449990
478.663 .0448481
479.535 .0447327
480.407 .0446384
481.277 .0445602
482.147 .0444951
483.015 .0444337
483.883 .0443784
484.749 .0443290
485.615 .0442887
486.479 .0442613
487.343 .0442567
488.206 .0442749
489.067 .0443084
489.928 .0443565
490.788 .0444184
491.647 .0444880
492.505 .0445683
493.362 .0446641
494.218 .0447775
495.073 .0449080
495.928 .0450701
496.781 .0452636
497.634 .0455041
498.486 .0457793
499.337 .0460901
500.187 .0464279
501.036 .0467907
501.884 .0471657
502.731 .0475562
503.578 .0479654
504.424 .0483868
505.268 .0488211
506.113 .0492765
506.956 .0497487
507.798 .0502554
508.640 .0507952
509.480 .0513856
510.320 .0520362
511.160 .0527501
511.998 .0535270
512.836 .0543966
513.672 .0553853
514.508 .0564796
515.344 .0577014
516.178 .0590942
517.012 .0606644
517.845 .0624399
518.677 .0644806
519.508 .0667947
520.339 .0694131
521.169 .0724143
521.998 .0757779
522.826 .0795894
523.654 .0838840
524.481 .0886763
525.307 .0939912
526.133 .0998322
526.958 .1061145
527.782 .1126867
528.605 .1194356
529.428 .1261979
530.250 .1324192
531.072 .1379653
531.892 .1424998
532.712 .1458411
533.532 .1478430
534.350 .1484013
535.168 .1474295
535.986 .1450453
536.802 .1413065
537.618 .1363694
538.434 .1303816
539.249 .1238033
540.063 .1167535
540.876 .1095832
541.689 .1025938
542.501 .0960328
543.313 .0900733
544.124 .0848207
544.934 .0801964
545.744 .0761585
546.553 .0725790
547.361 .0694178
548.169 .0665783
548.976 .0640258
549.783 .0617034
550.589 .0595930
551.395 .0576847
552.200 .0559690
553.004 .0544490
553.808 .0531084
554.611 .0519519
555.414 .0509631
556.216 .0500994
557.018 .0493426
557.819 .0486529
558.619 .0480039
559.419 .0473703
560.218 .0467413
561.017 .0461155
561.815 .0455001
562.613 .0448910
563.410 .0442986
564.207 .0437336
565.003 .0431971
565.799 .0426764
566.594 .0421610
567.388 .0416564
568.182 .0411467
568.976 .0406338
569.769 .0401240
570.562 .0396143
571.354 .0391159
572.145 .0386329
572.936 .0381635
573.727 .0377092
574.517 .0372704
575.307 .0368459
576.096 .0364375
576.885 .0360440
577.673 .0356675
578.461 .0353096
579.248 .0349750
580.035 .0346666
580.821 .0343778
581.607 .0341117
582.392 .0338672
583.177 .0336431
583.962 .0334389
584.746 .0332548
585.529 .0330916
586.313 .0329489
587.095 .0328256
587.878 .0327190
588.660 .0326262
589.441 .0325439
590.222 .0324670
591.003 .0323951
591.783 .0323250
592.563 .0322578
593.342 .0321928
594.121 .0321300
594.899 .0320708
595.678 .0320150
596.455 .0319610
597.233 .0319085
598.009 .0318571
598.786 .0318053
599.562 .0317535
600.338 .0317004
601.113 .0316465
601.888 .0315930
602.663 .0315396
603.437 .0314878
604.211 .0314376
604.984 .0313903
605.757 .0313457
606.530 .0313033
607.302 .0312637
608.074 .0312248
608.845 .0311862
609.616 .0311481
610.387 .0311111
611.158 .0310753
611.928 .0310412
612.697 .0310089
613.467 .0309798
614.236 .0309534
615.004 .0309290
615.773 .0309066
616.541 .0308855
617.308 .0308651
618.076 .0308450
618.843 .0308241
619.609 .0308039
620.375 .0307840
621.141 .0307650
621.907 .0307469
622.672 .0307298
623.437 .0307133
624.202 .0306962
624.966 .0306786
625.730 .0306597
626.493 .0306392
627.257 .0306181
628.020 .0305965
628.782 .0305750
629.545 .0305544
630.307 .0305350
631.068 .0305169
631.830 .0305004
632.591 .0304847
633.352 .0304693
634.112 .0304539
634.872 .0304383
635.632 .0304224
636.392 .0304052
637.151 .0303878
637.910 .0303698
638.668 .0303510
639.427 .0303311
640.185 .0303094
640.943 .0302862
641.700 .0302613
642.457 .0302347
643.214 .0302069
643.971 .0301781
644.727 .0301499
645.483 .0301224
646.239 .0300958
646.994 .0300709
647.750 .0300475
648.505 .0300252
649.259 .0300045
650.014 .0299843
650.768 .0299647
651.521 .0299458
652.275 .0299278
653.028 .0299105
653.781 .0298939
654.534 .0298784
655.286 .0298629
656.039 .0298470
656.791 .0298301
657.542 .0298112
658.294 .0297900
659.045 .0297665
659.796 .0297403
660.546 .0297121
661.297 .0296824
662.047 .0296514
662.796 .0296198
663.546 .0295875
664.295 .0295555
665.044 .0295242
665.793 .0294930
666.542 .0294626
667.290 .0294331
668.038 .0294051
668.786 .0293781
669.533 .0293522
670.281 .0293274
671.028 .0293036
671.774 .0292812
672.521 .0292601
673.267 .0292402
674.013 .0292220
674.759 .0292053
675.505 .0291899
676.250 .0291754
676.995 .0291613
677.740 .0291468
678.484 .0291319
679.229 .0291165
679.973 .0290998
680.717 .0290822
681.460 .0290650
682.204 .0290484
682.947 .0290328
683.690 .0290181
684.433 .0290046
685.175 .0289917
685.917 .0289790
686.659 .0289660
687.401 .0289522
688.142 .0289381
688.884 .0289239
689.625 .0289096
690.365 .0288959
691.106 .0288832
691.846 .0288715
692.586 .0288609
693.326 .0288514
694.066 .0288423
694.805 .0288333
695.545 .0288243
696.284 .0288151
697.022 .0288057
697.761 .0287963
698.499 .0287867
699.237 .0287771
699.975 .0287674
700.713 .0287576
701.450 .0287477
702.187 .0287380
702.924 .0287284
703.661 .0287189
704.397 .0287090
705.133 .0286991
705.869 .0286889
706.605 .0286784
707.341 .0286671
708.076 .0286554
708.811 .0286434
709.546 .0286309
710.281 .0286182
711.015 .0286053
711.749 .0285917
712.483 .0285775
713.217 .0285624
713.950 .0285465
714.684 .0285292
715.417 .0285110
716.150 .0284919
716.882 .0284723
717.615 .0284523
718.347 .0284323
719.079 .0284119
719.811 .0283918
720.542 .0283712
721.273 .0283498
722.005 .0283275
722.735 .0283045
723.466 .0282809
724.196 .0282569
724.927 .0282328
725.656 .0282083
726.386 .0281838
727.116 .0281598
727.845 .0281358
728.574 .0281117
729.303 .0280876
730.031 .0280639
730.760 .0280400
731.488 .0280158
732.216 .0279919
732.944 .0279681
733.671 .0279447
734.398 .0279214
735.125 .0278980
735.852 .0278748
736.579 .0278521
737.305 .0278299
738.031 .0278088
738.757 .0277889
739.483 .0277698
740.208 .0277508
740.933 .0277326
741.658 .0277144
742.383 .0276956
743.108 .0276766
743.832 .0276572
744.556 .0276375
745.280 .0276182
746.004 .0275991
746.727 .0275807
747.450 .0275633
748.173 .0275466
748.896 .0275305
749.618 .0275151
750.340 .0275004
751.062 .0274860
751.784 .0274724
752.506 .0274596
753.227 .0274471
753.948 .0274355
754.669 .0274247
755.389 .0274147
756.110 .0274054
756.830 .0273966
757.550 .0273883
758.269 .0273806
758.989 .0273733
759.708 .0273663
760.427 .0273597
761.146 .0273537
761.864 .0273483
762.582 .0273435
763.300 .0273396
764.018 .0273361
764.736 .0273335
765.453 .0273317
766.170 .0273311
766.887 .0273314
767.603 .0273320
768.320 .0273333
769.036 .0273350
769.751 .0273365
770.467 .0273385
771.182 .0273405
771.897 .0273432
772.612 .0273462
773.327 .0273502
774.041 .0273544
774.755 .0273590
775.469 .0273643
776.183 .0273698
776.896 .0273752
777.609 .0273803
778.322 .0273846
779.035 .0273884
779.747 .0273923
780.459 .0273960
781.171 .0273996
781.882 .0274036
782.594 .0274077
783.305 .0274119
784.016 .0274160
784.726 .0274205
785.436 .0274248
786.147 .0274287
786.856 .0274320
787.566 .0274337
788.275 .0274344
788.984 .0274341
789.693 .0274328
790.401 .0274304
791.110 .0274267
791.818 .0274218
792.525 .0274155
793.233 .0274082
793.940 .0273994
794.647 .0273889
795.353 .0273766
796.060 .0273623
796.766 .0273460
797.472 .0273279
798.177 .0273088
798.883 .0272887
799.588 .0272685
800.292 .0272480
800.997 .0272273
801.701 .0272062
802.405 .0271848
803.109 .0271633
803.812 .0271418
804.515 .0271203
805.218 .0270991
805.921 .0270782
806.623 .0270577
807.325 .0270375
808.027 .0270178
808.728 .0269978
809.429 .0269771
810.130 .0269553
810.831 .0269323
811.531 .0269078
812.231 .0268822
812.931 .0268552
813.630 .0268274
814.330 .0267989
815.029 .0267694
815.727 .0267392
816.426 .0267089
817.124 .0266780
817.821 .0266472
818.519 .0266169
819.216 .0265873
819.913 .0265583
820.609 .0265308
821.306 .0265045
822.002 .0264793
822.697 .0264554
823.393 .0264325
824.088 .0264108
824.783 .0263905
825.477 .0263712
826.171 .0263525
826.865 .0263349
827.559 .0263181
828.252 .0263014
828.945 .0262851
829.638 .0262689
830.330 .0262525
831.023 .0262358
831.714 .0262190
832.406 .0262018
833.097 .0261841
833.788 .0261663
834.479 .0261481
835.169 .0261302
835.859 .0261124
836.548 .0260952
837.238 .0260793
837.927 .0260651
838.615 .0260526
839.304 .0260416
839.992 .0260319
840.680 .0260233
841.367 .0260155
842.054 .0260079
842.741 .0260010
843.428 .0259946
844.114 .0259890
844.800 .0259843
845.485 .0259805
846.170 .0259772
846.855 .0259745
847.540 .0259721
848.224 .0259692
848.908 .0259656
849.592 .0259615
850.275 .0259564
850.958 .0259513
851.641 .0259465
852.323 .0259422
853.005 .0259385
853.687 .0259360
854.368 .0259342
855.049 .0259332
855.730 .0259328
856.410 .0259328
857.090 .0259334
857.769 .0259343
858.449 .0259355
859.128 .0259367
859.806 .0259386
860.485 .0259413
861.163 .0259447
861.840 .0259492
862.518 .0259543
863.195 .0259606
863.871 .0259675
864.548 .0259753
865.224 .0259836
865.899 .0259923
866.574 .0260014
867.249 .0260105
867.924 .0260202
868.598 .0260302
869.272 .0260410
869.946 .0260529
870.619 .0260656
871.292 .0260795
871.964 .0260941
872.636 .0261092
873.308 .0261249
873.979 .0261407
874.651 .0261559
875.321 .0261701
875.992 .0261836
876.662 .0261958
877.331 .0262066
878.001 .0262167
878.670 .0262258
879.338 .0262340
880.007 .0262421
880.675 .0262495
881.342 .0262566
882.009 .0262633
882.676 .0262689
883.343 .0262732
884.009 .0262764
884.675 .0262777
885.340 .0262774
886.005 .0262753
886.670 .0262728
887.334 .0262695
887.998 .0262661
888.662 .0262632
889.325 .0262602
889.988 .0262578
890.650 .0262552
891.312 .0262521
891.974 .0262488
892.636 .0262447
893.297 .0262404
893.957 .0262354
894.618 .0262308
895.278 .0262263
895.937 .0262224
896.596 .0262191
897.255 .0262158
897.914 .0262123
898.572 .0262081
899.230 .0262027
899.887 .0261961
900.544 .0261880
901.201 .0261785
901.857 .0261677
902.513 .0261562
903.168 .0261432
903.823 .0261290
904.478 .0261132
905.132 .0260955
905.786 .0260756
906.440 .0260533
907.093 .0260285
907.746 .0260017
908.399 .0259736
909.051 .0259446
909.703 .0259149
910.354 .0258853
911.005 .0258555
911.656 .0258253
912.306 .0257940
912.956 .0257619
913.605 .0257283
914.254 .0256937
914.903 .0256583
915.551 .0256228
916.199 .0255884
916.847 .0255555
917.494 .0255242
918.141 .0254943
918.788 .0254656
919.434 .0254374
920.079 .0254084
920.725 .0253788
921.370 .0253483
922.014 .0253167
922.658 .0252846
923.302 .0252520
923.946 .0252195
924.589 .0251875
925.231 .0251556
925.873 .0251236
926.515 .0250915
927.157 .0250585
927.798 .0250239
928.439 .0249881
929.079 .0249507
929.719 .0249122
930.359 .0248724
930.998 .0248322
931.637 .0247920
932.275 .0247524
932.913 .0247137
933.551 .0246760
934.188 .0246402
934.825 .0246054
935.462 .0245712
936.098 .0245378
936.733 .0245046
937.369 .0244716
938.004 .0244392
938.638 .0244076
939.273 .0243773
939.907 .0243489
940.540 .0243225
941.173 .0242987
941.806 .0242776
942.438 .0242584
943.070 .0242410
943.702 .0242248
944.333 .0242094
944.964 .0241941
945.594 .0241791
946.224 .0241648
946.854 .0241512
947.483 .0241390
948.112 .0241277
948.741 .0241180
949.369 .0241095
949.996 .0241021
950.624 .0240955
951.251 .0240895
951.878 .0240835
952.504 .0240772
953.130 .0240706
953.755 .0240636
954.380 .0240564
955.005 .0240492
955.629 .0240420
956.253 .0240352
956.877 .0240288
957.500 .0240230
958.123 .0240173
958.746 .0240124
959.368 .0240074
959.990 .0240026
960.611 .0239979
961.232 .0239931
961.853 .0239886
962.473 .0239846
963.093 .0239813
963.712 .0239787
964.331 .0239766
964.950 .0239753
965.569 .0239752
966.187 .0239764
966.804 .0239791
967.422 .0239831
968.039 .0239890
968.655 .0239966
969.272 .0240056
969.887 .0240159
970.503 .0240271
971.118 .0240388
971.733 .0240511
972.347 .0240633
972.961 .0240763
973.575 .0240898
974.188 .0241040
974.801 .0241186
975.414 .0241334
976.026 .0241478
976.638 .0241618
977.250 .0241750
977.861 .0241876
978.472 .0241996
979.083 .0242113
979.693 .0242225
980.303 .0242335
980.912 .0242446
981.521 .0242552
982.130 .0242653
982.738 .0242753
983.346 .0242850
983.954 .0242946
984.562 .0243047
985.169 .0243148
985.775 .0243253
986.382 .0243360
986.988 .0243463
987.594 .0243559
988.199 .0243651
988.804 .0243736
989.409 .0243813
990.013 .0243892
990.617 .0243974
991.221 .0244060
991.824 .0244160
992.427 .0244273
993.030 .0244398
993.632 .0244533
994.234 .0244679
994.836 .0244828
995.438 .0244986
996.039 .0245153
996.640 .0245325
997.240 .0245509
997.840 .0245712
998.440 .0245931
999.040 .0246162
999.639 .0246407
1000.238 .0246656
1000.836 .0246902
1001.435 .0247140
1002.033 .0247361
1002.630 .0247567
1003.228 .0247762
1003.825 .0247947
1004.422 .0248123
1005.018 .0248298
1005.614 .0248472
1006.210 .0248637
1006.806 .0248795
1007.401 .0248939
1007.996 .0249059
1008.591 .0249157
1009.186 .0249235
1009.780 .0249300
1010.374 .0249354
1010.967 .0249408
1011.561 .0249464
1012.154 .0249525
1012.746 .0249590
1013.339 .0249647
1013.931 .0249697
1014.523 .0249738
1015.115 .0249759
1015.706 .0249767
1016.298 .0249775
1016.888 .0249790
1017.479 .0249813
1018.069 .0249857
1018.660 .0249921
1019.250 .0250003
1019.839 .0250098
1020.429 .0250202
1021.018 .0250309
1021.607 .0250419
1022.195 .0250531
1022.784 .0250635
1023.372 .0250743
1023.960 .0250847
1024.547 .0250946
1025.135 .0251041
1025.722 .0251129
1026.309 .0251212
1026.896 .0251285
1027.483 .0251362
1028.069 .0251438
1028.655 .0251508
1029.241 .0251574
1029.827 .0251634
1030.412 .0251679
1030.997 .0251707
1031.582 .0251715
1032.167 .0251699
1032.752 .0251665
1033.336 .0251616
1033.921 .0251561
1034.505 .0251505
1035.089 .0251453
1035.672 .0251402
1036.256 .0251345
1036.839 .0251282
1037.422 .0251199
1038.005 .0251099
1038.588 .0250981
1039.171 .0250843
1039.753 .0250687
1040.335 .0250522
1040.918 .0250352
1041.500 .0250177
1042.081 .0250005
1042.663 .0249834
1043.244 .0249664
1043.826 .0249483
1044.407 .0249292
1044.988 .0249095
1045.569 .0248889
1046.150 .0248676
1046.730 .0248459
1047.311 .0248246
1047.891 .0248043
1048.471 .0247847
1049.052 .0247662
1049.632 .0247487
1050.211 .0247329
1050.791 .0247170
1051.371 .0247016
1051.950 .0246867
1052.530 .0246715
1053.109 .0246558
1053.688 .0246402
1054.268 .0246251
1054.847 .0246100
1055.426 .0245954
1056.005 .0245808
1056.583 .0245664
1057.162 .0245506
1057.741 .0245319
1058.319 .0245113
1058.898 .0244886
1059.476 .0244630
1060.055 .0244343
1060.633 .0244046
1061.211 .0243748
1061.790 .0243454
1062.368 .0243177
1062.946 .0242924
1063.524 .0242707
1064.102 .0242503
1064.680 .0242314
1065.258 .0242125
1065.836 .0241934
1066.414 .0241730
1066.992 .0241520
1067.570 .0241315
1068.148 .0241120
1068.726 .0240946
1069.304 .0240801
1069.882 .0240696
1070.460 .0240627
1071.038 .0240567
1071.616 .0240510
1072.194 .0240439
1072.772 .0240330
1073.350 .0240168
1073.928 .0239967
1074.506 .0239736
1075.084 .0239496
1075.662 .0239256
1076.240 .0239035
1076.819 .0238839
1077.397 .0238676
1077.976 .0238531
1078.554 .0238393
1079.133 .0238258
1079.711 .0238106
1080.290 .0237930
1080.869 .0237732
1081.448 .0237520
1082.027 .0237314
1082.606 .0237116
1083.185 .0236943
1083.764 .0236809
1084.343 .0236717
1084.923 .0236651
1085.502 .0236614
1086.082 .0236602
1086.662 .0236618
1087.242 .0236626
1087.822 .0236634
1088.402 .0236639
1088.983 .0236639
1089.563 .0236630
1090.144 .0236623
1090.725 .0236629
1091.306 .0236642
1091.887 .0236666
1092.469 .0236707
1093.050 .0236763
1093.632 .0236837
1094.214 .0236910
1094.796 .0236990
1095.379 .0237065
1095.961 .0237118
1096.544 .0237130
1097.127 .0237136
1097.710 .0237136
1098.294 .0237118
1098.877 .0237115
1099.461 .0237142
1100.046 .0237201
1100.630 .0237311
1101.215 .0237462
1101.800 .0237656
1102.385 .0237879
1102.970 .0238129
1103.556 .0238378
1104.142 .0238633
1104.728 .0238911
1105.315 .0239193
1105.902 .0239501
1106.489 .0239844
1107.077 .0240209
1107.664 .0240612
1108.253 .0241061
1108.841 .0241530
1109.430 .0241990
1110.019 .0242441
1110.609 .0242857
1111.198 .0243238
1111.789 .0243587
1112.379 .0243931
1112.970 .0244260
1113.561 .0244600
1114.153 .0244942
1114.745 .0245274
1115.338 .0245611
1115.931 .0245959
1116.524 .0246292
1117.117 .0246653
1117.712 .0247033
1118.306 .0247451
1118.901 .0247889
1119.496 .0248409
1120.092 .0248954
1120.689 .0249538
1121.285 .0250133
1121.882 .0250719
1122.480 .0251286
1123.078 .0251860
1123.677 .0252404
1124.276 .0252947
1124.875 .0253490
1125.476 .0254061
1126.076 .0254591
1126.677 .0255144
1127.279 .0255672
1127.881 .0256171
1128.484 .0256633
1129.087 .0257076
1129.691 .0257474
1130.295 .0257905
1130.900 .0258396
1131.505 .0258977
1132.111 .0259688
1132.718 .0260544
1133.325 .0261496
1133.933 .0262562
1134.541 .0263701
1135.150 .0264891
1135.760 .0266069
1136.370 .0267291
1136.981 .0268529
1137.592 .0269766
1138.204 .0271077
1138.817 .0272475
1139.431 .0273935
1140.045 .0275434
1140.660 .0276949
1141.275 .0278578
1141.891 .0280440
1142.508 .0281811
1143.126 .0282559
1143.744 .0283803
1144.363 .0288545
1144.983 .0295500
