Measurement Sequence started on: 15-12-46-377
Integration time: 28
Scans to Average: 2 
>>>>>Begin Spectral Data<<<<<
432.689 .0000100
433.621 .0000100
434.552 .0000100
435.482 .0000100
436.410 .0000100
437.337 .0000100
438.262 .0266270
439.187 .0564679
440.110 .0936177
441.031 .1356041
441.952 .1763792
442.871 .2085561
443.789 .2263118
444.705 .2276158
445.621 .2148576
446.535 .1933324
447.447 .1688498
448.359 .1313370
449.269 .1125821
450.178 .1006198
451.086 .0920861
451.993 .0855909
452.898 .0804428
453.803 .0762592
454.706 .0728396
455.608 .0699828
456.508 .0675645
457.408 .0654955
458.306 .0636824
459.204 .0620746
460.100 .0606143
460.995 .0592946
461.888 .0580931
462.781 .0569918
463.673 .0559639
464.563 .0550232
465.452 .0541532
466.340 .0533387
467.228 .0525807
468.114 .0518707
468.999 .0512094
469.882 .0505867
470.765 .0500059
471.647 .0494531
472.528 .0489311
473.407 .0484505
474.286 .0479998
475.163 .0475940
476.040 .0472308
476.915 .0469102
477.790 .0466413
478.663 .0464274
479.535 .0462517
480.407 .0461140
481.277 .0460123
482.147 .0459374
483.015 .0458821
483.883 .0458401
484.749 .0458076
485.615 .0457789
486.479 .0457604
487.343 .0457529
488.206 .0457500
489.067 .0457593
489.928 .0457727
490.788 .0457977
491.647 .0458272
492.505 .0458605
493.362 .0459055
494.218 .0459676
495.073 .0460475
495.928 .0461453
496.781 .0462607
497.634 .0464181
498.486 .0466195
499.337 .0468652
500.187 .0471512
501.036 .0474850
501.884 .0478631
502.731 .0482760
503.578 .0487254
504.424 .0492063
505.268 .0497125
506.113 .0502570
506.956 .0508300
507.798 .0514449
508.640 .0521119
509.480 .0528342
510.320 .0536306
511.160 .0545028
511.998 .0554403
512.836 .0564459
513.672 .0575494
514.508 .0587530
515.344 .0600517
516.178 .0614730
517.012 .0630608
517.845 .0648461
518.677 .0668738
519.508 .0691786
520.339 .0717936
521.169 .0747915
521.998 .0781511
522.826 .0818894
523.654 .0860867
524.481 .0907514
525.307 .0959317
526.133 .1016248
526.958 .1078678
527.782 .1145536
528.605 .1216349
529.428 .1290262
530.250 .1362339
531.072 .1429677
531.892 .1488183
532.712 .1534420
533.532 .1565473
534.350 .1579396
535.168 .1574929
535.986 .1552554
536.802 .1514577
537.618 .1463042
538.434 .1400459
539.249 .1332008
540.063 .1260166
540.876 .1187583
541.689 .1116348
542.501 .1048981
543.313 .0986317
544.124 .0929553
544.934 .0878505
545.744 .0832571
546.553 .0791240
547.361 .0754499
548.169 .0721587
548.976 .0691946
549.783 .0665345
550.589 .0641350
551.395 .0619414
552.200 .0599576
553.004 .0581541
553.808 .0565149
554.611 .0550452
555.414 .0537507
556.216 .0525950
557.018 .0515687
557.819 .0506511
558.619 .0498051
559.419 .0490242
560.218 .0483122
561.017 .0476461
561.815 .0470222
562.613 .0464347
563.410 .0458768
564.207 .0453365
565.003 .0448189
565.799 .0443157
566.594 .0438115
567.388 .0433124
568.182 .0428106
568.976 .0422929
569.769 .0417759
570.562 .0412611
571.354 .0407461
572.145 .0402419
572.936 .0397436
573.727 .0392599
574.517 .0387890
575.307 .0383411
576.096 .0379159
576.885 .0375121
577.673 .0371381
578.461 .0367848
579.248 .0364515
580.035 .0361394
580.821 .0358442
581.607 .0355647
582.392 .0352990
583.177 .0350466
583.962 .0348067
584.746 .0345846
585.529 .0343799
586.313 .0341937
587.095 .0340252
587.878 .0338723
588.660 .0337320
589.441 .0336029
590.222 .0334817
591.003 .0333685
591.783 .0332649
592.563 .0331693
593.342 .0330832
594.121 .0330043
594.899 .0329323
595.678 .0328663
596.455 .0328067
597.233 .0327503
598.009 .0326959
598.786 .0326428
599.562 .0325906
600.338 .0325380
601.113 .0324863
601.888 .0324337
602.663 .0323810
603.437 .0323299
604.211 .0322791
604.984 .0322282
605.757 .0321789
606.530 .0321300
607.302 .0320824
608.074 .0320363
608.845 .0319924
609.616 .0319500
610.387 .0319116
611.158 .0318775
611.928 .0318472
612.697 .0318210
613.467 .0317995
614.236 .0317813
615.004 .0317668
615.773 .0317547
616.541 .0317430
617.308 .0317325
618.076 .0317222
618.843 .0317111
619.609 .0316995
620.375 .0316876
621.141 .0316762
621.907 .0316644
622.672 .0316524
623.437 .0316391
624.202 .0316239
624.966 .0316069
625.730 .0315877
626.493 .0315662
627.257 .0315431
628.020 .0315184
628.782 .0314928
629.545 .0314665
630.307 .0314398
631.068 .0314129
631.830 .0313854
632.591 .0313574
633.352 .0313293
634.112 .0312992
634.872 .0312687
635.632 .0312371
636.392 .0312054
637.151 .0311734
637.910 .0311407
638.668 .0311079
639.427 .0310753
640.185 .0310431
640.943 .0310104
641.700 .0309785
642.457 .0309484
643.214 .0309193
643.971 .0308915
644.727 .0308657
645.483 .0308415
646.239 .0308190
646.994 .0307980
647.750 .0307778
648.505 .0307584
649.259 .0307400
650.014 .0307216
650.768 .0307037
651.521 .0306859
652.275 .0306681
653.028 .0306498
653.781 .0306318
654.534 .0306130
655.286 .0305928
656.039 .0305718
656.791 .0305507
657.542 .0305285
658.294 .0305061
659.045 .0304827
659.796 .0304589
660.546 .0304346
661.297 .0304094
662.047 .0303827
662.796 .0303553
663.546 .0303276
664.295 .0302993
665.044 .0302705
665.793 .0302416
666.542 .0302124
667.290 .0301836
668.038 .0301548
668.786 .0301261
669.533 .0300974
670.281 .0300696
671.028 .0300424
671.774 .0300160
672.521 .0299908
673.267 .0299668
674.013 .0299444
674.759 .0299232
675.505 .0299033
676.250 .0298842
676.995 .0298658
677.740 .0298478
678.484 .0298301
679.229 .0298122
679.973 .0297944
680.717 .0297765
681.460 .0297584
682.204 .0297398
682.947 .0297210
683.690 .0297022
684.433 .0296835
685.175 .0296649
685.917 .0296468
686.659 .0296289
687.401 .0296118
688.142 .0295946
688.884 .0295775
689.625 .0295604
690.365 .0295429
691.106 .0295247
691.846 .0295063
692.586 .0294876
693.326 .0294691
694.066 .0294507
694.805 .0294331
695.545 .0294160
696.284 .0293995
697.022 .0293831
697.761 .0293667
698.499 .0293503
699.237 .0293337
699.975 .0293166
700.713 .0292995
701.450 .0292822
702.187 .0292647
702.924 .0292472
703.661 .0292298
704.397 .0292132
705.133 .0291971
705.869 .0291818
706.605 .0291671
707.341 .0291530
708.076 .0291392
708.811 .0291257
709.546 .0291120
710.281 .0290981
711.015 .0290833
711.749 .0290682
712.483 .0290522
713.217 .0290360
713.950 .0290199
714.684 .0290040
715.417 .0289886
716.150 .0289742
716.882 .0289604
717.615 .0289467
718.347 .0289331
719.079 .0289193
719.811 .0289045
720.542 .0288893
721.273 .0288733
722.005 .0288573
722.735 .0288419
723.466 .0288268
724.196 .0288120
724.927 .0287978
725.656 .0287841
726.386 .0287702
727.116 .0287564
727.845 .0287424
728.574 .0287283
729.303 .0287141
730.031 .0287003
730.760 .0286870
731.488 .0286744
732.216 .0286626
732.944 .0286515
733.671 .0286404
734.398 .0286290
735.125 .0286170
735.852 .0286046
736.579 .0285914
737.305 .0285777
738.031 .0285635
738.757 .0285491
739.483 .0285340
740.208 .0285185
740.933 .0285020
741.658 .0284852
742.383 .0284675
743.108 .0284490
743.832 .0284298
744.556 .0284104
745.280 .0283907
746.004 .0283711
746.727 .0283518
747.450 .0283328
748.173 .0283137
748.896 .0282951
749.618 .0282764
750.340 .0282581
751.062 .0282397
751.784 .0282219
752.506 .0282044
753.227 .0281872
753.948 .0281703
754.669 .0281539
755.389 .0281382
756.110 .0281226
756.830 .0281071
757.550 .0280914
758.269 .0280754
758.989 .0280587
759.708 .0280408
760.427 .0280223
761.146 .0280029
761.864 .0279825
762.582 .0279610
763.300 .0279388
764.018 .0279161
764.736 .0278931
765.453 .0278701
766.170 .0278469
766.887 .0278236
767.603 .0278001
768.320 .0277769
769.036 .0277538
769.751 .0277314
770.467 .0277101
771.182 .0276900
771.897 .0276714
772.612 .0276542
773.327 .0276384
774.041 .0276240
774.755 .0276107
775.469 .0275985
776.183 .0275872
776.896 .0275769
777.609 .0275676
778.322 .0275590
779.035 .0275510
779.747 .0275436
780.459 .0275359
781.171 .0275279
781.882 .0275193
782.594 .0275097
783.305 .0274993
784.016 .0274884
784.726 .0274778
785.436 .0274671
786.147 .0274570
786.856 .0274474
787.566 .0274381
788.275 .0274297
788.984 .0274220
789.693 .0274144
790.401 .0274074
791.110 .0274008
791.818 .0273946
792.525 .0273893
793.233 .0273850
793.940 .0273818
794.647 .0273795
795.353 .0273783
796.060 .0273771
796.766 .0273757
797.472 .0273737
798.177 .0273704
798.883 .0273658
799.588 .0273596
800.292 .0273517
800.997 .0273424
801.701 .0273322
802.405 .0273214
803.109 .0273100
803.812 .0272987
804.515 .0272874
805.218 .0272758
805.921 .0272642
806.623 .0272523
807.325 .0272404
808.027 .0272286
808.728 .0272169
809.429 .0272057
810.130 .0271952
810.831 .0271857
811.531 .0271771
812.231 .0271692
812.931 .0271615
813.630 .0271536
814.330 .0271450
815.029 .0271362
815.727 .0271267
816.426 .0271168
817.124 .0271067
817.821 .0270965
818.519 .0270867
819.216 .0270777
819.913 .0270699
820.609 .0270628
821.306 .0270567
822.002 .0270521
822.697 .0270484
823.393 .0270460
824.088 .0270449
824.783 .0270447
825.477 .0270454
826.171 .0270470
826.865 .0270489
827.559 .0270518
828.252 .0270556
828.945 .0270600
829.638 .0270649
830.330 .0270707
831.023 .0270764
831.714 .0270817
832.406 .0270867
833.097 .0270911
833.788 .0270942
834.479 .0270965
835.169 .0270977
835.859 .0270984
836.548 .0270989
837.238 .0270994
837.927 .0270998
838.615 .0271006
839.304 .0271010
839.992 .0271009
840.680 .0271000
841.367 .0270980
842.054 .0270947
842.741 .0270898
843.428 .0270838
844.114 .0270766
844.800 .0270685
845.485 .0270593
846.170 .0270494
846.855 .0270390
847.540 .0270276
848.224 .0270157
848.908 .0270033
849.592 .0269903
850.275 .0269766
850.958 .0269622
851.641 .0269468
852.323 .0269306
853.005 .0269136
853.687 .0268953
854.368 .0268759
855.049 .0268557
855.730 .0268347
856.410 .0268131
857.090 .0267913
857.769 .0267694
858.449 .0267473
859.128 .0267250
859.806 .0267022
860.485 .0266790
861.163 .0266553
861.840 .0266310
862.518 .0266057
863.195 .0265796
863.871 .0265529
864.548 .0265257
865.224 .0264990
865.899 .0264730
866.574 .0264481
867.249 .0264245
867.924 .0264025
868.598 .0263819
869.272 .0263626
869.946 .0263443
870.619 .0263269
871.292 .0263100
871.964 .0262934
872.636 .0262769
873.308 .0262611
873.979 .0262464
874.651 .0262327
875.321 .0262199
875.992 .0262082
876.662 .0261971
877.331 .0261861
878.001 .0261744
878.670 .0261621
879.338 .0261485
880.007 .0261340
880.675 .0261186
881.342 .0261028
882.009 .0260871
882.676 .0260721
883.343 .0260577
884.009 .0260448
884.675 .0260324
885.340 .0260203
886.005 .0260083
886.670 .0259964
887.334 .0259844
887.998 .0259723
888.662 .0259605
889.325 .0259489
889.988 .0259374
890.650 .0259264
891.312 .0259153
891.974 .0259048
892.636 .0258945
893.297 .0258847
893.957 .0258753
894.618 .0258660
895.278 .0258570
895.937 .0258484
896.596 .0258401
897.255 .0258320
897.914 .0258238
898.572 .0258154
899.230 .0258068
899.887 .0257977
900.544 .0257880
901.201 .0257781
901.857 .0257675
902.513 .0257559
903.168 .0257434
903.823 .0257298
904.478 .0257149
905.132 .0256983
905.786 .0256798
906.440 .0256596
907.093 .0256381
907.746 .0256152
908.399 .0255917
909.051 .0255685
909.703 .0255458
910.354 .0255235
911.005 .0255020
911.656 .0254819
912.306 .0254628
912.956 .0254446
913.605 .0254276
914.254 .0254115
914.903 .0253965
915.551 .0253827
916.199 .0253699
916.847 .0253581
917.494 .0253475
918.141 .0253375
918.788 .0253277
919.434 .0253188
920.079 .0253101
920.725 .0253015
921.370 .0252933
922.014 .0252856
922.658 .0252780
923.302 .0252707
923.946 .0252640
924.589 .0252572
925.231 .0252498
925.873 .0252420
926.515 .0252325
927.157 .0252221
927.798 .0252103
928.439 .0251969
929.079 .0251820
929.719 .0251667
930.359 .0251504
930.998 .0251336
931.637 .0251170
932.275 .0251012
932.913 .0250863
933.551 .0250727
934.188 .0250604
934.825 .0250499
935.462 .0250410
936.098 .0250338
936.733 .0250276
937.369 .0250235
938.004 .0250211
938.638 .0250203
939.273 .0250217
939.907 .0250247
940.540 .0250292
941.173 .0250350
941.806 .0250414
942.438 .0250483
943.070 .0250554
943.702 .0250622
944.333 .0250683
944.964 .0250741
945.594 .0250791
946.224 .0250835
946.854 .0250876
947.483 .0250911
948.112 .0250938
948.741 .0250960
949.369 .0250982
949.996 .0250998
950.624 .0251020
951.251 .0251046
951.878 .0251076
952.504 .0251110
953.130 .0251140
953.755 .0251162
954.380 .0251178
955.005 .0251188
955.629 .0251189
956.253 .0251185
956.877 .0251185
957.500 .0251192
958.123 .0251217
958.746 .0251254
959.368 .0251299
959.990 .0251349
960.611 .0251395
961.232 .0251432
961.853 .0251457
962.473 .0251475
963.093 .0251483
963.712 .0251491
964.331 .0251498
964.950 .0251502
965.569 .0251509
966.187 .0251520
966.804 .0251534
967.422 .0251544
968.039 .0251552
968.655 .0251556
969.272 .0251558
969.887 .0251558
970.503 .0251553
971.118 .0251545
971.733 .0251537
972.347 .0251525
972.961 .0251508
973.575 .0251494
974.188 .0251483
974.801 .0251468
975.414 .0251456
976.026 .0251439
976.638 .0251413
977.250 .0251375
977.861 .0251330
978.472 .0251272
979.083 .0251206
979.693 .0251129
980.303 .0251047
980.912 .0250964
981.521 .0250886
982.130 .0250806
982.738 .0250732
983.346 .0250661
983.954 .0250592
984.562 .0250521
985.169 .0250455
985.775 .0250388
986.382 .0250322
986.988 .0250254
987.594 .0250182
988.199 .0250104
988.804 .0250023
989.409 .0249935
990.013 .0249850
990.617 .0249766
991.221 .0249689
991.824 .0249620
992.427 .0249570
993.030 .0249529
993.632 .0249501
994.234 .0249482
994.836 .0249462
995.438 .0249442
996.039 .0249418
996.640 .0249385
997.240 .0249351
997.840 .0249321
998.440 .0249294
999.040 .0249270
999.639 .0249251
1000.238 .0249226
1000.836 .0249194
1001.435 .0249146
1002.033 .0249073
1002.630 .0248976
1003.228 .0248866
1003.825 .0248746
1004.422 .0248623
1005.018 .0248513
1005.614 .0248414
1006.210 .0248331
1006.806 .0248264
1007.401 .0248204
1007.996 .0248147
1008.591 .0248087
1009.186 .0248024
1009.780 .0247954
1010.374 .0247885
1010.967 .0247817
1011.561 .0247756
1012.154 .0247706
1012.746 .0247663
1013.339 .0247621
1013.931 .0247579
1014.523 .0247533
1015.115 .0247471
1015.706 .0247389
1016.298 .0247286
1016.888 .0247168
1017.479 .0247036
1018.069 .0246900
1018.660 .0246768
1019.250 .0246643
1019.839 .0246535
1020.429 .0246439
1021.018 .0246355
1021.607 .0246278
1022.195 .0246204
1022.784 .0246130
1023.372 .0246052
1023.960 .0245974
1024.547 .0245892
1025.135 .0245822
1025.722 .0245762
1026.309 .0245716
1026.896 .0245681
1027.483 .0245660
1028.069 .0245645
1028.655 .0245627
1029.241 .0245607
1029.827 .0245580
1030.412 .0245544
1030.997 .0245504
1031.582 .0245453
1032.167 .0245404
1032.752 .0245350
1033.336 .0245295
1033.921 .0245235
1034.505 .0245170
1035.089 .0245088
1035.672 .0244994
1036.256 .0244889
1036.839 .0244778
1037.422 .0244654
1038.005 .0244530
1038.588 .0244417
1039.171 .0244310
1039.753 .0244208
1040.335 .0244118
1040.918 .0244040
1041.500 .0243966
1042.081 .0243884
1042.663 .0243804
1043.244 .0243721
1043.826 .0243633
1044.407 .0243546
1044.988 .0243459
1045.569 .0243380
1046.150 .0243314
1046.730 .0243241
1047.311 .0243172
1047.891 .0243100
1048.471 .0243013
1049.052 .0242911
1049.632 .0242806
1050.211 .0242700
1050.791 .0242585
1051.371 .0242483
1051.950 .0242407
1052.530 .0242335
1053.109 .0242275
1053.688 .0242213
1054.268 .0242143
1054.847 .0242067
1055.426 .0241980
1056.005 .0241880
1056.583 .0241793
1057.162 .0241718
1057.741 .0241650
1058.319 .0241597
1058.898 .0241571
1059.476 .0241542
1060.055 .0241501
1060.633 .0241451
1061.211 .0241389
1061.790 .0241310
1062.368 .0241235
1062.946 .0241172
1063.524 .0241135
1064.102 .0241127
1064.680 .0241136
1065.258 .0241156
1065.836 .0241189
1066.414 .0241212
1066.992 .0241219
1067.570 .0241207
1068.148 .0241178
1068.726 .0241122
1069.304 .0241061
1069.882 .0241013
1070.460 .0240970
1071.038 .0240938
1071.616 .0240916
1072.194 .0240914
1072.772 .0240923
1073.350 .0240944
1073.928 .0240974
1074.506 .0241018
1075.084 .0241076
1075.662 .0241139
1076.240 .0241213
1076.819 .0241309
1077.397 .0241425
1077.976 .0241549
1078.554 .0241683
1079.133 .0241807
1079.711 .0241906
1080.290 .0241994
1080.869 .0242062
1081.448 .0242097
1082.027 .0242109
1082.606 .0242101
1083.185 .0242084
1083.764 .0242066
1084.343 .0242056
1084.923 .0242031
1085.502 .0242009
1086.082 .0241971
1086.662 .0241922
1087.242 .0241863
1087.822 .0241819
1088.402 .0241781
1088.983 .0241785
1089.563 .0241830
1090.144 .0241921
1090.725 .0242054
1091.306 .0242247
1091.887 .0242457
1092.469 .0242691
1093.050 .0242903
1093.632 .0243097
1094.214 .0243254
1094.796 .0243416
1095.379 .0243562
1095.961 .0243732
1096.544 .0243913
1097.127 .0244116
1097.710 .0244327
1098.294 .0244545
1098.877 .0244730
1099.461 .0244896
1100.046 .0245024
1100.630 .0245134
1101.215 .0245223
1101.800 .0245332
1102.385 .0245460
1102.970 .0245648
1103.556 .0245888
1104.142 .0246182
1104.728 .0246505
1105.315 .0246854
1105.902 .0247217
1106.489 .0247599
1107.077 .0247986
1107.664 .0248383
1108.253 .0248828
1108.841 .0249322
1109.430 .0249862
1110.019 .0250427
1110.609 .0251002
1111.198 .0251573
1111.789 .0252103
1112.379 .0252576
1112.970 .0252984
1113.561 .0253336
1114.153 .0253639
1114.745 .0253915
1115.338 .0254206
1115.931 .0254516
1116.524 .0254845
1117.117 .0255201
1117.712 .0255581
1118.306 .0255970
1118.901 .0256375
1119.496 .0256782
1120.092 .0257219
1120.689 .0257692
1121.285 .0258186
1121.882 .0258716
1122.480 .0259305
1123.078 .0259965
1123.677 .0260674
1124.276 .0261442
1124.875 .0262246
1125.476 .0263049
1126.076 .0263832
1126.677 .0264612
1127.279 .0265350
1127.881 .0266075
1128.484 .0266762
1129.087 .0267430
1129.691 .0268122
1130.295 .0268837
1130.900 .0269591
1131.505 .0270381
1132.111 .0271253
1132.718 .0272185
1133.325 .0273146
1133.933 .0274170
1134.541 .0275233
1135.150 .0276368
1135.760 .0277525
1136.370 .0278702
1136.981 .0279910
1137.592 .0281144
1138.204 .0282451
1138.817 .0283756
1139.431 .0285085
1140.045 .0286393
1140.660 .0287587
1141.275 .0288785
1141.891 .0290124
1142.508 .0291390
1143.126 .0292218
1143.744 .0290486
1144.363 .0294806
1144.983 .0301709
