Measurement Sequence started on: 15-12-46-377
Integration time: 28
Scans to Average: 2 
>>>>>Begin Spectral Data<<<<<
432.689 .0000100
433.621 .0000100
434.552 .0000100
435.482 .0000100
436.410 .0000100
437.337 .0000100
438.262 .0283931
439.187 .0599781
440.110 .0992741
441.031 .1435450
441.952 .1863854
442.871 .2199317
443.789 .2380542
444.705 .2386855
445.621 .2244687
446.535 .2011110
447.447 .1748313
448.359 .1348424
449.269 .1151507
450.178 .1026928
451.086 .0939477
451.993 .0873391
452.898 .0821541
453.803 .0779410
454.706 .0744998
455.608 .0716240
456.508 .0692005
457.408 .0671548
458.306 .0654014
459.204 .0638631
460.100 .0624843
460.995 .0612446
461.888 .0601127
462.781 .0590454
463.673 .0580458
464.563 .0570991
465.452 .0562063
466.340 .0553430
467.228 .0545123
468.114 .0537269
468.999 .0529857
469.882 .0522862
470.765 .0516314
471.647 .0510335
472.528 .0504858
473.407 .0499875
474.286 .0495338
475.163 .0491272
476.040 .0487676
476.915 .0484503
477.790 .0481772
478.663 .0479461
479.535 .0477493
480.407 .0475844
481.277 .0474539
482.147 .0473610
483.015 .0472928
483.883 .0472510
484.749 .0472246
485.615 .0472157
486.479 .0472089
487.343 .0472080
488.206 .0472141
489.067 .0472256
489.928 .0472387
490.788 .0472572
491.647 .0472858
492.505 .0473299
493.362 .0473900
494.218 .0474774
495.073 .0475882
495.928 .0477274
496.781 .0478850
497.634 .0480726
498.486 .0482902
499.337 .0485381
500.187 .0488103
501.036 .0491155
501.884 .0494555
502.731 .0498333
503.578 .0502585
504.424 .0507233
505.268 .0512242
506.113 .0517525
506.956 .0523071
507.798 .0528912
508.640 .0535099
509.480 .0541802
510.320 .0549084
511.160 .0557126
511.998 .0565984
512.836 .0575663
513.672 .0586445
514.508 .0598339
515.344 .0611275
516.178 .0625492
517.012 .0641340
517.845 .0659041
518.677 .0679218
519.508 .0702223
520.339 .0728838
521.169 .0759469
521.998 .0794651
522.826 .0835101
523.654 .0880981
524.481 .0932727
525.307 .0990578
526.133 .1054430
526.958 .1124267
527.782 .1199021
528.605 .1277149
529.428 .1357728
530.250 .1435189
531.072 .1506177
531.892 .1566260
532.712 .1612098
533.532 .1641494
534.350 .1652185
535.168 .1643457
535.986 .1616443
536.802 .1572983
537.618 .1516355
538.434 .1448179
539.249 .1373992
540.063 .1295825
540.876 .1216900
541.689 .1140045
542.501 .1067239
543.313 .1000471
544.124 .0940979
544.934 .0888223
545.744 .0841734
546.553 .0800477
547.361 .0764266
548.169 .0732458
548.976 .0704343
549.783 .0679365
550.589 .0656986
551.395 .0636726
552.200 .0618586
553.004 .0602044
553.808 .0586798
554.611 .0572870
555.414 .0560005
556.216 .0548103
557.018 .0537172
557.819 .0526937
558.619 .0517271
559.419 .0508241
560.218 .0499766
561.017 .0491733
561.815 .0484080
562.613 .0476888
563.410 .0469993
564.207 .0463407
565.003 .0457055
565.799 .0450799
566.594 .0444736
567.388 .0438928
568.182 .0433291
568.976 .0427872
569.769 .0422663
570.562 .0417648
571.354 .0412811
572.145 .0408149
572.936 .0403591
573.727 .0399095
574.517 .0394691
575.307 .0390403
576.096 .0386256
576.885 .0382299
577.673 .0378590
578.461 .0375130
579.248 .0371921
580.035 .0368906
580.821 .0366078
581.607 .0363401
582.392 .0360898
583.177 .0358522
583.962 .0356267
584.746 .0354176
585.529 .0352242
586.313 .0350475
587.095 .0348874
587.878 .0347409
588.660 .0346053
589.441 .0344794
590.222 .0343629
591.003 .0342523
591.783 .0341483
592.563 .0340517
593.342 .0339615
594.121 .0338761
594.899 .0337967
595.678 .0337215
596.455 .0336501
597.233 .0335824
598.009 .0335147
598.786 .0334483
599.562 .0333847
600.338 .0333237
601.113 .0332650
601.888 .0332098
602.663 .0331579
603.437 .0331075
604.211 .0330580
604.984 .0330087
605.757 .0329593
606.530 .0329111
607.302 .0328645
608.074 .0328206
608.845 .0327797
609.616 .0327434
610.387 .0327109
611.158 .0326823
611.928 .0326562
612.697 .0326308
613.467 .0326051
614.236 .0325793
615.004 .0325529
615.773 .0325260
616.541 .0324987
617.308 .0324729
618.076 .0324487
618.843 .0324260
619.609 .0324046
620.375 .0323845
621.141 .0323654
621.907 .0323468
622.672 .0323272
623.437 .0323069
624.202 .0322861
624.966 .0322649
625.730 .0322428
626.493 .0322201
627.257 .0321971
628.020 .0321736
628.782 .0321489
629.545 .0321238
630.307 .0320981
631.068 .0320716
631.830 .0320438
632.591 .0320148
633.352 .0319849
634.112 .0319531
634.872 .0319197
635.632 .0318858
636.392 .0318514
637.151 .0318174
637.910 .0317839
638.668 .0317519
639.427 .0317223
640.185 .0316944
640.943 .0316676
641.700 .0316420
642.457 .0316180
643.214 .0315940
643.971 .0315700
644.727 .0315474
645.483 .0315247
646.239 .0315024
646.994 .0314801
647.750 .0314579
648.505 .0314355
649.259 .0314128
650.014 .0313891
650.768 .0313642
651.521 .0313387
652.275 .0313123
653.028 .0312849
653.781 .0312578
654.534 .0312308
655.286 .0312037
656.039 .0311767
656.791 .0311500
657.542 .0311228
658.294 .0310962
659.045 .0310691
659.796 .0310418
660.546 .0310143
661.297 .0309865
662.047 .0309585
662.796 .0309299
663.546 .0309016
664.295 .0308722
665.044 .0308423
665.793 .0308119
666.542 .0307808
667.290 .0307495
668.038 .0307179
668.786 .0306863
669.533 .0306545
670.281 .0306225
671.028 .0305904
671.774 .0305582
672.521 .0305271
673.267 .0304967
674.013 .0304669
674.759 .0304384
675.505 .0304123
676.250 .0303873
676.995 .0303638
677.740 .0303415
678.484 .0303208
679.229 .0303013
679.973 .0302826
680.717 .0302643
681.460 .0302468
682.204 .0302299
682.947 .0302132
683.690 .0301964
684.433 .0301801
685.175 .0301631
685.917 .0301461
686.659 .0301290
687.401 .0301123
688.142 .0300952
688.884 .0300786
689.625 .0300625
690.365 .0300465
691.106 .0300301
691.846 .0300136
692.586 .0299965
693.326 .0299794
694.066 .0299617
694.805 .0299432
695.545 .0299249
696.284 .0299068
697.022 .0298893
697.761 .0298724
698.499 .0298561
699.237 .0298405
699.975 .0298252
700.713 .0298107
701.450 .0297966
702.187 .0297826
702.924 .0297691
703.661 .0297561
704.397 .0297430
705.133 .0297304
705.869 .0297180
706.605 .0297062
707.341 .0296950
708.076 .0296842
708.811 .0296737
709.546 .0296632
710.281 .0296536
711.015 .0296442
711.749 .0296346
712.483 .0296249
713.217 .0296138
713.950 .0296020
714.684 .0295891
715.417 .0295753
716.150 .0295608
716.882 .0295463
717.615 .0295319
718.347 .0295178
719.079 .0295043
719.811 .0294917
720.542 .0294797
721.273 .0294679
722.005 .0294557
722.735 .0294425
723.466 .0294281
724.196 .0294127
724.927 .0293955
725.656 .0293773
726.386 .0293576
727.116 .0293377
727.845 .0293175
728.574 .0292977
729.303 .0292784
730.031 .0292598
730.760 .0292422
731.488 .0292243
732.216 .0292064
732.944 .0291887
733.671 .0291714
734.398 .0291542
735.125 .0291373
735.852 .0291220
736.579 .0291079
737.305 .0290954
738.031 .0290847
738.757 .0290748
739.483 .0290650
740.208 .0290545
740.933 .0290427
741.658 .0290294
742.383 .0290150
743.108 .0289993
743.832 .0289835
744.556 .0289680
745.280 .0289526
746.004 .0289369
746.727 .0289216
747.450 .0289061
748.173 .0288890
748.896 .0288707
749.618 .0288508
750.340 .0288298
751.062 .0288086
751.784 .0287874
752.506 .0287673
753.227 .0287482
753.948 .0287297
754.669 .0287109
755.389 .0286918
756.110 .0286719
756.830 .0286498
757.550 .0286262
758.269 .0286010
758.989 .0285746
759.708 .0285475
760.427 .0285204
761.146 .0284933
761.864 .0284671
762.582 .0284415
763.300 .0284165
764.018 .0283920
764.736 .0283682
765.453 .0283447
766.170 .0283220
766.887 .0283004
767.603 .0282794
768.320 .0282594
769.036 .0282410
769.751 .0282236
770.467 .0282074
771.182 .0281924
771.897 .0281789
772.612 .0281666
773.327 .0281556
774.041 .0281453
774.755 .0281356
775.469 .0281269
776.183 .0281193
776.896 .0281118
777.609 .0281048
778.322 .0280981
779.035 .0280912
779.747 .0280840
780.459 .0280767
781.171 .0280690
781.882 .0280611
782.594 .0280537
783.305 .0280467
784.016 .0280401
784.726 .0280345
785.436 .0280298
786.147 .0280259
786.856 .0280231
787.566 .0280206
788.275 .0280181
788.984 .0280163
789.693 .0280148
790.401 .0280131
791.110 .0280115
791.818 .0280103
792.525 .0280086
793.233 .0280068
793.940 .0280047
794.647 .0280022
795.353 .0279990
796.060 .0279951
796.766 .0279901
797.472 .0279839
798.177 .0279767
798.883 .0279680
799.588 .0279584
800.292 .0279486
800.997 .0279383
801.701 .0279278
802.405 .0279181
803.109 .0279090
803.812 .0279007
804.515 .0278929
805.218 .0278854
805.921 .0278776
806.623 .0278698
807.325 .0278615
808.027 .0278534
808.728 .0278453
809.429 .0278375
810.130 .0278298
810.831 .0278228
811.531 .0278160
812.231 .0278086
812.931 .0278006
813.630 .0277915
814.330 .0277813
815.029 .0277698
815.727 .0277575
816.426 .0277455
817.124 .0277341
817.821 .0277236
818.519 .0277141
819.216 .0277059
819.913 .0276987
820.609 .0276922
821.306 .0276867
822.002 .0276821
822.697 .0276788
823.393 .0276767
824.088 .0276758
824.783 .0276765
825.477 .0276785
826.171 .0276810
826.865 .0276843
827.559 .0276880
828.252 .0276919
828.945 .0276956
829.638 .0276998
830.330 .0277043
831.023 .0277088
831.714 .0277136
832.406 .0277183
833.097 .0277223
833.788 .0277251
834.479 .0277265
835.169 .0277269
835.859 .0277262
836.548 .0277247
837.238 .0277225
837.927 .0277198
838.615 .0277165
839.304 .0277126
839.992 .0277077
840.680 .0277020
841.367 .0276952
842.054 .0276874
842.741 .0276789
843.428 .0276698
844.114 .0276608
844.800 .0276519
845.485 .0276428
846.170 .0276329
846.855 .0276217
847.540 .0276094
848.224 .0275957
848.908 .0275809
849.592 .0275654
850.275 .0275495
850.958 .0275335
851.641 .0275173
852.323 .0275005
853.005 .0274832
853.687 .0274642
854.368 .0274434
855.049 .0274204
855.730 .0273955
856.410 .0273685
857.090 .0273406
857.769 .0273120
858.449 .0272829
859.128 .0272539
859.806 .0272248
860.485 .0271959
861.163 .0271674
861.840 .0271393
862.518 .0271114
863.195 .0270837
863.871 .0270566
864.548 .0270296
865.224 .0270035
865.899 .0269784
866.574 .0269537
867.249 .0269296
867.924 .0269063
868.598 .0268835
869.272 .0268612
869.946 .0268397
870.619 .0268182
871.292 .0267970
871.964 .0267754
872.636 .0267534
873.308 .0267306
873.979 .0267077
874.651 .0266843
875.321 .0266607
875.992 .0266374
876.662 .0266147
877.331 .0265923
878.001 .0265712
878.670 .0265508
879.338 .0265314
880.007 .0265128
880.675 .0264948
881.342 .0264773
882.009 .0264607
882.676 .0264445
883.343 .0264290
884.009 .0264144
884.675 .0264007
885.340 .0263874
886.005 .0263748
886.670 .0263626
887.334 .0263514
887.998 .0263406
888.662 .0263304
889.325 .0263202
889.988 .0263103
890.650 .0263008
891.312 .0262913
891.974 .0262825
892.636 .0262747
893.297 .0262678
893.957 .0262623
894.618 .0262576
895.278 .0262538
895.937 .0262511
896.596 .0262492
897.255 .0262477
897.914 .0262461
898.572 .0262442
899.230 .0262417
899.887 .0262388
900.544 .0262351
901.201 .0262308
901.857 .0262256
902.513 .0262196
903.168 .0262126
903.823 .0262045
904.478 .0261954
905.132 .0261853
905.786 .0261742
906.440 .0261617
907.093 .0261475
907.746 .0261321
908.399 .0261152
909.051 .0260976
909.703 .0260792
910.354 .0260606
911.005 .0260419
911.656 .0260237
912.306 .0260062
912.956 .0259891
913.605 .0259726
914.254 .0259564
914.903 .0259402
915.551 .0259239
916.199 .0259079
916.847 .0258921
917.494 .0258771
918.141 .0258633
918.788 .0258512
919.434 .0258410
920.079 .0258321
920.725 .0258246
921.370 .0258180
922.014 .0258121
922.658 .0258064
923.302 .0258006
923.946 .0257946
924.589 .0257886
925.231 .0257822
925.873 .0257754
926.515 .0257684
927.157 .0257617
927.798 .0257549
928.439 .0257476
929.079 .0257400
929.719 .0257317
930.359 .0257227
930.998 .0257135
931.637 .0257037
932.275 .0256943
932.913 .0256850
933.551 .0256757
934.188 .0256671
934.825 .0256595
935.462 .0256529
936.098 .0256476
936.733 .0256436
937.369 .0256409
938.004 .0256390
938.638 .0256380
939.273 .0256380
939.907 .0256394
940.540 .0256419
941.173 .0256456
941.806 .0256511
942.438 .0256584
943.070 .0256669
943.702 .0256765
944.333 .0256869
944.964 .0256972
945.594 .0257072
946.224 .0257163
946.854 .0257247
947.483 .0257330
948.112 .0257414
948.741 .0257496
949.369 .0257583
949.996 .0257675
950.624 .0257763
951.251 .0257846
951.878 .0257920
952.504 .0257983
953.130 .0258031
953.755 .0258065
954.380 .0258088
955.005 .0258103
955.629 .0258120
956.253 .0258136
956.877 .0258157
957.500 .0258187
958.123 .0258221
958.746 .0258256
959.368 .0258287
959.990 .0258313
960.611 .0258334
961.232 .0258345
961.853 .0258349
962.473 .0258354
963.093 .0258352
963.712 .0258351
964.331 .0258349
964.950 .0258346
965.569 .0258343
966.187 .0258339
966.804 .0258335
967.422 .0258331
968.039 .0258327
968.655 .0258323
969.272 .0258312
969.887 .0258297
970.503 .0258273
971.118 .0258240
971.733 .0258203
972.347 .0258161
972.961 .0258112
973.575 .0258064
974.188 .0258014
974.801 .0257958
975.414 .0257897
976.026 .0257832
976.638 .0257757
977.250 .0257669
977.861 .0257567
978.472 .0257447
979.083 .0257312
979.693 .0257167
980.303 .0257012
980.912 .0256854
981.521 .0256699
982.130 .0256547
982.738 .0256400
983.346 .0256264
983.954 .0256135
984.562 .0256005
985.169 .0255877
985.775 .0255743
986.382 .0255596
986.988 .0255444
987.594 .0255290
988.199 .0255138
988.804 .0254996
989.409 .0254867
990.013 .0254748
990.617 .0254645
991.221 .0254557
991.824 .0254472
992.427 .0254392
993.030 .0254313
993.632 .0254230
994.234 .0254149
994.836 .0254071
995.438 .0253998
996.039 .0253930
996.640 .0253868
997.240 .0253803
997.840 .0253735
998.440 .0253665
999.040 .0253584
999.639 .0253497
1000.238 .0253399
1000.836 .0253289
1001.435 .0253166
1002.033 .0253033
1002.630 .0252893
1003.228 .0252742
1003.825 .0252586
1004.422 .0252423
1005.018 .0252257
1005.614 .0252096
1006.210 .0251942
1006.806 .0251799
1007.401 .0251669
1007.996 .0251545
1008.591 .0251427
1009.186 .0251314
1009.780 .0251200
1010.374 .0251085
1010.967 .0250968
1011.561 .0250846
1012.154 .0250723
1012.746 .0250591
1013.339 .0250461
1013.931 .0250329
1014.523 .0250196
1015.115 .0250060
1015.706 .0249921
1016.298 .0249781
1016.888 .0249637
1017.479 .0249492
1018.069 .0249348
1018.660 .0249201
1019.250 .0249060
1019.839 .0248925
1020.429 .0248799
1021.018 .0248692
1021.607 .0248605
1022.195 .0248531
1022.784 .0248475
1023.372 .0248428
1023.960 .0248388
1024.547 .0248348
1025.135 .0248310
1025.722 .0248273
1026.309 .0248234
1026.896 .0248205
1027.483 .0248178
1028.069 .0248156
1028.655 .0248147
1029.241 .0248140
1029.827 .0248130
1030.412 .0248115
1030.997 .0248093
1031.582 .0248059
1032.167 .0248018
1032.752 .0247974
1033.336 .0247930
1033.921 .0247893
1034.505 .0247861
1035.089 .0247827
1035.672 .0247792
1036.256 .0247759
1036.839 .0247717
1037.422 .0247669
1038.005 .0247616
1038.588 .0247559
1039.171 .0247501
1039.753 .0247450
1040.335 .0247412
1040.918 .0247374
1041.500 .0247345
1042.081 .0247317
1042.663 .0247284
1043.244 .0247245
1043.826 .0247200
1044.407 .0247153
1044.988 .0247105
1045.569 .0247048
1046.150 .0246981
1046.730 .0246902
1047.311 .0246825
1047.891 .0246735
1048.471 .0246635
1049.052 .0246528
1049.632 .0246414
1050.211 .0246293
1050.791 .0246169
1051.371 .0246039
1051.950 .0245913
1052.530 .0245784
1053.109 .0245653
1053.688 .0245508
1054.268 .0245366
1054.847 .0245226
1055.426 .0245095
1056.005 .0244973
1056.583 .0244867
1057.162 .0244771
1057.741 .0244692
1058.319 .0244624
1058.898 .0244569
1059.476 .0244521
1060.055 .0244479
1060.633 .0244431
1061.211 .0244385
1061.790 .0244335
1062.368 .0244295
1062.946 .0244255
1063.524 .0244232
1064.102 .0244208
1064.680 .0244191
1065.258 .0244173
1065.836 .0244169
1066.414 .0244176
1066.992 .0244198
1067.570 .0244228
1068.148 .0244275
1068.726 .0244341
1069.304 .0244440
1069.882 .0244555
1070.460 .0244701
1071.038 .0244863
1071.616 .0245025
1072.194 .0245181
1072.772 .0245330
1073.350 .0245457
1073.928 .0245572
1074.506 .0245668
1075.084 .0245747
1075.662 .0245793
1076.240 .0245830
1076.819 .0245849
1077.397 .0245861
1077.976 .0245876
1078.554 .0245871
1079.133 .0245847
1079.711 .0245814
1080.290 .0245765
1080.869 .0245705
1081.448 .0245645
1082.027 .0245599
1082.606 .0245564
1083.185 .0245572
1083.764 .0245626
1084.343 .0245725
1084.923 .0245883
1085.502 .0246111
1086.082 .0246372
1086.662 .0246657
1087.242 .0246949
1087.822 .0247233
1088.402 .0247511
1088.983 .0247775
1089.563 .0248009
1090.144 .0248227
1090.725 .0248444
1091.306 .0248661
1091.887 .0248859
1092.469 .0249059
1093.050 .0249246
1093.632 .0249409
1094.214 .0249554
1094.796 .0249681
1095.379 .0249790
1095.961 .0249899
1096.544 .0250023
1097.127 .0250168
1097.710 .0250326
1098.294 .0250510
1098.877 .0250697
1099.461 .0250896
1100.046 .0251085
1100.630 .0251261
1101.215 .0251408
1101.800 .0251546
1102.385 .0251684
1102.970 .0251807
1103.556 .0251925
1104.142 .0252050
1104.728 .0252172
1105.315 .0252296
1105.902 .0252419
1106.489 .0252550
1107.077 .0252688
1107.664 .0252862
1108.253 .0253053
1108.841 .0253268
1109.430 .0253534
1110.019 .0253843
1110.609 .0254198
1111.198 .0254628
1111.789 .0255134
1112.379 .0255683
1112.970 .0256300
1113.561 .0256958
1114.153 .0257623
1114.745 .0258291
1115.338 .0258921
1115.931 .0259480
1116.524 .0259982
1117.117 .0260427
1117.712 .0260818
1118.306 .0261195
1118.901 .0261609
1119.496 .0262041
1120.092 .0262511
1120.689 .0263004
1121.285 .0263493
1121.882 .0263950
1122.480 .0264393
1123.078 .0264796
1123.677 .0265191
1124.276 .0265646
1124.875 .0266192
1125.476 .0266871
1126.076 .0267739
1126.677 .0268760
1127.279 .0269919
1127.881 .0271185
1128.484 .0272530
1129.087 .0273844
1129.691 .0275104
1130.295 .0276344
1130.900 .0277518
1131.505 .0278665
1132.111 .0279833
1132.718 .0281020
1133.325 .0282260
1133.933 .0283552
1134.541 .0284843
1135.150 .0286116
1135.760 .0287376
1136.370 .0288594
1136.981 .0289760
1137.592 .0290890
1138.204 .0291967
1138.817 .0293114
1139.431 .0294356
1140.045 .0295729
1140.660 .0297262
1141.275 .0299040
1141.891 .0301186
1142.508 .0302781
1143.126 .0304782
1143.744 .0307434
1144.363 .0311348
1144.983 .0318011
