Measurement Sequence started on: 15-12-46-377
Integration time: 28
Scans to Average: 2 
>>>>>Begin Spectral Data<<<<<
432.689 .0000100
433.621 .0000100
434.552 .0000100
435.482 .0000100
436.410 .0000100
437.337 .0000100
438.262 .0240868
439.187 .0510645
440.110 .0845563
441.031 .1223756
441.952 .1591386
442.871 .1880602
443.789 .2039254
444.705 .2049173
445.621 .1932460
446.535 .1737227
447.447 .1515966
448.359 .1177613
449.269 .1009821
450.178 .0904300
451.086 .0829640
451.993 .0772597
452.898 .0727956
453.803 .0691370
454.706 .0660719
455.608 .0634333
456.508 .0611295
457.408 .0591087
458.306 .0573044
459.204 .0556910
460.100 .0542430
460.995 .0529373
461.888 .0517554
462.781 .0506760
463.673 .0496812
464.563 .0487828
465.452 .0479472
466.340 .0471728
467.228 .0464645
468.114 .0458009
468.999 .0451842
469.882 .0446108
470.765 .0440843
471.647 .0436003
472.528 .0431573
473.407 .0427590
474.286 .0424016
475.163 .0420818
476.040 .0418011
476.915 .0415511
477.790 .0413323
478.663 .0411372
479.535 .0409623
480.407 .0408043
481.277 .0406635
482.147 .0405373
483.015 .0404274
483.883 .0403278
484.749 .0402408
485.615 .0401586
486.479 .0400855
487.343 .0400219
488.206 .0399670
489.067 .0399204
489.928 .0398845
490.788 .0398517
491.647 .0398306
492.505 .0398234
493.362 .0398297
494.218 .0398458
495.073 .0398838
495.928 .0399531
496.781 .0400481
497.634 .0401776
498.486 .0403435
499.337 .0405426
500.187 .0407791
501.036 .0410369
501.884 .0413151
502.731 .0416181
503.578 .0419483
504.424 .0423019
505.268 .0426886
506.113 .0431114
506.956 .0435670
507.798 .0440633
508.640 .0446019
509.480 .0451802
510.320 .0457862
511.160 .0464352
511.998 .0471297
512.836 .0478756
513.672 .0486826
514.508 .0495546
515.344 .0505159
516.178 .0515940
517.012 .0528130
517.845 .0542010
518.677 .0557925
519.508 .0575966
520.339 .0596400
521.169 .0619808
521.998 .0646364
522.826 .0676442
523.654 .0710216
524.481 .0748185
525.307 .0790836
526.133 .0837946
526.958 .0889595
527.782 .0945902
528.605 .1004950
529.428 .1066184
530.250 .1124706
531.072 .1178727
531.892 .1224595
532.712 .1259767
533.532 .1282303
534.350 .1290155
535.168 .1282939
535.986 .1261732
536.802 .1227928
537.618 .1184685
538.434 .1133087
539.249 .1077730
540.063 .1019901
540.876 .0962351
541.689 .0906426
542.501 .0853624
543.313 .0805505
544.124 .0762572
544.934 .0723969
545.744 .0689377
546.553 .0658750
547.361 .0631842
548.169 .0608210
548.976 .0587235
549.783 .0568432
550.589 .0551635
551.395 .0536251
552.200 .0522087
553.004 .0508864
553.808 .0496507
554.611 .0485024
555.414 .0474270
556.216 .0464342
557.018 .0455170
557.819 .0446741
558.619 .0439167
559.419 .0432281
560.218 .0426013
561.017 .0420218
561.815 .0414820
562.613 .0409608
563.410 .0404529
564.207 .0399503
565.003 .0394452
565.799 .0389487
566.594 .0384532
567.388 .0379640
568.182 .0374825
568.976 .0370093
569.769 .0365581
570.562 .0361266
571.354 .0357180
572.145 .0353238
572.936 .0349504
573.727 .0345964
574.517 .0342568
575.307 .0339311
576.096 .0336212
576.885 .0333235
577.673 .0330391
578.461 .0327652
579.248 .0325011
580.035 .0322512
580.821 .0320201
581.607 .0318026
582.392 .0316036
583.177 .0314212
583.962 .0312529
584.746 .0310967
585.529 .0309538
586.313 .0308200
587.095 .0306951
587.878 .0305813
588.660 .0304778
589.441 .0303819
590.222 .0302943
591.003 .0302156
591.783 .0301428
592.563 .0300742
593.342 .0300094
594.121 .0299444
594.899 .0298807
595.678 .0298189
596.455 .0297578
597.233 .0296997
598.009 .0296437
598.786 .0295890
599.562 .0295350
600.338 .0294829
601.113 .0294322
601.888 .0293825
602.663 .0293351
603.437 .0292903
604.211 .0292467
604.984 .0292054
605.757 .0291656
606.530 .0291273
607.302 .0290911
608.074 .0290567
608.845 .0290241
609.616 .0289939
610.387 .0289668
611.158 .0289436
611.928 .0289238
612.697 .0289080
613.467 .0288953
614.236 .0288849
615.004 .0288760
615.773 .0288684
616.541 .0288619
617.308 .0288569
618.076 .0288542
618.843 .0288538
619.609 .0288558
620.375 .0288597
621.141 .0288645
621.907 .0288692
622.672 .0288735
623.437 .0288754
624.202 .0288751
624.966 .0288731
625.730 .0288695
626.493 .0288643
627.257 .0288582
628.020 .0288520
628.782 .0288454
629.545 .0288379
630.307 .0288295
631.068 .0288196
631.830 .0288092
632.591 .0287971
633.352 .0287851
634.112 .0287736
634.872 .0287629
635.632 .0287521
636.392 .0287416
637.151 .0287309
637.910 .0287199
638.668 .0287082
639.427 .0286963
640.185 .0286838
640.943 .0286710
641.700 .0286577
642.457 .0286446
643.214 .0286313
643.971 .0286174
644.727 .0286021
645.483 .0285855
646.239 .0285665
646.994 .0285450
647.750 .0285217
648.505 .0284975
649.259 .0284731
650.014 .0284490
650.768 .0284251
651.521 .0284015
652.275 .0283777
653.028 .0283533
653.781 .0283270
654.534 .0282994
655.286 .0282701
656.039 .0282398
656.791 .0282093
657.542 .0281795
658.294 .0281517
659.045 .0281266
659.796 .0281046
660.546 .0280853
661.297 .0280682
662.047 .0280522
662.796 .0280361
663.546 .0280191
664.295 .0280009
665.044 .0279813
665.793 .0279613
666.542 .0279416
667.290 .0279235
668.038 .0279075
668.786 .0278937
669.533 .0278817
670.281 .0278718
671.028 .0278621
671.774 .0278522
672.521 .0278414
673.267 .0278300
674.013 .0278182
674.759 .0278071
675.505 .0277969
676.250 .0277890
676.995 .0277834
677.740 .0277802
678.484 .0277781
679.229 .0277776
679.973 .0277771
680.717 .0277763
681.460 .0277752
682.204 .0277735
682.947 .0277710
683.690 .0277690
684.433 .0277669
685.175 .0277651
685.917 .0277637
686.659 .0277626
687.401 .0277608
688.142 .0277590
688.884 .0277565
689.625 .0277530
690.365 .0277488
691.106 .0277443
691.846 .0277390
692.586 .0277334
693.326 .0277275
694.066 .0277215
694.805 .0277157
695.545 .0277098
696.284 .0277031
697.022 .0276964
697.761 .0276892
698.499 .0276810
699.237 .0276720
699.975 .0276628
700.713 .0276528
701.450 .0276423
702.187 .0276317
702.924 .0276210
703.661 .0276104
704.397 .0275995
705.133 .0275882
705.869 .0275766
706.605 .0275643
707.341 .0275507
708.076 .0275363
708.811 .0275213
709.546 .0275047
710.281 .0274871
711.015 .0274682
711.749 .0274481
712.483 .0274268
713.217 .0274040
713.950 .0273799
714.684 .0273544
715.417 .0273277
716.150 .0272999
716.882 .0272717
717.615 .0272438
718.347 .0272155
719.079 .0271875
719.811 .0271599
720.542 .0271327
721.273 .0271056
722.005 .0270791
722.735 .0270527
723.466 .0270266
724.196 .0270004
724.927 .0269741
725.656 .0269481
726.386 .0269225
727.116 .0268972
727.845 .0268722
728.574 .0268476
729.303 .0268235
730.031 .0267995
730.760 .0267764
731.488 .0267536
732.216 .0267313
732.944 .0267097
733.671 .0266887
734.398 .0266683
735.125 .0266493
735.852 .0266316
736.579 .0266155
737.305 .0266013
738.031 .0265894
738.757 .0265792
739.483 .0265709
740.208 .0265644
740.933 .0265591
741.658 .0265545
742.383 .0265503
743.108 .0265456
743.832 .0265406
744.556 .0265351
745.280 .0265291
746.004 .0265229
746.727 .0265172
747.450 .0265118
748.173 .0265070
748.896 .0265033
749.618 .0265008
750.340 .0264994
751.062 .0264996
751.784 .0265007
752.506 .0265025
753.227 .0265055
753.948 .0265092
754.669 .0265133
755.389 .0265180
756.110 .0265232
756.830 .0265285
757.550 .0265343
758.269 .0265402
758.989 .0265457
759.708 .0265508
760.427 .0265551
761.146 .0265577
761.864 .0265587
762.582 .0265577
763.300 .0265547
764.018 .0265502
764.736 .0265445
765.453 .0265375
766.170 .0265305
766.887 .0265238
767.603 .0265181
768.320 .0265134
769.036 .0265101
769.751 .0265082
770.467 .0265076
771.182 .0265081
771.897 .0265087
772.612 .0265095
773.327 .0265099
774.041 .0265093
774.755 .0265071
775.469 .0265031
776.183 .0264974
776.896 .0264903
777.609 .0264814
778.322 .0264707
779.035 .0264582
779.747 .0264436
780.459 .0264267
781.171 .0264072
781.882 .0263854
782.594 .0263616
783.305 .0263357
784.016 .0263090
784.726 .0262816
785.436 .0262547
786.147 .0262286
786.856 .0262035
787.566 .0261795
788.275 .0261562
788.984 .0261334
789.693 .0261107
790.401 .0260876
791.110 .0260644
791.818 .0260406
792.525 .0260162
793.233 .0259912
793.940 .0259654
794.647 .0259389
795.353 .0259115
796.060 .0258831
796.766 .0258539
797.472 .0258236
798.177 .0257926
798.883 .0257608
799.588 .0257289
800.292 .0256969
800.997 .0256649
801.701 .0256331
802.405 .0256021
803.109 .0255717
803.812 .0255427
804.515 .0255150
805.218 .0254890
805.921 .0254647
806.623 .0254415
807.325 .0254195
808.027 .0253983
808.728 .0253777
809.429 .0253573
810.130 .0253367
810.831 .0253164
811.531 .0252958
812.231 .0252755
812.931 .0252551
813.630 .0252352
814.330 .0252157
815.029 .0251965
815.727 .0251778
816.426 .0251601
817.124 .0251431
817.821 .0251269
818.519 .0251118
819.216 .0250980
819.913 .0250857
820.609 .0250751
821.306 .0250662
822.002 .0250597
822.697 .0250550
823.393 .0250525
824.088 .0250515
824.783 .0250521
825.477 .0250535
826.171 .0250555
826.865 .0250580
827.559 .0250608
828.252 .0250635
828.945 .0250662
829.638 .0250690
830.330 .0250720
831.023 .0250753
831.714 .0250789
832.406 .0250825
833.097 .0250859
833.788 .0250883
834.479 .0250897
835.169 .0250904
835.859 .0250910
836.548 .0250914
837.238 .0250919
837.927 .0250935
838.615 .0250960
839.304 .0250996
839.992 .0251042
840.680 .0251098
841.367 .0251164
842.054 .0251236
842.741 .0251315
843.428 .0251401
844.114 .0251505
844.800 .0251624
845.485 .0251754
846.170 .0251892
846.855 .0252032
847.540 .0252164
848.224 .0252288
848.908 .0252405
849.592 .0252510
850.275 .0252604
850.958 .0252692
851.641 .0252771
852.323 .0252837
853.005 .0252889
853.687 .0252925
854.368 .0252938
855.049 .0252925
855.730 .0252888
856.410 .0252828
857.090 .0252759
857.769 .0252689
858.449 .0252624
859.128 .0252568
859.806 .0252520
860.485 .0252476
861.163 .0252430
861.840 .0252381
862.518 .0252319
863.195 .0252246
863.871 .0252164
864.548 .0252075
865.224 .0251979
865.899 .0251882
866.574 .0251789
867.249 .0251692
867.924 .0251589
868.598 .0251476
869.272 .0251349
869.946 .0251209
870.619 .0251051
871.292 .0250880
871.964 .0250696
872.636 .0250501
873.308 .0250296
873.979 .0250083
874.651 .0249863
875.321 .0249636
875.992 .0249404
876.662 .0249168
877.331 .0248927
878.001 .0248682
878.670 .0248430
879.338 .0248172
880.007 .0247906
880.675 .0247631
881.342 .0247345
882.009 .0247052
882.676 .0246753
883.343 .0246448
884.009 .0246142
884.675 .0245834
885.340 .0245524
886.005 .0245212
886.670 .0244899
887.334 .0244587
887.998 .0244275
888.662 .0243967
889.325 .0243665
889.988 .0243372
890.650 .0243090
891.312 .0242817
891.974 .0242549
892.636 .0242283
893.297 .0242017
893.957 .0241743
894.618 .0241463
895.278 .0241176
895.937 .0240883
896.596 .0240589
897.255 .0240300
897.914 .0240013
898.572 .0239731
899.230 .0239458
899.887 .0239188
900.544 .0238914
901.201 .0238638
901.857 .0238358
902.513 .0238078
903.168 .0237802
903.823 .0237535
904.478 .0237279
905.132 .0237045
905.786 .0236832
906.440 .0236638
907.093 .0236459
907.746 .0236292
908.399 .0236124
909.051 .0235958
909.703 .0235788
910.354 .0235615
911.005 .0235441
911.656 .0235275
912.306 .0235117
912.956 .0234970
913.605 .0234835
914.254 .0234716
914.903 .0234609
915.551 .0234514
916.199 .0234426
916.847 .0234344
917.494 .0234266
918.141 .0234196
918.788 .0234129
919.434 .0234076
920.079 .0234036
920.725 .0234012
921.370 .0234002
922.014 .0234011
922.658 .0234030
923.302 .0234055
923.946 .0234086
924.589 .0234115
925.231 .0234134
925.873 .0234146
926.515 .0234147
927.157 .0234139
927.798 .0234128
928.439 .0234115
929.079 .0234106
929.719 .0234108
930.359 .0234118
930.998 .0234134
931.637 .0234158
932.275 .0234188
932.913 .0234216
933.551 .0234242
934.188 .0234266
934.825 .0234285
935.462 .0234307
936.098 .0234331
936.733 .0234362
937.369 .0234403
938.004 .0234459
938.638 .0234523
939.273 .0234599
939.907 .0234684
940.540 .0234775
941.173 .0234869
941.806 .0234967
942.438 .0235066
943.070 .0235162
943.702 .0235258
944.333 .0235352
944.964 .0235449
945.594 .0235549
946.224 .0235648
946.854 .0235752
947.483 .0235857
948.112 .0235960
948.741 .0236056
949.369 .0236149
949.996 .0236240
950.624 .0236324
951.251 .0236406
951.878 .0236487
952.504 .0236568
953.130 .0236648
953.755 .0236731
954.380 .0236815
955.005 .0236899
955.629 .0236983
956.253 .0237068
956.877 .0237158
957.500 .0237255
958.123 .0237363
958.746 .0237478
959.368 .0237599
959.990 .0237723
960.611 .0237840
961.232 .0237947
961.853 .0238042
962.473 .0238122
963.093 .0238183
963.712 .0238229
964.331 .0238260
964.950 .0238272
965.569 .0238276
966.187 .0238274
966.804 .0238264
967.422 .0238251
968.039 .0238235
968.655 .0238214
969.272 .0238193
969.887 .0238173
970.503 .0238145
971.118 .0238112
971.733 .0238078
972.347 .0238030
972.961 .0237970
973.575 .0237902
974.188 .0237827
974.801 .0237744
975.414 .0237658
976.026 .0237561
976.638 .0237454
977.250 .0237339
977.861 .0237211
978.472 .0237069
979.083 .0236917
979.693 .0236749
980.303 .0236569
980.912 .0236381
981.521 .0236187
982.130 .0235985
982.738 .0235782
983.346 .0235577
983.954 .0235366
984.562 .0235152
985.169 .0234930
985.775 .0234709
986.382 .0234490
986.988 .0234274
987.594 .0234058
988.199 .0233842
988.804 .0233630
989.409 .0233415
990.013 .0233203
990.617 .0232985
991.221 .0232762
991.824 .0232542
992.427 .0232327
993.030 .0232122
993.632 .0231930
994.234 .0231752
994.836 .0231584
995.438 .0231421
996.039 .0231256
996.640 .0231081
997.240 .0230900
997.840 .0230709
998.440 .0230508
999.040 .0230299
999.639 .0230082
1000.238 .0229854
1000.836 .0229626
1001.435 .0229392
1002.033 .0229148
1002.630 .0228896
1003.228 .0228637
1003.825 .0228375
1004.422 .0228113
1005.018 .0227854
1005.614 .0227604
1006.210 .0227362
1006.806 .0227127
1007.401 .0226886
1007.996 .0226643
1008.591 .0226400
1009.186 .0226150
1009.780 .0225899
1010.374 .0225651
1010.967 .0225402
1011.561 .0225153
1012.154 .0224907
1012.746 .0224663
1013.339 .0224415
1013.931 .0224167
1014.523 .0223914
1015.115 .0223655
1015.706 .0223401
1016.298 .0223150
1016.888 .0222908
1017.479 .0222690
1018.069 .0222490
1018.660 .0222304
1019.250 .0222140
1019.839 .0221992
1020.429 .0221855
1021.018 .0221733
1021.607 .0221626
1022.195 .0221523
1022.784 .0221424
1023.372 .0221324
1023.960 .0221219
1024.547 .0221116
1025.135 .0221016
1025.722 .0220917
1026.309 .0220831
1026.896 .0220760
1027.483 .0220702
1028.069 .0220657
1028.655 .0220625
1029.241 .0220600
1029.827 .0220577
1030.412 .0220551
1030.997 .0220527
1031.582 .0220509
1032.167 .0220497
1032.752 .0220499
1033.336 .0220516
1033.921 .0220554
1034.505 .0220608
1035.089 .0220673
1035.672 .0220743
1036.256 .0220813
1036.839 .0220875
1037.422 .0220923
1038.005 .0220961
1038.588 .0220994
1039.171 .0221019
1039.753 .0221041
1040.335 .0221060
1040.918 .0221081
1041.500 .0221105
1042.081 .0221134
1042.663 .0221172
1043.244 .0221230
1043.826 .0221301
1044.407 .0221389
1044.988 .0221497
1045.569 .0221622
1046.150 .0221756
1046.730 .0221894
1047.311 .0222025
1047.891 .0222149
1048.471 .0222265
1049.052 .0222372
1049.632 .0222472
1050.211 .0222588
1050.791 .0222710
1051.371 .0222840
1051.950 .0222990
1052.530 .0223157
1053.109 .0223324
1053.688 .0223485
1054.268 .0223633
1054.847 .0223770
1055.426 .0223897
1056.005 .0224023
1056.583 .0224150
1057.162 .0224302
1057.741 .0224479
1058.319 .0224680
1058.898 .0224909
1059.476 .0225160
1060.055 .0225416
1060.633 .0225667
1061.211 .0225909
1061.790 .0226141
1062.368 .0226368
1062.946 .0226588
1063.524 .0226811
1064.102 .0227043
1064.680 .0227280
1065.258 .0227521
1065.836 .0227762
1066.414 .0228008
1066.992 .0228247
1067.570 .0228486
1068.148 .0228714
1068.726 .0228943
1069.304 .0229190
1069.882 .0229442
1070.460 .0229701
1071.038 .0229962
1071.616 .0230224
1072.194 .0230480
1072.772 .0230742
1073.350 .0231006
1073.928 .0231278
1074.506 .0231570
1075.084 .0231874
1075.662 .0232186
1076.240 .0232507
1076.819 .0232834
1077.397 .0233156
1077.976 .0233470
1078.554 .0233769
1079.133 .0234049
1079.711 .0234335
1080.290 .0234624
1080.869 .0234930
1081.448 .0235236
1082.027 .0235541
1082.606 .0235842
1083.185 .0236143
1083.764 .0236432
1084.343 .0236701
1084.923 .0236961
1085.502 .0237209
1086.082 .0237436
1086.662 .0237660
1087.242 .0237872
1087.822 .0238091
1088.402 .0238311
1088.983 .0238527
1089.563 .0238729
1090.144 .0238927
1090.725 .0239109
1091.306 .0239288
1091.887 .0239459
1092.469 .0239628
1093.050 .0239792
1093.632 .0239978
1094.214 .0240186
1094.796 .0240424
1095.379 .0240687
1095.961 .0240998
1096.544 .0241328
1097.127 .0241679
1097.710 .0242023
1098.294 .0242377
1098.877 .0242729
1099.461 .0243070
1100.046 .0243403
1100.630 .0243736
1101.215 .0244065
1101.800 .0244405
1102.385 .0244739
1102.970 .0245087
1103.556 .0245423
1104.142 .0245742
1104.728 .0246028
1105.315 .0246276
1105.902 .0246470
1106.489 .0246612
1107.077 .0246727
1107.664 .0246825
1108.253 .0246938
1108.841 .0247092
1109.430 .0247293
1110.019 .0247542
1110.609 .0247838
1111.198 .0248152
1111.789 .0248472
1112.379 .0248761
1112.970 .0249009
1113.561 .0249231
1114.153 .0249452
1114.745 .0249661
1115.338 .0249912
1115.931 .0250216
1116.524 .0250563
1117.117 .0250910
1117.712 .0251276
1118.306 .0251602
1118.901 .0251891
1119.496 .0252119
1120.092 .0252308
1120.689 .0252497
1121.285 .0252718
1121.882 .0252960
1122.480 .0253276
1123.078 .0253668
1123.677 .0254089
1124.276 .0254487
1124.875 .0254884
1125.476 .0255209
1126.076 .0255474
1126.677 .0255700
1127.279 .0255926
1127.881 .0256205
1128.484 .0256563
1129.087 .0256974
1129.691 .0257474
1130.295 .0258032
1130.900 .0258588
1131.505 .0259102
1132.111 .0259606
1132.718 .0260080
1133.325 .0260526
1133.933 .0260965
1134.541 .0261469
1135.150 .0262079
1135.760 .0262829
1136.370 .0263692
1136.981 .0264685
1137.592 .0265780
1138.204 .0266891
1138.817 .0268032
1139.431 .0269204
1140.045 .0270427
1140.660 .0271678
1141.275 .0273057
1141.891 .0274596
1142.508 .0275916
1143.126 .0278213
1143.744 .0278554
1144.363 .0282815
1144.983 .0285300
