Measurement Sequence started on: 15-12-46-377
Integration time: 28
Scans to Average: 2 
>>>>>Begin Spectral Data<<<<<
432.689 .0000100
433.621 .0000100
434.552 .0000100
435.482 .0000100
436.410 .0000100
437.337 .0000100
438.262 .0270517
439.187 .0571606
440.110 .0945762
441.031 .1367633
441.952 .1777460
442.871 .2099720
443.789 .2276191
444.705 .2286868
445.621 .2156629
446.535 .1939476
447.447 .1693487
448.359 .1315789
449.269 .1130001
450.178 .1012353
451.086 .0929004
451.993 .0865034
452.898 .0814891
453.803 .0774267
454.706 .0740957
455.608 .0712743
456.508 .0688093
457.408 .0666644
458.306 .0647346
459.204 .0629807
460.100 .0613728
460.995 .0599044
461.888 .0585596
462.781 .0573501
463.673 .0562527
464.563 .0552638
465.452 .0543511
466.340 .0535074
467.228 .0527159
468.114 .0519632
468.999 .0512553
469.882 .0505897
470.765 .0499755
471.647 .0494318
472.528 .0489377
473.407 .0485007
474.286 .0481195
475.163 .0477855
476.040 .0474902
476.915 .0472326
477.790 .0469997
478.663 .0467882
479.535 .0466040
480.407 .0464565
481.277 .0463360
482.147 .0462507
483.015 .0461978
483.883 .0461688
484.749 .0461588
485.615 .0461587
486.479 .0461602
487.343 .0461688
488.206 .0461823
489.067 .0461858
489.928 .0461846
490.788 .0461822
491.647 .0461790
492.505 .0461883
493.362 .0462176
494.218 .0462650
495.073 .0463357
495.928 .0464388
496.781 .0465715
497.634 .0467365
498.486 .0469327
499.337 .0471570
500.187 .0474082
501.036 .0476798
501.884 .0479685
502.731 .0482735
503.578 .0486100
504.424 .0489757
505.268 .0493675
506.113 .0497933
506.956 .0502526
507.798 .0507560
508.640 .0513004
509.480 .0518939
510.320 .0525368
511.160 .0532307
511.998 .0539798
512.836 .0547874
513.672 .0556728
514.508 .0566651
515.344 .0577810
516.178 .0590686
517.012 .0605719
517.845 .0623413
518.677 .0643997
519.508 .0667914
520.339 .0695477
521.169 .0726830
521.998 .0762037
522.826 .0801576
523.654 .0845436
524.481 .0893938
525.307 .0947344
526.133 .1005751
526.958 .1069099
527.782 .1136751
528.605 .1206557
529.428 .1278275
530.250 .1346991
531.072 .1410127
531.892 .1463840
532.712 .1505626
533.532 .1533490
534.350 .1545500
535.168 .1540652
535.986 .1519445
536.802 .1483208
537.618 .1434359
538.434 .1373868
539.249 .1306744
540.063 .1235214
540.876 .1162577
541.689 .1091412
542.501 .1024067
543.313 .0962246
544.124 .0907016
544.934 .0857825
545.744 .0814007
546.553 .0774930
547.361 .0740014
548.169 .0708884
548.976 .0680894
549.783 .0655950
550.589 .0633882
551.395 .0614183
552.200 .0596935
553.004 .0581693
553.808 .0568152
554.611 .0556126
555.414 .0545271
556.216 .0535396
557.018 .0526296
557.819 .0517789
558.619 .0509677
559.419 .0501949
560.218 .0494677
561.017 .0487718
561.815 .0480994
562.613 .0474563
563.410 .0468186
564.207 .0461789
565.003 .0455422
565.799 .0449064
566.594 .0442718
567.388 .0436539
568.182 .0430459
568.976 .0424517
569.769 .0418758
570.562 .0413184
571.354 .0407713
572.145 .0402437
572.936 .0397272
573.727 .0392163
574.517 .0387204
575.307 .0382437
576.096 .0377873
576.885 .0373629
577.673 .0369686
578.461 .0366047
579.248 .0362669
580.035 .0359529
580.821 .0356553
581.607 .0353735
582.392 .0351067
583.177 .0348508
583.962 .0346112
584.746 .0343922
585.529 .0341916
586.313 .0340129
587.095 .0338558
587.878 .0337178
588.660 .0335961
589.441 .0334895
590.222 .0333921
591.003 .0333040
591.783 .0332232
592.563 .0331492
593.342 .0330825
594.121 .0330218
594.899 .0329664
595.678 .0329146
596.455 .0328680
597.233 .0328250
598.009 .0327826
598.786 .0327420
599.562 .0327015
600.338 .0326604
601.113 .0326190
601.888 .0325774
602.663 .0325349
603.437 .0324933
604.211 .0324519
604.984 .0324102
605.757 .0323692
606.530 .0323285
607.302 .0322884
608.074 .0322497
608.845 .0322127
609.616 .0321775
610.387 .0321431
611.158 .0321113
611.928 .0320804
612.697 .0320505
613.467 .0320212
614.236 .0319922
615.004 .0319635
615.773 .0319347
616.541 .0319060
617.308 .0318774
618.076 .0318495
618.843 .0318214
619.609 .0317934
620.375 .0317657
621.141 .0317386
621.907 .0317112
622.672 .0316830
623.437 .0316549
624.202 .0316259
624.966 .0315963
625.730 .0315672
626.493 .0315383
627.257 .0315108
628.020 .0314840
628.782 .0314586
629.545 .0314333
630.307 .0314090
631.068 .0313846
631.830 .0313598
632.591 .0313338
633.352 .0313066
634.112 .0312765
634.872 .0312455
635.632 .0312138
636.392 .0311815
637.151 .0311497
637.910 .0311187
638.668 .0310880
639.427 .0310578
640.185 .0310270
640.943 .0309962
641.700 .0309651
642.457 .0309339
643.214 .0309016
643.971 .0308694
644.727 .0308387
645.483 .0308096
646.239 .0307827
646.994 .0307588
647.750 .0307367
648.505 .0307164
649.259 .0306970
650.014 .0306777
650.768 .0306589
651.521 .0306395
652.275 .0306194
653.028 .0305992
653.781 .0305784
654.534 .0305575
655.286 .0305364
656.039 .0305164
656.791 .0304968
657.542 .0304765
658.294 .0304556
659.045 .0304339
659.796 .0304114
660.546 .0303878
661.297 .0303636
662.047 .0303390
662.796 .0303145
663.546 .0302901
664.295 .0302658
665.044 .0302429
665.793 .0302211
666.542 .0302001
667.290 .0301799
668.038 .0301606
668.786 .0301412
669.533 .0301219
670.281 .0301038
671.028 .0300863
671.774 .0300689
672.521 .0300526
673.267 .0300375
674.013 .0300235
674.759 .0300108
675.505 .0299985
676.250 .0299859
676.995 .0299737
677.740 .0299604
678.484 .0299460
679.229 .0299311
679.973 .0299159
680.717 .0299000
681.460 .0298842
682.204 .0298686
682.947 .0298527
683.690 .0298376
684.433 .0298229
685.175 .0298080
685.917 .0297925
686.659 .0297767
687.401 .0297603
688.142 .0297440
688.884 .0297282
689.625 .0297125
690.365 .0296974
691.106 .0296825
691.846 .0296672
692.586 .0296515
693.326 .0296352
694.066 .0296182
694.805 .0296004
695.545 .0295817
696.284 .0295619
697.022 .0295420
697.761 .0295220
698.499 .0295028
699.237 .0294840
699.975 .0294655
700.713 .0294472
701.450 .0294291
702.187 .0294109
702.924 .0293926
703.661 .0293747
704.397 .0293566
705.133 .0293383
705.869 .0293206
706.605 .0293032
707.341 .0292862
708.076 .0292698
708.811 .0292539
709.546 .0292375
710.281 .0292205
711.015 .0292022
711.749 .0291828
712.483 .0291624
713.217 .0291410
713.950 .0291188
714.684 .0290963
715.417 .0290737
716.150 .0290509
716.882 .0290288
717.615 .0290075
718.347 .0289863
719.079 .0289655
719.811 .0289447
720.542 .0289242
721.273 .0289035
722.005 .0288828
722.735 .0288615
723.466 .0288407
724.196 .0288197
724.927 .0287978
725.656 .0287757
726.386 .0287535
727.116 .0287307
727.845 .0287079
728.574 .0286850
729.303 .0286627
730.031 .0286410
730.760 .0286206
731.488 .0286006
732.216 .0285819
732.944 .0285641
733.671 .0285473
734.398 .0285310
735.125 .0285156
735.852 .0285006
736.579 .0284862
737.305 .0284727
738.031 .0284602
738.757 .0284483
739.483 .0284371
740.208 .0284258
740.933 .0284147
741.658 .0284027
742.383 .0283900
743.108 .0283763
743.832 .0283619
744.556 .0283469
745.280 .0283308
746.004 .0283137
746.727 .0282967
747.450 .0282794
748.173 .0282621
748.896 .0282451
749.618 .0282284
750.340 .0282118
751.062 .0281959
751.784 .0281806
752.506 .0281657
753.227 .0281515
753.948 .0281378
754.669 .0281238
755.389 .0281099
756.110 .0280961
756.830 .0280822
757.550 .0280691
758.269 .0280568
758.989 .0280446
759.708 .0280330
760.427 .0280218
761.146 .0280105
761.864 .0279991
762.582 .0279870
763.300 .0279744
764.018 .0279610
764.736 .0279474
765.453 .0279333
766.170 .0279193
766.887 .0279060
767.603 .0278929
768.320 .0278803
769.036 .0278680
769.751 .0278559
770.467 .0278441
771.182 .0278329
771.897 .0278220
772.612 .0278116
773.327 .0278022
774.041 .0277936
774.755 .0277858
775.469 .0277791
776.183 .0277737
776.896 .0277700
777.609 .0277676
778.322 .0277661
779.035 .0277651
779.747 .0277651
780.459 .0277651
781.171 .0277652
781.882 .0277649
782.594 .0277645
783.305 .0277637
784.016 .0277631
784.726 .0277626
785.436 .0277624
786.147 .0277627
786.856 .0277628
787.566 .0277627
788.275 .0277620
788.984 .0277606
789.693 .0277590
790.401 .0277573
791.110 .0277558
791.818 .0277544
792.525 .0277535
793.233 .0277532
793.940 .0277532
794.647 .0277533
795.353 .0277531
796.060 .0277521
796.766 .0277501
797.472 .0277465
798.177 .0277413
798.883 .0277351
799.588 .0277276
800.292 .0277197
800.997 .0277109
801.701 .0277013
802.405 .0276909
803.109 .0276798
803.812 .0276681
804.515 .0276559
805.218 .0276428
805.921 .0276296
806.623 .0276158
807.325 .0276022
808.027 .0275888
808.728 .0275764
809.429 .0275651
810.130 .0275548
810.831 .0275455
811.531 .0275368
812.231 .0275285
812.931 .0275206
813.630 .0275119
814.330 .0275030
815.029 .0274933
815.727 .0274827
816.426 .0274713
817.124 .0274595
817.821 .0274473
818.519 .0274355
819.216 .0274241
819.913 .0274129
820.609 .0274019
821.306 .0273912
822.002 .0273805
822.697 .0273703
823.393 .0273607
824.088 .0273514
824.783 .0273427
825.477 .0273349
826.171 .0273279
826.865 .0273222
827.559 .0273184
828.252 .0273161
828.945 .0273153
829.638 .0273152
830.330 .0273157
831.023 .0273162
831.714 .0273163
832.406 .0273154
833.097 .0273127
833.788 .0273083
834.479 .0273020
835.169 .0272937
835.859 .0272843
836.548 .0272738
837.238 .0272629
837.927 .0272514
838.615 .0272395
839.304 .0272269
839.992 .0272135
840.680 .0272000
841.367 .0271857
842.054 .0271710
842.741 .0271563
843.428 .0271419
844.114 .0271282
844.800 .0271155
845.485 .0271036
846.170 .0270923
846.855 .0270815
847.540 .0270704
848.224 .0270586
848.908 .0270462
849.592 .0270332
850.275 .0270196
850.958 .0270053
851.641 .0269906
852.323 .0269747
853.005 .0269583
853.687 .0269408
854.368 .0269215
855.049 .0269011
855.730 .0268798
856.410 .0268571
857.090 .0268337
857.769 .0268097
858.449 .0267854
859.128 .0267608
859.806 .0267361
860.485 .0267109
861.163 .0266854
861.840 .0266598
862.518 .0266341
863.195 .0266083
863.871 .0265832
864.548 .0265588
865.224 .0265351
865.899 .0265127
866.574 .0264912
867.249 .0264707
867.924 .0264515
868.598 .0264333
869.272 .0264166
869.946 .0264013
870.619 .0263873
871.292 .0263749
871.964 .0263629
872.636 .0263515
873.308 .0263398
873.979 .0263281
874.651 .0263159
875.321 .0263029
875.992 .0262897
876.662 .0262765
877.331 .0262637
878.001 .0262511
878.670 .0262388
879.338 .0262267
880.007 .0262146
880.675 .0262023
881.342 .0261895
882.009 .0261764
882.676 .0261632
883.343 .0261505
884.009 .0261383
884.675 .0261271
885.340 .0261169
886.005 .0261078
886.670 .0261001
887.334 .0260931
887.998 .0260865
888.662 .0260804
889.325 .0260746
889.988 .0260691
890.650 .0260640
891.312 .0260598
891.974 .0260565
892.636 .0260544
893.297 .0260534
893.957 .0260530
894.618 .0260532
895.278 .0260538
895.937 .0260546
896.596 .0260547
897.255 .0260545
897.914 .0260532
898.572 .0260514
899.230 .0260486
899.887 .0260448
900.544 .0260398
901.201 .0260338
901.857 .0260265
902.513 .0260175
903.168 .0260072
903.823 .0259957
904.478 .0259829
905.132 .0259692
905.786 .0259552
906.440 .0259405
907.093 .0259249
907.746 .0259089
908.399 .0258919
909.051 .0258743
909.703 .0258561
910.354 .0258373
911.005 .0258192
911.656 .0258018
912.306 .0257856
912.956 .0257705
913.605 .0257569
914.254 .0257444
914.903 .0257319
915.551 .0257194
916.199 .0257069
916.847 .0256941
917.494 .0256816
918.141 .0256701
918.788 .0256601
919.434 .0256522
920.079 .0256462
920.725 .0256419
921.370 .0256390
922.014 .0256364
922.658 .0256336
923.302 .0256293
923.946 .0256239
924.589 .0256172
925.231 .0256089
925.873 .0256001
926.515 .0255910
927.157 .0255817
927.798 .0255719
928.439 .0255611
929.079 .0255491
929.719 .0255354
930.359 .0255201
930.998 .0255032
931.637 .0254855
932.275 .0254674
932.913 .0254493
933.551 .0254314
934.188 .0254147
934.825 .0253991
935.462 .0253849
936.098 .0253720
936.733 .0253606
937.369 .0253508
938.004 .0253423
938.638 .0253354
939.273 .0253302
939.907 .0253266
940.540 .0253247
941.173 .0253241
941.806 .0253249
942.438 .0253265
943.070 .0253290
943.702 .0253318
944.333 .0253352
944.964 .0253390
945.594 .0253430
946.224 .0253476
946.854 .0253533
947.483 .0253601
948.112 .0253680
948.741 .0253769
949.369 .0253862
949.996 .0253955
950.624 .0254042
951.251 .0254120
951.878 .0254189
952.504 .0254250
953.130 .0254303
953.755 .0254350
954.380 .0254392
955.005 .0254431
955.629 .0254465
956.253 .0254500
956.877 .0254527
957.500 .0254547
958.123 .0254559
958.746 .0254562
959.368 .0254556
959.990 .0254546
960.611 .0254536
961.232 .0254528
961.853 .0254524
962.473 .0254523
963.093 .0254523
963.712 .0254524
964.331 .0254519
964.950 .0254512
965.569 .0254498
966.187 .0254483
966.804 .0254465
967.422 .0254448
968.039 .0254434
968.655 .0254424
969.272 .0254424
969.887 .0254429
970.503 .0254437
971.118 .0254446
971.733 .0254452
972.347 .0254452
972.961 .0254446
973.575 .0254437
974.188 .0254420
974.801 .0254396
975.414 .0254367
976.026 .0254332
976.638 .0254296
977.250 .0254263
977.861 .0254230
978.472 .0254199
979.083 .0254165
979.693 .0254118
980.303 .0254058
980.912 .0253986
981.521 .0253899
982.130 .0253794
982.738 .0253679
983.346 .0253561
983.954 .0253445
984.562 .0253342
985.169 .0253253
985.775 .0253189
986.382 .0253141
986.988 .0253100
987.594 .0253063
988.199 .0253021
988.804 .0252972
989.409 .0252908
990.013 .0252834
990.617 .0252757
991.221 .0252678
991.824 .0252605
992.427 .0252547
993.030 .0252512
993.632 .0252494
994.234 .0252493
994.836 .0252500
995.438 .0252513
996.039 .0252511
996.640 .0252495
997.240 .0252464
997.840 .0252415
998.440 .0252357
999.040 .0252289
999.639 .0252223
1000.238 .0252167
1000.836 .0252116
1001.435 .0252073
1002.033 .0252037
1002.630 .0252004
1003.228 .0251961
1003.825 .0251912
1004.422 .0251853
1005.018 .0251786
1005.614 .0251718
1006.210 .0251657
1006.806 .0251608
1007.401 .0251574
1007.996 .0251561
1008.591 .0251561
1009.186 .0251578
1009.780 .0251602
1010.374 .0251621
1010.967 .0251637
1011.561 .0251642
1012.154 .0251632
1012.746 .0251609
1013.339 .0251582
1013.931 .0251550
1014.523 .0251514
1015.115 .0251475
1015.706 .0251431
1016.298 .0251384
1016.888 .0251337
1017.479 .0251284
1018.069 .0251222
1018.660 .0251158
1019.250 .0251086
1019.839 .0251009
1020.429 .0250934
1021.018 .0250862
1021.607 .0250797
1022.195 .0250739
1022.784 .0250693
1023.372 .0250654
1023.960 .0250631
1024.547 .0250626
1025.135 .0250634
1025.722 .0250653
1026.309 .0250677
1026.896 .0250700
1027.483 .0250723
1028.069 .0250741
1028.655 .0250752
1029.241 .0250756
1029.827 .0250764
1030.412 .0250774
1030.997 .0250794
1031.582 .0250829
1032.167 .0250881
1032.752 .0250943
1033.336 .0251011
1033.921 .0251070
1034.505 .0251117
1035.089 .0251142
1035.672 .0251145
1036.256 .0251125
1036.839 .0251088
1037.422 .0251031
1038.005 .0250972
1038.588 .0250911
1039.171 .0250853
1039.753 .0250794
1040.335 .0250735
1040.918 .0250669
1041.500 .0250593
1042.081 .0250503
1042.663 .0250400
1043.244 .0250293
1043.826 .0250182
1044.407 .0250060
1044.988 .0249942
1045.569 .0249833
1046.150 .0249727
1046.730 .0249629
1047.311 .0249542
1047.891 .0249455
1048.471 .0249365
1049.052 .0249265
1049.632 .0249147
1050.211 .0249017
1050.791 .0248870
1051.371 .0248705
1051.950 .0248527
1052.530 .0248351
1053.109 .0248175
1053.688 .0248003
1054.268 .0247855
1054.847 .0247730
1055.426 .0247620
1056.005 .0247526
1056.583 .0247438
1057.162 .0247356
1057.741 .0247280
1058.319 .0247216
1058.898 .0247170
1059.476 .0247143
1060.055 .0247140
1060.633 .0247157
1061.211 .0247198
1061.790 .0247260
1062.368 .0247330
1062.946 .0247399
1063.524 .0247460
1064.102 .0247491
1064.680 .0247483
1065.258 .0247439
1065.836 .0247368
1066.414 .0247270
1066.992 .0247154
1067.570 .0247032
1068.148 .0246912
1068.726 .0246800
1069.304 .0246709
1069.882 .0246641
1070.460 .0246590
1071.038 .0246552
1071.616 .0246516
1072.194 .0246475
1072.772 .0246426
1073.350 .0246371
1073.928 .0246314
1074.506 .0246273
1075.084 .0246244
1075.662 .0246222
1076.240 .0246219
1076.819 .0246245
1077.397 .0246277
1077.976 .0246309
1078.554 .0246334
1079.133 .0246344
1079.711 .0246339
1080.290 .0246333
1080.869 .0246308
1081.448 .0246297
1082.027 .0246298
1082.606 .0246306
1083.185 .0246330
1083.764 .0246378
1084.343 .0246437
1084.923 .0246503
1085.502 .0246583
1086.082 .0246665
1086.662 .0246752
1087.242 .0246843
1087.822 .0246933
1088.402 .0247019
1088.983 .0247093
1089.563 .0247132
1090.144 .0247140
1090.725 .0247130
1091.306 .0247075
1091.887 .0247001
1092.469 .0246910
1093.050 .0246807
1093.632 .0246719
1094.214 .0246622
1094.796 .0246544
1095.379 .0246482
1095.961 .0246437
1096.544 .0246410
1097.127 .0246403
1097.710 .0246428
1098.294 .0246483
1098.877 .0246589
1099.461 .0246762
1100.046 .0246971
1100.630 .0247236
1101.215 .0247545
1101.800 .0247879
1102.385 .0248228
1102.970 .0248594
1103.556 .0248946
1104.142 .0249318
1104.728 .0249679
1105.315 .0250046
1105.902 .0250403
1106.489 .0250744
1107.077 .0251059
1107.664 .0251337
1108.253 .0251574
1108.841 .0251758
1109.430 .0251874
1110.019 .0251962
1110.609 .0251990
1111.198 .0251992
1111.789 .0251980
1112.379 .0251977
1112.970 .0251999
1113.561 .0252054
1114.153 .0252156
1114.745 .0252339
1115.338 .0252601
1115.931 .0252942
1116.524 .0253345
1117.117 .0253796
1117.712 .0254282
1118.306 .0254788
1118.901 .0255297
1119.496 .0255789
1120.092 .0256281
1120.689 .0256791
1121.285 .0257310
1121.882 .0257831
1122.480 .0258381
1123.078 .0258962
1123.677 .0259558
1124.276 .0260159
1124.875 .0260736
1125.476 .0261262
1126.076 .0261774
1126.677 .0262250
1127.279 .0262721
1127.881 .0263215
1128.484 .0263761
1129.087 .0264345
1129.691 .0264991
1130.295 .0265671
1130.900 .0266328
1131.505 .0267000
1132.111 .0267688
1132.718 .0268389
1133.325 .0269109
1133.933 .0269901
1134.541 .0270746
1135.150 .0271684
1135.760 .0272699
1136.370 .0273736
1136.981 .0274830
1137.592 .0275936
1138.204 .0277021
1138.817 .0278167
1139.431 .0279409
1140.045 .0280763
1140.660 .0282062
1141.275 .0283545
1141.891 .0285119
1142.508 .0288350
1143.126 .0289501
1143.744 .0286303
1144.363 .0292071
1144.983 .0295112
