Measurement Sequence started on: 15-12-46-377
Integration time: 28
Scans to Average: 2 
>>>>>Begin Spectral Data<<<<<
432.689 .0000100
433.621 .0000100
434.552 .0000100
435.482 .0000100
436.410 .0000100
437.337 .0000100
438.262 .0272603
439.187 .0578147
440.110 .0958627
441.031 .1388334
441.952 .1805823
442.871 .2134988
443.789 .2315887
444.705 .2327661
445.621 .2195138
446.535 .1972738
447.447 .1720132
448.359 .1334699
449.269 .1142075
450.178 .1019844
451.086 .0933655
451.993 .0868414
452.898 .0817285
453.803 .0775868
454.706 .0741795
455.608 .0712844
456.508 .0687947
457.408 .0666476
458.306 .0647464
459.204 .0630680
460.100 .0615493
460.995 .0601830
461.888 .0589342
462.781 .0577779
463.673 .0567011
464.563 .0556986
465.452 .0547498
466.340 .0538530
467.228 .0530008
468.114 .0521870
468.999 .0514144
469.882 .0506760
470.765 .0499810
471.647 .0493417
472.528 .0487518
473.407 .0482269
474.286 .0477568
475.163 .0473512
476.040 .0469948
476.915 .0466931
477.790 .0464332
478.663 .0462081
479.535 .0460142
480.407 .0458465
481.277 .0456930
482.147 .0455658
483.015 .0454639
483.883 .0453890
484.749 .0453448
485.615 .0453329
486.479 .0453395
487.343 .0453682
488.206 .0454148
489.067 .0454720
489.928 .0455290
490.788 .0455955
491.647 .0456560
492.505 .0457256
493.362 .0458076
494.218 .0459101
495.073 .0460346
495.928 .0461967
496.781 .0463868
497.634 .0466038
498.486 .0468481
499.337 .0471113
500.187 .0473831
501.036 .0476668
501.884 .0479534
502.731 .0482464
503.578 .0485544
504.424 .0488906
505.268 .0492577
506.113 .0496724
506.956 .0501246
507.798 .0506314
508.640 .0511831
509.480 .0517891
510.320 .0524493
511.160 .0531650
511.998 .0539451
512.836 .0548014
513.672 .0557424
514.508 .0567746
515.344 .0579302
516.178 .0592574
517.012 .0607613
517.845 .0624863
518.677 .0644724
519.508 .0667364
520.339 .0693250
521.169 .0722948
521.998 .0756445
522.826 .0794366
523.654 .0836875
524.481 .0883425
525.307 .0935092
526.133 .0991729
526.958 .1052563
527.782 .1117296
528.605 .1184894
529.428 .1254468
530.250 .1320908
531.072 .1381573
531.892 .1432616
532.712 .1472031
533.532 .1497681
534.350 .1506816
535.168 .1499664
535.986 .1477089
536.802 .1440551
537.618 .1392204
538.434 .1334502
539.249 .1271435
540.063 .1205168
540.876 .1138177
541.689 .1071838
542.501 .1008977
543.313 .0950637
544.124 .0897475
544.934 .0849599
545.744 .0806170
546.553 .0766932
547.361 .0731418
548.169 .0700369
548.976 .0672680
549.783 .0648173
550.589 .0626492
551.395 .0606929
552.200 .0589596
553.004 .0573885
553.808 .0559459
554.611 .0546587
555.414 .0535324
556.216 .0525276
557.018 .0516357
557.819 .0508458
558.619 .0501336
559.419 .0494865
560.218 .0488798
561.017 .0482987
561.815 .0477089
562.613 .0471151
563.410 .0465049
564.207 .0458906
565.003 .0452830
565.799 .0446696
566.594 .0440636
567.388 .0434678
568.182 .0428757
568.976 .0422875
569.769 .0417028
570.562 .0411293
571.354 .0405626
572.145 .0400049
572.936 .0394654
573.727 .0389450
574.517 .0384492
575.307 .0379798
576.096 .0375332
576.885 .0371095
577.673 .0367025
578.461 .0363150
579.248 .0359520
580.035 .0356097
580.821 .0352910
581.607 .0349943
582.392 .0347247
583.177 .0344809
583.962 .0342577
584.746 .0340583
585.529 .0338766
586.313 .0337131
587.095 .0335663
587.878 .0334330
588.660 .0333158
589.441 .0332124
590.222 .0331224
591.003 .0330429
591.783 .0329720
592.563 .0329074
593.342 .0328474
594.121 .0327904
594.899 .0327342
595.678 .0326781
596.455 .0326221
597.233 .0325678
598.009 .0325143
598.786 .0324634
599.562 .0324139
600.338 .0323661
601.113 .0323191
601.888 .0322714
602.663 .0322228
603.437 .0321740
604.211 .0321242
604.984 .0320736
605.757 .0320238
606.530 .0319760
607.302 .0319303
608.074 .0318881
608.845 .0318494
609.616 .0318135
610.387 .0317802
611.158 .0317491
611.928 .0317183
612.697 .0316887
613.467 .0316605
614.236 .0316328
615.004 .0316059
615.773 .0315815
616.541 .0315594
617.308 .0315405
618.076 .0315253
618.843 .0315118
619.609 .0315003
620.375 .0314896
621.141 .0314783
621.907 .0314649
622.672 .0314500
623.437 .0314327
624.202 .0314134
624.966 .0313930
625.730 .0313717
626.493 .0313492
627.257 .0313264
628.020 .0313026
628.782 .0312762
629.545 .0312462
630.307 .0312127
631.068 .0311753
631.830 .0311356
632.591 .0310927
633.352 .0310491
634.112 .0310060
634.872 .0309647
635.632 .0309247
636.392 .0308865
637.151 .0308500
637.910 .0308150
638.668 .0307808
639.427 .0307471
640.185 .0307133
640.943 .0306810
641.700 .0306502
642.457 .0306218
643.214 .0305958
643.971 .0305723
644.727 .0305509
645.483 .0305318
646.239 .0305132
646.994 .0304945
647.750 .0304756
648.505 .0304564
649.259 .0304366
650.014 .0304165
650.768 .0303964
651.521 .0303770
652.275 .0303584
653.028 .0303413
653.781 .0303244
654.534 .0303074
655.286 .0302894
656.039 .0302705
656.791 .0302499
657.542 .0302274
658.294 .0302034
659.045 .0301789
659.796 .0301541
660.546 .0301296
661.297 .0301054
662.047 .0300824
662.796 .0300604
663.546 .0300394
664.295 .0300183
665.044 .0299979
665.793 .0299775
666.542 .0299576
667.290 .0299381
668.038 .0299200
668.786 .0299025
669.533 .0298858
670.281 .0298703
671.028 .0298556
671.774 .0298414
672.521 .0298284
673.267 .0298162
674.013 .0298051
674.759 .0297939
675.505 .0297826
676.250 .0297705
676.995 .0297578
677.740 .0297438
678.484 .0297286
679.229 .0297129
679.973 .0296969
680.717 .0296812
681.460 .0296665
682.204 .0296535
682.947 .0296421
683.690 .0296319
684.433 .0296225
685.175 .0296135
685.917 .0296041
686.659 .0295939
687.401 .0295833
688.142 .0295720
688.884 .0295604
689.625 .0295486
690.365 .0295360
691.106 .0295234
691.846 .0295102
692.586 .0294962
693.326 .0294815
694.066 .0294662
694.805 .0294499
695.545 .0294330
696.284 .0294151
697.022 .0293968
697.761 .0293776
698.499 .0293579
699.237 .0293376
699.975 .0293169
700.713 .0292954
701.450 .0292731
702.187 .0292507
702.924 .0292286
703.661 .0292067
704.397 .0291860
705.133 .0291665
705.869 .0291483
706.605 .0291312
707.341 .0291146
708.076 .0290985
708.811 .0290829
709.546 .0290677
710.281 .0290520
711.015 .0290363
711.749 .0290202
712.483 .0290043
713.217 .0289882
713.950 .0289731
714.684 .0289578
715.417 .0289423
716.150 .0289266
716.882 .0289101
717.615 .0288925
718.347 .0288741
719.079 .0288544
719.811 .0288339
720.542 .0288120
721.273 .0287889
722.005 .0287642
722.735 .0287393
723.466 .0287146
724.196 .0286898
724.927 .0286650
725.656 .0286410
726.386 .0286171
727.116 .0285935
727.845 .0285704
728.574 .0285473
729.303 .0285243
730.031 .0285015
730.760 .0284786
731.488 .0284563
732.216 .0284353
732.944 .0284160
733.671 .0283983
734.398 .0283825
735.125 .0283677
735.852 .0283529
736.579 .0283383
737.305 .0283240
738.031 .0283094
738.757 .0282950
739.483 .0282807
740.208 .0282668
740.933 .0282538
741.658 .0282410
742.383 .0282287
743.108 .0282163
743.832 .0282034
744.556 .0281898
745.280 .0281751
746.004 .0281599
746.727 .0281444
747.450 .0281286
748.173 .0281128
748.896 .0280971
749.618 .0280814
750.340 .0280655
751.062 .0280495
751.784 .0280336
752.506 .0280176
753.227 .0280014
753.948 .0279855
754.669 .0279694
755.389 .0279533
756.110 .0279369
756.830 .0279199
757.550 .0279028
758.269 .0278855
758.989 .0278677
759.708 .0278500
760.427 .0278326
761.146 .0278157
761.864 .0277992
762.582 .0277837
763.300 .0277687
764.018 .0277542
764.736 .0277401
765.453 .0277264
766.170 .0277129
766.887 .0277005
767.603 .0276885
768.320 .0276770
769.036 .0276667
769.751 .0276572
770.467 .0276481
771.182 .0276401
771.897 .0276325
772.612 .0276253
773.327 .0276185
774.041 .0276120
774.755 .0276054
775.469 .0275993
776.183 .0275942
776.896 .0275896
777.609 .0275857
778.322 .0275830
779.035 .0275801
779.747 .0275777
780.459 .0275752
781.171 .0275719
781.882 .0275678
782.594 .0275635
783.305 .0275589
784.016 .0275546
784.726 .0275511
785.436 .0275487
786.147 .0275473
786.856 .0275470
787.566 .0275471
788.275 .0275467
788.984 .0275456
789.693 .0275433
790.401 .0275393
791.110 .0275343
791.818 .0275285
792.525 .0275225
793.233 .0275169
793.940 .0275120
794.647 .0275074
795.353 .0275033
796.060 .0274994
796.766 .0274951
797.472 .0274899
798.177 .0274834
798.883 .0274759
799.588 .0274674
800.292 .0274587
800.997 .0274501
801.701 .0274417
802.405 .0274341
803.109 .0274271
803.812 .0274206
804.515 .0274142
805.218 .0274074
805.921 .0273996
806.623 .0273910
807.325 .0273813
808.027 .0273709
808.728 .0273598
809.429 .0273489
810.130 .0273379
810.831 .0273268
811.531 .0273157
812.231 .0273042
812.931 .0272921
813.630 .0272798
814.330 .0272668
815.029 .0272536
815.727 .0272401
816.426 .0272269
817.124 .0272145
817.821 .0272028
818.519 .0271918
819.216 .0271815
819.913 .0271719
820.609 .0271632
821.306 .0271551
822.002 .0271479
822.697 .0271419
823.393 .0271374
824.088 .0271339
824.783 .0271314
825.477 .0271299
826.171 .0271290
826.865 .0271279
827.559 .0271271
828.252 .0271257
828.945 .0271238
829.638 .0271214
830.330 .0271189
831.023 .0271158
831.714 .0271121
832.406 .0271077
833.097 .0271018
833.788 .0270948
834.479 .0270867
835.169 .0270771
835.859 .0270675
836.548 .0270577
837.238 .0270483
837.927 .0270394
838.615 .0270315
839.304 .0270243
839.992 .0270172
840.680 .0270103
841.367 .0270032
842.054 .0269958
842.741 .0269883
843.428 .0269810
844.114 .0269742
844.800 .0269682
845.485 .0269622
846.170 .0269559
846.855 .0269489
847.540 .0269408
848.224 .0269309
848.908 .0269192
849.592 .0269056
850.275 .0268901
850.958 .0268728
851.641 .0268544
852.323 .0268350
853.005 .0268148
853.687 .0267932
854.368 .0267702
855.049 .0267459
855.730 .0267204
856.410 .0266941
857.090 .0266676
857.769 .0266412
858.449 .0266150
859.128 .0265891
859.806 .0265634
860.485 .0265384
861.163 .0265140
861.840 .0264902
862.518 .0264666
863.195 .0264434
863.871 .0264207
864.548 .0263988
865.224 .0263779
865.899 .0263581
866.574 .0263393
867.249 .0263218
867.924 .0263048
868.598 .0262884
869.272 .0262727
869.946 .0262573
870.619 .0262416
871.292 .0262259
871.964 .0262093
872.636 .0261920
873.308 .0261744
873.979 .0261572
874.651 .0261400
875.321 .0261237
875.992 .0261083
876.662 .0260937
877.331 .0260800
878.001 .0260668
878.670 .0260532
879.338 .0260394
880.007 .0260252
880.675 .0260101
881.342 .0259946
882.009 .0259794
882.676 .0259646
883.343 .0259509
884.009 .0259383
884.675 .0259271
885.340 .0259170
886.005 .0259082
886.670 .0258999
887.334 .0258920
887.998 .0258843
888.662 .0258771
889.325 .0258702
889.988 .0258641
890.650 .0258585
891.312 .0258536
891.974 .0258493
892.636 .0258462
893.297 .0258439
893.957 .0258423
894.618 .0258410
895.278 .0258400
895.937 .0258388
896.596 .0258375
897.255 .0258355
897.914 .0258325
898.572 .0258283
899.230 .0258229
899.887 .0258157
900.544 .0258073
901.201 .0257973
901.857 .0257864
902.513 .0257745
903.168 .0257621
903.823 .0257483
904.478 .0257339
905.132 .0257186
905.786 .0257024
906.440 .0256854
907.093 .0256674
907.746 .0256487
908.399 .0256301
909.051 .0256117
909.703 .0255937
910.354 .0255759
911.005 .0255591
911.656 .0255430
912.306 .0255268
912.956 .0255109
913.605 .0254953
914.254 .0254799
914.903 .0254648
915.551 .0254504
916.199 .0254366
916.847 .0254238
917.494 .0254124
918.141 .0254022
918.788 .0253926
919.434 .0253836
920.079 .0253744
920.725 .0253652
921.370 .0253564
922.014 .0253472
922.658 .0253373
923.302 .0253276
923.946 .0253173
924.589 .0253059
925.231 .0252931
925.873 .0252796
926.515 .0252646
927.157 .0252488
927.798 .0252316
928.439 .0252135
929.079 .0251952
929.719 .0251766
930.359 .0251577
930.998 .0251390
931.637 .0251207
932.275 .0251027
932.913 .0250853
933.551 .0250695
934.188 .0250547
934.825 .0250418
935.462 .0250310
936.098 .0250220
936.733 .0250149
937.369 .0250096
938.004 .0250059
938.638 .0250038
939.273 .0250030
939.907 .0250030
940.540 .0250037
941.173 .0250054
941.806 .0250079
942.438 .0250109
943.070 .0250146
943.702 .0250186
944.333 .0250223
944.964 .0250257
945.594 .0250289
946.224 .0250315
946.854 .0250342
947.483 .0250371
948.112 .0250405
948.741 .0250447
949.369 .0250501
949.996 .0250558
950.624 .0250620
951.251 .0250686
951.878 .0250744
952.504 .0250794
953.130 .0250835
953.755 .0250867
954.380 .0250895
955.005 .0250922
955.629 .0250948
956.253 .0250972
956.877 .0251004
957.500 .0251035
958.123 .0251064
958.746 .0251089
959.368 .0251105
959.990 .0251113
960.611 .0251110
961.232 .0251095
961.853 .0251071
962.473 .0251047
963.093 .0251026
963.712 .0251004
964.331 .0250981
964.950 .0250957
965.569 .0250933
966.187 .0250908
966.804 .0250886
967.422 .0250869
968.039 .0250863
968.655 .0250869
969.272 .0250885
969.887 .0250913
970.503 .0250948
971.118 .0250991
971.733 .0251037
972.347 .0251082
972.961 .0251120
973.575 .0251154
974.188 .0251186
974.801 .0251210
975.414 .0251230
976.026 .0251239
976.638 .0251240
977.250 .0251233
977.861 .0251217
978.472 .0251191
979.083 .0251159
979.693 .0251116
980.303 .0251058
980.912 .0250987
981.521 .0250905
982.130 .0250817
982.738 .0250731
983.346 .0250651
983.954 .0250583
984.562 .0250526
985.169 .0250484
985.775 .0250452
986.382 .0250430
986.988 .0250414
987.594 .0250397
988.199 .0250381
988.804 .0250366
989.409 .0250353
990.013 .0250345
990.617 .0250342
991.221 .0250343
991.824 .0250344
992.427 .0250346
993.030 .0250342
993.632 .0250332
994.234 .0250320
994.836 .0250304
995.438 .0250287
996.039 .0250272
996.640 .0250259
997.240 .0250246
997.840 .0250237
998.440 .0250223
999.040 .0250198
999.639 .0250166
1000.238 .0250121
1000.836 .0250064
1001.435 .0250006
1002.033 .0249948
1002.630 .0249893
1003.228 .0249848
1003.825 .0249812
1004.422 .0249778
1005.018 .0249756
1005.614 .0249737
1006.210 .0249718
1006.806 .0249702
1007.401 .0249691
1007.996 .0249679
1008.591 .0249671
1009.186 .0249671
1009.780 .0249670
1010.374 .0249675
1010.967 .0249683
1011.561 .0249686
1012.154 .0249687
1012.746 .0249681
1013.339 .0249668
1013.931 .0249647
1014.523 .0249625
1015.115 .0249598
1015.706 .0249574
1016.298 .0249554
1016.888 .0249536
1017.479 .0249519
1018.069 .0249504
1018.660 .0249489
1019.250 .0249468
1019.839 .0249441
1020.429 .0249407
1021.018 .0249374
1021.607 .0249343
1022.195 .0249320
1022.784 .0249313
1023.372 .0249320
1023.960 .0249342
1024.547 .0249369
1025.135 .0249399
1025.722 .0249419
1026.309 .0249431
1026.896 .0249439
1027.483 .0249440
1028.069 .0249443
1028.655 .0249449
1029.241 .0249469
1029.827 .0249507
1030.412 .0249556
1030.997 .0249606
1031.582 .0249657
1032.167 .0249699
1032.752 .0249725
1033.336 .0249739
1033.921 .0249752
1034.505 .0249761
1035.089 .0249761
1035.672 .0249760
1036.256 .0249755
1036.839 .0249741
1037.422 .0249715
1038.005 .0249677
1038.588 .0249635
1039.171 .0249584
1039.753 .0249532
1040.335 .0249484
1040.918 .0249449
1041.500 .0249431
1042.081 .0249418
1042.663 .0249414
1043.244 .0249413
1043.826 .0249403
1044.407 .0249381
1044.988 .0249352
1045.569 .0249307
1046.150 .0249251
1046.730 .0249190
1047.311 .0249131
1047.891 .0249077
1048.471 .0249021
1049.052 .0248966
1049.632 .0248913
1050.211 .0248856
1050.791 .0248781
1051.371 .0248688
1051.950 .0248588
1052.530 .0248472
1053.109 .0248342
1053.688 .0248207
1054.268 .0248074
1054.847 .0247950
1055.426 .0247844
1056.005 .0247752
1056.583 .0247671
1057.162 .0247593
1057.741 .0247500
1058.319 .0247398
1058.898 .0247276
1059.476 .0247123
1060.055 .0246955
1060.633 .0246782
1061.211 .0246609
1061.790 .0246439
1062.368 .0246281
1062.946 .0246144
1063.524 .0246024
1064.102 .0245919
1064.680 .0245816
1065.258 .0245719
1065.836 .0245619
1066.414 .0245519
1066.992 .0245416
1067.570 .0245332
1068.148 .0245249
1068.726 .0245186
1069.304 .0245144
1069.882 .0245122
1070.460 .0245110
1071.038 .0245109
1071.616 .0245099
1072.194 .0245069
1072.772 .0244993
1073.350 .0244885
1073.928 .0244735
1074.506 .0244573
1075.084 .0244393
1075.662 .0244222
1076.240 .0244056
1076.819 .0243905
1077.397 .0243767
1077.976 .0243647
1078.554 .0243535
1079.133 .0243419
1079.711 .0243291
1080.290 .0243167
1080.869 .0243035
1081.448 .0242917
1082.027 .0242821
1082.606 .0242774
1083.185 .0242774
1083.764 .0242829
1084.343 .0242932
1084.923 .0243073
1085.502 .0243232
1086.082 .0243402
1086.662 .0243571
1087.242 .0243717
1087.822 .0243832
1088.402 .0243908
1088.983 .0243965
1089.563 .0244002
1090.144 .0244012
1090.725 .0244015
1091.306 .0244020
1091.887 .0244039
1092.469 .0244066
1093.050 .0244102
1093.632 .0244162
1094.214 .0244220
1094.796 .0244290
1095.379 .0244359
1095.961 .0244441
1096.544 .0244556
1097.127 .0244711
1097.710 .0244912
1098.294 .0245168
1098.877 .0245474
1099.461 .0245815
1100.046 .0246195
1100.630 .0246586
1101.215 .0246970
1101.800 .0247334
1102.385 .0247666
1102.970 .0247946
1103.556 .0248167
1104.142 .0248344
1104.728 .0248494
1105.315 .0248621
1105.902 .0248731
1106.489 .0248818
1107.077 .0248908
1107.664 .0248986
1108.253 .0249068
1108.841 .0249139
1109.430 .0249215
1110.019 .0249276
1110.609 .0249343
1111.198 .0249408
1111.789 .0249490
1112.379 .0249595
1112.970 .0249725
1113.561 .0249890
1114.153 .0250081
1114.745 .0250274
1115.338 .0250479
1115.931 .0250680
1116.524 .0250888
1117.117 .0251059
1117.712 .0251226
1118.306 .0251395
1118.901 .0251575
1119.496 .0251773
1120.092 .0252001
1120.689 .0252283
1121.285 .0252612
1121.882 .0252974
1122.480 .0253372
1123.078 .0253801
1123.677 .0254290
1124.276 .0254829
1124.875 .0255427
1125.476 .0256098
1126.076 .0256845
1126.677 .0257652
1127.279 .0258537
1127.881 .0259470
1128.484 .0260425
1129.087 .0261388
1129.691 .0262322
1130.295 .0263240
1130.900 .0264121
1131.505 .0264969
1132.111 .0265786
1132.718 .0266612
1133.325 .0267456
1133.933 .0268288
1134.541 .0269166
1135.150 .0270071
1135.760 .0270986
1136.370 .0271946
1136.981 .0272897
1137.592 .0273843
1138.204 .0274825
1138.817 .0275882
1139.431 .0276963
1140.045 .0278191
1140.660 .0279471
1141.275 .0280744
1141.891 .0282185
1142.508 .0283554
1143.126 .0286978
1143.744 .0286023
1144.363 .0285562
1144.983 .0291226
