Measurement Sequence started on: 15-12-46-377
Integration time: 28
Scans to Average: 2 
>>>>>Begin Spectral Data<<<<<
432.689 .0000100
433.621 .0000100
434.552 .0000100
435.482 .0000100
436.410 .0000100
437.337 .0000100
438.262 .0278287
439.187 .0590576
440.110 .0979444
441.031 .1418957
441.952 .1846923
442.871 .2185189
443.789 .2372257
444.705 .2386801
445.621 .2253860
446.535 .2028608
447.447 .1771852
448.359 .1378486
449.269 .1181010
450.178 .1054859
451.086 .0965128
451.993 .0896405
452.898 .0842273
453.803 .0798462
454.706 .0762256
455.608 .0731333
456.508 .0704749
457.408 .0681718
458.306 .0661517
459.204 .0643656
460.100 .0627628
460.995 .0613173
461.888 .0600148
462.781 .0588413
463.673 .0577607
464.563 .0567600
465.452 .0558256
466.340 .0549308
467.228 .0540743
468.114 .0532405
468.999 .0524350
469.882 .0516601
470.765 .0509316
471.647 .0502520
472.528 .0496330
473.407 .0490851
474.286 .0486055
475.163 .0481906
476.040 .0478252
476.915 .0475014
477.790 .0472064
478.663 .0469419
479.535 .0467030
480.407 .0464866
481.277 .0463041
482.147 .0461561
483.015 .0460543
483.883 .0459976
484.749 .0459794
485.615 .0459980
486.479 .0460406
487.343 .0461026
488.206 .0461615
489.067 .0462180
489.928 .0462685
490.788 .0463104
491.647 .0463485
492.505 .0463945
493.362 .0464531
494.218 .0465378
495.073 .0466577
495.928 .0468137
496.781 .0470010
497.634 .0472282
498.486 .0474877
499.337 .0477721
500.187 .0480785
501.036 .0484096
501.884 .0487511
502.731 .0491195
503.578 .0495138
504.424 .0499342
505.268 .0503902
506.113 .0508845
506.956 .0514182
507.798 .0519975
508.640 .0526219
509.480 .0532932
510.320 .0540253
511.160 .0548292
511.998 .0556809
512.836 .0565853
513.672 .0575549
514.508 .0586024
515.344 .0597155
516.178 .0609364
517.012 .0623192
517.845 .0639097
518.677 .0657581
519.508 .0679073
520.339 .0704387
521.169 .0733905
521.998 .0767775
522.826 .0806587
523.654 .0850829
524.481 .0900626
525.307 .0956197
526.133 .1018199
526.958 .1086688
527.782 .1161154
528.605 .1239810
529.428 .1322064
530.250 .1402143
531.072 .1476864
531.892 .1541316
532.712 .1591680
533.532 .1625687
534.350 .1639678
535.168 .1632730
535.986 .1606237
536.802 .1562220
537.618 .1503866
538.434 .1433309
539.249 .1356915
540.063 .1276839
540.876 .1196453
541.689 .1118406
542.501 .1044572
543.313 .0977466
544.124 .0917111
544.934 .0863133
545.744 .0815251
546.553 .0773080
547.361 .0736243
548.169 .0704292
548.976 .0676321
549.783 .0651825
550.589 .0630200
551.395 .0610840
552.200 .0593436
553.004 .0577658
553.808 .0563199
554.611 .0550138
555.414 .0538321
556.216 .0527653
557.018 .0517882
557.819 .0509191
558.619 .0501276
559.419 .0493954
560.218 .0487142
561.017 .0480576
561.815 .0474238
562.613 .0468169
563.410 .0462162
564.207 .0456146
565.003 .0450169
565.799 .0444282
566.594 .0438423
567.388 .0432767
568.182 .0427241
568.976 .0421973
569.769 .0416989
570.562 .0412247
571.354 .0407639
572.145 .0403200
572.936 .0398868
573.727 .0394555
574.517 .0390332
575.307 .0386174
576.096 .0382123
576.885 .0378256
577.673 .0374570
578.461 .0371088
579.248 .0367799
580.035 .0364708
580.821 .0361725
581.607 .0358886
582.392 .0356132
583.177 .0353489
583.962 .0351031
584.746 .0348769
585.529 .0346728
586.313 .0344933
587.095 .0343372
587.878 .0342017
588.660 .0340815
589.441 .0339720
590.222 .0338700
591.003 .0337744
591.783 .0336820
592.563 .0335938
593.342 .0335102
594.121 .0334309
594.899 .0333569
595.678 .0332869
596.455 .0332212
597.233 .0331571
598.009 .0330941
598.786 .0330305
599.562 .0329670
600.338 .0329034
601.113 .0328404
601.888 .0327782
602.663 .0327183
603.437 .0326595
604.211 .0326023
604.984 .0325471
605.757 .0324949
606.530 .0324447
607.302 .0323972
608.074 .0323520
608.845 .0323104
609.616 .0322717
610.387 .0322368
611.158 .0322052
611.928 .0321766
612.697 .0321500
613.467 .0321244
614.236 .0320993
615.004 .0320744
615.773 .0320492
616.541 .0320239
617.308 .0319982
618.076 .0319728
618.843 .0319468
619.609 .0319214
620.375 .0318964
621.141 .0318715
621.907 .0318464
622.672 .0318208
623.437 .0317950
624.202 .0317688
624.966 .0317423
625.730 .0317153
626.493 .0316881
627.257 .0316603
628.020 .0316322
628.782 .0316041
629.545 .0315761
630.307 .0315489
631.068 .0315228
631.830 .0314978
632.591 .0314735
633.352 .0314504
634.112 .0314279
634.872 .0314052
635.632 .0313828
636.392 .0313591
637.151 .0313351
637.910 .0313105
638.668 .0312862
639.427 .0312621
640.185 .0312388
640.943 .0312170
641.700 .0311961
642.457 .0311766
643.214 .0311579
643.971 .0311388
644.727 .0311199
645.483 .0311015
646.239 .0310835
646.994 .0310664
647.750 .0310513
648.505 .0310373
649.259 .0310252
650.014 .0310145
650.768 .0310041
651.521 .0309934
652.275 .0309824
653.028 .0309701
653.781 .0309561
654.534 .0309409
655.286 .0309245
656.039 .0309072
656.791 .0308891
657.542 .0308701
658.294 .0308498
659.045 .0308285
659.796 .0308064
660.546 .0307828
661.297 .0307585
662.047 .0307325
662.796 .0307052
663.546 .0306773
664.295 .0306492
665.044 .0306210
665.793 .0305932
666.542 .0305664
667.290 .0305409
668.038 .0305165
668.786 .0304936
669.533 .0304717
670.281 .0304505
671.028 .0304299
671.774 .0304089
672.521 .0303878
673.267 .0303668
674.013 .0303453
674.759 .0303242
675.505 .0303035
676.250 .0302831
676.995 .0302635
677.740 .0302446
678.484 .0302272
679.229 .0302099
679.973 .0301925
680.717 .0301744
681.460 .0301553
682.204 .0301352
682.947 .0301137
683.690 .0300906
684.433 .0300664
685.175 .0300415
685.917 .0300158
686.659 .0299898
687.401 .0299643
688.142 .0299392
688.884 .0299146
689.625 .0298899
690.365 .0298651
691.106 .0298397
691.846 .0298144
692.586 .0297888
693.326 .0297626
694.066 .0297362
694.805 .0297103
695.545 .0296846
696.284 .0296595
697.022 .0296354
697.761 .0296118
698.499 .0295889
699.237 .0295669
699.975 .0295447
700.713 .0295225
701.450 .0295007
702.187 .0294786
702.924 .0294561
703.661 .0294336
704.397 .0294109
705.133 .0293888
705.869 .0293680
706.605 .0293484
707.341 .0293298
708.076 .0293125
708.811 .0292960
709.546 .0292798
710.281 .0292639
711.015 .0292479
711.749 .0292315
712.483 .0292148
713.217 .0291975
713.950 .0291800
714.684 .0291627
715.417 .0291457
716.150 .0291287
716.882 .0291116
717.615 .0290939
718.347 .0290758
719.079 .0290572
719.811 .0290388
720.542 .0290205
721.273 .0290026
722.005 .0289848
722.735 .0289674
723.466 .0289501
724.196 .0289332
724.927 .0289163
725.656 .0288995
726.386 .0288827
727.116 .0288661
727.845 .0288499
728.574 .0288351
729.303 .0288213
730.031 .0288089
730.760 .0287975
731.488 .0287867
732.216 .0287764
732.944 .0287669
733.671 .0287583
734.398 .0287512
735.125 .0287453
735.852 .0287410
736.579 .0287379
737.305 .0287364
738.031 .0287364
738.757 .0287374
739.483 .0287386
740.208 .0287398
740.933 .0287403
741.658 .0287405
742.383 .0287403
743.108 .0287404
743.832 .0287410
744.556 .0287418
745.280 .0287428
746.004 .0287435
746.727 .0287436
747.450 .0287430
748.173 .0287404
748.896 .0287359
749.618 .0287299
750.340 .0287220
751.062 .0287124
751.784 .0287021
752.506 .0286914
753.227 .0286800
753.948 .0286682
754.669 .0286556
755.389 .0286425
756.110 .0286291
756.830 .0286152
757.550 .0286013
758.269 .0285883
758.989 .0285760
759.708 .0285644
760.427 .0285537
761.146 .0285440
761.864 .0285344
762.582 .0285243
763.300 .0285135
764.018 .0285021
764.736 .0284899
765.453 .0284771
766.170 .0284641
766.887 .0284515
767.603 .0284389
768.320 .0284266
769.036 .0284141
769.751 .0284006
770.467 .0283859
771.182 .0283697
771.897 .0283517
772.612 .0283331
773.327 .0283139
774.041 .0282948
774.755 .0282765
775.469 .0282599
776.183 .0282447
776.896 .0282311
777.609 .0282190
778.322 .0282081
779.035 .0281975
779.747 .0281874
780.459 .0281770
781.171 .0281672
781.882 .0281574
782.594 .0281483
783.305 .0281396
784.016 .0281316
784.726 .0281239
785.436 .0281164
786.147 .0281083
786.856 .0280994
787.566 .0280891
788.275 .0280774
788.984 .0280643
789.693 .0280496
790.401 .0280335
791.110 .0280163
791.818 .0279983
792.525 .0279796
793.233 .0279600
793.940 .0279400
794.647 .0279193
795.353 .0278981
796.060 .0278763
796.766 .0278541
797.472 .0278321
798.177 .0278105
798.883 .0277896
799.588 .0277696
800.292 .0277504
800.997 .0277322
801.701 .0277148
802.405 .0276982
803.109 .0276818
803.812 .0276654
804.515 .0276486
805.218 .0276311
805.921 .0276129
806.623 .0275940
807.325 .0275743
808.027 .0275541
808.728 .0275333
809.429 .0275115
810.130 .0274885
810.831 .0274649
811.531 .0274408
812.231 .0274164
812.931 .0273917
813.630 .0273674
814.330 .0273436
815.029 .0273209
815.727 .0272992
816.426 .0272783
817.124 .0272583
817.821 .0272391
818.519 .0272200
819.216 .0272015
819.913 .0271839
820.609 .0271673
821.306 .0271524
822.002 .0271395
822.697 .0271283
823.393 .0271187
824.088 .0271104
824.783 .0271028
825.477 .0270951
826.171 .0270871
826.865 .0270784
827.559 .0270690
828.252 .0270596
828.945 .0270504
829.638 .0270417
830.330 .0270346
831.023 .0270288
831.714 .0270241
832.406 .0270205
833.097 .0270174
833.788 .0270140
834.479 .0270103
835.169 .0270064
835.859 .0270023
836.548 .0269983
837.238 .0269950
837.927 .0269923
838.615 .0269907
839.304 .0269903
839.992 .0269904
840.680 .0269907
841.367 .0269914
842.054 .0269915
842.741 .0269912
843.428 .0269908
844.114 .0269904
844.800 .0269903
845.485 .0269906
846.170 .0269909
846.855 .0269912
847.540 .0269912
848.224 .0269909
848.908 .0269904
849.592 .0269897
850.275 .0269884
850.958 .0269868
851.641 .0269853
852.323 .0269837
853.005 .0269813
853.687 .0269782
854.368 .0269743
855.049 .0269692
855.730 .0269632
856.410 .0269559
857.090 .0269484
857.769 .0269410
858.449 .0269332
859.128 .0269252
859.806 .0269170
860.485 .0269087
861.163 .0269000
861.840 .0268911
862.518 .0268819
863.195 .0268728
863.871 .0268641
864.548 .0268561
865.224 .0268493
865.899 .0268438
866.574 .0268399
867.249 .0268373
867.924 .0268358
868.598 .0268352
869.272 .0268353
869.946 .0268367
870.619 .0268390
871.292 .0268418
871.964 .0268448
872.636 .0268481
873.308 .0268518
873.979 .0268556
874.651 .0268593
875.321 .0268631
875.992 .0268668
876.662 .0268705
877.331 .0268739
878.001 .0268768
878.670 .0268796
879.338 .0268817
880.007 .0268828
880.675 .0268831
881.342 .0268824
882.009 .0268812
882.676 .0268798
883.343 .0268784
884.009 .0268774
884.675 .0268766
885.340 .0268763
886.005 .0268762
886.670 .0268768
887.334 .0268777
887.998 .0268786
888.662 .0268798
889.325 .0268815
889.988 .0268832
890.650 .0268854
891.312 .0268880
891.974 .0268911
892.636 .0268946
893.297 .0268985
893.957 .0269023
894.618 .0269060
895.278 .0269095
895.937 .0269127
896.596 .0269154
897.255 .0269180
897.914 .0269196
898.572 .0269205
899.230 .0269206
899.887 .0269193
900.544 .0269163
901.201 .0269121
901.857 .0269067
902.513 .0268998
903.168 .0268917
903.823 .0268825
904.478 .0268719
905.132 .0268599
905.786 .0268462
906.440 .0268303
907.093 .0268125
907.746 .0267925
908.399 .0267704
909.051 .0267470
909.703 .0267226
910.354 .0266977
911.005 .0266728
911.656 .0266479
912.306 .0266229
912.956 .0265979
913.605 .0265730
914.254 .0265483
914.903 .0265240
915.551 .0265002
916.199 .0264772
916.847 .0264548
917.494 .0264332
918.141 .0264123
918.788 .0263921
919.434 .0263719
920.079 .0263513
920.725 .0263305
921.370 .0263092
922.014 .0262875
922.658 .0262651
923.302 .0262418
923.946 .0262176
924.589 .0261917
925.231 .0261639
925.873 .0261343
926.515 .0261028
927.157 .0260697
927.798 .0260353
928.439 .0260002
929.079 .0259648
929.719 .0259299
930.359 .0258959
930.998 .0258625
931.637 .0258302
932.275 .0257987
932.913 .0257676
933.551 .0257374
934.188 .0257080
934.825 .0256794
935.462 .0256520
936.098 .0256261
936.733 .0256016
937.369 .0255789
938.004 .0255580
938.638 .0255384
939.273 .0255197
939.907 .0255015
940.540 .0254834
941.173 .0254653
941.806 .0254476
942.438 .0254304
943.070 .0254141
943.702 .0253988
944.333 .0253847
944.964 .0253714
945.594 .0253587
946.224 .0253463
946.854 .0253343
947.483 .0253218
948.112 .0253092
948.741 .0252960
949.369 .0252827
949.996 .0252688
950.624 .0252548
951.251 .0252400
951.878 .0252247
952.504 .0252085
953.130 .0251906
953.755 .0251714
954.380 .0251512
955.005 .0251296
955.629 .0251068
956.253 .0250836
956.877 .0250608
957.500 .0250379
958.123 .0250160
958.746 .0249942
959.368 .0249729
959.990 .0249520
960.611 .0249312
961.232 .0249100
961.853 .0248891
962.473 .0248685
963.093 .0248476
963.712 .0248274
964.331 .0248076
964.950 .0247878
965.569 .0247692
966.187 .0247518
966.804 .0247351
967.422 .0247194
968.039 .0247049
968.655 .0246915
969.272 .0246792
969.887 .0246678
970.503 .0246570
971.118 .0246472
971.733 .0246384
972.347 .0246299
972.961 .0246218
973.575 .0246146
974.188 .0246072
974.801 .0245997
975.414 .0245921
976.026 .0245835
976.638 .0245744
977.250 .0245651
977.861 .0245553
978.472 .0245452
979.083 .0245341
979.693 .0245220
980.303 .0245088
980.912 .0244944
981.521 .0244784
982.130 .0244613
982.738 .0244442
983.346 .0244275
983.954 .0244113
984.562 .0243967
985.169 .0243833
985.775 .0243716
986.382 .0243609
986.988 .0243511
987.594 .0243416
988.199 .0243322
988.804 .0243229
989.409 .0243141
990.013 .0243063
990.617 .0243003
991.221 .0242964
991.824 .0242949
992.427 .0242960
993.030 .0242991
993.632 .0243040
994.234 .0243104
994.836 .0243174
995.438 .0243247
996.039 .0243314
996.640 .0243382
997.240 .0243450
997.840 .0243516
998.440 .0243587
999.040 .0243660
999.639 .0243740
1000.238 .0243819
1000.836 .0243897
1001.435 .0243978
1002.033 .0244060
1002.630 .0244142
1003.228 .0244223
1003.825 .0244305
1004.422 .0244390
1005.018 .0244481
1005.614 .0244573
1006.210 .0244670
1006.806 .0244764
1007.401 .0244851
1007.996 .0244935
1008.591 .0245015
1009.186 .0245094
1009.780 .0245170
1010.374 .0245254
1010.967 .0245339
1011.561 .0245426
1012.154 .0245519
1012.746 .0245617
1013.339 .0245720
1013.931 .0245829
1014.523 .0245939
1015.115 .0246054
1015.706 .0246181
1016.298 .0246315
1016.888 .0246455
1017.479 .0246605
1018.069 .0246760
1018.660 .0246912
1019.250 .0247065
1019.839 .0247225
1020.429 .0247386
1021.018 .0247557
1021.607 .0247735
1022.195 .0247919
1022.784 .0248108
1023.372 .0248304
1023.960 .0248502
1024.547 .0248704
1025.135 .0248909
1025.722 .0249119
1026.309 .0249339
1026.896 .0249576
1027.483 .0249824
1028.069 .0250087
1028.655 .0250362
1029.241 .0250636
1029.827 .0250896
1030.412 .0251138
1030.997 .0251354
1031.582 .0251546
1032.167 .0251712
1032.752 .0251866
1033.336 .0252010
1033.921 .0252157
1034.505 .0252309
1035.089 .0252464
1035.672 .0252617
1036.256 .0252762
1036.839 .0252891
1037.422 .0253010
1038.005 .0253112
1038.588 .0253212
1039.171 .0253316
1039.753 .0253438
1040.335 .0253582
1040.918 .0253748
1041.500 .0253930
1042.081 .0254130
1042.663 .0254334
1043.244 .0254540
1043.826 .0254729
1044.407 .0254904
1044.988 .0255064
1045.569 .0255207
1046.150 .0255336
1046.730 .0255453
1047.311 .0255554
1047.891 .0255649
1048.471 .0255732
1049.052 .0255810
1049.632 .0255885
1050.211 .0255969
1050.791 .0256061
1051.371 .0256153
1051.950 .0256247
1052.530 .0256333
1053.109 .0256397
1053.688 .0256445
1054.268 .0256460
1054.847 .0256448
1055.426 .0256425
1056.005 .0256397
1056.583 .0256386
1057.162 .0256402
1057.741 .0256455
1058.319 .0256537
1058.898 .0256640
1059.476 .0256747
1060.055 .0256845
1060.633 .0256928
1061.211 .0257000
1061.790 .0257058
1062.368 .0257121
1062.946 .0257197
1063.524 .0257300
1064.102 .0257427
1064.680 .0257578
1065.258 .0257738
1065.836 .0257897
1066.414 .0258030
1066.992 .0258137
1067.570 .0258199
1068.148 .0258231
1068.726 .0258244
1069.304 .0258252
1069.882 .0258263
1070.460 .0258290
1071.038 .0258330
1071.616 .0258380
1072.194 .0258433
1072.772 .0258479
1073.350 .0258511
1073.928 .0258543
1074.506 .0258568
1075.084 .0258597
1075.662 .0258640
1076.240 .0258712
1076.819 .0258803
1077.397 .0258918
1077.976 .0259047
1078.554 .0259175
1079.133 .0259290
1079.711 .0259369
1080.290 .0259417
1080.869 .0259430
1081.448 .0259405
1082.027 .0259350
1082.606 .0259282
1083.185 .0259222
1083.764 .0259172
1084.343 .0259141
1084.923 .0259141
1085.502 .0259169
1086.082 .0259222
1086.662 .0259271
1087.242 .0259323
1087.822 .0259367
1088.402 .0259399
1088.983 .0259425
1089.563 .0259466
1090.144 .0259524
1090.725 .0259629
1091.306 .0259774
1091.887 .0259970
1092.469 .0260196
1093.050 .0260434
1093.632 .0260660
1094.214 .0260862
1094.796 .0261011
1095.379 .0261107
1095.961 .0261164
1096.544 .0261229
1097.127 .0261283
1097.710 .0261367
1098.294 .0261491
1098.877 .0261650
1099.461 .0261831
1100.046 .0262021
1100.630 .0262173
1101.215 .0262307
1101.800 .0262386
1102.385 .0262414
1102.970 .0262411
1103.556 .0262417
1104.142 .0262434
1104.728 .0262477
1105.315 .0262556
1105.902 .0262659
1106.489 .0262779
1107.077 .0262923
1107.664 .0263053
1108.253 .0263161
1108.841 .0263263
1109.430 .0263364
1110.019 .0263459
1110.609 .0263596
1111.198 .0263785
1111.789 .0264049
1112.379 .0264412
1112.970 .0264845
1113.561 .0265363
1114.153 .0265937
1114.745 .0266562
1115.338 .0267178
1115.931 .0267759
1116.524 .0268280
1117.117 .0268751
1117.712 .0269169
1118.306 .0269557
1118.901 .0269950
1119.496 .0270353
1120.092 .0270782
1120.689 .0271242
1121.285 .0271712
1121.882 .0272181
1122.480 .0272614
1123.078 .0273007
1123.677 .0273292
1124.276 .0273542
1124.875 .0273754
1125.476 .0273967
1126.076 .0274237
1126.677 .0274593
1127.279 .0275050
1127.881 .0275625
1128.484 .0276326
1129.087 .0277086
1129.691 .0277923
1130.295 .0278774
1130.900 .0279603
1131.505 .0280371
1132.111 .0281100
1132.718 .0281821
1133.325 .0282552
1133.933 .0283314
1134.541 .0284119
1135.150 .0284977
1135.760 .0285926
1136.370 .0286958
1136.981 .0288097
1137.592 .0289272
1138.204 .0290518
1138.817 .0291788
1139.431 .0293125
1140.045 .0294569
1140.660 .0296164
1141.275 .0298027
1141.891 .0300327
1142.508 .0301095
1143.126 .0304384
1143.744 .0306980
1144.363 .0312150
1144.983 .0319716
