Measurement Sequence started on: 15-12-46-377
Integration time: 28
Scans to Average: 2 
>>>>>Begin Spectral Data<<<<<
432.689 .0000100
433.621 .0000100
434.552 .0000100
435.482 .0000100
436.410 .0000100
437.337 .0000100
438.262 .0265490
439.187 .0562471
440.110 .0931904
441.031 .1348632
441.952 .1752890
442.871 .2070965
443.789 .2245006
444.705 .2255140
445.621 .2125602
446.535 .1909683
447.447 .1665348
448.359 .1292378
449.269 .1107777
450.178 .0991733
451.086 .0910776
451.993 .0850116
452.898 .0802938
453.803 .0765064
454.706 .0734155
455.608 .0708142
456.508 .0685653
457.408 .0666170
458.306 .0648733
459.204 .0633319
460.100 .0619394
460.995 .0606997
461.888 .0595972
462.781 .0586044
463.673 .0576943
464.563 .0568557
465.452 .0560561
466.340 .0552780
467.228 .0545187
468.114 .0537862
468.999 .0530801
469.882 .0524037
470.765 .0517665
471.647 .0511800
472.528 .0506468
473.407 .0501753
474.286 .0497594
475.163 .0494005
476.040 .0490912
476.915 .0488163
477.790 .0485733
478.663 .0483644
479.535 .0481784
480.407 .0480200
481.277 .0478843
482.147 .0477782
483.015 .0476979
483.883 .0476482
484.749 .0476224
485.615 .0476185
486.479 .0476325
487.343 .0476578
488.206 .0476866
489.067 .0477181
489.928 .0477486
490.788 .0477830
491.647 .0478261
492.505 .0478879
493.362 .0479628
494.218 .0480627
495.073 .0481844
495.928 .0483399
496.781 .0485168
497.634 .0487310
498.486 .0489738
499.337 .0492460
500.187 .0495480
501.036 .0498800
501.884 .0502383
502.731 .0506282
503.578 .0510413
504.424 .0514739
505.268 .0519152
506.113 .0523749
506.956 .0528446
507.798 .0533523
508.640 .0539103
509.480 .0545347
510.320 .0552324
511.160 .0560287
511.998 .0569216
512.836 .0579395
513.672 .0590755
514.508 .0603317
515.344 .0617026
516.178 .0632123
517.012 .0648705
517.845 .0667435
518.677 .0688840
519.508 .0713689
520.339 .0742468
521.169 .0776157
521.998 .0814577
522.826 .0858343
523.654 .0907365
524.481 .0961529
525.307 .1020578
526.133 .1084346
526.958 .1152051
527.782 .1224267
528.605 .1299008
529.428 .1375947
530.250 .1449184
531.072 .1516956
531.892 .1574264
532.712 .1618036
533.532 .1644961
534.350 .1652965
535.168 .1640835
535.986 .1610031
536.802 .1562052
537.618 .1501225
538.434 .1430016
539.249 .1354589
540.063 .1276402
540.876 .1199375
541.689 .1124996
542.501 .1055795
543.313 .0992286
544.124 .0935140
544.934 .0883419
545.744 .0836771
546.553 .0794709
547.361 .0757369
548.169 .0724474
548.976 .0695614
549.783 .0670140
550.589 .0647718
551.395 .0627387
552.200 .0609238
553.004 .0592692
553.808 .0577489
554.611 .0563436
555.414 .0550614
556.216 .0538701
557.018 .0527773
557.819 .0517849
558.619 .0508780
559.419 .0500496
560.218 .0492938
561.017 .0485810
561.815 .0479029
562.613 .0472498
563.410 .0466163
564.207 .0459927
565.003 .0453872
565.799 .0447976
566.594 .0442215
567.388 .0436814
568.182 .0431737
568.976 .0426941
569.769 .0422478
570.562 .0418292
571.354 .0414274
572.145 .0410415
572.936 .0406596
573.727 .0402766
574.517 .0398963
575.307 .0395205
576.096 .0391469
576.885 .0387756
577.673 .0384145
578.461 .0380711
579.248 .0377422
580.035 .0374311
580.821 .0371296
581.607 .0368427
582.392 .0365669
583.177 .0362992
583.962 .0360420
584.746 .0357996
585.529 .0355728
586.313 .0353635
587.095 .0351724
587.878 .0349997
588.660 .0348438
589.441 .0347050
590.222 .0345810
591.003 .0344722
591.783 .0343743
592.563 .0342857
593.342 .0342046
594.121 .0341304
594.899 .0340586
595.678 .0339888
596.455 .0339215
597.233 .0338546
598.009 .0337891
598.786 .0337259
599.562 .0336655
600.338 .0336088
601.113 .0335566
601.888 .0335077
602.663 .0334607
603.437 .0334161
604.211 .0333716
604.984 .0333264
605.757 .0332816
606.530 .0332369
607.302 .0331929
608.074 .0331528
608.845 .0331166
609.616 .0330837
610.387 .0330559
611.158 .0330314
611.928 .0330084
612.697 .0329860
613.467 .0329637
614.236 .0329403
615.004 .0329152
615.773 .0328895
616.541 .0328629
617.308 .0328366
618.076 .0328114
618.843 .0327869
619.609 .0327636
620.375 .0327406
621.141 .0327166
621.907 .0326912
622.672 .0326642
623.437 .0326344
624.202 .0326022
624.966 .0325681
625.730 .0325328
626.493 .0324963
627.257 .0324588
628.020 .0324229
628.782 .0323879
629.545 .0323543
630.307 .0323214
631.068 .0322889
631.830 .0322573
632.591 .0322247
633.352 .0321917
634.112 .0321575
634.872 .0321232
635.632 .0320889
636.392 .0320542
637.151 .0320209
637.910 .0319884
638.668 .0319577
639.427 .0319282
640.185 .0318995
640.943 .0318709
641.700 .0318417
642.457 .0318119
643.214 .0317814
643.971 .0317507
644.727 .0317193
645.483 .0316892
646.239 .0316608
646.994 .0316336
647.750 .0316082
648.505 .0315846
649.259 .0315628
650.014 .0315423
650.768 .0315227
651.521 .0315032
652.275 .0314843
653.028 .0314664
653.781 .0314476
654.534 .0314291
655.286 .0314109
656.039 .0313923
656.791 .0313725
657.542 .0313513
658.294 .0313282
659.045 .0313031
659.796 .0312771
660.546 .0312491
661.297 .0312200
662.047 .0311906
662.796 .0311601
663.546 .0311302
664.295 .0311009
665.044 .0310724
665.793 .0310450
666.542 .0310193
667.290 .0309949
668.038 .0309712
668.786 .0309490
669.533 .0309278
670.281 .0309080
671.028 .0308890
671.774 .0308703
672.521 .0308523
673.267 .0308353
674.013 .0308185
674.759 .0308024
675.505 .0307866
676.250 .0307705
676.995 .0307538
677.740 .0307362
678.484 .0307173
679.229 .0306976
679.973 .0306767
680.717 .0306546
681.460 .0306318
682.204 .0306092
682.947 .0305859
683.690 .0305635
684.433 .0305422
685.175 .0305212
685.917 .0305004
686.659 .0304799
687.401 .0304594
688.142 .0304389
688.884 .0304180
689.625 .0303966
690.365 .0303748
691.106 .0303530
691.846 .0303311
692.586 .0303097
693.326 .0302891
694.066 .0302690
694.805 .0302492
695.545 .0302303
696.284 .0302113
697.022 .0301922
697.761 .0301731
698.499 .0301539
699.237 .0301344
699.975 .0301140
700.713 .0300934
701.450 .0300732
702.187 .0300536
702.924 .0300346
703.661 .0300160
704.397 .0299985
705.133 .0299819
705.869 .0299660
706.605 .0299503
707.341 .0299348
708.076 .0299193
708.811 .0299032
709.546 .0298865
710.281 .0298693
711.015 .0298523
711.749 .0298353
712.483 .0298190
713.217 .0298029
713.950 .0297872
714.684 .0297715
715.417 .0297555
716.150 .0297392
716.882 .0297221
717.615 .0297037
718.347 .0296843
719.079 .0296637
719.811 .0296425
720.542 .0296206
721.273 .0295987
722.005 .0295766
722.735 .0295552
723.466 .0295342
724.196 .0295136
724.927 .0294936
725.656 .0294747
726.386 .0294559
727.116 .0294374
727.845 .0294189
728.574 .0294002
729.303 .0293814
730.031 .0293628
730.760 .0293445
731.488 .0293278
732.216 .0293123
732.944 .0292985
733.671 .0292864
734.398 .0292763
735.125 .0292671
735.852 .0292583
736.579 .0292493
737.305 .0292395
738.031 .0292288
738.757 .0292176
739.483 .0292057
740.208 .0291941
740.933 .0291830
741.658 .0291724
742.383 .0291618
743.108 .0291508
743.832 .0291390
744.556 .0291259
745.280 .0291114
746.004 .0290956
746.727 .0290787
747.450 .0290612
748.173 .0290437
748.896 .0290266
749.618 .0290105
750.340 .0289954
751.062 .0289811
751.784 .0289673
752.506 .0289535
753.227 .0289393
753.948 .0289244
754.669 .0289094
755.389 .0288947
756.110 .0288797
756.830 .0288651
757.550 .0288510
758.269 .0288376
758.989 .0288248
759.708 .0288124
760.427 .0287999
761.146 .0287872
761.864 .0287736
762.582 .0287587
763.300 .0287425
764.018 .0287257
764.736 .0287077
765.453 .0286893
766.170 .0286710
766.887 .0286529
767.603 .0286355
768.320 .0286194
769.036 .0286046
769.751 .0285909
770.467 .0285779
771.182 .0285648
771.897 .0285515
772.612 .0285380
773.327 .0285245
774.041 .0285109
774.755 .0284985
775.469 .0284872
776.183 .0284773
776.896 .0284695
777.609 .0284635
778.322 .0284587
779.035 .0284549
779.747 .0284510
780.459 .0284461
781.171 .0284398
781.882 .0284322
782.594 .0284233
783.305 .0284140
784.016 .0284049
784.726 .0283963
785.436 .0283886
786.147 .0283822
786.856 .0283765
787.566 .0283715
788.275 .0283668
788.984 .0283615
789.693 .0283554
790.401 .0283482
791.110 .0283397
791.818 .0283304
792.525 .0283205
793.233 .0283106
793.940 .0283006
794.647 .0282909
795.353 .0282813
796.060 .0282719
796.766 .0282626
797.472 .0282529
798.177 .0282429
798.883 .0282325
799.588 .0282219
800.292 .0282111
800.997 .0282008
801.701 .0281908
802.405 .0281814
803.109 .0281729
803.812 .0281653
804.515 .0281583
805.218 .0281517
805.921 .0281455
806.623 .0281390
807.325 .0281326
808.027 .0281257
808.728 .0281181
809.429 .0281095
810.130 .0280997
810.831 .0280884
811.531 .0280756
812.231 .0280615
812.931 .0280465
813.630 .0280308
814.330 .0280151
815.029 .0279987
815.727 .0279823
816.426 .0279664
817.124 .0279505
817.821 .0279346
818.519 .0279193
819.216 .0279042
819.913 .0278897
820.609 .0278761
821.306 .0278639
822.002 .0278535
822.697 .0278452
823.393 .0278387
824.088 .0278335
824.783 .0278296
825.477 .0278266
826.171 .0278235
826.865 .0278213
827.559 .0278193
828.252 .0278172
828.945 .0278151
829.638 .0278134
830.330 .0278119
831.023 .0278103
831.714 .0278088
832.406 .0278065
833.097 .0278031
833.788 .0277977
834.479 .0277906
835.169 .0277820
835.859 .0277724
836.548 .0277622
837.238 .0277516
837.927 .0277414
838.615 .0277317
839.304 .0277226
839.992 .0277138
840.680 .0277055
841.367 .0276972
842.054 .0276881
842.741 .0276787
843.428 .0276689
844.114 .0276593
844.800 .0276502
845.485 .0276417
846.170 .0276333
846.855 .0276249
847.540 .0276167
848.224 .0276077
848.908 .0275984
849.592 .0275880
850.275 .0275762
850.958 .0275636
851.641 .0275503
852.323 .0275365
853.005 .0275219
853.687 .0275072
854.368 .0274919
855.049 .0274757
855.730 .0274588
856.410 .0274410
857.090 .0274231
857.769 .0274051
858.449 .0273866
859.128 .0273678
859.806 .0273491
860.485 .0273309
861.163 .0273133
861.840 .0272964
862.518 .0272802
863.195 .0272641
863.871 .0272483
864.548 .0272329
865.224 .0272175
865.899 .0272028
866.574 .0271887
867.249 .0271751
867.924 .0271623
868.598 .0271497
869.272 .0271378
869.946 .0271268
870.619 .0271160
871.292 .0271047
871.964 .0270921
872.636 .0270783
873.308 .0270633
873.979 .0270473
874.651 .0270305
875.321 .0270126
875.992 .0269943
876.662 .0269754
877.331 .0269561
878.001 .0269367
878.670 .0269174
879.338 .0268982
880.007 .0268795
880.675 .0268612
881.342 .0268433
882.009 .0268263
882.676 .0268104
883.343 .0267950
884.009 .0267804
884.675 .0267664
885.340 .0267527
886.005 .0267400
886.670 .0267289
887.334 .0267192
887.998 .0267107
888.662 .0267036
889.325 .0266978
889.988 .0266926
890.650 .0266876
891.312 .0266818
891.974 .0266753
892.636 .0266686
893.297 .0266618
893.957 .0266550
894.618 .0266491
895.278 .0266444
895.937 .0266409
896.596 .0266384
897.255 .0266365
897.914 .0266343
898.572 .0266319
899.230 .0266288
899.887 .0266241
900.544 .0266176
901.201 .0266103
901.857 .0266022
902.513 .0265934
903.168 .0265844
903.823 .0265749
904.478 .0265647
905.132 .0265541
905.786 .0265426
906.440 .0265297
907.093 .0265157
907.746 .0265005
908.399 .0264837
909.051 .0264662
909.703 .0264478
910.354 .0264290
911.005 .0264107
911.656 .0263932
912.306 .0263759
912.956 .0263593
913.605 .0263434
914.254 .0263281
914.903 .0263134
915.551 .0262994
916.199 .0262860
916.847 .0262735
917.494 .0262624
918.141 .0262522
918.788 .0262432
919.434 .0262356
920.079 .0262285
920.725 .0262222
921.370 .0262163
922.014 .0262103
922.658 .0262041
923.302 .0261973
923.946 .0261899
924.589 .0261817
925.231 .0261728
925.873 .0261628
926.515 .0261515
927.157 .0261392
927.798 .0261257
928.439 .0261105
929.079 .0260942
929.719 .0260771
930.359 .0260593
930.998 .0260413
931.637 .0260231
932.275 .0260054
932.913 .0259883
933.551 .0259715
934.188 .0259554
934.825 .0259402
935.462 .0259260
936.098 .0259129
936.733 .0259016
937.369 .0258923
938.004 .0258851
938.638 .0258801
939.273 .0258768
939.907 .0258755
940.540 .0258759
941.173 .0258773
941.806 .0258794
942.438 .0258824
943.070 .0258857
943.702 .0258890
944.333 .0258926
944.964 .0258962
945.594 .0258996
946.224 .0259028
946.854 .0259054
947.483 .0259074
948.112 .0259086
948.741 .0259086
949.369 .0259076
949.996 .0259056
950.624 .0259022
951.251 .0258973
951.878 .0258914
952.504 .0258847
953.130 .0258772
953.755 .0258692
954.380 .0258610
955.005 .0258528
955.629 .0258447
956.253 .0258364
956.877 .0258282
957.500 .0258202
958.123 .0258120
958.746 .0258033
959.368 .0257948
959.990 .0257861
960.611 .0257780
961.232 .0257707
961.853 .0257642
962.473 .0257587
963.093 .0257536
963.712 .0257488
964.331 .0257443
964.950 .0257398
965.569 .0257352
966.187 .0257305
966.804 .0257264
967.422 .0257229
968.039 .0257202
968.655 .0257185
969.272 .0257179
969.887 .0257177
970.503 .0257183
971.118 .0257192
971.733 .0257197
972.347 .0257199
972.961 .0257200
973.575 .0257198
974.188 .0257190
974.801 .0257175
975.414 .0257147
976.026 .0257104
976.638 .0257046
977.250 .0256968
977.861 .0256876
978.472 .0256778
979.083 .0256669
979.693 .0256553
980.303 .0256434
980.912 .0256307
981.521 .0256170
982.130 .0256021
982.738 .0255863
983.346 .0255690
983.954 .0255510
984.562 .0255328
985.169 .0255151
985.775 .0254983
986.382 .0254829
986.988 .0254692
987.594 .0254570
988.199 .0254460
988.804 .0254357
989.409 .0254263
990.013 .0254178
990.617 .0254092
991.221 .0254014
991.824 .0253945
992.427 .0253890
993.030 .0253846
993.632 .0253817
994.234 .0253804
994.836 .0253804
995.438 .0253808
996.039 .0253819
996.640 .0253828
997.240 .0253841
997.840 .0253849
998.440 .0253853
999.040 .0253851
999.639 .0253840
1000.238 .0253823
1000.836 .0253799
1001.435 .0253766
1002.033 .0253728
1002.630 .0253686
1003.228 .0253647
1003.825 .0253609
1004.422 .0253574
1005.018 .0253543
1005.614 .0253515
1006.210 .0253485
1006.806 .0253453
1007.401 .0253412
1007.996 .0253364
1008.591 .0253310
1009.186 .0253252
1009.780 .0253191
1010.374 .0253130
1010.967 .0253067
1011.561 .0253000
1012.154 .0252922
1012.746 .0252829
1013.339 .0252716
1013.931 .0252595
1014.523 .0252461
1015.115 .0252320
1015.706 .0252184
1016.298 .0252062
1016.888 .0251953
1017.479 .0251861
1018.069 .0251792
1018.660 .0251735
1019.250 .0251689
1019.839 .0251656
1020.429 .0251632
1021.018 .0251627
1021.607 .0251638
1022.195 .0251661
1022.784 .0251702
1023.372 .0251760
1023.960 .0251821
1024.547 .0251881
1025.135 .0251945
1025.722 .0251997
1026.309 .0252031
1026.896 .0252058
1027.483 .0252076
1028.069 .0252076
1028.655 .0252070
1029.241 .0252051
1029.827 .0252023
1030.412 .0251980
1030.997 .0251918
1031.582 .0251842
1032.167 .0251763
1032.752 .0251680
1033.336 .0251601
1033.921 .0251534
1034.505 .0251489
1035.089 .0251450
1035.672 .0251423
1036.256 .0251402
1036.839 .0251375
1037.422 .0251342
1038.005 .0251303
1038.588 .0251259
1039.171 .0251220
1039.753 .0251185
1040.335 .0251160
1040.918 .0251142
1041.500 .0251135
1042.081 .0251119
1042.663 .0251093
1043.244 .0251060
1043.826 .0250999
1044.407 .0250915
1044.988 .0250819
1045.569 .0250715
1046.150 .0250612
1046.730 .0250525
1047.311 .0250450
1047.891 .0250393
1048.471 .0250349
1049.052 .0250313
1049.632 .0250272
1050.211 .0250237
1050.791 .0250195
1051.371 .0250142
1051.950 .0250095
1052.530 .0250048
1053.109 .0250000
1053.688 .0249956
1054.268 .0249905
1054.847 .0249858
1055.426 .0249803
1056.005 .0249748
1056.583 .0249691
1057.162 .0249638
1057.741 .0249592
1058.319 .0249548
1058.898 .0249513
1059.476 .0249484
1060.055 .0249455
1060.633 .0249432
1061.211 .0249403
1061.790 .0249378
1062.368 .0249362
1062.946 .0249344
1063.524 .0249340
1064.102 .0249351
1064.680 .0249370
1065.258 .0249401
1065.836 .0249426
1066.414 .0249451
1066.992 .0249480
1067.570 .0249519
1068.148 .0249565
1068.726 .0249618
1069.304 .0249688
1069.882 .0249761
1070.460 .0249841
1071.038 .0249926
1071.616 .0250005
1072.194 .0250080
1072.772 .0250144
1073.350 .0250192
1073.928 .0250230
1074.506 .0250249
1075.084 .0250246
1075.662 .0250237
1076.240 .0250214
1076.819 .0250163
1077.397 .0250099
1077.976 .0250034
1078.554 .0249965
1079.133 .0249887
1079.711 .0249810
1080.290 .0249729
1080.869 .0249657
1081.448 .0249582
1082.027 .0249503
1082.606 .0249441
1083.185 .0249414
1083.764 .0249407
1084.343 .0249439
1084.923 .0249509
1085.502 .0249620
1086.082 .0249757
1086.662 .0249934
1087.242 .0250132
1087.822 .0250346
1088.402 .0250565
1088.983 .0250793
1089.563 .0251025
1090.144 .0251273
1090.725 .0251522
1091.306 .0251783
1091.887 .0252049
1092.469 .0252319
1093.050 .0252572
1093.632 .0252808
1094.214 .0253025
1094.796 .0253215
1095.379 .0253374
1095.961 .0253518
1096.544 .0253636
1097.127 .0253745
1097.710 .0253863
1098.294 .0253994
1098.877 .0254141
1099.461 .0254296
1100.046 .0254472
1100.630 .0254664
1101.215 .0254881
1101.800 .0255116
1102.385 .0255376
1102.970 .0255671
1103.556 .0256006
1104.142 .0256365
1104.728 .0256788
1105.315 .0257251
1105.902 .0257751
1106.489 .0258257
1107.077 .0258751
1107.664 .0259202
1108.253 .0259613
1108.841 .0259990
1109.430 .0260357
1110.019 .0260709
1110.609 .0261082
1111.198 .0261457
1111.789 .0261859
1112.379 .0262272
1112.970 .0262664
1113.561 .0263021
1114.153 .0263349
1114.745 .0263626
1115.338 .0263877
1115.931 .0264137
1116.524 .0264435
1117.117 .0264787
1117.712 .0265201
1118.306 .0265701
1118.901 .0266250
1119.496 .0266841
1120.092 .0267480
1120.689 .0268116
1121.285 .0268768
1121.882 .0269421
1122.480 .0270072
1123.078 .0270776
1123.677 .0271547
1124.276 .0272378
1124.875 .0273234
1125.476 .0274134
1126.076 .0274993
1126.677 .0275795
1127.279 .0276526
1127.881 .0277186
1128.484 .0277749
1129.087 .0278286
1129.691 .0278817
1130.295 .0279351
1130.900 .0279931
1131.505 .0280569
1132.111 .0281253
1132.718 .0281971
1133.325 .0282658
1133.933 .0283296
1134.541 .0283897
1135.150 .0284523
1135.760 .0285146
1136.370 .0285839
1136.981 .0286708
1137.592 .0287748
1138.204 .0288996
1138.817 .0290374
1139.431 .0291908
1140.045 .0293438
1140.660 .0295007
1141.275 .0296742
1141.891 .0298768
1142.508 .0299613
1143.126 .0298814
1143.744 .0302120
1144.363 .0310477
1144.983 .0317875
