Measurement Sequence started on: 15-12-46-377
Integration time: 28
Scans to Average: 2 
>>>>>Begin Spectral Data<<<<<
432.689 .0000100
433.621 .0000100
434.552 .0000100
435.482 .0000100
436.410 .0000100
437.337 .0000100
438.262 .0266637
439.187 .0564501
440.110 .0934208
441.031 .1350771
441.952 .1755060
442.871 .2072741
443.789 .2246228
444.705 .2256426
445.621 .2127836
446.535 .1913895
447.447 .1672601
448.359 .1302322
449.269 .1121215
450.178 .1008246
451.086 .0928971
451.993 .0868013
452.898 .0819615
453.803 .0779803
454.706 .0746323
455.608 .0717772
456.508 .0693019
457.408 .0671256
458.306 .0651854
459.204 .0634223
460.100 .0617866
460.995 .0602757
461.888 .0588688
462.781 .0575447
463.673 .0562974
464.563 .0551421
465.452 .0540656
466.340 .0530615
467.228 .0521535
468.114 .0513274
468.999 .0505876
469.882 .0499208
470.765 .0493184
471.647 .0487897
472.528 .0483224
473.407 .0479111
474.286 .0475536
475.163 .0472456
476.040 .0469841
476.915 .0467692
477.790 .0465981
478.663 .0464667
479.535 .0463694
480.407 .0463035
481.277 .0462675
482.147 .0462472
483.015 .0462419
483.883 .0462432
484.749 .0462535
485.615 .0462652
486.479 .0462673
487.343 .0462705
488.206 .0462741
489.067 .0462752
489.928 .0462813
490.788 .0462971
491.647 .0463277
492.505 .0463731
493.362 .0464372
494.218 .0465142
495.073 .0466085
495.928 .0467130
496.781 .0468286
497.634 .0469676
498.486 .0471297
499.337 .0473177
500.187 .0475370
501.036 .0478024
501.884 .0481109
502.731 .0484714
503.578 .0488862
504.424 .0493460
505.268 .0498470
506.113 .0503746
506.956 .0509258
507.798 .0515173
508.640 .0521510
509.480 .0528351
510.320 .0535946
511.160 .0544476
511.998 .0553822
512.836 .0564221
513.672 .0575849
514.508 .0588770
515.344 .0603004
516.178 .0618697
517.012 .0636003
517.845 .0655305
518.677 .0677120
519.508 .0701420
520.339 .0728945
521.169 .0760318
521.998 .0795390
522.826 .0834943
523.654 .0879210
524.481 .0928166
525.307 .0982145
526.133 .1041085
526.958 .1104193
527.782 .1170433
528.605 .1238824
529.428 .1308412
530.250 .1374056
531.072 .1433690
531.892 .1483846
532.712 .1521463
533.532 .1545049
534.350 .1552113
535.168 .1541966
535.986 .1515629
536.802 .1474782
537.618 .1421189
538.434 .1357281
539.249 .1288340
540.063 .1216118
540.876 .1143614
541.689 .1073690
542.501 .1007951
543.313 .0947867
544.124 .0894079
544.934 .0846022
545.744 .0803035
546.553 .0764819
547.361 .0730660
548.169 .0700519
548.976 .0673821
549.783 .0650156
550.589 .0629144
551.395 .0610295
552.200 .0593481
553.004 .0578092
553.808 .0563999
554.611 .0551246
555.414 .0539723
556.216 .0529302
557.018 .0519904
557.819 .0511454
558.619 .0503663
559.419 .0496376
560.218 .0489403
561.017 .0482728
561.815 .0476107
562.613 .0469563
563.410 .0463033
564.207 .0456738
565.003 .0450696
565.799 .0444826
566.594 .0439151
567.388 .0433708
568.182 .0428401
568.976 .0423150
569.769 .0417952
570.562 .0412863
571.354 .0407836
572.145 .0402944
572.936 .0398198
573.727 .0393604
574.517 .0389189
575.307 .0384964
576.096 .0380912
576.885 .0377032
577.673 .0373275
578.461 .0369662
579.248 .0366224
580.035 .0362961
580.821 .0359875
581.607 .0356957
582.392 .0354228
583.177 .0351679
583.962 .0349286
584.746 .0347083
585.529 .0345048
586.313 .0343196
587.095 .0341497
587.878 .0339928
588.660 .0338495
589.441 .0337178
590.222 .0335982
591.003 .0334900
591.783 .0333926
592.563 .0333049
593.342 .0332248
594.121 .0331498
594.899 .0330796
595.678 .0330133
596.455 .0329488
597.233 .0328870
598.009 .0328278
598.786 .0327717
599.562 .0327171
600.338 .0326641
601.113 .0326135
601.888 .0325638
602.663 .0325152
603.437 .0324671
604.211 .0324203
604.984 .0323754
605.757 .0323320
606.530 .0322912
607.302 .0322530
608.074 .0322184
608.845 .0321864
609.616 .0321568
610.387 .0321299
611.158 .0321049
611.928 .0320805
612.697 .0320567
613.467 .0320334
614.236 .0320095
615.004 .0319846
615.773 .0319590
616.541 .0319325
617.308 .0319060
618.076 .0318791
618.843 .0318523
619.609 .0318262
620.375 .0318013
621.141 .0317770
621.907 .0317530
622.672 .0317295
623.437 .0317056
624.202 .0316809
624.966 .0316555
625.730 .0316296
626.493 .0316040
627.257 .0315789
628.020 .0315547
628.782 .0315312
629.545 .0315079
630.307 .0314840
631.068 .0314594
631.830 .0314339
632.591 .0314067
633.352 .0313781
634.112 .0313480
634.872 .0313171
635.632 .0312858
636.392 .0312541
637.151 .0312227
637.910 .0311917
638.668 .0311612
639.427 .0311314
640.185 .0311021
640.943 .0310744
641.700 .0310483
642.457 .0310246
643.214 .0310021
643.971 .0309803
644.727 .0309595
645.483 .0309390
646.239 .0309182
646.994 .0308966
647.750 .0308741
648.505 .0308513
649.259 .0308273
650.014 .0308026
650.768 .0307774
651.521 .0307521
652.275 .0307260
653.028 .0306996
653.781 .0306723
654.534 .0306442
655.286 .0306153
656.039 .0305862
656.791 .0305573
657.542 .0305289
658.294 .0305011
659.045 .0304743
659.796 .0304489
660.546 .0304254
661.297 .0304015
662.047 .0303792
662.796 .0303575
663.546 .0303364
664.295 .0303160
665.044 .0302965
665.793 .0302783
666.542 .0302612
667.290 .0302447
668.038 .0302288
668.786 .0302127
669.533 .0301968
670.281 .0301796
671.028 .0301619
671.774 .0301434
672.521 .0301248
673.267 .0301060
674.013 .0300886
674.759 .0300720
675.505 .0300567
676.250 .0300417
676.995 .0300273
677.740 .0300125
678.484 .0299970
679.229 .0299813
679.973 .0299656
680.717 .0299495
681.460 .0299338
682.204 .0299185
682.947 .0299046
683.690 .0298915
684.433 .0298793
685.175 .0298667
685.917 .0298543
686.659 .0298412
687.401 .0298273
688.142 .0298128
688.884 .0297983
689.625 .0297835
690.365 .0297686
691.106 .0297535
691.846 .0297384
692.586 .0297233
693.326 .0297083
694.066 .0296935
694.805 .0296789
695.545 .0296638
696.284 .0296487
697.022 .0296333
697.761 .0296180
698.499 .0296022
699.237 .0295861
699.975 .0295694
700.713 .0295522
701.450 .0295349
702.187 .0295175
702.924 .0295004
703.661 .0294840
704.397 .0294679
705.133 .0294522
705.869 .0294370
706.605 .0294223
707.341 .0294073
708.076 .0293928
708.811 .0293778
709.546 .0293625
710.281 .0293470
711.015 .0293310
711.749 .0293144
712.483 .0292973
713.217 .0292794
713.950 .0292602
714.684 .0292398
715.417 .0292187
716.150 .0291964
716.882 .0291735
717.615 .0291500
718.347 .0291259
719.079 .0291014
719.811 .0290769
720.542 .0290515
721.273 .0290257
722.005 .0289988
722.735 .0289710
723.466 .0289427
724.196 .0289146
724.927 .0288864
725.656 .0288588
726.386 .0288322
727.116 .0288073
727.845 .0287831
728.574 .0287602
729.303 .0287378
730.031 .0287159
730.760 .0286937
731.488 .0286713
732.216 .0286486
732.944 .0286266
733.671 .0286054
734.398 .0285858
735.125 .0285678
735.852 .0285517
736.579 .0285371
737.305 .0285244
738.031 .0285127
738.757 .0285017
739.483 .0284903
740.208 .0284787
740.933 .0284665
741.658 .0284539
742.383 .0284408
743.108 .0284279
743.832 .0284156
744.556 .0284039
745.280 .0283928
746.004 .0283823
746.727 .0283722
747.450 .0283625
748.173 .0283523
748.896 .0283417
749.618 .0283304
750.340 .0283188
751.062 .0283068
751.784 .0282949
752.506 .0282833
753.227 .0282720
753.948 .0282607
754.669 .0282495
755.389 .0282385
756.110 .0282272
756.830 .0282152
757.550 .0282024
758.269 .0281892
758.989 .0281751
759.708 .0281601
760.427 .0281448
761.146 .0281288
761.864 .0281126
762.582 .0280959
763.300 .0280789
764.018 .0280621
764.736 .0280457
765.453 .0280297
766.170 .0280144
766.887 .0280004
767.603 .0279871
768.320 .0279747
769.036 .0279635
769.751 .0279531
770.467 .0279432
771.182 .0279338
771.897 .0279246
772.612 .0279159
773.327 .0279079
774.041 .0279008
774.755 .0278953
775.469 .0278912
776.183 .0278888
776.896 .0278875
777.609 .0278876
778.322 .0278881
779.035 .0278886
779.747 .0278890
780.459 .0278892
781.171 .0278890
781.882 .0278890
782.594 .0278894
783.305 .0278911
784.016 .0278941
784.726 .0278985
785.436 .0279038
786.147 .0279097
786.856 .0279155
787.566 .0279207
788.275 .0279247
788.984 .0279275
789.693 .0279283
790.401 .0279278
791.110 .0279258
791.818 .0279226
792.525 .0279182
793.233 .0279131
793.940 .0279070
794.647 .0279002
795.353 .0278924
796.060 .0278839
796.766 .0278749
797.472 .0278654
798.177 .0278553
798.883 .0278448
799.588 .0278340
800.292 .0278229
800.997 .0278117
801.701 .0278006
802.405 .0277895
803.109 .0277786
803.812 .0277681
804.515 .0277581
805.218 .0277485
805.921 .0277390
806.623 .0277295
807.325 .0277196
808.027 .0277094
808.728 .0276982
809.429 .0276862
810.130 .0276733
810.831 .0276595
811.531 .0276446
812.231 .0276289
812.931 .0276127
813.630 .0275961
814.330 .0275793
815.029 .0275626
815.727 .0275458
816.426 .0275287
817.124 .0275114
817.821 .0274939
818.519 .0274765
819.216 .0274593
819.913 .0274425
820.609 .0274261
821.306 .0274107
822.002 .0273961
822.697 .0273827
823.393 .0273704
824.088 .0273590
824.783 .0273480
825.477 .0273376
826.171 .0273275
826.865 .0273174
827.559 .0273075
828.252 .0272982
828.945 .0272887
829.638 .0272794
830.330 .0272702
831.023 .0272610
831.714 .0272513
832.406 .0272412
833.097 .0272297
833.788 .0272167
834.479 .0272022
835.169 .0271864
835.859 .0271696
836.548 .0271525
837.238 .0271353
837.927 .0271183
838.615 .0271017
839.304 .0270859
839.992 .0270704
840.680 .0270550
841.367 .0270388
842.054 .0270223
842.741 .0270049
843.428 .0269877
844.114 .0269707
844.800 .0269545
845.485 .0269394
846.170 .0269250
846.855 .0269112
847.540 .0268974
848.224 .0268828
848.908 .0268674
849.592 .0268506
850.275 .0268325
850.958 .0268133
851.641 .0267936
852.323 .0267740
853.005 .0267548
853.687 .0267354
854.368 .0267158
855.049 .0266954
855.730 .0266742
856.410 .0266519
857.090 .0266288
857.769 .0266054
858.449 .0265821
859.128 .0265593
859.806 .0265378
860.485 .0265174
861.163 .0264986
861.840 .0264807
862.518 .0264636
863.195 .0264467
863.871 .0264295
864.548 .0264123
865.224 .0263954
865.899 .0263791
866.574 .0263638
867.249 .0263493
867.924 .0263358
868.598 .0263235
869.272 .0263123
869.946 .0263018
870.619 .0262916
871.292 .0262817
871.964 .0262717
872.636 .0262619
873.308 .0262523
873.979 .0262428
874.651 .0262336
875.321 .0262248
875.992 .0262166
876.662 .0262087
877.331 .0262009
878.001 .0261933
878.670 .0261858
879.338 .0261783
880.007 .0261706
880.675 .0261628
881.342 .0261549
882.009 .0261476
882.676 .0261405
883.343 .0261336
884.009 .0261273
884.675 .0261215
885.340 .0261163
886.005 .0261121
886.670 .0261090
887.334 .0261069
887.998 .0261067
888.662 .0261081
889.325 .0261111
889.988 .0261163
890.650 .0261235
891.312 .0261318
891.974 .0261415
892.636 .0261522
893.297 .0261631
893.957 .0261741
894.618 .0261855
895.278 .0261967
895.937 .0262086
896.596 .0262208
897.255 .0262329
897.914 .0262454
898.572 .0262581
899.230 .0262694
899.887 .0262790
900.544 .0262869
901.201 .0262923
901.857 .0262949
902.513 .0262952
903.168 .0262934
903.823 .0262899
904.478 .0262857
905.132 .0262809
905.786 .0262757
906.440 .0262703
907.093 .0262638
907.746 .0262566
908.399 .0262482
909.051 .0262386
909.703 .0262274
910.354 .0262154
911.005 .0262033
911.656 .0261913
912.306 .0261794
912.956 .0261684
913.605 .0261581
914.254 .0261483
914.903 .0261384
915.551 .0261287
916.199 .0261195
916.847 .0261107
917.494 .0261022
918.141 .0260945
918.788 .0260873
919.434 .0260812
920.079 .0260751
920.725 .0260699
921.370 .0260653
922.014 .0260608
922.658 .0260561
923.302 .0260515
923.946 .0260468
924.589 .0260419
925.231 .0260362
925.873 .0260308
926.515 .0260250
927.157 .0260189
927.798 .0260119
928.439 .0260038
929.079 .0259945
929.719 .0259836
930.359 .0259707
930.998 .0259566
931.637 .0259412
932.275 .0259258
932.913 .0259103
933.551 .0258955
934.188 .0258814
934.825 .0258682
935.462 .0258559
936.098 .0258442
936.733 .0258326
937.369 .0258213
938.004 .0258102
938.638 .0257994
939.273 .0257894
939.907 .0257806
940.540 .0257737
941.173 .0257689
941.806 .0257656
942.438 .0257641
943.070 .0257628
943.702 .0257618
944.333 .0257597
944.964 .0257569
945.594 .0257531
946.224 .0257486
946.854 .0257444
947.483 .0257408
948.112 .0257376
948.741 .0257346
949.369 .0257316
949.996 .0257282
950.624 .0257230
951.251 .0257162
951.878 .0257077
952.504 .0256982
953.130 .0256879
953.755 .0256776
954.380 .0256674
955.005 .0256577
955.629 .0256481
956.253 .0256380
956.877 .0256274
957.500 .0256161
958.123 .0256039
958.746 .0255911
959.368 .0255780
959.990 .0255649
960.611 .0255516
961.232 .0255391
961.853 .0255268
962.473 .0255143
963.093 .0255015
963.712 .0254878
964.331 .0254734
964.950 .0254579
965.569 .0254422
966.187 .0254266
966.804 .0254115
967.422 .0253974
968.039 .0253834
968.655 .0253701
969.272 .0253570
969.887 .0253438
970.503 .0253305
971.118 .0253170
971.733 .0253038
972.347 .0252905
972.961 .0252774
973.575 .0252644
974.188 .0252512
974.801 .0252373
975.414 .0252226
976.026 .0252067
976.638 .0251895
977.250 .0251713
977.861 .0251526
978.472 .0251333
979.083 .0251138
979.693 .0250933
980.303 .0250714
980.912 .0250482
981.521 .0250231
982.130 .0249959
982.738 .0249675
983.346 .0249385
983.954 .0249091
984.562 .0248801
985.169 .0248521
985.775 .0248256
986.382 .0248004
986.988 .0247765
987.594 .0247533
988.199 .0247307
988.804 .0247090
989.409 .0246879
990.013 .0246680
990.617 .0246501
991.221 .0246338
991.824 .0246197
992.427 .0246076
993.030 .0245980
993.632 .0245902
994.234 .0245841
994.836 .0245793
995.438 .0245746
996.039 .0245698
996.640 .0245648
997.240 .0245593
997.840 .0245535
998.440 .0245469
999.040 .0245399
999.639 .0245325
1000.238 .0245246
1000.836 .0245158
1001.435 .0245065
1002.033 .0244961
1002.630 .0244845
1003.228 .0244713
1003.825 .0244572
1004.422 .0244428
1005.018 .0244290
1005.614 .0244158
1006.210 .0244036
1006.806 .0243925
1007.401 .0243820
1007.996 .0243718
1008.591 .0243624
1009.186 .0243529
1009.780 .0243432
1010.374 .0243338
1010.967 .0243245
1011.561 .0243160
1012.154 .0243081
1012.746 .0243016
1013.339 .0242960
1013.931 .0242909
1014.523 .0242853
1015.115 .0242790
1015.706 .0242723
1016.298 .0242652
1016.888 .0242577
1017.479 .0242504
1018.069 .0242434
1018.660 .0242373
1019.250 .0242320
1019.839 .0242281
1020.429 .0242258
1021.018 .0242254
1021.607 .0242261
1022.195 .0242285
1022.784 .0242317
1023.372 .0242357
1023.960 .0242402
1024.547 .0242455
1025.135 .0242509
1025.722 .0242564
1026.309 .0242622
1026.896 .0242685
1027.483 .0242762
1028.069 .0242854
1028.655 .0242955
1029.241 .0243066
1029.827 .0243190
1030.412 .0243311
1030.997 .0243428
1031.582 .0243543
1032.167 .0243650
1032.752 .0243750
1033.336 .0243840
1033.921 .0243925
1034.505 .0244005
1035.089 .0244081
1035.672 .0244157
1036.256 .0244227
1036.839 .0244296
1037.422 .0244354
1038.005 .0244403
1038.588 .0244447
1039.171 .0244482
1039.753 .0244509
1040.335 .0244528
1040.918 .0244542
1041.500 .0244555
1042.081 .0244569
1042.663 .0244586
1043.244 .0244612
1043.826 .0244649
1044.407 .0244693
1044.988 .0244743
1045.569 .0244803
1046.150 .0244862
1046.730 .0244921
1047.311 .0244987
1047.891 .0245054
1048.471 .0245118
1049.052 .0245184
1049.632 .0245243
1050.211 .0245309
1050.791 .0245378
1051.371 .0245442
1051.950 .0245508
1052.530 .0245586
1053.109 .0245668
1053.688 .0245748
1054.268 .0245829
1054.847 .0245915
1055.426 .0245987
1056.005 .0246059
1056.583 .0246125
1057.162 .0246179
1057.741 .0246235
1058.319 .0246288
1058.898 .0246339
1059.476 .0246391
1060.055 .0246435
1060.633 .0246471
1061.211 .0246497
1061.790 .0246522
1062.368 .0246532
1062.946 .0246538
1063.524 .0246570
1064.102 .0246620
1064.680 .0246699
1065.258 .0246817
1065.836 .0246958
1066.414 .0247118
1066.992 .0247288
1067.570 .0247460
1068.148 .0247615
1068.726 .0247762
1069.304 .0247908
1069.882 .0248047
1070.460 .0248195
1071.038 .0248362
1071.616 .0248530
1072.194 .0248705
1072.772 .0248876
1073.350 .0249017
1073.928 .0249134
1074.506 .0249234
1075.084 .0249309
1075.662 .0249374
1076.240 .0249444
1076.819 .0249511
1077.397 .0249576
1077.976 .0249665
1078.554 .0249763
1079.133 .0249855
1079.711 .0249951
1080.290 .0250040
1080.869 .0250122
1081.448 .0250205
1082.027 .0250291
1082.606 .0250388
1083.185 .0250515
1083.764 .0250669
1084.343 .0250830
1084.923 .0251010
1085.502 .0251210
1086.082 .0251410
1086.662 .0251608
1087.242 .0251797
1087.822 .0251968
1088.402 .0252129
1088.983 .0252282
1089.563 .0252417
1090.144 .0252545
1090.725 .0252682
1091.306 .0252812
1091.887 .0252956
1092.469 .0253115
1093.050 .0253293
1093.632 .0253495
1094.214 .0253714
1094.796 .0253919
1095.379 .0254107
1095.961 .0254279
1096.544 .0254437
1097.127 .0254583
1097.710 .0254729
1098.294 .0254891
1098.877 .0255093
1099.461 .0255345
1100.046 .0255634
1100.630 .0255941
1101.215 .0256277
1101.800 .0256608
1102.385 .0256927
1102.970 .0257210
1103.556 .0257465
1104.142 .0257710
1104.728 .0257957
1105.315 .0258214
1105.902 .0258505
1106.489 .0258852
1107.077 .0259251
1107.664 .0259709
1108.253 .0260219
1108.841 .0260762
1109.430 .0261336
1110.019 .0261939
1110.609 .0262555
1111.198 .0263173
1111.789 .0263800
1112.379 .0264414
1112.970 .0265033
1113.561 .0265667
1114.153 .0266299
1114.745 .0266939
1115.338 .0267607
1115.931 .0268284
1116.524 .0268943
1117.117 .0269580
1117.712 .0270170
1118.306 .0270695
1118.901 .0271184
1119.496 .0271615
1120.092 .0272022
1120.689 .0272426
1121.285 .0272874
1121.882 .0273359
1122.480 .0273924
1123.078 .0274536
1123.677 .0275167
1124.276 .0275829
1124.875 .0276510
1125.476 .0277158
1126.076 .0277791
1126.677 .0278394
1127.279 .0278996
1127.881 .0279601
1128.484 .0280229
1129.087 .0280849
1129.691 .0281499
1130.295 .0282184
1130.900 .0282864
1131.505 .0283520
1132.111 .0284197
1132.718 .0284861
1133.325 .0285503
1133.933 .0286145
1134.541 .0286730
1135.150 .0287285
1135.760 .0287845
1136.370 .0288370
1136.981 .0288931
1137.592 .0289528
1138.204 .0290194
1138.817 .0290936
1139.431 .0291788
1140.045 .0292693
1140.660 .0293686
1141.275 .0294887
1141.891 .0296334
1142.508 .0296931
1143.126 .0296858
1143.744 .0299894
1144.363 .0304376
1144.983 .0309048
