Measurement Sequence started on: 15-12-46-377
Integration time: 28
Scans to Average: 2 
>>>>>Begin Spectral Data<<<<<
432.689 .0000100
433.621 .0000100
434.552 .0000100
435.482 .0000100
436.410 .0000100
437.337 .0000100
438.262 .0272917
439.187 .0577778
440.110 .0957278
441.031 .1385202
441.952 .1800892
442.871 .2128375
443.789 .2308098
444.705 .2320079
445.621 .2189159
446.535 .1970111
447.447 .1721902
448.359 .1340939
449.269 .1153299
450.178 .1034742
451.086 .0951338
451.993 .0887251
452.898 .0836028
453.803 .0793713
454.706 .0757848
455.608 .0726778
456.508 .0699206
457.408 .0674941
458.306 .0653097
459.204 .0633358
460.100 .0615305
460.995 .0598859
461.888 .0583937
462.781 .0570480
463.673 .0558258
464.563 .0547211
465.452 .0537222
466.340 .0528169
467.228 .0520158
468.114 .0513043
468.999 .0506651
469.882 .0500969
470.765 .0495871
471.647 .0491422
472.528 .0487420
473.407 .0483910
474.286 .0480930
475.163 .0478390
476.040 .0476285
476.915 .0474360
477.790 .0472627
478.663 .0471056
479.535 .0469509
480.407 .0467980
481.277 .0466449
482.147 .0464945
483.015 .0463484
483.883 .0462059
484.749 .0460782
485.615 .0459667
486.479 .0458765
487.343 .0458061
488.206 .0457619
489.067 .0457369
489.928 .0457310
490.788 .0457466
491.647 .0457901
492.505 .0458576
493.362 .0459429
494.218 .0460566
495.073 .0462016
495.928 .0463831
496.781 .0465916
497.634 .0468333
498.486 .0471143
499.337 .0474256
500.187 .0477588
501.036 .0481077
501.884 .0484807
502.731 .0488719
503.578 .0492812
504.424 .0497171
505.268 .0501779
506.113 .0506761
506.956 .0512095
507.798 .0517990
508.640 .0524355
509.480 .0531221
510.320 .0538680
511.160 .0546836
511.998 .0555747
512.836 .0565551
513.672 .0576289
514.508 .0588135
515.344 .0601285
516.178 .0615806
517.012 .0631839
517.845 .0649745
518.677 .0669649
519.508 .0691784
520.339 .0716727
521.169 .0745255
521.998 .0777727
522.826 .0815171
523.654 .0858177
524.481 .0906428
525.307 .0960454
526.133 .1019978
526.958 .1083996
527.782 .1151637
528.605 .1221075
529.428 .1291136
530.250 .1357501
531.072 .1417983
531.892 .1469030
532.712 .1508691
533.532 .1535421
534.350 .1546611
535.168 .1540864
535.986 .1519484
536.802 .1482720
537.618 .1432906
538.434 .1372285
539.249 .1305382
540.063 .1234677
540.876 .1163686
541.689 .1094474
542.501 .1029539
543.313 .0970336
544.124 .0917387
544.934 .0869405
545.744 .0826439
546.553 .0787502
547.361 .0752170
548.169 .0720591
548.976 .0692331
549.783 .0666904
550.589 .0644206
551.395 .0623579
552.200 .0605025
553.004 .0588213
553.808 .0572821
554.611 .0558838
555.414 .0546270
556.216 .0534926
557.018 .0524626
557.819 .0515323
558.619 .0506898
559.419 .0499020
560.218 .0491723
561.017 .0484775
561.815 .0477975
562.613 .0471324
563.410 .0464600
564.207 .0457802
565.003 .0451027
565.799 .0444341
566.594 .0437764
567.388 .0431523
568.182 .0425592
568.976 .0419956
569.769 .0414651
570.562 .0409602
571.354 .0404644
572.145 .0399785
572.936 .0394962
573.727 .0390162
574.517 .0385457
575.307 .0380848
576.096 .0376361
576.885 .0372137
577.673 .0368191
578.461 .0364535
579.248 .0361158
580.035 .0358037
580.821 .0355141
581.607 .0352450
582.392 .0349917
583.177 .0347528
583.962 .0345314
584.746 .0343308
585.529 .0341468
586.313 .0339826
587.095 .0338367
587.878 .0337082
588.660 .0335952
589.441 .0334931
590.222 .0333987
591.003 .0333123
591.783 .0332326
592.563 .0331584
593.342 .0330890
594.121 .0330238
594.899 .0329622
595.678 .0329044
596.455 .0328499
597.233 .0327981
598.009 .0327480
598.786 .0327001
599.562 .0326529
600.338 .0326051
601.113 .0325550
601.888 .0325040
602.663 .0324524
603.437 .0324006
604.211 .0323498
604.984 .0323005
605.757 .0322530
606.530 .0322083
607.302 .0321658
608.074 .0321257
608.845 .0320877
609.616 .0320522
610.387 .0320180
611.158 .0319857
611.928 .0319559
612.697 .0319281
613.467 .0319020
614.236 .0318793
615.004 .0318578
615.773 .0318381
616.541 .0318205
617.308 .0318046
618.076 .0317905
618.843 .0317782
619.609 .0317675
620.375 .0317568
621.141 .0317460
621.907 .0317343
622.672 .0317201
623.437 .0317044
624.202 .0316863
624.966 .0316662
625.730 .0316452
626.493 .0316246
627.257 .0316040
628.020 .0315838
628.782 .0315643
629.545 .0315436
630.307 .0315213
631.068 .0314969
631.830 .0314701
632.591 .0314404
633.352 .0314095
634.112 .0313773
634.872 .0313449
635.632 .0313137
636.392 .0312830
637.151 .0312541
637.910 .0312267
638.668 .0312001
639.427 .0311741
640.185 .0311483
640.943 .0311226
641.700 .0310960
642.457 .0310694
643.214 .0310420
643.971 .0310144
644.727 .0309868
645.483 .0309594
646.239 .0309322
646.994 .0309056
647.750 .0308790
648.505 .0308525
649.259 .0308269
650.014 .0308011
650.768 .0307754
651.521 .0307499
652.275 .0307243
653.028 .0306987
653.781 .0306722
654.534 .0306453
655.286 .0306179
656.039 .0305903
656.791 .0305618
657.542 .0305327
658.294 .0305036
659.045 .0304742
659.796 .0304447
660.546 .0304151
661.297 .0303850
662.047 .0303549
662.796 .0303249
663.546 .0302941
664.295 .0302633
665.044 .0302326
665.793 .0302020
666.542 .0301724
667.290 .0301437
668.038 .0301162
668.786 .0300900
669.533 .0300651
670.281 .0300407
671.028 .0300165
671.774 .0299927
672.521 .0299691
673.267 .0299459
674.013 .0299239
674.759 .0299025
675.505 .0298823
676.250 .0298631
676.995 .0298446
677.740 .0298264
678.484 .0298086
679.229 .0297909
679.973 .0297733
680.717 .0297559
681.460 .0297383
682.204 .0297208
682.947 .0297039
683.690 .0296873
684.433 .0296711
685.175 .0296547
685.917 .0296390
686.659 .0296234
687.401 .0296082
688.142 .0295930
688.884 .0295782
689.625 .0295633
690.365 .0295482
691.106 .0295327
691.846 .0295170
692.586 .0295015
693.326 .0294865
694.066 .0294720
694.805 .0294586
695.545 .0294461
696.284 .0294350
697.022 .0294247
697.761 .0294157
698.499 .0294068
699.237 .0293978
699.975 .0293887
700.713 .0293790
701.450 .0293688
702.187 .0293583
702.924 .0293482
703.661 .0293384
704.397 .0293291
705.133 .0293207
705.869 .0293132
706.605 .0293068
707.341 .0293012
708.076 .0292960
708.811 .0292906
709.546 .0292851
710.281 .0292789
711.015 .0292719
711.749 .0292644
712.483 .0292560
713.217 .0292469
713.950 .0292374
714.684 .0292277
715.417 .0292175
716.150 .0292072
716.882 .0291965
717.615 .0291846
718.347 .0291716
719.079 .0291572
719.811 .0291414
720.542 .0291244
721.273 .0291069
722.005 .0290884
722.735 .0290694
723.466 .0290500
724.196 .0290302
724.927 .0290100
725.656 .0289893
726.386 .0289680
727.116 .0289461
727.845 .0289241
728.574 .0289019
729.303 .0288802
730.031 .0288592
730.760 .0288390
731.488 .0288195
732.216 .0288005
732.944 .0287822
733.671 .0287644
734.398 .0287469
735.125 .0287302
735.852 .0287145
736.579 .0286996
737.305 .0286855
738.031 .0286725
738.757 .0286600
739.483 .0286481
740.208 .0286359
740.933 .0286238
741.658 .0286110
742.383 .0285979
743.108 .0285840
743.832 .0285690
744.556 .0285537
745.280 .0285375
746.004 .0285203
746.727 .0285028
747.450 .0284845
748.173 .0284657
748.896 .0284466
749.618 .0284275
750.340 .0284083
751.062 .0283894
751.784 .0283708
752.506 .0283524
753.227 .0283345
753.948 .0283172
754.669 .0282999
755.389 .0282827
756.110 .0282658
756.830 .0282483
757.550 .0282306
758.269 .0282123
758.989 .0281935
759.708 .0281743
760.427 .0281545
761.146 .0281339
761.864 .0281130
762.582 .0280918
763.300 .0280702
764.018 .0280482
764.736 .0280263
765.453 .0280039
766.170 .0279810
766.887 .0279580
767.603 .0279351
768.320 .0279124
769.036 .0278898
769.751 .0278676
770.467 .0278460
771.182 .0278250
771.897 .0278043
772.612 .0277842
773.327 .0277650
774.041 .0277465
774.755 .0277286
775.469 .0277121
776.183 .0276969
776.896 .0276830
777.609 .0276705
778.322 .0276589
779.035 .0276479
779.747 .0276375
780.459 .0276276
781.171 .0276182
781.882 .0276093
782.594 .0276015
783.305 .0275939
784.016 .0275874
784.726 .0275818
785.436 .0275765
786.147 .0275713
786.856 .0275661
787.566 .0275601
788.275 .0275532
788.984 .0275457
789.693 .0275375
790.401 .0275288
791.110 .0275202
791.818 .0275112
792.525 .0275023
793.233 .0274936
793.940 .0274854
794.647 .0274769
795.353 .0274685
796.060 .0274602
796.766 .0274517
797.472 .0274433
798.177 .0274356
798.883 .0274289
799.588 .0274235
800.292 .0274191
800.997 .0274155
801.701 .0274122
802.405 .0274093
803.109 .0274064
803.812 .0274036
804.515 .0274009
805.218 .0273981
805.921 .0273952
806.623 .0273923
807.325 .0273894
808.027 .0273863
808.728 .0273829
809.429 .0273788
810.130 .0273741
810.831 .0273688
811.531 .0273632
812.231 .0273575
812.931 .0273523
813.630 .0273469
814.330 .0273416
815.029 .0273361
815.727 .0273304
816.426 .0273243
817.124 .0273184
817.821 .0273126
818.519 .0273077
819.216 .0273039
819.913 .0273012
820.609 .0273000
821.306 .0272999
822.002 .0273006
822.697 .0273014
823.393 .0273022
824.088 .0273026
824.783 .0273025
825.477 .0273027
826.171 .0273030
826.865 .0273043
827.559 .0273069
828.252 .0273105
828.945 .0273150
829.638 .0273196
830.330 .0273240
831.023 .0273279
831.714 .0273308
832.406 .0273329
833.097 .0273344
833.788 .0273352
834.479 .0273361
835.169 .0273369
835.859 .0273381
836.548 .0273396
837.238 .0273413
837.927 .0273428
838.615 .0273435
839.304 .0273436
839.992 .0273431
840.680 .0273421
841.367 .0273410
842.054 .0273397
842.741 .0273392
843.428 .0273396
844.114 .0273409
844.800 .0273432
845.485 .0273459
846.170 .0273483
846.855 .0273500
847.540 .0273497
848.224 .0273474
848.908 .0273431
849.592 .0273371
850.275 .0273295
850.958 .0273207
851.641 .0273110
852.323 .0273006
853.005 .0272898
853.687 .0272781
854.368 .0272648
855.049 .0272498
855.730 .0272333
856.410 .0272144
857.090 .0271939
857.769 .0271718
858.449 .0271488
859.128 .0271256
859.806 .0271025
860.485 .0270800
861.163 .0270581
861.840 .0270371
862.518 .0270169
863.195 .0269967
863.871 .0269769
864.548 .0269569
865.224 .0269367
865.899 .0269165
866.574 .0268963
867.249 .0268762
867.924 .0268565
868.598 .0268373
869.272 .0268187
869.946 .0268008
870.619 .0267838
871.292 .0267674
871.964 .0267513
872.636 .0267355
873.308 .0267193
873.979 .0267022
874.651 .0266844
875.321 .0266654
875.992 .0266455
876.662 .0266250
877.331 .0266043
878.001 .0265835
878.670 .0265633
879.338 .0265438
880.007 .0265251
880.675 .0265072
881.342 .0264901
882.009 .0264732
882.676 .0264567
883.343 .0264404
884.009 .0264241
884.675 .0264086
885.340 .0263940
886.005 .0263801
886.670 .0263674
887.334 .0263560
887.998 .0263456
888.662 .0263360
889.325 .0263269
889.988 .0263179
890.650 .0263087
891.312 .0262990
891.974 .0262889
892.636 .0262788
893.297 .0262692
893.957 .0262599
894.618 .0262506
895.278 .0262417
895.937 .0262325
896.596 .0262229
897.255 .0262128
897.914 .0262020
898.572 .0261901
899.230 .0261777
899.887 .0261644
900.544 .0261507
901.201 .0261366
901.857 .0261221
902.513 .0261069
903.168 .0260909
903.823 .0260732
904.478 .0260537
905.132 .0260325
905.786 .0260097
906.440 .0259856
907.093 .0259607
907.746 .0259348
908.399 .0259089
909.051 .0258832
909.703 .0258578
910.354 .0258320
911.005 .0258066
911.656 .0257809
912.306 .0257551
912.956 .0257293
913.605 .0257036
914.254 .0256782
914.903 .0256536
915.551 .0256298
916.199 .0256069
916.847 .0255852
917.494 .0255648
918.141 .0255454
918.788 .0255275
919.434 .0255102
920.079 .0254937
920.725 .0254779
921.370 .0254629
922.014 .0254482
922.658 .0254338
923.302 .0254193
923.946 .0254048
924.589 .0253897
925.231 .0253733
925.873 .0253559
926.515 .0253379
927.157 .0253187
927.798 .0252984
928.439 .0252770
929.079 .0252551
929.719 .0252325
930.359 .0252096
930.998 .0251862
931.637 .0251630
932.275 .0251402
932.913 .0251178
933.551 .0250962
934.188 .0250760
934.825 .0250570
935.462 .0250394
936.098 .0250234
936.733 .0250090
937.369 .0249960
938.004 .0249850
938.638 .0249756
939.273 .0249681
939.907 .0249617
940.540 .0249568
941.173 .0249534
941.806 .0249514
942.438 .0249498
943.070 .0249486
943.702 .0249476
944.333 .0249466
944.964 .0249454
945.594 .0249444
946.224 .0249441
946.854 .0249452
947.483 .0249474
948.112 .0249506
948.741 .0249548
949.369 .0249600
949.996 .0249649
950.624 .0249696
951.251 .0249730
951.878 .0249749
952.504 .0249750
953.130 .0249742
953.755 .0249721
954.380 .0249696
955.005 .0249668
955.629 .0249639
956.253 .0249608
956.877 .0249576
957.500 .0249537
958.123 .0249497
958.746 .0249452
959.368 .0249404
959.990 .0249348
960.611 .0249299
961.232 .0249259
961.853 .0249235
962.473 .0249231
963.093 .0249247
963.712 .0249278
964.331 .0249326
964.950 .0249383
965.569 .0249447
966.187 .0249516
966.804 .0249591
967.422 .0249671
968.039 .0249756
968.655 .0249847
969.272 .0249943
969.887 .0250043
970.503 .0250147
971.118 .0250246
971.733 .0250341
972.347 .0250428
972.961 .0250507
973.575 .0250576
974.188 .0250640
974.801 .0250693
975.414 .0250740
976.026 .0250774
976.638 .0250801
977.250 .0250818
977.861 .0250826
978.472 .0250826
979.083 .0250822
979.693 .0250818
980.303 .0250815
980.912 .0250817
981.521 .0250823
982.130 .0250829
982.738 .0250837
983.346 .0250847
983.954 .0250854
984.562 .0250864
985.169 .0250880
985.775 .0250895
986.382 .0250918
986.988 .0250946
987.594 .0250980
988.199 .0251025
988.804 .0251079
989.409 .0251137
990.013 .0251196
990.617 .0251257
991.221 .0251315
991.824 .0251373
992.427 .0251436
993.030 .0251504
993.632 .0251576
994.234 .0251661
994.836 .0251750
995.438 .0251844
996.039 .0251938
996.640 .0252032
997.240 .0252124
997.840 .0252210
998.440 .0252296
999.040 .0252383
999.639 .0252471
1000.238 .0252561
1000.836 .0252647
1001.435 .0252733
1002.033 .0252816
1002.630 .0252891
1003.228 .0252956
1003.825 .0253018
1004.422 .0253081
1005.018 .0253146
1005.614 .0253213
1006.210 .0253289
1006.806 .0253373
1007.401 .0253458
1007.996 .0253542
1008.591 .0253614
1009.186 .0253675
1009.780 .0253724
1010.374 .0253757
1010.967 .0253776
1011.561 .0253782
1012.154 .0253783
1012.746 .0253783
1013.339 .0253785
1013.931 .0253795
1014.523 .0253810
1015.115 .0253834
1015.706 .0253867
1016.298 .0253906
1016.888 .0253948
1017.479 .0253994
1018.069 .0254049
1018.660 .0254104
1019.250 .0254163
1019.839 .0254225
1020.429 .0254294
1021.018 .0254378
1021.607 .0254478
1022.195 .0254591
1022.784 .0254719
1023.372 .0254861
1023.960 .0255005
1024.547 .0255146
1025.135 .0255283
1025.722 .0255410
1026.309 .0255525
1026.896 .0255632
1027.483 .0255731
1028.069 .0255827
1028.655 .0255931
1029.241 .0256041
1029.827 .0256160
1030.412 .0256286
1030.997 .0256414
1031.582 .0256530
1032.167 .0256631
1032.752 .0256715
1033.336 .0256779
1033.921 .0256823
1034.505 .0256853
1035.089 .0256870
1035.672 .0256883
1036.256 .0256894
1036.839 .0256907
1037.422 .0256917
1038.005 .0256928
1038.588 .0256929
1039.171 .0256919
1039.753 .0256898
1040.335 .0256870
1040.918 .0256828
1041.500 .0256786
1042.081 .0256737
1042.663 .0256681
1043.244 .0256610
1043.826 .0256537
1044.407 .0256460
1044.988 .0256374
1045.569 .0256283
1046.150 .0256195
1046.730 .0256100
1047.311 .0256007
1047.891 .0255901
1048.471 .0255792
1049.052 .0255676
1049.632 .0255546
1050.211 .0255397
1050.791 .0255244
1051.371 .0255097
1051.950 .0254972
1052.530 .0254862
1053.109 .0254786
1053.688 .0254720
1054.268 .0254665
1054.847 .0254610
1055.426 .0254546
1056.005 .0254463
1056.583 .0254358
1057.162 .0254233
1057.741 .0254099
1058.319 .0253956
1058.898 .0253821
1059.476 .0253699
1060.055 .0253604
1060.633 .0253526
1061.211 .0253443
1061.790 .0253341
1062.368 .0253236
1062.946 .0253110
1063.524 .0252973
1064.102 .0252825
1064.680 .0252681
1065.258 .0252543
1065.836 .0252424
1066.414 .0252318
1066.992 .0252229
1067.570 .0252162
1068.148 .0252109
1068.726 .0252045
1069.304 .0251974
1069.882 .0251892
1070.460 .0251802
1071.038 .0251711
1071.616 .0251625
1072.194 .0251532
1072.772 .0251453
1073.350 .0251382
1073.928 .0251319
1074.506 .0251255
1075.084 .0251192
1075.662 .0251121
1076.240 .0251051
1076.819 .0250978
1077.397 .0250901
1077.976 .0250834
1078.554 .0250789
1079.133 .0250753
1079.711 .0250720
1080.290 .0250689
1080.869 .0250643
1081.448 .0250569
1082.027 .0250482
1082.606 .0250367
1083.185 .0250253
1083.764 .0250144
1084.343 .0250057
1084.923 .0249986
1085.502 .0249949
1086.082 .0249936
1086.662 .0249937
1087.242 .0249953
1087.822 .0249959
1088.402 .0249949
1088.983 .0249948
1089.563 .0249935
1090.144 .0249924
1090.725 .0249923
1091.306 .0249934
1091.887 .0249949
1092.469 .0249967
1093.050 .0249963
1093.632 .0249949
1094.214 .0249920
1094.796 .0249885
1095.379 .0249833
1095.961 .0249791
1096.544 .0249758
1097.127 .0249726
1097.710 .0249714
1098.294 .0249710
1098.877 .0249710
1099.461 .0249735
1100.046 .0249744
1100.630 .0249773
1101.215 .0249810
1101.800 .0249863
1102.385 .0249932
1102.970 .0250034
1103.556 .0250142
1104.142 .0250262
1104.728 .0250393
1105.315 .0250526
1105.902 .0250650
1106.489 .0250781
1107.077 .0250900
1107.664 .0251002
1108.253 .0251100
1108.841 .0251196
1109.430 .0251282
1110.019 .0251393
1110.609 .0251515
1111.198 .0251656
1111.789 .0251828
1112.379 .0252003
1112.970 .0252169
1113.561 .0252338
1114.153 .0252502
1114.745 .0252658
1115.338 .0252821
1115.931 .0253010
1116.524 .0253233
1117.117 .0253496
1117.712 .0253823
1118.306 .0254211
1118.901 .0254634
1119.496 .0255078
1120.092 .0255513
1120.689 .0255937
1121.285 .0256331
1121.882 .0256697
1122.480 .0257057
1123.078 .0257451
1123.677 .0257864
1124.276 .0258304
1124.875 .0258769
1125.476 .0259273
1126.076 .0259792
1126.677 .0260306
1127.279 .0260816
1127.881 .0261289
1128.484 .0261715
1129.087 .0262105
1129.691 .0262463
1130.295 .0262831
1130.900 .0263202
1131.505 .0263622
1132.111 .0264107
1132.718 .0264639
1133.325 .0265222
1133.933 .0265865
1134.541 .0266555
1135.150 .0267260
1135.760 .0267978
1136.370 .0268693
1136.981 .0269425
1137.592 .0270181
1138.204 .0270988
1138.817 .0271843
1139.431 .0272804
1140.045 .0273839
1140.660 .0274962
1141.275 .0276182
1141.891 .0277440
1142.508 .0279060
1143.126 .0279948
1143.744 .0281815
1144.363 .0283310
1144.983 .0283396
