Measurement Sequence started on: 15-12-46-377
Integration time: 28
Scans to Average: 2 
>>>>>Begin Spectral Data<<<<<
432.689 .0000100
433.621 .0000100
434.552 .0000100
435.482 .0000100
436.410 .0000100
437.337 .0000100
438.262 .0278915
439.187 .0589732
440.110 .0976317
441.031 .1412331
441.952 .1835468
442.871 .2168972
443.789 .2351956
444.705 .2364095
445.621 .2230693
446.535 .2007101
447.447 .1753789
448.359 .1364284
449.269 .1172142
450.178 .1049730
451.086 .0962263
451.993 .0894601
452.898 .0840016
453.803 .0795147
454.706 .0757528
455.608 .0725303
456.508 .0697295
457.408 .0672667
458.306 .0650887
459.204 .0631432
460.100 .0613965
460.995 .0598385
461.888 .0584500
462.781 .0572101
463.673 .0560950
464.563 .0550912
465.452 .0541767
466.340 .0533209
467.228 .0525198
468.114 .0517660
468.999 .0510596
469.882 .0504067
470.765 .0498071
471.647 .0492702
472.528 .0487917
473.407 .0483678
474.286 .0479885
475.163 .0476433
476.040 .0473225
476.915 .0470166
477.790 .0467245
478.663 .0464561
479.535 .0462128
480.407 .0460058
481.277 .0458398
482.147 .0457226
483.015 .0456539
483.883 .0456223
484.749 .0456248
485.615 .0456546
486.479 .0456957
487.343 .0457449
488.206 .0457969
489.067 .0458510
489.928 .0459071
490.788 .0459708
491.647 .0460515
492.505 .0461526
493.362 .0462783
494.218 .0464206
495.073 .0465751
495.928 .0467413
496.781 .0469104
497.634 .0470791
498.486 .0472548
499.337 .0474415
500.187 .0476423
501.036 .0478715
501.884 .0481404
502.731 .0484518
503.578 .0488177
504.424 .0492350
505.268 .0496963
506.113 .0501816
506.956 .0506941
507.798 .0512329
508.640 .0518091
509.480 .0524323
510.320 .0531228
511.160 .0538871
511.998 .0547421
512.836 .0556929
513.672 .0567321
514.508 .0578814
515.344 .0591505
516.178 .0605672
517.012 .0621648
517.845 .0639744
518.677 .0660642
519.508 .0684633
520.339 .0712479
521.169 .0744384
521.998 .0780488
522.826 .0821192
523.654 .0866330
524.481 .0915754
525.307 .0970036
526.133 .1028802
526.958 .1092235
527.782 .1160314
528.605 .1231774
529.428 .1305538
530.250 .1376057
531.072 .1440748
531.892 .1495022
532.712 .1535475
533.532 .1559890
534.350 .1566064
535.168 .1554019
535.986 .1524735
536.802 .1480567
537.618 .1425069
538.434 .1360333
539.249 .1291568
540.063 .1219897
540.876 .1148584
541.689 .1079247
542.501 .1013689
543.313 .0953365
544.124 .0898988
544.934 .0850063
545.744 .0805833
546.553 .0765915
547.361 .0730544
548.169 .0699245
548.976 .0671591
549.783 .0647086
550.589 .0625651
551.395 .0606442
552.200 .0589297
553.004 .0573905
553.808 .0559999
554.611 .0547345
555.414 .0536068
556.216 .0525832
557.018 .0516531
557.819 .0508079
558.619 .0500336
559.419 .0493199
560.218 .0486605
561.017 .0480196
561.815 .0473946
562.613 .0467746
563.410 .0461496
564.207 .0455023
565.003 .0448566
565.799 .0442219
566.594 .0435860
567.388 .0429823
568.182 .0424054
568.976 .0418502
569.769 .0413277
570.562 .0408290
571.354 .0403447
572.145 .0398785
572.936 .0394264
573.727 .0389839
574.517 .0385551
575.307 .0381473
576.096 .0377525
576.885 .0373815
577.673 .0370339
578.461 .0367022
579.248 .0363854
580.035 .0360884
580.821 .0357994
581.607 .0355229
582.392 .0352587
583.177 .0350091
583.962 .0347739
584.746 .0345570
585.529 .0343566
586.313 .0341753
587.095 .0340115
587.878 .0338637
588.660 .0337289
589.441 .0336081
590.222 .0334971
591.003 .0333962
591.783 .0333052
592.563 .0332243
593.342 .0331528
594.121 .0330883
594.899 .0330295
595.678 .0329751
596.455 .0329240
597.233 .0328744
598.009 .0328258
598.786 .0327771
599.562 .0327290
600.338 .0326809
601.113 .0326330
601.888 .0325847
602.663 .0325367
603.437 .0324891
604.211 .0324413
604.984 .0323945
605.757 .0323475
606.530 .0323002
607.302 .0322542
608.074 .0322092
608.845 .0321653
609.616 .0321230
610.387 .0320836
611.158 .0320469
611.928 .0320127
612.697 .0319807
613.467 .0319505
614.236 .0319226
615.004 .0318963
615.773 .0318718
616.541 .0318494
617.308 .0318304
618.076 .0318142
618.843 .0318013
619.609 .0317922
620.375 .0317854
621.141 .0317799
621.907 .0317755
622.672 .0317700
623.437 .0317630
624.202 .0317539
624.966 .0317432
625.730 .0317302
626.493 .0317157
627.257 .0316997
628.020 .0316823
628.782 .0316629
629.545 .0316425
630.307 .0316195
631.068 .0315950
631.830 .0315686
632.591 .0315401
633.352 .0315103
634.112 .0314796
634.872 .0314471
635.632 .0314141
636.392 .0313803
637.151 .0313459
637.910 .0313103
638.668 .0312746
639.427 .0312388
640.185 .0312031
640.943 .0311683
641.700 .0311351
642.457 .0311030
643.214 .0310728
643.971 .0310423
644.727 .0310126
645.483 .0309829
646.239 .0309528
646.994 .0309226
647.750 .0308937
648.505 .0308656
649.259 .0308392
650.014 .0308146
650.768 .0307922
651.521 .0307707
652.275 .0307506
653.028 .0307302
653.781 .0307092
654.534 .0306869
655.286 .0306630
656.039 .0306375
656.791 .0306123
657.542 .0305858
658.294 .0305593
659.045 .0305337
659.796 .0305085
660.546 .0304831
661.297 .0304573
662.047 .0304304
662.796 .0304021
663.546 .0303725
664.295 .0303421
665.044 .0303108
665.793 .0302809
666.542 .0302523
667.290 .0302255
668.038 .0302007
668.786 .0301772
669.533 .0301535
670.281 .0301296
671.028 .0301042
671.774 .0300776
672.521 .0300503
673.267 .0300229
674.013 .0299959
674.759 .0299698
675.505 .0299448
676.250 .0299209
676.995 .0298979
677.740 .0298758
678.484 .0298535
679.229 .0298315
679.973 .0298096
680.717 .0297884
681.460 .0297683
682.204 .0297500
682.947 .0297334
683.690 .0297192
684.433 .0297064
685.175 .0296944
685.917 .0296835
686.659 .0296734
687.401 .0296645
688.142 .0296566
688.884 .0296501
689.625 .0296443
690.365 .0296385
691.106 .0296324
691.846 .0296252
692.586 .0296163
693.326 .0296049
694.066 .0295907
694.805 .0295751
695.545 .0295579
696.284 .0295401
697.022 .0295220
697.761 .0295050
698.499 .0294881
699.237 .0294713
699.975 .0294543
700.713 .0294377
701.450 .0294212
702.187 .0294047
702.924 .0293889
703.661 .0293739
704.397 .0293603
705.133 .0293485
705.869 .0293387
706.605 .0293311
707.341 .0293249
708.076 .0293200
708.811 .0293155
709.546 .0293110
710.281 .0293054
711.015 .0292983
711.749 .0292897
712.483 .0292796
713.217 .0292673
713.950 .0292533
714.684 .0292377
715.417 .0292212
716.150 .0292040
716.882 .0291863
717.615 .0291682
718.347 .0291500
719.079 .0291317
719.811 .0291137
720.542 .0290963
721.273 .0290794
722.005 .0290631
722.735 .0290475
723.466 .0290325
724.196 .0290175
724.927 .0290023
725.656 .0289866
726.386 .0289708
727.116 .0289551
727.845 .0289392
728.574 .0289237
729.303 .0289092
730.031 .0288954
730.760 .0288820
731.488 .0288684
732.216 .0288541
732.944 .0288391
733.671 .0288228
734.398 .0288059
735.125 .0287890
735.852 .0287730
736.579 .0287581
737.305 .0287449
738.031 .0287335
738.757 .0287235
739.483 .0287140
740.208 .0287045
740.933 .0286943
741.658 .0286828
742.383 .0286696
743.108 .0286551
743.832 .0286397
744.556 .0286235
745.280 .0286066
746.004 .0285893
746.727 .0285717
747.450 .0285534
748.173 .0285345
748.896 .0285150
749.618 .0284951
750.340 .0284748
751.062 .0284545
751.784 .0284345
752.506 .0284145
753.227 .0283942
753.948 .0283739
754.669 .0283535
755.389 .0283332
756.110 .0283123
756.830 .0282914
757.550 .0282708
758.269 .0282506
758.989 .0282300
759.708 .0282092
760.427 .0281885
761.146 .0281673
761.864 .0281455
762.582 .0281233
763.300 .0281010
764.018 .0280793
764.736 .0280579
765.453 .0280373
766.170 .0280173
766.887 .0279980
767.603 .0279790
768.320 .0279607
769.036 .0279428
769.751 .0279249
770.467 .0279066
771.182 .0278888
771.897 .0278710
772.612 .0278536
773.327 .0278367
774.041 .0278206
774.755 .0278055
775.469 .0277912
776.183 .0277773
776.896 .0277646
777.609 .0277528
778.322 .0277421
779.035 .0277321
779.747 .0277233
780.459 .0277152
781.171 .0277081
781.882 .0277017
782.594 .0276959
783.305 .0276904
784.016 .0276856
784.726 .0276802
785.436 .0276750
786.147 .0276692
786.856 .0276629
787.566 .0276560
788.275 .0276485
788.984 .0276406
789.693 .0276322
790.401 .0276235
791.110 .0276148
791.818 .0276061
792.525 .0275985
793.233 .0275910
793.940 .0275842
794.647 .0275783
795.353 .0275731
796.060 .0275686
796.766 .0275651
797.472 .0275623
798.177 .0275603
798.883 .0275589
799.588 .0275578
800.292 .0275567
800.997 .0275557
801.701 .0275543
802.405 .0275524
803.109 .0275498
803.812 .0275464
804.515 .0275414
805.218 .0275354
805.921 .0275282
806.623 .0275202
807.325 .0275114
808.027 .0275023
808.728 .0274929
809.429 .0274833
810.130 .0274737
810.831 .0274641
811.531 .0274549
812.231 .0274460
812.931 .0274375
813.630 .0274296
814.330 .0274220
815.029 .0274154
815.727 .0274091
816.426 .0274036
817.124 .0273985
817.821 .0273939
818.519 .0273896
819.216 .0273859
819.913 .0273826
820.609 .0273799
821.306 .0273778
822.002 .0273765
822.697 .0273757
823.393 .0273754
824.088 .0273753
824.783 .0273753
825.477 .0273748
826.171 .0273744
826.865 .0273739
827.559 .0273745
828.252 .0273757
828.945 .0273779
829.638 .0273810
830.330 .0273852
831.023 .0273898
831.714 .0273945
832.406 .0273988
833.097 .0274026
833.788 .0274053
834.479 .0274071
835.169 .0274083
835.859 .0274094
836.548 .0274106
837.238 .0274121
837.927 .0274138
838.615 .0274156
839.304 .0274169
839.992 .0274180
840.680 .0274186
841.367 .0274185
842.054 .0274174
842.741 .0274158
843.428 .0274136
844.114 .0274111
844.800 .0274086
845.485 .0274057
846.170 .0274024
846.855 .0273987
847.540 .0273936
848.224 .0273873
848.908 .0273802
849.592 .0273717
850.275 .0273615
850.958 .0273500
851.641 .0273368
852.323 .0273221
853.005 .0273063
853.687 .0272897
854.368 .0272722
855.049 .0272546
855.730 .0272369
856.410 .0272183
857.090 .0271998
857.769 .0271809
858.449 .0271610
859.128 .0271404
859.806 .0271194
860.485 .0270979
861.163 .0270769
861.840 .0270568
862.518 .0270375
863.195 .0270189
863.871 .0270012
864.548 .0269833
865.224 .0269650
865.899 .0269461
866.574 .0269261
867.249 .0269054
867.924 .0268844
868.598 .0268636
869.272 .0268437
869.946 .0268256
870.619 .0268088
871.292 .0267934
871.964 .0267789
872.636 .0267645
873.308 .0267498
873.979 .0267347
874.651 .0267186
875.321 .0267021
875.992 .0266853
876.662 .0266692
877.331 .0266540
878.001 .0266399
878.670 .0266267
879.338 .0266141
880.007 .0266016
880.675 .0265886
881.342 .0265747
882.009 .0265600
882.676 .0265442
883.343 .0265279
884.009 .0265113
884.675 .0264945
885.340 .0264779
886.005 .0264617
886.670 .0264456
887.334 .0264298
887.998 .0264142
888.662 .0263988
889.325 .0263840
889.988 .0263699
890.650 .0263569
891.312 .0263447
891.974 .0263337
892.636 .0263235
893.297 .0263142
893.957 .0263058
894.618 .0262975
895.278 .0262892
895.937 .0262809
896.596 .0262721
897.255 .0262636
897.914 .0262546
898.572 .0262452
899.230 .0262351
899.887 .0262245
900.544 .0262123
901.201 .0261985
901.857 .0261831
902.513 .0261659
903.168 .0261469
903.823 .0261260
904.478 .0261034
905.132 .0260796
905.786 .0260554
906.440 .0260306
907.093 .0260054
907.746 .0259801
908.399 .0259546
909.051 .0259291
909.703 .0259038
910.354 .0258784
911.005 .0258528
911.656 .0258270
912.306 .0258012
912.956 .0257752
913.605 .0257492
914.254 .0257237
914.903 .0256993
915.551 .0256763
916.199 .0256547
916.847 .0256342
917.494 .0256149
918.141 .0255967
918.788 .0255790
919.434 .0255619
920.079 .0255448
920.725 .0255286
921.370 .0255130
922.014 .0254979
922.658 .0254834
923.302 .0254694
923.946 .0254557
924.589 .0254420
925.231 .0254276
925.873 .0254125
926.515 .0253967
927.157 .0253805
927.798 .0253639
928.439 .0253470
929.079 .0253298
929.719 .0253125
930.359 .0252943
930.998 .0252761
931.637 .0252571
932.275 .0252380
932.913 .0252191
933.551 .0252005
934.188 .0251824
934.825 .0251654
935.462 .0251495
936.098 .0251351
936.733 .0251220
937.369 .0251100
938.004 .0250982
938.638 .0250873
939.273 .0250772
939.907 .0250680
940.540 .0250604
941.173 .0250546
941.806 .0250502
942.438 .0250479
943.070 .0250468
943.702 .0250466
944.333 .0250465
944.964 .0250465
945.594 .0250462
946.224 .0250455
946.854 .0250453
947.483 .0250456
948.112 .0250471
948.741 .0250501
949.369 .0250539
949.996 .0250581
950.624 .0250621
951.251 .0250656
951.878 .0250683
952.504 .0250697
953.130 .0250700
953.755 .0250695
954.380 .0250685
955.005 .0250679
955.629 .0250674
956.253 .0250671
956.877 .0250673
957.500 .0250670
958.123 .0250661
958.746 .0250639
959.368 .0250607
959.990 .0250564
960.611 .0250515
961.232 .0250465
961.853 .0250416
962.473 .0250374
963.093 .0250349
963.712 .0250338
964.331 .0250340
964.950 .0250357
965.569 .0250388
966.187 .0250431
966.804 .0250492
967.422 .0250566
968.039 .0250657
968.655 .0250761
969.272 .0250873
969.887 .0250988
970.503 .0251105
971.118 .0251226
971.733 .0251342
972.347 .0251451
972.961 .0251559
973.575 .0251658
974.188 .0251744
974.801 .0251818
975.414 .0251882
976.026 .0251934
976.638 .0251973
977.250 .0252000
977.861 .0252018
978.472 .0252031
979.083 .0252041
979.693 .0252045
980.303 .0252042
980.912 .0252033
981.521 .0252011
982.130 .0251983
982.738 .0251953
983.346 .0251923
983.954 .0251895
984.562 .0251874
985.169 .0251858
985.775 .0251838
986.382 .0251815
986.988 .0251786
987.594 .0251743
988.199 .0251688
988.804 .0251620
989.409 .0251550
990.013 .0251489
990.617 .0251447
991.221 .0251425
991.824 .0251433
992.427 .0251470
993.030 .0251528
993.632 .0251600
994.234 .0251684
994.836 .0251771
995.438 .0251860
996.039 .0251953
996.640 .0252045
997.240 .0252143
997.840 .0252257
998.440 .0252388
999.040 .0252531
999.639 .0252683
1000.238 .0252838
1000.836 .0252984
1001.435 .0253119
1002.033 .0253231
1002.630 .0253317
1003.228 .0253385
1003.825 .0253435
1004.422 .0253472
1005.018 .0253508
1005.614 .0253546
1006.210 .0253591
1006.806 .0253649
1007.401 .0253711
1007.996 .0253769
1008.591 .0253827
1009.186 .0253881
1009.780 .0253930
1010.374 .0253976
1010.967 .0254016
1011.561 .0254052
1012.154 .0254095
1012.746 .0254141
1013.339 .0254191
1013.931 .0254253
1014.523 .0254317
1015.115 .0254388
1015.706 .0254458
1016.298 .0254529
1016.888 .0254598
1017.479 .0254672
1018.069 .0254750
1018.660 .0254826
1019.250 .0254907
1019.839 .0254986
1020.429 .0255071
1021.018 .0255162
1021.607 .0255261
1022.195 .0255364
1022.784 .0255474
1023.372 .0255589
1023.960 .0255704
1024.547 .0255825
1025.135 .0255948
1025.722 .0256071
1026.309 .0256193
1026.896 .0256308
1027.483 .0256417
1028.069 .0256517
1028.655 .0256610
1029.241 .0256696
1029.827 .0256780
1030.412 .0256850
1030.997 .0256912
1031.582 .0256962
1032.167 .0257005
1032.752 .0257039
1033.336 .0257072
1033.921 .0257102
1034.505 .0257129
1035.089 .0257151
1035.672 .0257169
1036.256 .0257179
1036.839 .0257184
1037.422 .0257181
1038.005 .0257171
1038.588 .0257151
1039.171 .0257122
1039.753 .0257089
1040.335 .0257061
1040.918 .0257028
1041.500 .0256998
1042.081 .0256967
1042.663 .0256928
1043.244 .0256873
1043.826 .0256803
1044.407 .0256719
1044.988 .0256625
1045.569 .0256526
1046.150 .0256424
1046.730 .0256324
1047.311 .0256233
1047.891 .0256149
1048.471 .0256061
1049.052 .0255981
1049.632 .0255893
1050.211 .0255799
1050.791 .0255704
1051.371 .0255614
1051.950 .0255522
1052.530 .0255441
1053.109 .0255365
1053.688 .0255286
1054.268 .0255193
1054.847 .0255092
1055.426 .0254976
1056.005 .0254851
1056.583 .0254720
1057.162 .0254590
1057.741 .0254463
1058.319 .0254365
1058.898 .0254274
1059.476 .0254204
1060.055 .0254145
1060.633 .0254096
1061.211 .0254045
1061.790 .0254001
1062.368 .0253960
1062.946 .0253922
1063.524 .0253898
1064.102 .0253882
1064.680 .0253853
1065.258 .0253812
1065.836 .0253749
1066.414 .0253663
1066.992 .0253541
1067.570 .0253399
1068.148 .0253222
1068.726 .0253038
1069.304 .0252831
1069.882 .0252603
1070.460 .0252351
1071.038 .0252077
1071.616 .0251767
1072.194 .0251430
1072.772 .0251082
1073.350 .0250744
1073.928 .0250429
1074.506 .0250177
1075.084 .0249973
1075.662 .0249827
1076.240 .0249727
1076.819 .0249669
1077.397 .0249621
1077.976 .0249590
1078.554 .0249554
1079.133 .0249533
1079.711 .0249531
1080.290 .0249563
1080.869 .0249621
1081.448 .0249721
1082.027 .0249851
1082.606 .0249988
1083.185 .0250115
1083.764 .0250238
1084.343 .0250317
1084.923 .0250376
1085.502 .0250413
1086.082 .0250441
1086.662 .0250469
1087.242 .0250519
1087.822 .0250567
1088.402 .0250621
1088.983 .0250667
1089.563 .0250691
1090.144 .0250672
1090.725 .0250651
1091.306 .0250602
1091.887 .0250553
1092.469 .0250518
1093.050 .0250522
1093.632 .0250548
1094.214 .0250622
1094.796 .0250714
1095.379 .0250811
1095.961 .0250912
1096.544 .0251002
1097.127 .0251054
1097.710 .0251104
1098.294 .0251139
1098.877 .0251176
1099.461 .0251208
1100.046 .0251270
1100.630 .0251331
1101.215 .0251406
1101.800 .0251489
1102.385 .0251565
1102.970 .0251608
1103.556 .0251637
1104.142 .0251617
1104.728 .0251571
1105.315 .0251510
1105.902 .0251421
1106.489 .0251326
1107.077 .0251241
1107.664 .0251155
1108.253 .0251090
1108.841 .0251052
1109.430 .0251060
1110.019 .0251100
1110.609 .0251195
1111.198 .0251337
1111.789 .0251515
1112.379 .0251756
1112.970 .0252030
1113.561 .0252352
1114.153 .0252742
1114.745 .0253196
1115.338 .0253710
1115.931 .0254301
1116.524 .0254936
1117.117 .0255616
1117.712 .0256328
1118.306 .0257027
1118.901 .0257693
1119.496 .0258311
1120.092 .0258878
1120.689 .0259366
1121.285 .0259814
1121.882 .0260227
1122.480 .0260620
1123.078 .0261013
1123.677 .0261374
1124.276 .0261705
1124.875 .0262046
1125.476 .0262361
1126.076 .0262661
1126.677 .0262926
1127.279 .0263179
1127.881 .0263427
1128.484 .0263697
1129.087 .0263976
1129.691 .0264318
1130.295 .0264728
1130.900 .0265248
1131.505 .0265836
1132.111 .0266546
1132.718 .0267320
1133.325 .0268208
1133.933 .0269152
1134.541 .0270136
1135.150 .0271131
1135.760 .0272159
1136.370 .0273154
1136.981 .0274163
1137.592 .0275132
1138.204 .0276128
1138.817 .0277149
1139.431 .0278173
1140.045 .0279144
1140.660 .0280055
1141.275 .0280864
1141.891 .0281312
1142.508 .0282919
1143.126 .0283037
1143.744 .0282607
1144.363 .0282799
1144.983 .0276148
