Measurement Sequence started on: 15-12-46-377
Integration time: 28
Scans to Average: 2 
>>>>>Begin Spectral Data<<<<<
432.689 .0000100
433.621 .0000100
434.552 .0000100
435.482 .0000100
436.410 .0000100
437.337 .0000100
438.262 .0277953
439.187 .0587926
440.110 .0972212
441.031 .1405786
441.952 .1825789
442.871 .2155405
443.789 .2334233
444.705 .2342124
445.621 .2204833
446.535 .1978093
447.447 .1722135
448.359 .1331232
449.269 .1137646
450.178 .1015056
451.086 .0927003
451.993 .0859158
452.898 .0804738
453.803 .0760035
454.706 .0722723
455.608 .0691020
456.508 .0663751
457.408 .0640552
458.306 .0620444
459.204 .0602892
460.100 .0587378
460.995 .0573693
461.888 .0561451
462.781 .0550530
463.673 .0540803
464.563 .0532262
465.452 .0524655
466.340 .0517864
467.228 .0511797
468.114 .0506365
468.999 .0501358
469.882 .0496662
470.765 .0492296
471.647 .0488199
472.528 .0484206
473.407 .0480386
474.286 .0476718
475.163 .0473326
476.040 .0470188
476.915 .0467313
477.790 .0464807
478.663 .0462669
479.535 .0460923
480.407 .0459477
481.277 .0458402
482.147 .0457604
483.015 .0457009
483.883 .0456595
484.749 .0456311
485.615 .0456130
486.479 .0456091
487.343 .0456217
488.206 .0456555
489.067 .0457068
489.928 .0457768
490.788 .0458623
491.647 .0459659
492.505 .0460767
493.362 .0461940
494.218 .0463089
495.073 .0464349
495.928 .0465633
496.781 .0467011
497.634 .0468655
498.486 .0470607
499.337 .0472936
500.187 .0475709
501.036 .0478861
501.884 .0482455
502.731 .0486404
503.578 .0490786
504.424 .0495455
505.268 .0500417
506.113 .0505678
506.956 .0511209
507.798 .0517196
508.640 .0523728
509.480 .0530773
510.320 .0538618
511.160 .0547294
511.998 .0556655
512.836 .0566729
513.672 .0577667
514.508 .0589401
515.344 .0602106
516.178 .0616323
517.012 .0632292
517.845 .0650444
518.677 .0671413
519.508 .0695421
520.339 .0722903
521.169 .0754316
521.998 .0789520
522.826 .0828639
523.654 .0872613
524.481 .0921124
525.307 .0974788
526.133 .1033980
526.958 .1099423
527.782 .1170162
528.605 .1244571
529.428 .1321327
530.250 .1394048
531.072 .1460215
531.892 .1515703
532.712 .1556739
533.532 .1581967
534.350 .1589360
535.168 .1579438
535.986 .1552807
536.802 .1512005
537.618 .1459412
538.434 .1396786
539.249 .1329253
540.063 .1257689
540.876 .1185102
541.689 .1114252
542.501 .1047562
543.313 .0986603
544.124 .0931695
544.934 .0882715
545.744 .0838808
546.553 .0799380
547.361 .0764120
548.169 .0732413
548.976 .0703727
549.783 .0678011
550.589 .0654846
551.395 .0633603
552.200 .0614489
553.004 .0597073
553.808 .0581163
554.611 .0566650
555.414 .0553376
556.216 .0540946
557.018 .0529635
557.819 .0519337
558.619 .0509808
559.419 .0501065
560.218 .0493071
561.017 .0485544
561.815 .0478461
562.613 .0471702
563.410 .0465132
564.207 .0458674
565.003 .0452392
565.799 .0446107
566.594 .0439877
567.388 .0433799
568.182 .0427784
568.976 .0421853
569.769 .0416128
570.562 .0410529
571.354 .0405113
572.145 .0400004
572.936 .0395179
573.727 .0390615
574.517 .0386405
575.307 .0382470
576.096 .0378773
576.885 .0375328
577.673 .0372054
578.461 .0368913
579.248 .0365939
580.035 .0363122
580.821 .0360404
581.607 .0357842
582.392 .0355403
583.177 .0353033
583.962 .0350778
584.746 .0348654
585.529 .0346623
586.313 .0344729
587.095 .0342979
587.878 .0341382
588.660 .0339963
589.441 .0338703
590.222 .0337566
591.003 .0336597
591.783 .0335746
592.563 .0334974
593.342 .0334280
594.121 .0333645
594.899 .0333041
595.678 .0332481
596.455 .0331958
597.233 .0331468
598.009 .0331004
598.786 .0330559
599.562 .0330116
600.338 .0329679
601.113 .0329246
601.888 .0328801
602.663 .0328342
603.437 .0327891
604.211 .0327433
604.984 .0326971
605.757 .0326517
606.530 .0326077
607.302 .0325651
608.074 .0325247
608.845 .0324856
609.616 .0324477
610.387 .0324111
611.158 .0323766
611.928 .0323435
612.697 .0323121
613.467 .0322829
614.236 .0322545
615.004 .0322267
615.773 .0322001
616.541 .0321733
617.308 .0321457
618.076 .0321183
618.843 .0320913
619.609 .0320647
620.375 .0320386
621.141 .0320139
621.907 .0319910
622.672 .0319699
623.437 .0319501
624.202 .0319302
624.966 .0319107
625.730 .0318915
626.493 .0318710
627.257 .0318501
628.020 .0318286
628.782 .0318076
629.545 .0317862
630.307 .0317650
631.068 .0317440
631.830 .0317224
632.591 .0316988
633.352 .0316732
634.112 .0316447
634.872 .0316133
635.632 .0315796
636.392 .0315441
637.151 .0315087
637.910 .0314737
638.668 .0314397
639.427 .0314075
640.185 .0313770
640.943 .0313488
641.700 .0313215
642.457 .0312951
643.214 .0312698
643.971 .0312446
644.727 .0312208
645.483 .0311979
646.239 .0311770
646.994 .0311575
647.750 .0311402
648.505 .0311252
649.259 .0311125
650.014 .0311021
650.768 .0310934
651.521 .0310861
652.275 .0310797
653.028 .0310731
653.781 .0310656
654.534 .0310570
655.286 .0310462
656.039 .0310325
656.791 .0310162
657.542 .0309971
658.294 .0309764
659.045 .0309550
659.796 .0309337
660.546 .0309128
661.297 .0308924
662.047 .0308716
662.796 .0308492
663.546 .0308258
664.295 .0308003
665.044 .0307726
665.793 .0307434
666.542 .0307137
667.290 .0306840
668.038 .0306557
668.786 .0306298
669.533 .0306067
670.281 .0305864
671.028 .0305687
671.774 .0305525
672.521 .0305374
673.267 .0305231
674.013 .0305090
674.759 .0304944
675.505 .0304795
676.250 .0304636
676.995 .0304469
677.740 .0304299
678.484 .0304124
679.229 .0303949
679.973 .0303774
680.717 .0303601
681.460 .0303422
682.204 .0303236
682.947 .0303042
683.690 .0302836
684.433 .0302616
685.175 .0302381
685.917 .0302138
686.659 .0301885
687.401 .0301630
688.142 .0301380
688.884 .0301136
689.625 .0300901
690.365 .0300670
691.106 .0300448
691.846 .0300226
692.586 .0300006
693.326 .0299788
694.066 .0299577
694.805 .0299379
695.545 .0299183
696.284 .0298994
697.022 .0298812
697.761 .0298635
698.499 .0298454
699.237 .0298270
699.975 .0298089
700.713 .0297908
701.450 .0297729
702.187 .0297552
702.924 .0297380
703.661 .0297210
704.397 .0297041
705.133 .0296871
705.869 .0296702
706.605 .0296535
707.341 .0296365
708.076 .0296205
708.811 .0296052
709.546 .0295910
710.281 .0295773
711.015 .0295639
711.749 .0295507
712.483 .0295371
713.217 .0295223
713.950 .0295064
714.684 .0294902
715.417 .0294739
716.150 .0294575
716.882 .0294420
717.615 .0294274
718.347 .0294141
719.079 .0294021
719.811 .0293907
720.542 .0293791
721.273 .0293671
722.005 .0293538
722.735 .0293393
723.466 .0293238
724.196 .0293076
724.927 .0292908
725.656 .0292746
726.386 .0292592
727.116 .0292445
727.845 .0292312
728.574 .0292188
729.303 .0292074
730.031 .0291963
730.760 .0291852
731.488 .0291738
732.216 .0291630
732.944 .0291533
733.671 .0291442
734.398 .0291363
735.125 .0291301
735.852 .0291256
736.579 .0291227
737.305 .0291209
738.031 .0291201
738.757 .0291194
739.483 .0291184
740.208 .0291164
740.933 .0291138
741.658 .0291102
742.383 .0291057
743.108 .0291000
743.832 .0290935
744.556 .0290856
745.280 .0290766
746.004 .0290668
746.727 .0290567
747.450 .0290456
748.173 .0290337
748.896 .0290210
749.618 .0290081
750.340 .0289945
751.062 .0289808
751.784 .0289669
752.506 .0289529
753.227 .0289385
753.948 .0289234
754.669 .0289076
755.389 .0288911
756.110 .0288735
756.830 .0288550
757.550 .0288355
758.269 .0288154
758.989 .0287949
759.708 .0287746
760.427 .0287548
761.146 .0287353
761.864 .0287158
762.582 .0286965
763.300 .0286770
764.018 .0286573
764.736 .0286373
765.453 .0286176
766.170 .0285981
766.887 .0285789
767.603 .0285600
768.320 .0285414
769.036 .0285232
769.751 .0285053
770.467 .0284873
771.182 .0284695
771.897 .0284517
772.612 .0284342
773.327 .0284171
774.041 .0284004
774.755 .0283841
775.469 .0283686
776.183 .0283537
776.896 .0283394
777.609 .0283256
778.322 .0283128
779.035 .0283011
779.747 .0282908
780.459 .0282820
781.171 .0282746
781.882 .0282686
782.594 .0282642
783.305 .0282603
784.016 .0282569
784.726 .0282537
785.436 .0282504
786.147 .0282466
786.856 .0282423
787.566 .0282371
788.275 .0282310
788.984 .0282244
789.693 .0282171
790.401 .0282092
791.110 .0282010
791.818 .0281931
792.525 .0281852
793.233 .0281775
793.940 .0281702
794.647 .0281624
795.353 .0281550
796.060 .0281476
796.766 .0281400
797.472 .0281323
798.177 .0281253
798.883 .0281187
799.588 .0281131
800.292 .0281084
800.997 .0281046
801.701 .0281011
802.405 .0280978
803.109 .0280939
803.812 .0280889
804.515 .0280823
805.218 .0280745
805.921 .0280649
806.623 .0280543
807.325 .0280424
808.027 .0280301
808.728 .0280174
809.429 .0280048
810.130 .0279919
810.831 .0279788
811.531 .0279656
812.231 .0279522
812.931 .0279379
813.630 .0279232
814.330 .0279083
815.029 .0278936
815.727 .0278793
816.426 .0278659
817.124 .0278535
817.821 .0278425
818.519 .0278332
819.216 .0278254
819.913 .0278193
820.609 .0278147
821.306 .0278107
822.002 .0278075
822.697 .0278047
823.393 .0278021
824.088 .0277995
824.783 .0277970
825.477 .0277950
826.171 .0277928
826.865 .0277912
827.559 .0277901
828.252 .0277896
828.945 .0277895
829.638 .0277895
830.330 .0277892
831.023 .0277887
831.714 .0277874
832.406 .0277855
833.097 .0277828
833.788 .0277795
834.479 .0277760
835.169 .0277725
835.859 .0277693
836.548 .0277669
837.238 .0277650
837.927 .0277634
838.615 .0277618
839.304 .0277604
839.992 .0277587
840.680 .0277566
841.367 .0277539
842.054 .0277507
842.741 .0277470
843.428 .0277431
844.114 .0277388
844.800 .0277343
845.485 .0277294
846.170 .0277236
846.855 .0277163
847.540 .0277084
848.224 .0276994
848.908 .0276892
849.592 .0276780
850.275 .0276660
850.958 .0276526
851.641 .0276383
852.323 .0276229
853.005 .0276065
853.687 .0275890
854.368 .0275705
855.049 .0275505
855.730 .0275299
856.410 .0275090
857.090 .0274879
857.769 .0274668
858.449 .0274465
859.128 .0274262
859.806 .0274059
860.485 .0273860
861.163 .0273667
861.840 .0273478
862.518 .0273291
863.195 .0273105
863.871 .0272920
864.548 .0272734
865.224 .0272548
865.899 .0272357
866.574 .0272166
867.249 .0271972
867.924 .0271776
868.598 .0271581
869.272 .0271397
869.946 .0271227
870.619 .0271069
871.292 .0270925
871.964 .0270792
872.636 .0270664
873.308 .0270536
873.979 .0270406
874.651 .0270273
875.321 .0270131
875.992 .0269986
876.662 .0269842
877.331 .0269710
878.001 .0269591
878.670 .0269485
879.338 .0269390
880.007 .0269303
880.675 .0269217
881.342 .0269124
882.009 .0269020
882.676 .0268908
883.343 .0268789
884.009 .0268666
884.675 .0268543
885.340 .0268427
886.005 .0268324
886.670 .0268238
887.334 .0268169
887.998 .0268109
888.662 .0268057
889.325 .0268011
889.988 .0267962
890.650 .0267913
891.312 .0267860
891.974 .0267804
892.636 .0267750
893.297 .0267699
893.957 .0267655
894.618 .0267618
895.278 .0267595
895.937 .0267584
896.596 .0267585
897.255 .0267596
897.914 .0267607
898.572 .0267617
899.230 .0267627
899.887 .0267631
900.544 .0267626
901.201 .0267615
901.857 .0267594
902.513 .0267562
903.168 .0267519
903.823 .0267460
904.478 .0267383
905.132 .0267286
905.786 .0267171
906.440 .0267032
907.093 .0266874
907.746 .0266699
908.399 .0266511
909.051 .0266324
909.703 .0266133
910.354 .0265945
911.005 .0265761
911.656 .0265583
912.306 .0265411
912.956 .0265247
913.605 .0265094
914.254 .0264954
914.903 .0264826
915.551 .0264716
916.199 .0264625
916.847 .0264545
917.494 .0264471
918.141 .0264409
918.788 .0264345
919.434 .0264273
920.079 .0264189
920.725 .0264099
921.370 .0264000
922.014 .0263896
922.658 .0263783
923.302 .0263664
923.946 .0263542
924.589 .0263409
925.231 .0263257
925.873 .0263097
926.515 .0262923
927.157 .0262731
927.798 .0262530
928.439 .0262325
929.079 .0262118
929.719 .0261916
930.359 .0261723
930.998 .0261541
931.637 .0261370
932.275 .0261211
932.913 .0261059
933.551 .0260917
934.188 .0260787
934.825 .0260666
935.462 .0260558
936.098 .0260471
936.733 .0260396
937.369 .0260338
938.004 .0260296
938.638 .0260267
939.273 .0260245
939.907 .0260228
940.540 .0260217
941.173 .0260209
941.806 .0260201
942.438 .0260198
943.070 .0260195
943.702 .0260197
944.333 .0260198
944.964 .0260194
945.594 .0260189
946.224 .0260180
946.854 .0260166
947.483 .0260153
948.112 .0260139
948.741 .0260128
949.369 .0260122
949.996 .0260116
950.624 .0260115
951.251 .0260112
951.878 .0260110
952.504 .0260102
953.130 .0260086
953.755 .0260061
954.380 .0260026
955.005 .0259979
955.629 .0259921
956.253 .0259851
956.877 .0259777
957.500 .0259698
958.123 .0259616
958.746 .0259530
959.368 .0259446
959.990 .0259360
960.611 .0259272
961.232 .0259178
961.853 .0259077
962.473 .0258970
963.093 .0258860
963.712 .0258745
964.331 .0258631
964.950 .0258522
965.569 .0258424
966.187 .0258339
966.804 .0258273
967.422 .0258221
968.039 .0258184
968.655 .0258161
969.272 .0258142
969.887 .0258121
970.503 .0258101
971.118 .0258082
971.733 .0258063
972.347 .0258044
972.961 .0258021
973.575 .0257997
974.188 .0257969
974.801 .0257932
975.414 .0257883
976.026 .0257818
976.638 .0257736
977.250 .0257634
977.861 .0257511
978.472 .0257373
979.083 .0257219
979.693 .0257054
980.303 .0256875
980.912 .0256681
981.521 .0256474
982.130 .0256258
982.738 .0256036
983.346 .0255812
983.954 .0255588
984.562 .0255375
985.169 .0255165
985.775 .0254959
986.382 .0254762
986.988 .0254571
987.594 .0254384
988.199 .0254196
988.804 .0253999
989.409 .0253801
990.013 .0253607
990.617 .0253420
991.221 .0253244
991.824 .0253088
992.427 .0252959
993.030 .0252852
993.632 .0252773
994.234 .0252716
994.836 .0252672
995.438 .0252644
996.039 .0252620
996.640 .0252595
997.240 .0252577
997.840 .0252567
998.440 .0252571
999.040 .0252592
999.639 .0252628
1000.238 .0252674
1000.836 .0252723
1001.435 .0252767
1002.033 .0252796
1002.630 .0252800
1003.228 .0252782
1003.825 .0252737
1004.422 .0252680
1005.018 .0252619
1005.614 .0252554
1006.210 .0252500
1006.806 .0252460
1007.401 .0252425
1007.996 .0252387
1008.591 .0252346
1009.186 .0252302
1009.780 .0252252
1010.374 .0252196
1010.967 .0252134
1011.561 .0252075
1012.154 .0252023
1012.746 .0251981
1013.339 .0251951
1013.931 .0251940
1014.523 .0251934
1015.115 .0251926
1015.706 .0251921
1016.298 .0251913
1016.888 .0251905
1017.479 .0251902
1018.069 .0251914
1018.660 .0251937
1019.250 .0251973
1019.839 .0252023
1020.429 .0252090
1021.018 .0252172
1021.607 .0252263
1022.195 .0252353
1022.784 .0252447
1023.372 .0252534
1023.960 .0252614
1024.547 .0252685
1025.135 .0252752
1025.722 .0252814
1026.309 .0252875
1026.896 .0252930
1027.483 .0252982
1028.069 .0253032
1028.655 .0253088
1029.241 .0253143
1029.827 .0253197
1030.412 .0253242
1030.997 .0253288
1031.582 .0253329
1032.167 .0253371
1032.752 .0253414
1033.336 .0253466
1033.921 .0253526
1034.505 .0253589
1035.089 .0253648
1035.672 .0253703
1036.256 .0253752
1036.839 .0253794
1037.422 .0253821
1038.005 .0253841
1038.588 .0253850
1039.171 .0253861
1039.753 .0253877
1040.335 .0253901
1040.918 .0253930
1041.500 .0253967
1042.081 .0254005
1042.663 .0254036
1043.244 .0254064
1043.826 .0254088
1044.407 .0254113
1044.988 .0254147
1045.569 .0254182
1046.150 .0254218
1046.730 .0254258
1047.311 .0254297
1047.891 .0254326
1048.471 .0254348
1049.052 .0254353
1049.632 .0254346
1050.211 .0254342
1050.791 .0254341
1051.371 .0254345
1051.950 .0254361
1052.530 .0254387
1053.109 .0254411
1053.688 .0254421
1054.268 .0254424
1054.847 .0254415
1055.426 .0254401
1056.005 .0254381
1056.583 .0254361
1057.162 .0254360
1057.741 .0254379
1058.319 .0254410
1058.898 .0254463
1059.476 .0254520
1060.055 .0254574
1060.633 .0254613
1061.211 .0254638
1061.790 .0254658
1062.368 .0254674
1062.946 .0254695
1063.524 .0254735
1064.102 .0254797
1064.680 .0254889
1065.258 .0255006
1065.836 .0255148
1066.414 .0255308
1066.992 .0255479
1067.570 .0255643
1068.148 .0255797
1068.726 .0255933
1069.304 .0256056
1069.882 .0256157
1070.460 .0256255
1071.038 .0256336
1071.616 .0256407
1072.194 .0256480
1072.772 .0256535
1073.350 .0256572
1073.928 .0256602
1074.506 .0256612
1075.084 .0256605
1075.662 .0256590
1076.240 .0256577
1076.819 .0256559
1077.397 .0256567
1077.976 .0256588
1078.554 .0256626
1079.133 .0256678
1079.711 .0256733
1080.290 .0256777
1080.869 .0256822
1081.448 .0256862
1082.027 .0256891
1082.606 .0256934
1083.185 .0256996
1083.764 .0257069
1084.343 .0257167
1084.923 .0257288
1085.502 .0257428
1086.082 .0257574
1086.662 .0257727
1087.242 .0257876
1087.822 .0258040
1088.402 .0258217
1088.983 .0258409
1089.563 .0258626
1090.144 .0258867
1090.725 .0259122
1091.306 .0259374
1091.887 .0259623
1092.469 .0259860
1093.050 .0260088
1093.632 .0260296
1094.214 .0260491
1094.796 .0260675
1095.379 .0260851
1095.961 .0261014
1096.544 .0261157
1097.127 .0261269
1097.710 .0261352
1098.294 .0261406
1098.877 .0261440
1099.461 .0261459
1100.046 .0261486
1100.630 .0261535
1101.215 .0261626
1101.800 .0261760
1102.385 .0261938
1102.970 .0262150
1103.556 .0262400
1104.142 .0262667
1104.728 .0262948
1105.315 .0263208
1105.902 .0263467
1106.489 .0263723
1107.077 .0263984
1107.664 .0264242
1108.253 .0264518
1108.841 .0264817
1109.430 .0265116
1110.019 .0265405
1110.609 .0265681
1111.198 .0265929
1111.789 .0266156
1112.379 .0266351
1112.970 .0266526
1113.561 .0266709
1114.153 .0266917
1114.745 .0267137
1115.338 .0267411
1115.931 .0267740
1116.524 .0268113
1117.117 .0268511
1117.712 .0268965
1118.306 .0269442
1118.901 .0269932
1119.496 .0270467
1120.092 .0271014
1120.689 .0271578
1121.285 .0272166
1121.882 .0272735
1122.480 .0273313
1123.078 .0273875
1123.677 .0274396
1124.276 .0274870
1124.875 .0275334
1125.476 .0275776
1126.076 .0276188
1126.677 .0276580
1127.279 .0276995
1127.881 .0277396
1128.484 .0277801
1129.087 .0278221
1129.691 .0278645
1130.295 .0279144
1130.900 .0279657
1131.505 .0280220
1132.111 .0280879
1132.718 .0281598
1133.325 .0282429
1133.933 .0283347
1134.541 .0284356
1135.150 .0285454
1135.760 .0286614
1136.370 .0287878
1136.981 .0289217
1137.592 .0290607
1138.204 .0292075
1138.817 .0293548
1139.431 .0295157
1140.045 .0296759
1140.660 .0298432
1141.275 .0300240
1141.891 .0302282
1142.508 .0304936
1143.126 .0304866
1143.744 .0307749
1144.363 .0311277
1144.983 .0317176
