Measurement Sequence started on: 15-12-46-377
Integration time: 28
Scans to Average: 2 
>>>>>Begin Spectral Data<<<<<
432.689 .0000100
433.621 .0000100
434.552 .0000100
435.482 .0000100
436.410 .0000100
437.337 .0000100
438.262 .0272140
439.187 .0576159
440.110 .0954843
441.031 .1382201
441.952 .1797417
442.871 .2124992
443.789 .2305549
444.705 .2318804
445.621 .2189580
446.535 .1971780
447.447 .1724344
448.359 .1343872
449.269 .1155539
450.178 .1035469
451.086 .0949959
451.993 .0883925
452.898 .0830864
453.803 .0787011
454.706 .0750266
455.608 .0718756
456.508 .0691595
457.408 .0668130
458.306 .0647455
459.204 .0629087
460.100 .0612700
460.995 .0598040
461.888 .0584872
462.781 .0573060
463.673 .0562258
464.563 .0552403
465.452 .0543368
466.340 .0535034
467.228 .0527442
468.114 .0520527
468.999 .0514265
469.882 .0508485
470.765 .0503160
471.647 .0498215
472.528 .0493463
473.407 .0488992
474.286 .0484714
475.163 .0480625
476.040 .0476856
476.915 .0473392
477.790 .0470286
478.663 .0467633
479.535 .0465412
480.407 .0463642
481.277 .0462256
482.147 .0461195
483.015 .0460429
483.883 .0459834
484.749 .0459446
485.615 .0459248
486.479 .0459182
487.343 .0459334
488.206 .0459617
489.067 .0460100
489.928 .0460697
490.788 .0461330
491.647 .0462080
492.505 .0462910
493.362 .0463818
494.218 .0464842
495.073 .0465957
495.928 .0467245
496.781 .0468668
497.634 .0470273
498.486 .0472174
499.337 .0474420
500.187 .0476916
501.036 .0479717
501.884 .0482854
502.731 .0486411
503.578 .0490199
504.424 .0494351
505.268 .0498910
506.113 .0503795
506.956 .0509055
507.798 .0514808
508.640 .0521197
509.480 .0528391
510.320 .0536381
511.160 .0545230
511.998 .0554959
512.836 .0565526
513.672 .0576792
514.508 .0588948
515.344 .0601996
516.178 .0616140
517.012 .0631742
517.845 .0649544
518.677 .0670015
519.508 .0693316
520.339 .0720123
521.169 .0750704
521.998 .0785167
522.826 .0823421
523.654 .0865887
524.481 .0912754
525.307 .0964431
526.133 .1020771
526.958 .1082269
527.782 .1148090
528.605 .1217201
529.428 .1288440
530.250 .1357213
531.072 .1420713
531.892 .1474955
532.712 .1515983
533.532 .1542495
534.350 .1551563
535.168 .1542680
535.986 .1516181
536.802 .1474701
537.618 .1420177
538.434 .1355218
539.249 .1284941
540.063 .1212017
540.876 .1139320
541.689 .1069694
542.501 .1004465
543.313 .0945640
544.124 .0893330
544.934 .0846925
545.744 .0805390
546.553 .0768560
547.361 .0735450
548.169 .0705805
548.976 .0679115
549.783 .0655533
550.589 .0634253
551.395 .0615035
552.200 .0597874
553.004 .0582314
553.808 .0567947
554.611 .0554842
555.414 .0542798
556.216 .0531835
557.018 .0521865
557.819 .0513014
558.619 .0505047
559.419 .0497998
560.218 .0491540
561.017 .0485463
561.815 .0479600
562.613 .0473823
563.410 .0467923
564.207 .0461939
565.003 .0455891
565.799 .0449872
566.594 .0443835
567.388 .0438027
568.182 .0432355
568.976 .0426810
569.769 .0421375
570.562 .0415988
571.354 .0410585
572.145 .0405184
572.936 .0399774
573.727 .0394424
574.517 .0389226
575.307 .0384255
576.096 .0379550
576.885 .0375146
577.673 .0371105
578.461 .0367407
579.248 .0363980
580.035 .0360836
580.821 .0357899
581.607 .0355124
582.392 .0352533
583.177 .0350081
583.962 .0347817
584.746 .0345753
585.529 .0343890
586.313 .0342212
587.095 .0340726
587.878 .0339403
588.660 .0338208
589.441 .0337126
590.222 .0336139
591.003 .0335211
591.783 .0334338
592.563 .0333489
593.342 .0332681
594.121 .0331906
594.899 .0331182
595.678 .0330504
596.455 .0329884
597.233 .0329306
598.009 .0328756
598.786 .0328231
599.562 .0327714
600.338 .0327201
601.113 .0326687
601.888 .0326168
602.663 .0325647
603.437 .0325134
604.211 .0324629
604.984 .0324141
605.757 .0323683
606.530 .0323241
607.302 .0322816
608.074 .0322416
608.845 .0322027
609.616 .0321653
610.387 .0321298
611.158 .0320967
611.928 .0320646
612.697 .0320346
613.467 .0320063
614.236 .0319794
615.004 .0319547
615.773 .0319324
616.541 .0319114
617.308 .0318926
618.076 .0318752
618.843 .0318581
619.609 .0318410
620.375 .0318240
621.141 .0318055
621.907 .0317852
622.672 .0317639
623.437 .0317409
624.202 .0317157
624.966 .0316897
625.730 .0316630
626.493 .0316359
627.257 .0316090
628.020 .0315816
628.782 .0315533
629.545 .0315248
630.307 .0314958
631.068 .0314655
631.830 .0314355
632.591 .0314052
633.352 .0313748
634.112 .0313443
634.872 .0313147
635.632 .0312854
636.392 .0312571
637.151 .0312300
637.910 .0312036
638.668 .0311778
639.427 .0311520
640.185 .0311259
640.943 .0311009
641.700 .0310759
642.457 .0310510
643.214 .0310262
643.971 .0310026
644.727 .0309796
645.483 .0309585
646.239 .0309386
646.994 .0309202
647.750 .0309030
648.505 .0308857
649.259 .0308677
650.014 .0308490
650.768 .0308296
651.521 .0308088
652.275 .0307864
653.028 .0307632
653.781 .0307383
654.534 .0307128
655.286 .0306868
656.039 .0306610
656.791 .0306348
657.542 .0306076
658.294 .0305798
659.045 .0305515
659.796 .0305225
660.546 .0304930
661.297 .0304632
662.047 .0304337
662.796 .0304050
663.546 .0303766
664.295 .0303489
665.044 .0303228
665.793 .0302977
666.542 .0302725
667.290 .0302473
668.038 .0302226
668.786 .0301975
669.533 .0301723
670.281 .0301479
671.028 .0301238
671.774 .0301006
672.521 .0300786
673.267 .0300579
674.013 .0300385
674.759 .0300207
675.505 .0300039
676.250 .0299881
676.995 .0299732
677.740 .0299590
678.484 .0299449
679.229 .0299314
679.973 .0299179
680.717 .0299041
681.460 .0298900
682.204 .0298766
682.947 .0298628
683.690 .0298497
684.433 .0298369
685.175 .0298244
685.917 .0298115
686.659 .0297987
687.401 .0297850
688.142 .0297702
688.884 .0297546
689.625 .0297380
690.365 .0297200
691.106 .0297016
691.846 .0296830
692.586 .0296649
693.326 .0296472
694.066 .0296300
694.805 .0296129
695.545 .0295970
696.284 .0295811
697.022 .0295646
697.761 .0295478
698.499 .0295310
699.237 .0295136
699.975 .0294960
700.713 .0294786
701.450 .0294620
702.187 .0294464
702.924 .0294323
703.661 .0294195
704.397 .0294084
705.133 .0293984
705.869 .0293890
706.605 .0293798
707.341 .0293703
708.076 .0293597
708.811 .0293478
709.546 .0293353
710.281 .0293219
711.015 .0293079
711.749 .0292933
712.483 .0292783
713.217 .0292629
713.950 .0292466
714.684 .0292287
715.417 .0292094
716.150 .0291885
716.882 .0291659
717.615 .0291418
718.347 .0291168
719.079 .0290908
719.811 .0290641
720.542 .0290372
721.273 .0290104
722.005 .0289833
722.735 .0289565
723.466 .0289304
724.196 .0289051
724.927 .0288806
725.656 .0288568
726.386 .0288336
727.116 .0288114
727.845 .0287904
728.574 .0287699
729.303 .0287504
730.031 .0287328
730.760 .0287167
731.488 .0287021
732.216 .0286890
732.944 .0286772
733.671 .0286662
734.398 .0286559
735.125 .0286454
735.852 .0286348
736.579 .0286238
737.305 .0286124
738.031 .0286006
738.757 .0285885
739.483 .0285756
740.208 .0285618
740.933 .0285476
741.658 .0285326
742.383 .0285162
743.108 .0284991
743.832 .0284813
744.556 .0284634
745.280 .0284454
746.004 .0284275
746.727 .0284103
747.450 .0283941
748.173 .0283778
748.896 .0283617
749.618 .0283458
750.340 .0283303
751.062 .0283152
751.784 .0283010
752.506 .0282877
753.227 .0282752
753.948 .0282634
754.669 .0282519
755.389 .0282404
756.110 .0282287
756.830 .0282161
757.550 .0282026
758.269 .0281886
758.989 .0281740
759.708 .0281586
760.427 .0281430
761.146 .0281273
761.864 .0281112
762.582 .0280945
763.300 .0280776
764.018 .0280608
764.736 .0280439
765.453 .0280271
766.170 .0280108
766.887 .0279945
767.603 .0279785
768.320 .0279623
769.036 .0279465
769.751 .0279310
770.467 .0279161
771.182 .0279014
771.897 .0278874
772.612 .0278744
773.327 .0278625
774.041 .0278517
774.755 .0278419
775.469 .0278330
776.183 .0278246
776.896 .0278165
777.609 .0278094
778.322 .0278026
779.035 .0277965
779.747 .0277910
780.459 .0277861
781.171 .0277818
781.882 .0277782
782.594 .0277753
783.305 .0277728
784.016 .0277709
784.726 .0277691
785.436 .0277672
786.147 .0277654
786.856 .0277641
787.566 .0277630
788.275 .0277617
788.984 .0277606
789.693 .0277588
790.401 .0277564
791.110 .0277535
791.818 .0277499
792.525 .0277458
793.233 .0277413
793.940 .0277360
794.647 .0277300
795.353 .0277237
796.060 .0277172
796.766 .0277101
797.472 .0277025
798.177 .0276944
798.883 .0276858
799.588 .0276769
800.292 .0276682
800.997 .0276599
801.701 .0276522
802.405 .0276452
803.109 .0276386
803.812 .0276329
804.515 .0276282
805.218 .0276238
805.921 .0276194
806.623 .0276149
807.325 .0276105
808.027 .0276057
808.728 .0276011
809.429 .0275963
810.130 .0275915
810.831 .0275866
811.531 .0275815
812.231 .0275756
812.931 .0275689
813.630 .0275613
814.330 .0275526
815.029 .0275429
815.727 .0275322
816.426 .0275205
817.124 .0275086
817.821 .0274959
818.519 .0274828
819.216 .0274694
819.913 .0274556
820.609 .0274418
821.306 .0274286
822.002 .0274157
822.697 .0274039
823.393 .0273930
824.088 .0273834
824.783 .0273743
825.477 .0273658
826.171 .0273573
826.865 .0273491
827.559 .0273412
828.252 .0273332
828.945 .0273255
829.638 .0273187
830.330 .0273126
831.023 .0273073
831.714 .0273026
832.406 .0272985
833.097 .0272942
833.788 .0272893
834.479 .0272829
835.169 .0272751
835.859 .0272658
836.548 .0272552
837.238 .0272436
837.927 .0272318
838.615 .0272196
839.304 .0272077
839.992 .0271962
840.680 .0271851
841.367 .0271742
842.054 .0271631
842.741 .0271515
843.428 .0271398
844.114 .0271273
844.800 .0271147
845.485 .0271020
846.170 .0270894
846.855 .0270766
847.540 .0270638
848.224 .0270507
848.908 .0270371
849.592 .0270227
850.275 .0270072
850.958 .0269901
851.641 .0269721
852.323 .0269532
853.005 .0269335
853.687 .0269133
854.368 .0268927
855.049 .0268715
855.730 .0268500
856.410 .0268273
857.090 .0268041
857.769 .0267797
858.449 .0267547
859.128 .0267288
859.806 .0267027
860.485 .0266769
861.163 .0266519
861.840 .0266280
862.518 .0266055
863.195 .0265837
863.871 .0265627
864.548 .0265422
865.224 .0265219
865.899 .0265017
866.574 .0264817
867.249 .0264615
867.924 .0264417
868.598 .0264223
869.272 .0264038
869.946 .0263866
870.619 .0263710
871.292 .0263568
871.964 .0263433
872.636 .0263306
873.308 .0263183
873.979 .0263054
874.651 .0262926
875.321 .0262791
875.992 .0262652
876.662 .0262511
877.331 .0262371
878.001 .0262238
878.670 .0262114
879.338 .0262001
880.007 .0261894
880.675 .0261798
881.342 .0261707
882.009 .0261618
882.676 .0261530
883.343 .0261443
884.009 .0261354
884.675 .0261267
885.340 .0261182
886.005 .0261105
886.670 .0261041
887.334 .0260995
887.998 .0260964
888.662 .0260955
889.325 .0260962
889.988 .0260985
890.650 .0261015
891.312 .0261052
891.974 .0261090
892.636 .0261126
893.297 .0261160
893.957 .0261193
894.618 .0261228
895.278 .0261263
895.937 .0261298
896.596 .0261334
897.255 .0261369
897.914 .0261392
898.572 .0261405
899.230 .0261408
899.887 .0261395
900.544 .0261365
901.201 .0261319
901.857 .0261262
902.513 .0261195
903.168 .0261115
903.823 .0261026
904.478 .0260930
905.132 .0260829
905.786 .0260721
906.440 .0260605
907.093 .0260488
907.746 .0260369
908.399 .0260246
909.051 .0260122
909.703 .0259997
910.354 .0259875
911.005 .0259752
911.656 .0259631
912.306 .0259515
912.956 .0259406
913.605 .0259301
914.254 .0259207
914.903 .0259121
915.551 .0259043
916.199 .0258971
916.847 .0258908
917.494 .0258853
918.141 .0258805
918.788 .0258764
919.434 .0258730
920.079 .0258700
920.725 .0258679
921.370 .0258659
922.014 .0258641
922.658 .0258626
923.302 .0258612
923.946 .0258592
924.589 .0258567
925.231 .0258536
925.873 .0258499
926.515 .0258452
927.157 .0258399
927.798 .0258336
928.439 .0258262
929.079 .0258182
929.719 .0258093
930.359 .0257993
930.998 .0257888
931.637 .0257775
932.275 .0257652
932.913 .0257526
933.551 .0257393
934.188 .0257258
934.825 .0257128
935.462 .0257005
936.098 .0256891
936.733 .0256792
937.369 .0256711
938.004 .0256648
938.638 .0256600
939.273 .0256568
939.907 .0256543
940.540 .0256531
941.173 .0256530
941.806 .0256537
942.438 .0256551
943.070 .0256577
943.702 .0256609
944.333 .0256649
944.964 .0256691
945.594 .0256730
946.224 .0256763
946.854 .0256786
947.483 .0256796
948.112 .0256790
948.741 .0256774
949.369 .0256755
949.996 .0256732
950.624 .0256713
951.251 .0256694
951.878 .0256678
952.504 .0256662
953.130 .0256640
953.755 .0256610
954.380 .0256566
955.005 .0256510
955.629 .0256439
956.253 .0256358
956.877 .0256274
957.500 .0256192
958.123 .0256116
958.746 .0256051
959.368 .0255993
959.990 .0255941
960.611 .0255895
961.232 .0255848
961.853 .0255799
962.473 .0255744
963.093 .0255681
963.712 .0255611
964.331 .0255536
964.950 .0255457
965.569 .0255378
966.187 .0255308
966.804 .0255242
967.422 .0255186
968.039 .0255141
968.655 .0255103
969.272 .0255067
969.887 .0255028
970.503 .0254979
971.118 .0254921
971.733 .0254849
972.347 .0254763
972.961 .0254668
973.575 .0254569
974.188 .0254467
974.801 .0254362
975.414 .0254258
976.026 .0254148
976.638 .0254028
977.250 .0253897
977.861 .0253748
978.472 .0253584
979.083 .0253404
979.693 .0253211
980.303 .0253004
980.912 .0252786
981.521 .0252557
982.130 .0252326
982.738 .0252094
983.346 .0251865
983.954 .0251639
984.562 .0251420
985.169 .0251202
985.775 .0250987
986.382 .0250775
986.988 .0250568
987.594 .0250362
988.199 .0250161
988.804 .0249966
989.409 .0249783
990.013 .0249614
990.617 .0249463
991.221 .0249327
991.824 .0249206
992.427 .0249095
993.030 .0248992
993.632 .0248893
994.234 .0248799
994.836 .0248706
995.438 .0248616
996.039 .0248529
996.640 .0248440
997.240 .0248352
997.840 .0248267
998.440 .0248184
999.040 .0248094
999.639 .0247992
1000.238 .0247881
1000.836 .0247755
1001.435 .0247618
1002.033 .0247471
1002.630 .0247320
1003.228 .0247172
1003.825 .0247025
1004.422 .0246882
1005.018 .0246750
1005.614 .0246628
1006.210 .0246512
1006.806 .0246398
1007.401 .0246289
1007.996 .0246179
1008.591 .0246062
1009.186 .0245952
1009.780 .0245842
1010.374 .0245731
1010.967 .0245620
1011.561 .0245506
1012.154 .0245393
1012.746 .0245272
1013.339 .0245144
1013.931 .0245009
1014.523 .0244869
1015.115 .0244724
1015.706 .0244579
1016.298 .0244444
1016.888 .0244327
1017.479 .0244224
1018.069 .0244138
1018.660 .0244067
1019.250 .0244002
1019.839 .0243944
1020.429 .0243894
1021.018 .0243851
1021.607 .0243821
1022.195 .0243804
1022.784 .0243808
1023.372 .0243826
1023.960 .0243865
1024.547 .0243918
1025.135 .0243979
1025.722 .0244041
1026.309 .0244092
1026.896 .0244138
1027.483 .0244180
1028.069 .0244216
1028.655 .0244251
1029.241 .0244292
1029.827 .0244340
1030.412 .0244389
1030.997 .0244438
1031.582 .0244484
1032.167 .0244519
1032.752 .0244539
1033.336 .0244544
1033.921 .0244534
1034.505 .0244520
1035.089 .0244500
1035.672 .0244478
1036.256 .0244466
1036.839 .0244451
1037.422 .0244437
1038.005 .0244428
1038.588 .0244423
1039.171 .0244419
1039.753 .0244415
1040.335 .0244419
1040.918 .0244423
1041.500 .0244427
1042.081 .0244433
1042.663 .0244437
1043.244 .0244445
1043.826 .0244455
1044.407 .0244454
1044.988 .0244452
1045.569 .0244447
1046.150 .0244430
1046.730 .0244404
1047.311 .0244363
1047.891 .0244309
1048.471 .0244249
1049.052 .0244187
1049.632 .0244130
1050.211 .0244084
1050.791 .0244061
1051.371 .0244060
1051.950 .0244083
1052.530 .0244125
1053.109 .0244187
1053.688 .0244258
1054.268 .0244335
1054.847 .0244409
1055.426 .0244485
1056.005 .0244559
1056.583 .0244632
1057.162 .0244708
1057.741 .0244782
1058.319 .0244857
1058.898 .0244933
1059.476 .0244988
1060.055 .0245029
1060.633 .0245051
1061.211 .0245050
1061.790 .0245030
1062.368 .0245009
1062.946 .0244985
1063.524 .0244976
1064.102 .0244991
1064.680 .0245024
1065.258 .0245074
1065.836 .0245150
1066.414 .0245237
1066.992 .0245329
1067.570 .0245431
1068.148 .0245541
1068.726 .0245637
1069.304 .0245741
1069.882 .0245832
1070.460 .0245914
1071.038 .0245990
1071.616 .0246054
1072.194 .0246101
1072.772 .0246138
1073.350 .0246159
1073.928 .0246169
1074.506 .0246173
1075.084 .0246187
1075.662 .0246198
1076.240 .0246222
1076.819 .0246260
1077.397 .0246318
1077.976 .0246388
1078.554 .0246484
1079.133 .0246593
1079.711 .0246730
1080.290 .0246869
1080.869 .0247019
1081.448 .0247168
1082.027 .0247313
1082.606 .0247436
1083.185 .0247539
1083.764 .0247626
1084.343 .0247707
1084.923 .0247768
1085.502 .0247838
1086.082 .0247918
1086.662 .0248017
1087.242 .0248114
1087.822 .0248211
1088.402 .0248300
1088.983 .0248399
1089.563 .0248482
1090.144 .0248568
1090.725 .0248665
1091.306 .0248778
1091.887 .0248920
1092.469 .0249094
1093.050 .0249300
1093.632 .0249544
1094.214 .0249824
1094.796 .0250135
1095.379 .0250456
1095.961 .0250788
1096.544 .0251128
1097.127 .0251474
1097.710 .0251816
1098.294 .0252153
1098.877 .0252481
1099.461 .0252811
1100.046 .0253140
1100.630 .0253462
1101.215 .0253791
1101.800 .0254120
1102.385 .0254451
1102.970 .0254774
1103.556 .0255076
1104.142 .0255374
1104.728 .0255656
1105.315 .0255936
1105.902 .0256209
1106.489 .0256469
1107.077 .0256737
1107.664 .0257008
1108.253 .0257294
1108.841 .0257595
1109.430 .0257927
1110.019 .0258286
1110.609 .0258681
1111.198 .0259116
1111.789 .0259583
1112.379 .0260092
1112.970 .0260634
1113.561 .0261203
1114.153 .0261791
1114.745 .0262390
1115.338 .0262989
1115.931 .0263582
1116.524 .0264189
1117.117 .0264798
1117.712 .0265435
1118.306 .0266092
1118.901 .0266771
1119.496 .0267441
1120.092 .0268097
1120.689 .0268715
1121.285 .0269271
1121.882 .0269765
1122.480 .0270210
1123.078 .0270626
1123.677 .0271024
1124.276 .0271423
1124.875 .0271861
1125.476 .0272331
1126.076 .0272848
1126.677 .0273390
1127.279 .0273915
1127.881 .0274423
1128.484 .0274914
1129.087 .0275367
1129.691 .0275838
1130.295 .0276350
1130.900 .0276892
1131.505 .0277510
1132.111 .0278215
1132.718 .0279010
1133.325 .0279897
1133.933 .0280884
1134.541 .0281942
1135.150 .0283058
1135.760 .0284181
1136.370 .0285287
1136.981 .0286375
1137.592 .0287456
1138.204 .0288496
1138.817 .0289545
1139.431 .0290679
1140.045 .0291910
1140.660 .0293112
1141.275 .0294166
1141.891 .0295160
1142.508 .0298811
1143.126 .0300354
1143.744 .0297273
1144.363 .0293993
1144.983 .0297380
