Measurement Sequence started on: 15-12-46-377
Integration time: 28
Scans to Average: 2 
>>>>>Begin Spectral Data<<<<<
432.689 .0000100
433.621 .0000100
434.552 .0000100
435.482 .0000100
436.410 .0000100
437.337 .0000100
438.262 .0267136
439.187 .0565347
440.110 .0935630
441.031 .1353279
441.952 .1757778
442.871 .2074931
443.789 .2247012
444.705 .2254290
445.621 .2121455
446.535 .1902073
447.447 .1654618
448.359 .1277954
449.269 .1091423
450.178 .0973925
451.086 .0891098
451.993 .0828575
452.898 .0779502
453.803 .0739600
454.706 .0706743
455.608 .0679020
456.508 .0655379
457.408 .0635044
458.306 .0617313
459.204 .0601881
460.100 .0588198
460.995 .0576048
461.888 .0565121
462.781 .0555027
463.673 .0545468
464.563 .0536447
465.452 .0527788
466.340 .0519415
467.228 .0511538
468.114 .0504160
468.999 .0497375
469.882 .0491157
470.765 .0485516
471.647 .0480381
472.528 .0475751
473.407 .0471552
474.286 .0467754
475.163 .0464340
476.040 .0461362
476.915 .0458828
477.790 .0456721
478.663 .0455017
479.535 .0453761
480.407 .0452902
481.277 .0452349
482.147 .0451933
483.015 .0451643
483.883 .0451352
484.749 .0451101
485.615 .0450880
486.479 .0450693
487.343 .0450600
488.206 .0450662
489.067 .0450782
489.928 .0450999
490.788 .0451277
491.647 .0451566
492.505 .0451851
493.362 .0452205
494.218 .0452538
495.073 .0452879
495.928 .0453408
496.781 .0454144
497.634 .0455196
498.486 .0456674
499.337 .0458486
500.187 .0460626
501.036 .0463103
501.884 .0465925
502.731 .0468888
503.578 .0472088
504.424 .0475499
505.268 .0479092
506.113 .0482955
506.956 .0487112
507.798 .0491664
508.640 .0496818
509.480 .0502524
510.320 .0508742
511.160 .0515555
511.998 .0522961
512.836 .0530926
513.672 .0539634
514.508 .0549031
515.344 .0559367
516.178 .0570904
517.012 .0584315
517.845 .0599885
518.677 .0618051
519.508 .0639090
520.339 .0663495
521.169 .0691842
521.998 .0724291
522.826 .0761128
523.654 .0802810
524.481 .0849415
525.307 .0901775
526.133 .0959518
526.958 .1022591
527.782 .1090479
528.605 .1162032
529.428 .1235677
530.250 .1306500
531.072 .1371714
531.892 .1427840
532.712 .1471946
533.532 .1501856
534.350 .1514784
535.168 .1510378
535.986 .1489428
536.802 .1453303
537.618 .1404793
538.434 .1346146
539.249 .1281825
540.063 .1214039
540.876 .1145535
541.689 .1078617
542.501 .1015235
543.313 .0956987
544.124 .0904182
544.934 .0856334
545.744 .0813014
546.553 .0773528
547.361 .0738164
548.169 .0706889
548.976 .0678836
549.783 .0653674
550.589 .0631062
551.395 .0610456
552.200 .0591736
553.004 .0574568
553.808 .0558678
554.611 .0544083
555.414 .0530604
556.216 .0518182
557.018 .0506806
557.819 .0496488
558.619 .0487052
559.419 .0478368
560.218 .0470474
561.017 .0463201
561.815 .0456304
562.613 .0449732
563.410 .0443445
564.207 .0437487
565.003 .0431806
565.799 .0426362
566.594 .0421194
567.388 .0416362
568.182 .0411796
568.976 .0407461
569.769 .0403345
570.562 .0399384
571.354 .0395454
572.145 .0391523
572.936 .0387525
573.727 .0383427
574.517 .0379256
575.307 .0375133
576.096 .0371119
576.885 .0367244
577.673 .0363515
578.461 .0359968
579.248 .0356667
580.035 .0353566
580.821 .0350583
581.607 .0347770
582.392 .0345086
583.177 .0342542
583.962 .0340141
584.746 .0337931
585.529 .0335915
586.313 .0334129
587.095 .0332574
587.878 .0331224
588.660 .0330051
589.441 .0329039
590.222 .0328126
591.003 .0327306
591.783 .0326541
592.563 .0325813
593.342 .0325131
594.121 .0324475
594.899 .0323827
595.678 .0323196
596.455 .0322574
597.233 .0321957
598.009 .0321339
598.786 .0320736
599.562 .0320143
600.338 .0319557
601.113 .0318980
601.888 .0318413
602.663 .0317855
603.437 .0317314
604.211 .0316785
604.984 .0316263
605.757 .0315758
606.530 .0315254
607.302 .0314767
608.074 .0314299
608.845 .0313844
609.616 .0313400
610.387 .0312972
611.158 .0312556
611.928 .0312139
612.697 .0311723
613.467 .0311322
614.236 .0310925
615.004 .0310537
615.773 .0310160
616.541 .0309797
617.308 .0309458
618.076 .0309149
618.843 .0308863
619.609 .0308618
620.375 .0308412
621.141 .0308243
621.907 .0308110
622.672 .0308015
623.437 .0307941
624.202 .0307881
624.966 .0307831
625.730 .0307786
626.493 .0307731
627.257 .0307673
628.020 .0307603
628.782 .0307527
629.545 .0307435
630.307 .0307324
631.068 .0307201
631.830 .0307062
632.591 .0306894
633.352 .0306700
634.112 .0306484
634.872 .0306254
635.632 .0306015
636.392 .0305784
637.151 .0305567
637.910 .0305369
638.668 .0305188
639.427 .0305014
640.185 .0304847
640.943 .0304686
641.700 .0304514
642.457 .0304338
643.214 .0304160
643.971 .0303972
644.727 .0303784
645.483 .0303610
646.239 .0303450
646.994 .0303293
647.750 .0303146
648.505 .0302998
649.259 .0302835
650.014 .0302663
650.768 .0302470
651.521 .0302260
652.275 .0302041
653.028 .0301800
653.781 .0301542
654.534 .0301280
655.286 .0301015
656.039 .0300744
656.791 .0300476
657.542 .0300209
658.294 .0299935
659.045 .0299656
659.796 .0299373
660.546 .0299079
661.297 .0298778
662.047 .0298472
662.796 .0298160
663.546 .0297846
664.295 .0297529
665.044 .0297218
665.793 .0296916
666.542 .0296625
667.290 .0296343
668.038 .0296063
668.786 .0295784
669.533 .0295499
670.281 .0295204
671.028 .0294900
671.774 .0294593
672.521 .0294286
673.267 .0293982
674.013 .0293689
674.759 .0293411
675.505 .0293150
676.250 .0292910
676.995 .0292688
677.740 .0292480
678.484 .0292279
679.229 .0292085
679.973 .0291893
680.717 .0291707
681.460 .0291530
682.204 .0291361
682.947 .0291201
683.690 .0291048
684.433 .0290905
685.175 .0290772
685.917 .0290652
686.659 .0290544
687.401 .0290444
688.142 .0290349
688.884 .0290258
689.625 .0290167
690.365 .0290075
691.106 .0289978
691.846 .0289884
692.586 .0289788
693.326 .0289698
694.066 .0289612
694.805 .0289536
695.545 .0289476
696.284 .0289426
697.022 .0289372
697.761 .0289310
698.499 .0289235
699.237 .0289145
699.975 .0289034
700.713 .0288916
701.450 .0288788
702.187 .0288663
702.924 .0288541
703.661 .0288430
704.397 .0288329
705.133 .0288240
705.869 .0288158
706.605 .0288079
707.341 .0287994
708.076 .0287902
708.811 .0287803
709.546 .0287703
710.281 .0287598
711.015 .0287489
711.749 .0287371
712.483 .0287247
713.217 .0287107
713.950 .0286955
714.684 .0286786
715.417 .0286604
716.150 .0286412
716.882 .0286211
717.615 .0286005
718.347 .0285792
719.079 .0285578
719.811 .0285361
720.542 .0285138
721.273 .0284912
722.005 .0284674
722.735 .0284430
723.466 .0284183
724.196 .0283934
724.927 .0283686
725.656 .0283440
726.386 .0283202
727.116 .0282965
727.845 .0282735
728.574 .0282507
729.303 .0282282
730.031 .0282056
730.760 .0281832
731.488 .0281602
732.216 .0281372
732.944 .0281143
733.671 .0280912
734.398 .0280688
735.125 .0280473
735.852 .0280264
736.579 .0280062
737.305 .0279868
738.031 .0279684
738.757 .0279501
739.483 .0279320
740.208 .0279134
740.933 .0278948
741.658 .0278757
742.383 .0278561
743.108 .0278361
743.832 .0278162
744.556 .0277965
745.280 .0277769
746.004 .0277575
746.727 .0277383
747.450 .0277195
748.173 .0277010
748.896 .0276827
749.618 .0276649
750.340 .0276471
751.062 .0276298
751.784 .0276132
752.506 .0275972
753.227 .0275816
753.948 .0275662
754.669 .0275513
755.389 .0275364
756.110 .0275214
756.830 .0275062
757.550 .0274910
758.269 .0274760
758.989 .0274605
759.708 .0274446
760.427 .0274287
761.146 .0274132
761.864 .0273978
762.582 .0273828
763.300 .0273690
764.018 .0273570
764.736 .0273462
765.453 .0273370
766.170 .0273296
766.887 .0273241
767.603 .0273199
768.320 .0273170
769.036 .0273158
769.751 .0273157
770.467 .0273170
771.182 .0273193
771.897 .0273221
772.612 .0273255
773.327 .0273290
774.041 .0273319
774.755 .0273348
775.469 .0273373
776.183 .0273392
776.896 .0273408
777.609 .0273428
778.322 .0273446
779.035 .0273463
779.747 .0273483
780.459 .0273504
781.171 .0273525
781.882 .0273551
782.594 .0273576
783.305 .0273604
784.016 .0273639
784.726 .0273678
785.436 .0273721
786.147 .0273772
786.856 .0273830
787.566 .0273892
788.275 .0273958
788.984 .0274027
789.693 .0274089
790.401 .0274143
791.110 .0274186
791.818 .0274213
792.525 .0274220
793.233 .0274204
793.940 .0274166
794.647 .0274111
795.353 .0274047
796.060 .0273975
796.766 .0273898
797.472 .0273818
798.177 .0273733
798.883 .0273645
799.588 .0273546
800.292 .0273438
800.997 .0273321
801.701 .0273194
802.405 .0273057
803.109 .0272912
803.812 .0272764
804.515 .0272622
805.218 .0272481
805.921 .0272340
806.623 .0272198
807.325 .0272053
808.027 .0271904
808.728 .0271747
809.429 .0271578
810.130 .0271394
810.831 .0271191
811.531 .0270968
812.231 .0270720
812.931 .0270447
813.630 .0270155
814.330 .0269847
815.029 .0269529
815.727 .0269201
816.426 .0268867
817.124 .0268537
817.821 .0268209
818.519 .0267891
819.216 .0267583
819.913 .0267284
820.609 .0266995
821.306 .0266717
822.002 .0266452
822.697 .0266198
823.393 .0265959
824.088 .0265735
824.783 .0265521
825.477 .0265315
826.171 .0265116
826.865 .0264922
827.559 .0264738
828.252 .0264561
828.945 .0264383
829.638 .0264205
830.330 .0264028
831.023 .0263845
831.714 .0263658
832.406 .0263468
833.097 .0263275
833.788 .0263076
834.479 .0262881
835.169 .0262689
835.859 .0262508
836.548 .0262338
837.238 .0262179
837.927 .0262028
838.615 .0261882
839.304 .0261739
839.992 .0261598
840.680 .0261464
841.367 .0261336
842.054 .0261213
842.741 .0261098
843.428 .0260991
844.114 .0260895
844.800 .0260810
845.485 .0260728
846.170 .0260646
846.855 .0260559
847.540 .0260464
848.224 .0260363
848.908 .0260263
849.592 .0260163
850.275 .0260069
850.958 .0259980
851.641 .0259892
852.323 .0259801
853.005 .0259708
853.687 .0259600
854.368 .0259482
855.049 .0259356
855.730 .0259221
856.410 .0259082
857.090 .0258954
857.769 .0258839
858.449 .0258737
859.128 .0258651
859.806 .0258576
860.485 .0258510
861.163 .0258455
861.840 .0258407
862.518 .0258368
863.195 .0258344
863.871 .0258334
864.548 .0258338
865.224 .0258360
865.899 .0258396
866.574 .0258441
867.249 .0258496
867.924 .0258554
868.598 .0258613
869.272 .0258671
869.946 .0258735
870.619 .0258802
871.292 .0258875
871.964 .0258951
872.636 .0259031
873.308 .0259112
873.979 .0259189
874.651 .0259259
875.321 .0259328
875.992 .0259394
876.662 .0259462
877.331 .0259535
878.001 .0259620
878.670 .0259712
879.338 .0259814
880.007 .0259921
880.675 .0260032
881.342 .0260139
882.009 .0260238
882.676 .0260329
883.343 .0260415
884.009 .0260498
884.675 .0260582
885.340 .0260673
886.005 .0260772
886.670 .0260875
887.334 .0260981
887.998 .0261086
888.662 .0261188
889.325 .0261279
889.988 .0261358
890.650 .0261426
891.312 .0261483
891.974 .0261534
892.636 .0261589
893.297 .0261648
893.957 .0261710
894.618 .0261775
895.278 .0261838
895.937 .0261893
896.596 .0261939
897.255 .0261973
897.914 .0261996
898.572 .0262010
899.230 .0262016
899.887 .0262009
900.544 .0261998
901.201 .0261978
901.857 .0261944
902.513 .0261893
903.168 .0261815
903.823 .0261707
904.478 .0261569
905.132 .0261402
905.786 .0261215
906.440 .0261011
907.093 .0260800
907.746 .0260582
908.399 .0260362
909.051 .0260141
909.703 .0259919
910.354 .0259695
911.005 .0259467
911.656 .0259229
912.306 .0258981
912.956 .0258729
913.605 .0258471
914.254 .0258216
914.903 .0257961
915.551 .0257715
916.199 .0257479
916.847 .0257249
917.494 .0257024
918.141 .0256801
918.788 .0256580
919.434 .0256353
920.079 .0256113
920.725 .0255861
921.370 .0255594
922.014 .0255314
922.658 .0255020
923.302 .0254718
923.946 .0254413
924.589 .0254102
925.231 .0253787
925.873 .0253463
926.515 .0253133
927.157 .0252791
927.798 .0252437
928.439 .0252067
929.079 .0251686
929.719 .0251293
930.359 .0250889
930.998 .0250480
931.637 .0250071
932.275 .0249663
932.913 .0249261
933.551 .0248867
934.188 .0248483
934.825 .0248106
935.462 .0247744
936.098 .0247393
936.733 .0247057
937.369 .0246736
938.004 .0246429
938.638 .0246135
939.273 .0245858
939.907 .0245594
940.540 .0245345
941.173 .0245111
941.806 .0244889
942.438 .0244675
943.070 .0244472
943.702 .0244271
944.333 .0244072
944.964 .0243875
945.594 .0243677
946.224 .0243482
946.854 .0243296
947.483 .0243120
948.112 .0242953
948.741 .0242794
949.369 .0242642
949.996 .0242490
950.624 .0242334
951.251 .0242169
951.878 .0241996
952.504 .0241819
953.130 .0241635
953.755 .0241452
954.380 .0241272
955.005 .0241102
955.629 .0240940
956.253 .0240784
956.877 .0240633
957.500 .0240484
958.123 .0240339
958.746 .0240193
959.368 .0240052
959.990 .0239919
960.611 .0239790
961.232 .0239673
961.853 .0239571
962.473 .0239482
963.093 .0239405
963.712 .0239346
964.331 .0239292
964.950 .0239245
965.569 .0239203
966.187 .0239161
966.804 .0239122
967.422 .0239089
968.039 .0239056
968.655 .0239023
969.272 .0238997
969.887 .0238975
970.503 .0238959
971.118 .0238958
971.733 .0238964
972.347 .0238981
972.961 .0239007
973.575 .0239036
974.188 .0239065
974.801 .0239095
975.414 .0239122
976.026 .0239146
976.638 .0239171
977.250 .0239197
977.861 .0239225
978.472 .0239263
979.083 .0239305
979.693 .0239348
980.303 .0239390
980.912 .0239428
981.521 .0239455
982.130 .0239481
982.738 .0239505
983.346 .0239530
983.954 .0239562
984.562 .0239602
985.169 .0239647
985.775 .0239701
986.382 .0239763
986.988 .0239833
987.594 .0239906
988.199 .0239987
988.804 .0240073
989.409 .0240165
990.013 .0240266
990.617 .0240377
991.221 .0240492
991.824 .0240617
992.427 .0240745
993.030 .0240879
993.632 .0241021
994.234 .0241174
994.836 .0241335
995.438 .0241507
996.039 .0241683
996.640 .0241860
997.240 .0242040
997.840 .0242225
998.440 .0242408
999.040 .0242595
999.639 .0242790
1000.238 .0242987
1000.836 .0243186
1001.435 .0243384
1002.033 .0243584
1002.630 .0243776
1003.228 .0243959
1003.825 .0244134
1004.422 .0244304
1005.018 .0244479
1005.614 .0244664
1006.210 .0244860
1006.806 .0245068
1007.401 .0245278
1007.996 .0245484
1008.591 .0245684
1009.186 .0245876
1009.780 .0246048
1010.374 .0246209
1010.967 .0246360
1011.561 .0246510
1012.154 .0246654
1012.746 .0246801
1013.339 .0246953
1013.931 .0247104
1014.523 .0247248
1015.115 .0247374
1015.706 .0247485
1016.298 .0247584
1016.888 .0247667
1017.479 .0247748
1018.069 .0247835
1018.660 .0247936
1019.250 .0248045
1019.839 .0248175
1020.429 .0248320
1021.018 .0248474
1021.607 .0248633
1022.195 .0248795
1022.784 .0248951
1023.372 .0249104
1023.960 .0249257
1024.547 .0249417
1025.135 .0249592
1025.722 .0249783
1026.309 .0249984
1026.896 .0250201
1027.483 .0250421
1028.069 .0250635
1028.655 .0250829
1029.241 .0251003
1029.827 .0251143
1030.412 .0251252
1030.997 .0251341
1031.582 .0251409
1032.167 .0251462
1032.752 .0251507
1033.336 .0251538
1033.921 .0251554
1034.505 .0251545
1035.089 .0251505
1035.672 .0251431
1036.256 .0251328
1036.839 .0251204
1037.422 .0251067
1038.005 .0250936
1038.588 .0250818
1039.171 .0250723
1039.753 .0250654
1040.335 .0250600
1040.918 .0250550
1041.500 .0250504
1042.081 .0250450
1042.663 .0250384
1043.244 .0250302
1043.826 .0250217
1044.407 .0250138
1044.988 .0250070
1045.569 .0250016
1046.150 .0249976
1046.730 .0249947
1047.311 .0249927
1047.891 .0249893
1048.471 .0249846
1049.052 .0249778
1049.632 .0249692
1050.211 .0249598
1050.791 .0249496
1051.371 .0249387
1051.950 .0249284
1052.530 .0249179
1053.109 .0249072
1053.688 .0248937
1054.268 .0248777
1054.847 .0248587
1055.426 .0248369
1056.005 .0248125
1056.583 .0247859
1057.162 .0247578
1057.741 .0247302
1058.319 .0247022
1058.898 .0246755
1059.476 .0246491
1060.055 .0246239
1060.633 .0245994
1061.211 .0245759
1061.790 .0245530
1062.368 .0245319
1062.946 .0245131
1063.524 .0244990
1064.102 .0244876
1064.680 .0244790
1065.258 .0244723
1065.836 .0244668
1066.414 .0244615
1066.992 .0244547
1067.570 .0244462
1068.148 .0244357
1068.726 .0244221
1069.304 .0244066
1069.882 .0243889
1070.460 .0243708
1071.038 .0243528
1071.616 .0243357
1072.194 .0243188
1072.772 .0243023
1073.350 .0242864
1073.928 .0242708
1074.506 .0242560
1075.084 .0242421
1075.662 .0242285
1076.240 .0242166
1076.819 .0242073
1077.397 .0241996
1077.976 .0241934
1078.554 .0241891
1079.133 .0241847
1079.711 .0241793
1080.290 .0241725
1080.869 .0241631
1081.448 .0241511
1082.027 .0241379
1082.606 .0241228
1083.185 .0241071
1083.764 .0240928
1084.343 .0240802
1084.923 .0240690
1085.502 .0240587
1086.082 .0240485
1086.662 .0240383
1087.242 .0240284
1087.822 .0240183
1088.402 .0240074
1088.983 .0239973
1089.563 .0239885
1090.144 .0239813
1090.725 .0239772
1091.306 .0239754
1091.887 .0239765
1092.469 .0239798
1093.050 .0239826
1093.632 .0239848
1094.214 .0239872
1094.796 .0239892
1095.379 .0239919
1095.961 .0239955
1096.544 .0240000
1097.127 .0240053
1097.710 .0240139
1098.294 .0240250
1098.877 .0240394
1099.461 .0240567
1100.046 .0240748
1100.630 .0240927
1101.215 .0241093
1101.800 .0241213
1102.385 .0241277
1102.970 .0241302
1103.556 .0241292
1104.142 .0241250
1104.728 .0241223
1105.315 .0241228
1105.902 .0241292
1106.489 .0241414
1107.077 .0241584
1107.664 .0241774
1108.253 .0241980
1108.841 .0242175
1109.430 .0242311
1110.019 .0242417
1110.609 .0242497
1111.198 .0242563
1111.789 .0242663
1112.379 .0242819
1112.970 .0243049
1113.561 .0243351
1114.153 .0243730
1114.745 .0244135
1115.338 .0244557
1115.931 .0244991
1116.524 .0245387
1117.117 .0245759
1117.712 .0246119
1118.306 .0246484
1118.901 .0246883
1119.496 .0247359
1120.092 .0247901
1120.689 .0248503
1121.285 .0249159
1121.882 .0249837
1122.480 .0250542
1123.078 .0251253
1123.677 .0251971
1124.276 .0252683
1124.875 .0253398
1125.476 .0254112
1126.076 .0254811
1126.677 .0255528
1127.279 .0256248
1127.881 .0256963
1128.484 .0257677
1129.087 .0258332
1129.691 .0259007
1130.295 .0259689
1130.900 .0260414
1131.505 .0261177
1132.111 .0261978
1132.718 .0262810
1133.325 .0263681
1133.933 .0264546
1134.541 .0265382
1135.150 .0266174
1135.760 .0266964
1136.370 .0267707
1136.981 .0268467
1137.592 .0269237
1138.204 .0270072
1138.817 .0271020
1139.431 .0272055
1140.045 .0273194
1140.660 .0274417
1141.275 .0275900
1141.891 .0277491
1142.508 .0278239
1143.126 .0280751
1143.744 .0281097
1144.363 .0287710
1144.983 .0287281
