Measurement Sequence started on: 15-12-46-377
Integration time: 28
Scans to Average: 2 
>>>>>Begin Spectral Data<<<<<
432.689 .0000100
433.621 .0000100
434.552 .0000100
435.482 .0000100
436.410 .0000100
437.337 .0000100
438.262 .0279891
439.187 .0593884
440.110 .0984665
441.031 .1425729
441.952 .1854395
442.871 .2192601
443.789 .2378602
444.705 .2391098
445.621 .2255340
446.535 .2027344
447.447 .1767977
448.359 .1371473
449.269 .1172210
450.178 .1044506
451.086 .0953298
451.993 .0883004
452.898 .0827014
453.803 .0781440
454.706 .0743817
455.608 .0711884
456.508 .0684372
457.408 .0660771
458.306 .0639966
459.204 .0621287
460.100 .0604499
460.995 .0589309
461.888 .0575541
462.781 .0563030
463.673 .0551687
464.563 .0541498
465.452 .0532405
466.340 .0523989
467.228 .0516246
468.114 .0509133
468.999 .0502595
469.882 .0496519
470.765 .0490960
471.647 .0485839
472.528 .0481158
473.407 .0476902
474.286 .0473047
475.163 .0469536
476.040 .0466435
476.915 .0463647
477.790 .0461155
478.663 .0459048
479.535 .0457246
480.407 .0455704
481.277 .0454503
482.147 .0453552
483.015 .0452786
483.883 .0452116
484.749 .0451522
485.615 .0451083
486.479 .0450804
487.343 .0450725
488.206 .0450851
489.067 .0451212
489.928 .0451786
490.788 .0452575
491.647 .0453540
492.505 .0454778
493.362 .0456168
494.218 .0457795
495.073 .0459557
495.928 .0461569
496.781 .0463761
497.634 .0466152
498.486 .0468763
499.337 .0471555
500.187 .0474396
501.036 .0477419
501.884 .0480627
502.731 .0484200
503.578 .0488140
504.424 .0492557
505.268 .0497299
506.113 .0502387
506.956 .0507616
507.798 .0513055
508.640 .0518597
509.480 .0524448
510.320 .0530656
511.160 .0537456
511.998 .0545003
512.836 .0553633
513.672 .0563420
514.508 .0574481
515.344 .0586605
516.178 .0600126
517.012 .0614941
517.845 .0631538
518.677 .0650334
519.508 .0671701
520.339 .0696311
521.169 .0725239
521.998 .0758262
522.826 .0796184
523.654 .0839166
524.481 .0887137
525.307 .0940036
526.133 .0997797
526.958 .1059041
527.782 .1123481
528.605 .1190550
529.428 .1259211
530.250 .1324131
531.072 .1383789
531.892 .1434213
532.712 .1472398
533.532 .1496183
534.350 .1503468
535.168 .1493066
535.986 .1467076
536.802 .1426194
537.618 .1373130
538.434 .1310835
539.249 .1244786
540.063 .1176392
540.876 .1108856
541.689 .1044013
542.501 .0983231
543.313 .0927747
544.124 .0878149
544.934 .0833244
545.744 .0792947
546.553 .0756459
547.361 .0723788
548.169 .0694745
548.976 .0668920
549.783 .0645859
550.589 .0625506
551.395 .0607196
552.200 .0590407
553.004 .0574938
553.808 .0560458
554.611 .0547054
555.414 .0534978
556.216 .0523892
557.018 .0513905
557.819 .0505004
558.619 .0496820
559.419 .0489150
560.218 .0481963
561.017 .0475037
561.815 .0468208
562.613 .0461577
563.410 .0455060
564.207 .0448621
565.003 .0442516
565.799 .0436705
566.594 .0431123
567.388 .0425908
568.182 .0420913
568.976 .0415921
569.769 .0410991
570.562 .0406071
571.354 .0401098
572.145 .0396174
572.936 .0391258
573.727 .0386439
574.517 .0381731
575.307 .0377234
576.096 .0372916
576.885 .0368812
577.673 .0365010
578.461 .0361409
579.248 .0358052
580.035 .0354918
580.821 .0351977
581.607 .0349259
582.392 .0346741
583.177 .0344434
583.962 .0342345
584.746 .0340455
585.529 .0338755
586.313 .0337228
587.095 .0335844
587.878 .0334570
588.660 .0333410
589.441 .0332356
590.222 .0331400
591.003 .0330533
591.783 .0329761
592.563 .0329039
593.342 .0328380
594.121 .0327746
594.899 .0327130
595.678 .0326532
596.455 .0325946
597.233 .0325367
598.009 .0324792
598.786 .0324243
599.562 .0323717
600.338 .0323217
601.113 .0322753
601.888 .0322297
602.663 .0321855
603.437 .0321421
604.211 .0320983
604.984 .0320552
605.757 .0320133
606.530 .0319730
607.302 .0319345
608.074 .0318988
608.845 .0318654
609.616 .0318344
610.387 .0318060
611.158 .0317800
611.928 .0317546
612.697 .0317309
613.467 .0317071
614.236 .0316836
615.004 .0316614
615.773 .0316399
616.541 .0316190
617.308 .0315993
618.076 .0315807
618.843 .0315631
619.609 .0315457
620.375 .0315296
621.141 .0315130
621.907 .0314965
622.672 .0314793
623.437 .0314604
624.202 .0314402
624.966 .0314195
625.730 .0313971
626.493 .0313732
627.257 .0313480
628.020 .0313206
628.782 .0312907
629.545 .0312586
630.307 .0312243
631.068 .0311881
631.830 .0311507
632.591 .0311120
633.352 .0310724
634.112 .0310330
634.872 .0309934
635.632 .0309538
636.392 .0309151
637.151 .0308773
637.910 .0308399
638.668 .0308036
639.427 .0307697
640.185 .0307385
640.943 .0307107
641.700 .0306862
642.457 .0306647
643.214 .0306461
643.971 .0306288
644.727 .0306129
645.483 .0305971
646.239 .0305817
646.994 .0305654
647.750 .0305486
648.505 .0305310
649.259 .0305133
650.014 .0304959
650.768 .0304790
651.521 .0304626
652.275 .0304459
653.028 .0304291
653.781 .0304115
654.534 .0303928
655.286 .0303729
656.039 .0303514
656.791 .0303294
657.542 .0303056
658.294 .0302811
659.045 .0302559
659.796 .0302305
660.546 .0302052
661.297 .0301794
662.047 .0301538
662.796 .0301275
663.546 .0301009
664.295 .0300737
665.044 .0300465
665.793 .0300188
666.542 .0299909
667.290 .0299638
668.038 .0299372
668.786 .0299108
669.533 .0298847
670.281 .0298592
671.028 .0298345
671.774 .0298102
672.521 .0297869
673.267 .0297643
674.013 .0297443
674.759 .0297254
675.505 .0297078
676.250 .0296917
676.995 .0296769
677.740 .0296624
678.484 .0296480
679.229 .0296335
679.973 .0296188
680.717 .0296039
681.460 .0295891
682.204 .0295740
682.947 .0295589
683.690 .0295439
684.433 .0295286
685.175 .0295127
685.917 .0294965
686.659 .0294793
687.401 .0294617
688.142 .0294435
688.884 .0294245
689.625 .0294051
690.365 .0293852
691.106 .0293654
691.846 .0293454
692.586 .0293254
693.326 .0293057
694.066 .0292863
694.805 .0292671
695.545 .0292479
696.284 .0292290
697.022 .0292099
697.761 .0291907
698.499 .0291711
699.237 .0291516
699.975 .0291318
700.713 .0291126
701.450 .0290943
702.187 .0290768
702.924 .0290610
703.661 .0290462
704.397 .0290324
705.133 .0290190
705.869 .0290054
706.605 .0289918
707.341 .0289775
708.076 .0289630
708.811 .0289477
709.546 .0289326
710.281 .0289178
711.015 .0289030
711.749 .0288880
712.483 .0288727
713.217 .0288568
713.950 .0288396
714.684 .0288210
715.417 .0288013
716.150 .0287809
716.882 .0287604
717.615 .0287400
718.347 .0287203
719.079 .0287013
719.811 .0286834
720.542 .0286663
721.273 .0286497
722.005 .0286336
722.735 .0286172
723.466 .0286009
724.196 .0285845
724.927 .0285682
725.656 .0285516
726.386 .0285351
727.116 .0285185
727.845 .0285015
728.574 .0284835
729.303 .0284650
730.031 .0284459
730.760 .0284267
731.488 .0284076
732.216 .0283892
732.944 .0283720
733.671 .0283565
734.398 .0283425
735.125 .0283300
735.852 .0283190
736.579 .0283091
737.305 .0283001
738.031 .0282919
738.757 .0282845
739.483 .0282779
740.208 .0282717
740.933 .0282661
741.658 .0282607
742.383 .0282553
743.108 .0282493
743.832 .0282427
744.556 .0282350
745.280 .0282265
746.004 .0282165
746.727 .0282052
747.450 .0281926
748.173 .0281791
748.896 .0281642
749.618 .0281486
750.340 .0281320
751.062 .0281150
751.784 .0280980
752.506 .0280812
753.227 .0280645
753.948 .0280486
754.669 .0280333
755.389 .0280181
756.110 .0280023
756.830 .0279867
757.550 .0279700
758.269 .0279526
758.989 .0279350
759.708 .0279172
760.427 .0278992
761.146 .0278819
761.864 .0278649
762.582 .0278481
763.300 .0278312
764.018 .0278140
764.736 .0277957
765.453 .0277770
766.170 .0277579
766.887 .0277382
767.603 .0277195
768.320 .0277025
769.036 .0276867
769.751 .0276724
770.467 .0276597
771.182 .0276477
771.897 .0276359
772.612 .0276236
773.327 .0276105
774.041 .0275967
774.755 .0275824
775.469 .0275679
776.183 .0275539
776.896 .0275420
777.609 .0275316
778.322 .0275225
779.035 .0275150
779.747 .0275080
780.459 .0275011
781.171 .0274934
781.882 .0274849
782.594 .0274754
783.305 .0274656
784.016 .0274562
784.726 .0274473
785.436 .0274398
786.147 .0274338
786.856 .0274293
787.566 .0274260
788.275 .0274228
788.984 .0274191
789.693 .0274145
790.401 .0274090
791.110 .0274017
791.818 .0273930
792.525 .0273834
793.233 .0273737
793.940 .0273638
794.647 .0273544
795.353 .0273454
796.060 .0273368
796.766 .0273281
797.472 .0273187
798.177 .0273081
798.883 .0272959
799.588 .0272819
800.292 .0272665
800.997 .0272497
801.701 .0272320
802.405 .0272140
803.109 .0271969
803.812 .0271807
804.515 .0271655
805.218 .0271505
805.921 .0271361
806.623 .0271215
807.325 .0271065
808.027 .0270906
808.728 .0270745
809.429 .0270581
810.130 .0270416
810.831 .0270254
811.531 .0270099
812.231 .0269945
812.931 .0269793
813.630 .0269638
814.330 .0269479
815.029 .0269311
815.727 .0269135
816.426 .0268950
817.124 .0268767
817.821 .0268580
818.519 .0268394
819.216 .0268211
819.913 .0268039
820.609 .0267874
821.306 .0267720
822.002 .0267584
822.697 .0267463
823.393 .0267361
824.088 .0267278
824.783 .0267206
825.477 .0267149
826.171 .0267101
826.865 .0267061
827.559 .0267026
828.252 .0266994
828.945 .0266969
829.638 .0266949
830.330 .0266936
831.023 .0266931
831.714 .0266928
832.406 .0266930
833.097 .0266922
833.788 .0266900
834.479 .0266862
835.169 .0266805
835.859 .0266732
836.548 .0266645
837.238 .0266553
837.927 .0266459
838.615 .0266364
839.304 .0266275
839.992 .0266189
840.680 .0266105
841.367 .0266020
842.054 .0265932
842.741 .0265839
843.428 .0265743
844.114 .0265646
844.800 .0265556
845.485 .0265475
846.170 .0265400
846.855 .0265330
847.540 .0265263
848.224 .0265201
848.908 .0265133
849.592 .0265061
850.275 .0264983
850.958 .0264897
851.641 .0264808
852.323 .0264710
853.005 .0264612
853.687 .0264509
854.368 .0264399
855.049 .0264284
855.730 .0264157
856.410 .0264019
857.090 .0263869
857.769 .0263710
858.449 .0263547
859.128 .0263383
859.806 .0263215
860.485 .0263046
861.163 .0262880
861.840 .0262719
862.518 .0262557
863.195 .0262395
863.871 .0262237
864.548 .0262082
865.224 .0261929
865.899 .0261783
866.574 .0261644
867.249 .0261518
867.924 .0261401
868.598 .0261298
869.272 .0261207
869.946 .0261130
870.619 .0261066
871.292 .0261016
871.964 .0260978
872.636 .0260947
873.308 .0260915
873.979 .0260883
874.651 .0260847
875.321 .0260801
875.992 .0260747
876.662 .0260691
877.331 .0260631
878.001 .0260572
878.670 .0260515
879.338 .0260464
880.007 .0260420
880.675 .0260380
881.342 .0260342
882.009 .0260304
882.676 .0260263
883.343 .0260219
884.009 .0260175
884.675 .0260138
885.340 .0260104
886.005 .0260077
886.670 .0260059
887.334 .0260049
887.998 .0260044
888.662 .0260043
889.325 .0260046
889.988 .0260046
890.650 .0260042
891.312 .0260035
891.974 .0260025
892.636 .0260017
893.297 .0260014
893.957 .0260017
894.618 .0260028
895.278 .0260048
895.937 .0260076
896.596 .0260110
897.255 .0260145
897.914 .0260179
898.572 .0260206
899.230 .0260223
899.887 .0260229
900.544 .0260220
901.201 .0260202
901.857 .0260179
902.513 .0260147
903.168 .0260102
903.823 .0260047
904.478 .0259980
905.132 .0259896
905.786 .0259795
906.440 .0259672
907.093 .0259526
907.746 .0259365
908.399 .0259190
909.051 .0259008
909.703 .0258826
910.354 .0258651
911.005 .0258482
911.656 .0258323
912.306 .0258173
912.956 .0258025
913.605 .0257880
914.254 .0257737
914.903 .0257588
915.551 .0257434
916.199 .0257278
916.847 .0257123
917.494 .0256973
918.141 .0256831
918.788 .0256696
919.434 .0256573
920.079 .0256461
920.725 .0256355
921.370 .0256250
922.014 .0256144
922.658 .0256029
923.302 .0255898
923.946 .0255756
924.589 .0255599
925.231 .0255433
925.873 .0255269
926.515 .0255109
927.157 .0254959
927.798 .0254820
928.439 .0254688
929.079 .0254557
929.719 .0254417
930.359 .0254266
930.998 .0254091
931.637 .0253897
932.275 .0253687
932.913 .0253468
933.551 .0253247
934.188 .0253039
934.825 .0252843
935.462 .0252662
936.098 .0252495
936.733 .0252336
937.369 .0252178
938.004 .0252018
938.638 .0251854
939.273 .0251685
939.907 .0251516
940.540 .0251357
941.173 .0251204
941.806 .0251073
942.438 .0250959
943.070 .0250858
943.702 .0250766
944.333 .0250680
944.964 .0250589
945.594 .0250494
946.224 .0250400
946.854 .0250306
947.483 .0250216
948.112 .0250140
948.741 .0250077
949.369 .0250028
949.996 .0249990
950.624 .0249958
951.251 .0249922
951.878 .0249883
952.504 .0249830
953.130 .0249762
953.755 .0249679
954.380 .0249587
955.005 .0249485
955.629 .0249378
956.253 .0249267
956.877 .0249156
957.500 .0249043
958.123 .0248925
958.746 .0248793
959.368 .0248651
959.990 .0248496
960.611 .0248331
961.232 .0248160
961.853 .0247989
962.473 .0247824
963.093 .0247667
963.712 .0247518
964.331 .0247384
964.950 .0247260
965.569 .0247148
966.187 .0247044
966.804 .0246956
967.422 .0246877
968.039 .0246802
968.655 .0246730
969.272 .0246659
969.887 .0246578
970.503 .0246488
971.118 .0246381
971.733 .0246263
972.347 .0246140
972.961 .0246017
973.575 .0245898
974.188 .0245790
974.801 .0245685
975.414 .0245582
976.026 .0245472
976.638 .0245352
977.250 .0245214
977.861 .0245062
978.472 .0244901
979.083 .0244734
979.693 .0244564
980.303 .0244398
980.912 .0244234
981.521 .0244079
982.130 .0243922
982.738 .0243763
983.346 .0243603
983.954 .0243438
984.562 .0243277
985.169 .0243123
985.775 .0242978
986.382 .0242846
986.988 .0242724
987.594 .0242610
988.199 .0242492
988.804 .0242373
989.409 .0242245
990.013 .0242113
990.617 .0241980
991.221 .0241847
991.824 .0241725
992.427 .0241620
993.030 .0241534
993.632 .0241466
994.234 .0241415
994.836 .0241377
995.438 .0241341
996.039 .0241309
996.640 .0241273
997.240 .0241242
997.840 .0241216
998.440 .0241200
999.040 .0241192
999.639 .0241198
1000.238 .0241212
1000.836 .0241232
1001.435 .0241254
1002.033 .0241272
1002.630 .0241284
1003.228 .0241286
1003.825 .0241273
1004.422 .0241254
1005.018 .0241222
1005.614 .0241189
1006.210 .0241152
1006.806 .0241122
1007.401 .0241090
1007.996 .0241056
1008.591 .0241030
1009.186 .0241006
1009.780 .0240984
1010.374 .0240964
1010.967 .0240947
1011.561 .0240934
1012.154 .0240923
1012.746 .0240911
1013.339 .0240897
1013.931 .0240887
1014.523 .0240873
1015.115 .0240852
1015.706 .0240829
1016.298 .0240802
1016.888 .0240772
1017.479 .0240747
1018.069 .0240732
1018.660 .0240720
1019.250 .0240722
1019.839 .0240729
1020.429 .0240744
1021.018 .0240766
1021.607 .0240795
1022.195 .0240828
1022.784 .0240875
1023.372 .0240936
1023.960 .0241008
1024.547 .0241096
1025.135 .0241204
1025.722 .0241316
1026.309 .0241440
1026.896 .0241566
1027.483 .0241686
1028.069 .0241793
1028.655 .0241895
1029.241 .0241979
1029.827 .0242059
1030.412 .0242135
1030.997 .0242207
1031.582 .0242275
1032.167 .0242346
1032.752 .0242408
1033.336 .0242465
1033.921 .0242519
1034.505 .0242566
1035.089 .0242603
1035.672 .0242640
1036.256 .0242668
1036.839 .0242692
1037.422 .0242714
1038.005 .0242741
1038.588 .0242762
1039.171 .0242793
1039.753 .0242827
1040.335 .0242870
1040.918 .0242920
1041.500 .0242979
1042.081 .0243036
1042.663 .0243093
1043.244 .0243143
1043.826 .0243185
1044.407 .0243209
1044.988 .0243227
1045.569 .0243237
1046.150 .0243246
1046.730 .0243254
1047.311 .0243266
1047.891 .0243280
1048.471 .0243301
1049.052 .0243319
1049.632 .0243336
1050.211 .0243349
1050.791 .0243361
1051.371 .0243376
1051.950 .0243403
1052.530 .0243436
1053.109 .0243477
1053.688 .0243520
1054.268 .0243573
1054.847 .0243631
1055.426 .0243685
1056.005 .0243725
1056.583 .0243749
1057.162 .0243760
1057.741 .0243745
1058.319 .0243713
1058.898 .0243678
1059.476 .0243643
1060.055 .0243617
1060.633 .0243606
1061.211 .0243612
1061.790 .0243645
1062.368 .0243702
1062.946 .0243763
1063.524 .0243824
1064.102 .0243880
1064.680 .0243920
1065.258 .0243947
1065.836 .0243977
1066.414 .0244009
1066.992 .0244049
1067.570 .0244122
1068.148 .0244209
1068.726 .0244311
1069.304 .0244417
1069.882 .0244515
1070.460 .0244581
1071.038 .0244616
1071.616 .0244615
1072.194 .0244585
1072.772 .0244541
1073.350 .0244499
1073.928 .0244466
1074.506 .0244461
1075.084 .0244482
1075.662 .0244532
1076.240 .0244604
1076.819 .0244706
1077.397 .0244811
1077.976 .0244930
1078.554 .0245051
1079.133 .0245187
1079.711 .0245322
1080.290 .0245462
1080.869 .0245602
1081.448 .0245730
1082.027 .0245851
1082.606 .0245968
1083.185 .0246082
1083.764 .0246209
1084.343 .0246328
1084.923 .0246459
1085.502 .0246592
1086.082 .0246727
1086.662 .0246851
1087.242 .0246956
1087.822 .0247048
1088.402 .0247117
1088.983 .0247170
1089.563 .0247221
1090.144 .0247278
1090.725 .0247353
1091.306 .0247451
1091.887 .0247563
1092.469 .0247703
1093.050 .0247860
1093.632 .0248026
1094.214 .0248199
1094.796 .0248392
1095.379 .0248601
1095.961 .0248830
1096.544 .0249083
1097.127 .0249361
1097.710 .0249651
1098.294 .0249951
1098.877 .0250257
1099.461 .0250561
1100.046 .0250870
1100.630 .0251166
1101.215 .0251439
1101.800 .0251716
1102.385 .0251980
1102.970 .0252241
1103.556 .0252484
1104.142 .0252711
1104.728 .0252926
1105.315 .0253109
1105.902 .0253272
1106.489 .0253414
1107.077 .0253558
1107.664 .0253714
1108.253 .0253871
1108.841 .0254046
1109.430 .0254228
1110.019 .0254424
1110.609 .0254626
1111.198 .0254837
1111.789 .0255050
1112.379 .0255268
1112.970 .0255470
1113.561 .0255662
1114.153 .0255873
1114.745 .0256078
1115.338 .0256301
1115.931 .0256555
1116.524 .0256837
1117.117 .0257160
1117.712 .0257530
1118.306 .0257976
1118.901 .0258488
1119.496 .0259059
1120.092 .0259677
1120.689 .0260323
1121.285 .0260991
1121.882 .0261648
1122.480 .0262301
1123.078 .0262960
1123.677 .0263623
1124.276 .0264255
1124.875 .0264896
1125.476 .0265529
1126.076 .0266181
1126.677 .0266840
1127.279 .0267482
1127.881 .0268105
1128.484 .0268694
1129.087 .0269217
1129.691 .0269701
1130.295 .0270119
1130.900 .0270523
1131.505 .0270925
1132.111 .0271390
1132.718 .0271919
1133.325 .0272533
1133.933 .0273258
1134.541 .0274133
1135.150 .0275055
1135.760 .0276030
1136.370 .0276979
1136.981 .0277938
1137.592 .0278846
1138.204 .0279741
1138.817 .0280626
1139.431 .0281593
1140.045 .0282540
1140.660 .0283556
1141.275 .0284479
1141.891 .0285580
1142.508 .0288321
1143.126 .0286605
1143.744 .0288683
1144.363 .0287100
1144.983 .0293413
