Measurement Sequence started on: 15-12-46-377
Integration time: 28
Scans to Average: 2 
>>>>>Begin Spectral Data<<<<<
432.689 .0000100
433.621 .0000100
434.552 .0000100
435.482 .0000100
436.410 .0000100
437.337 .0000100
438.262 .0275838
439.187 .0583239
440.110 .0964548
441.031 .1394514
441.952 .1810286
442.871 .2135930
443.789 .2311992
444.705 .2318660
445.621 .2181646
446.535 .1956557
447.447 .1703416
448.359 .1317208
449.269 .1127738
450.178 .1009074
451.086 .0925428
451.993 .0862289
452.898 .0812378
453.803 .0771612
454.706 .0737970
455.608 .0709734
456.508 .0685583
457.408 .0664954
458.306 .0646944
459.204 .0630882
460.100 .0616302
460.995 .0602927
461.888 .0590707
462.781 .0579295
463.673 .0568647
464.563 .0558698
465.452 .0549311
466.340 .0540435
467.228 .0532245
468.114 .0524705
468.999 .0517804
469.882 .0511505
470.765 .0505744
471.647 .0500430
472.528 .0495573
473.407 .0491201
474.286 .0487200
475.163 .0483640
476.040 .0480495
476.915 .0477591
477.790 .0474991
478.663 .0472634
479.535 .0470511
480.407 .0468649
481.277 .0467091
482.147 .0465713
483.015 .0464594
483.883 .0463791
484.749 .0463184
485.615 .0462831
486.479 .0462686
487.343 .0462718
488.206 .0462876
489.067 .0463114
489.928 .0463352
490.788 .0463605
491.647 .0463886
492.505 .0464191
493.362 .0464633
494.218 .0465247
495.073 .0466035
495.928 .0467082
496.781 .0468405
497.634 .0470001
498.486 .0471836
499.337 .0473931
500.187 .0476150
501.036 .0478565
501.884 .0481152
502.731 .0483900
503.578 .0486960
504.424 .0490409
505.268 .0494182
506.113 .0498416
506.956 .0503158
507.798 .0508382
508.640 .0514020
509.480 .0520194
510.320 .0526944
511.160 .0534276
511.998 .0542304
512.836 .0551069
513.672 .0560775
514.508 .0571750
515.344 .0583976
516.178 .0597711
517.012 .0613253
517.845 .0631070
518.677 .0651454
519.508 .0674746
520.339 .0701469
521.169 .0732368
521.998 .0767626
522.826 .0807991
523.654 .0853486
524.481 .0903985
525.307 .0960141
526.133 .1021066
526.958 .1086627
527.782 .1155835
528.605 .1227015
529.428 .1299666
530.250 .1368760
531.072 .1432392
531.892 .1486166
532.712 .1527780
533.532 .1555535
534.350 .1566771
535.168 .1561017
535.986 .1538412
536.802 .1500846
537.618 .1451095
538.434 .1390627
539.249 .1324251
540.063 .1254121
540.876 .1183689
541.689 .1114969
542.501 .1049556
543.313 .0989327
544.124 .0935188
544.934 .0886496
545.744 .0842628
546.553 .0802798
547.361 .0767044
548.169 .0735013
548.976 .0705782
549.783 .0679290
550.589 .0655110
551.395 .0633004
552.200 .0612786
553.004 .0594284
553.808 .0577498
554.611 .0562380
555.414 .0548963
556.216 .0537002
557.018 .0526481
557.819 .0517138
558.619 .0508634
559.419 .0500859
560.218 .0493740
561.017 .0486975
561.815 .0480431
562.613 .0474084
563.410 .0467843
564.207 .0461696
565.003 .0455653
565.799 .0449722
566.594 .0443911
567.388 .0438291
568.182 .0432770
568.976 .0427276
569.769 .0421862
570.562 .0416445
571.354 .0410965
572.145 .0405476
572.936 .0399976
573.727 .0394508
574.517 .0389150
575.307 .0384030
576.096 .0379184
576.885 .0374709
577.673 .0370611
578.461 .0366872
579.248 .0363488
580.035 .0360407
580.821 .0357562
581.607 .0354933
582.392 .0352540
583.177 .0350364
583.962 .0348366
584.746 .0346567
585.529 .0344939
586.313 .0343465
587.095 .0342120
587.878 .0340884
588.660 .0339749
589.441 .0338701
590.222 .0337700
591.003 .0336746
591.783 .0335823
592.563 .0334928
593.342 .0334082
594.121 .0333267
594.899 .0332497
595.678 .0331775
596.455 .0331107
597.233 .0330486
598.009 .0329899
598.786 .0329344
599.562 .0328798
600.338 .0328250
601.113 .0327693
601.888 .0327123
602.663 .0326547
603.437 .0325973
604.211 .0325411
604.984 .0324868
605.757 .0324356
606.530 .0323863
607.302 .0323399
608.074 .0322959
608.845 .0322544
609.616 .0322137
610.387 .0321743
611.158 .0321371
611.928 .0321011
612.697 .0320671
613.467 .0320351
614.236 .0320060
615.004 .0319800
615.773 .0319563
616.541 .0319355
617.308 .0319173
618.076 .0319010
618.843 .0318864
619.609 .0318729
620.375 .0318601
621.141 .0318461
621.907 .0318303
622.672 .0318131
623.437 .0317934
624.202 .0317714
624.966 .0317485
625.730 .0317250
626.493 .0317023
627.257 .0316797
628.020 .0316572
628.782 .0316346
629.545 .0316118
630.307 .0315875
631.068 .0315613
631.830 .0315334
632.591 .0315039
633.352 .0314722
634.112 .0314402
634.872 .0314081
635.632 .0313759
636.392 .0313452
637.151 .0313159
637.910 .0312877
638.668 .0312614
639.427 .0312367
640.185 .0312136
640.943 .0311913
641.700 .0311697
642.457 .0311472
643.214 .0311243
643.971 .0311008
644.727 .0310766
645.483 .0310522
646.239 .0310288
646.994 .0310061
647.750 .0309853
648.505 .0309668
649.259 .0309502
650.014 .0309348
650.768 .0309198
651.521 .0309040
652.275 .0308865
653.028 .0308671
653.781 .0308466
654.534 .0308248
655.286 .0308030
656.039 .0307820
656.791 .0307621
657.542 .0307430
658.294 .0307246
659.045 .0307066
659.796 .0306882
660.546 .0306688
661.297 .0306476
662.047 .0306248
662.796 .0306004
663.546 .0305749
664.295 .0305480
665.044 .0305204
665.793 .0304929
666.542 .0304647
667.290 .0304371
668.038 .0304102
668.786 .0303837
669.533 .0303581
670.281 .0303332
671.028 .0303093
671.774 .0302854
672.521 .0302622
673.267 .0302392
674.013 .0302166
674.759 .0301947
675.505 .0301732
676.250 .0301523
676.995 .0301325
677.740 .0301134
678.484 .0300944
679.229 .0300760
679.973 .0300580
680.717 .0300396
681.460 .0300212
682.204 .0300025
682.947 .0299843
683.690 .0299662
684.433 .0299491
685.175 .0299324
685.917 .0299163
686.659 .0299008
687.401 .0298848
688.142 .0298685
688.884 .0298517
689.625 .0298340
690.365 .0298155
691.106 .0297957
691.846 .0297754
692.586 .0297544
693.326 .0297330
694.066 .0297112
694.805 .0296893
695.545 .0296664
696.284 .0296429
697.022 .0296190
697.761 .0295950
698.499 .0295709
699.237 .0295467
699.975 .0295230
700.713 .0295005
701.450 .0294791
702.187 .0294593
702.924 .0294413
703.661 .0294259
704.397 .0294117
705.133 .0293988
705.869 .0293866
706.605 .0293751
707.341 .0293643
708.076 .0293541
708.811 .0293437
709.546 .0293336
710.281 .0293231
711.015 .0293125
711.749 .0293015
712.483 .0292903
713.217 .0292779
713.950 .0292648
714.684 .0292504
715.417 .0292351
716.150 .0292186
716.882 .0292021
717.615 .0291855
718.347 .0291690
719.079 .0291524
719.811 .0291358
720.542 .0291192
721.273 .0291027
722.005 .0290855
722.735 .0290678
723.466 .0290494
724.196 .0290306
724.927 .0290107
725.656 .0289904
726.386 .0289700
727.116 .0289496
727.845 .0289292
728.574 .0289091
729.303 .0288895
730.031 .0288707
730.760 .0288529
731.488 .0288358
732.216 .0288194
732.944 .0288039
733.671 .0287891
734.398 .0287744
735.125 .0287604
735.852 .0287472
736.579 .0287350
737.305 .0287238
738.031 .0287143
738.757 .0287053
739.483 .0286971
740.208 .0286888
740.933 .0286806
741.658 .0286713
742.383 .0286615
743.108 .0286508
743.832 .0286398
744.556 .0286284
745.280 .0286172
746.004 .0286059
746.727 .0285959
747.450 .0285865
748.173 .0285775
748.896 .0285687
749.618 .0285599
750.340 .0285506
751.062 .0285410
751.784 .0285305
752.506 .0285196
753.227 .0285074
753.948 .0284947
754.669 .0284812
755.389 .0284674
756.110 .0284531
756.830 .0284382
757.550 .0284225
758.269 .0284056
758.989 .0283870
759.708 .0283669
760.427 .0283456
761.146 .0283232
761.864 .0283001
762.582 .0282769
763.300 .0282540
764.018 .0282326
764.736 .0282129
765.453 .0281948
766.170 .0281783
766.887 .0281631
767.603 .0281490
768.320 .0281356
769.036 .0281232
769.751 .0281113
770.467 .0281002
771.182 .0280899
771.897 .0280797
772.612 .0280698
773.327 .0280605
774.041 .0280513
774.755 .0280422
775.469 .0280337
776.183 .0280256
776.896 .0280179
777.609 .0280109
778.322 .0280042
779.035 .0279973
779.747 .0279903
780.459 .0279831
781.171 .0279754
781.882 .0279675
782.594 .0279597
783.305 .0279522
784.016 .0279455
784.726 .0279395
785.436 .0279340
786.147 .0279291
786.856 .0279246
787.566 .0279198
788.275 .0279146
788.984 .0279091
789.693 .0279034
790.401 .0278972
791.110 .0278908
791.818 .0278841
792.525 .0278769
793.233 .0278696
793.940 .0278616
794.647 .0278535
795.353 .0278454
796.060 .0278374
796.766 .0278297
797.472 .0278224
798.177 .0278156
798.883 .0278090
799.588 .0278027
800.292 .0277968
800.997 .0277903
801.701 .0277834
802.405 .0277765
803.109 .0277696
803.812 .0277624
804.515 .0277550
805.218 .0277473
805.921 .0277395
806.623 .0277310
807.325 .0277219
808.027 .0277122
808.728 .0277020
809.429 .0276907
810.130 .0276783
810.831 .0276649
811.531 .0276504
812.231 .0276346
812.931 .0276179
813.630 .0276002
814.330 .0275821
815.029 .0275639
815.727 .0275461
816.426 .0275291
817.124 .0275131
817.821 .0274978
818.519 .0274836
819.216 .0274705
819.913 .0274581
820.609 .0274466
821.306 .0274365
822.002 .0274276
822.697 .0274201
823.393 .0274139
824.088 .0274092
824.783 .0274058
825.477 .0274033
826.171 .0274011
826.865 .0273995
827.559 .0273982
828.252 .0273971
828.945 .0273962
829.638 .0273956
830.330 .0273948
831.023 .0273935
831.714 .0273912
832.406 .0273871
833.097 .0273810
833.788 .0273729
834.479 .0273627
835.169 .0273512
835.859 .0273389
836.548 .0273265
837.238 .0273144
837.927 .0273025
838.615 .0272904
839.304 .0272780
839.992 .0272649
840.680 .0272510
841.367 .0272364
842.054 .0272212
842.741 .0272063
843.428 .0271921
844.114 .0271794
844.800 .0271685
845.485 .0271589
846.170 .0271503
846.855 .0271417
847.540 .0271322
848.224 .0271214
848.908 .0271089
849.592 .0270949
850.275 .0270797
850.958 .0270635
851.641 .0270470
852.323 .0270300
853.005 .0270128
853.687 .0269953
854.368 .0269772
855.049 .0269582
855.730 .0269382
856.410 .0269171
857.090 .0268956
857.769 .0268738
858.449 .0268524
859.128 .0268319
859.806 .0268125
860.485 .0267941
861.163 .0267767
861.840 .0267603
862.518 .0267446
863.195 .0267288
863.871 .0267127
864.548 .0266961
865.224 .0266792
865.899 .0266620
866.574 .0266449
867.249 .0266285
867.924 .0266128
868.598 .0265979
869.272 .0265838
869.946 .0265704
870.619 .0265571
871.292 .0265439
871.964 .0265306
872.636 .0265169
873.308 .0265029
873.979 .0264890
874.651 .0264756
875.321 .0264634
875.992 .0264525
876.662 .0264431
877.331 .0264359
878.001 .0264305
878.670 .0264264
879.338 .0264235
880.007 .0264215
880.675 .0264196
881.342 .0264178
882.009 .0264162
882.676 .0264142
883.343 .0264123
884.009 .0264106
884.675 .0264090
885.340 .0264075
886.005 .0264063
886.670 .0264052
887.334 .0264043
887.998 .0264036
888.662 .0264023
889.325 .0264012
889.988 .0264000
890.650 .0263988
891.312 .0263974
891.974 .0263964
892.636 .0263962
893.297 .0263966
893.957 .0263983
894.618 .0264008
895.278 .0264043
895.937 .0264085
896.596 .0264132
897.255 .0264178
897.914 .0264226
898.572 .0264268
899.230 .0264304
899.887 .0264336
900.544 .0264358
901.201 .0264372
901.857 .0264379
902.513 .0264381
903.168 .0264378
903.823 .0264365
904.478 .0264349
905.132 .0264318
905.786 .0264276
906.440 .0264221
907.093 .0264145
907.746 .0264050
908.399 .0263940
909.051 .0263814
909.703 .0263676
910.354 .0263532
911.005 .0263389
911.656 .0263249
912.306 .0263121
912.956 .0263002
913.605 .0262889
914.254 .0262784
914.903 .0262681
915.551 .0262571
916.199 .0262460
916.847 .0262345
917.494 .0262229
918.141 .0262120
918.788 .0262019
919.434 .0261930
920.079 .0261856
920.725 .0261797
921.370 .0261749
922.014 .0261703
922.658 .0261657
923.302 .0261595
923.946 .0261516
924.589 .0261415
925.231 .0261290
925.873 .0261150
926.515 .0260999
927.157 .0260841
927.798 .0260681
928.439 .0260523
929.079 .0260371
929.719 .0260218
930.359 .0260063
930.998 .0259904
931.637 .0259732
932.275 .0259552
932.913 .0259359
933.551 .0259160
934.188 .0258962
934.825 .0258771
935.462 .0258592
936.098 .0258426
936.733 .0258279
937.369 .0258151
938.004 .0258039
938.638 .0257944
939.273 .0257856
939.907 .0257776
940.540 .0257702
941.173 .0257631
941.806 .0257565
942.438 .0257508
943.070 .0257458
943.702 .0257415
944.333 .0257375
944.964 .0257336
945.594 .0257294
946.224 .0257249
946.854 .0257198
947.483 .0257133
948.112 .0257058
948.741 .0256973
949.369 .0256875
949.996 .0256767
950.624 .0256650
951.251 .0256532
951.878 .0256412
952.504 .0256287
953.130 .0256159
953.755 .0256027
954.380 .0255890
955.005 .0255746
955.629 .0255589
956.253 .0255425
956.877 .0255258
957.500 .0255089
958.123 .0254920
958.746 .0254755
959.368 .0254597
959.990 .0254442
960.611 .0254291
961.232 .0254138
961.853 .0253982
962.473 .0253831
963.093 .0253675
963.712 .0253517
964.331 .0253356
964.950 .0253194
965.569 .0253031
966.187 .0252869
966.804 .0252707
967.422 .0252541
968.039 .0252376
968.655 .0252211
969.272 .0252043
969.887 .0251875
970.503 .0251712
971.118 .0251556
971.733 .0251409
972.347 .0251269
972.961 .0251131
973.575 .0251001
974.188 .0250867
974.801 .0250732
975.414 .0250592
976.026 .0250443
976.638 .0250292
977.250 .0250133
977.861 .0249976
978.472 .0249822
979.083 .0249667
979.693 .0249514
980.303 .0249360
980.912 .0249201
981.521 .0249035
982.130 .0248862
982.738 .0248685
983.346 .0248500
983.954 .0248310
984.562 .0248116
985.169 .0247918
985.775 .0247716
986.382 .0247517
986.988 .0247317
987.594 .0247126
988.199 .0246935
988.804 .0246754
989.409 .0246584
990.013 .0246425
990.617 .0246268
991.221 .0246114
991.824 .0245961
992.427 .0245811
993.030 .0245659
993.632 .0245513
994.234 .0245383
994.836 .0245266
995.438 .0245166
996.039 .0245081
996.640 .0245009
997.240 .0244943
997.840 .0244883
998.440 .0244826
999.040 .0244766
999.639 .0244707
1000.238 .0244648
1000.836 .0244593
1001.435 .0244549
1002.033 .0244510
1002.630 .0244473
1003.228 .0244439
1003.825 .0244410
1004.422 .0244377
1005.018 .0244347
1005.614 .0244322
1006.210 .0244300
1006.806 .0244284
1007.401 .0244273
1007.996 .0244264
1008.591 .0244259
1009.186 .0244261
1009.780 .0244266
1010.374 .0244274
1010.967 .0244286
1011.561 .0244303
1012.154 .0244327
1012.746 .0244356
1013.339 .0244391
1013.931 .0244427
1014.523 .0244458
1015.115 .0244486
1015.706 .0244507
1016.298 .0244530
1016.888 .0244556
1017.479 .0244594
1018.069 .0244647
1018.660 .0244709
1019.250 .0244786
1019.839 .0244872
1020.429 .0244967
1021.018 .0245066
1021.607 .0245163
1022.195 .0245264
1022.784 .0245372
1023.372 .0245482
1023.960 .0245601
1024.547 .0245737
1025.135 .0245891
1025.722 .0246056
1026.309 .0246231
1026.896 .0246419
1027.483 .0246614
1028.069 .0246811
1028.655 .0247006
1029.241 .0247195
1029.827 .0247384
1030.412 .0247563
1030.997 .0247736
1031.582 .0247912
1032.167 .0248087
1032.752 .0248268
1033.336 .0248453
1033.921 .0248651
1034.505 .0248854
1035.089 .0249053
1035.672 .0249252
1036.256 .0249435
1036.839 .0249596
1037.422 .0249733
1038.005 .0249848
1038.588 .0249952
1039.171 .0250044
1039.753 .0250128
1040.335 .0250213
1040.918 .0250309
1041.500 .0250404
1042.081 .0250496
1042.663 .0250584
1043.244 .0250668
1043.826 .0250730
1044.407 .0250779
1044.988 .0250817
1045.569 .0250843
1046.150 .0250871
1046.730 .0250904
1047.311 .0250942
1047.891 .0250999
1048.471 .0251075
1049.052 .0251169
1049.632 .0251274
1050.211 .0251401
1050.791 .0251523
1051.371 .0251647
1051.950 .0251768
1052.530 .0251875
1053.109 .0251968
1053.688 .0252048
1054.268 .0252108
1054.847 .0252151
1055.426 .0252181
1056.005 .0252205
1056.583 .0252222
1057.162 .0252241
1057.741 .0252264
1058.319 .0252290
1058.898 .0252323
1059.476 .0252365
1060.055 .0252406
1060.633 .0252451
1061.211 .0252482
1061.790 .0252505
1062.368 .0252519
1062.946 .0252523
1063.524 .0252544
1064.102 .0252580
1064.680 .0252655
1065.258 .0252771
1065.836 .0252926
1066.414 .0253126
1066.992 .0253354
1067.570 .0253600
1068.148 .0253845
1068.726 .0254070
1069.304 .0254276
1069.882 .0254454
1070.460 .0254603
1071.038 .0254741
1071.616 .0254874
1072.194 .0255006
1072.772 .0255147
1073.350 .0255282
1073.928 .0255418
1074.506 .0255540
1075.084 .0255654
1075.662 .0255741
1076.240 .0255814
1076.819 .0255874
1077.397 .0255914
1077.976 .0255941
1078.554 .0255967
1079.133 .0255992
1079.711 .0256020
1080.290 .0256067
1080.869 .0256128
1081.448 .0256214
1082.027 .0256327
1082.606 .0256460
1083.185 .0256626
1083.764 .0256825
1084.343 .0257035
1084.923 .0257246
1085.502 .0257452
1086.082 .0257644
1086.662 .0257819
1087.242 .0257979
1087.822 .0258127
1088.402 .0258276
1088.983 .0258416
1089.563 .0258554
1090.144 .0258667
1090.725 .0258801
1091.306 .0258916
1091.887 .0259016
1092.469 .0259109
1093.050 .0259181
1093.632 .0259242
1094.214 .0259301
1094.796 .0259369
1095.379 .0259460
1095.961 .0259582
1096.544 .0259737
1097.127 .0259898
1097.710 .0260089
1098.294 .0260283
1098.877 .0260483
1099.461 .0260665
1100.046 .0260854
1100.630 .0260999
1101.215 .0261132
1101.800 .0261265
1102.385 .0261384
1102.970 .0261502
1103.556 .0261617
1104.142 .0261722
1104.728 .0261823
1105.315 .0261915
1105.902 .0262000
1106.489 .0262079
1107.077 .0262178
1107.664 .0262291
1108.253 .0262424
1108.841 .0262580
1109.430 .0262793
1110.019 .0263033
1110.609 .0263320
1111.198 .0263625
1111.789 .0263937
1112.379 .0264272
1112.970 .0264601
1113.561 .0264949
1114.153 .0265299
1114.745 .0265659
1115.338 .0266045
1115.931 .0266407
1116.524 .0266757
1117.117 .0267093
1117.712 .0267418
1118.306 .0267765
1118.901 .0268124
1119.496 .0268502
1120.092 .0268905
1120.689 .0269327
1121.285 .0269748
1121.882 .0270162
1122.480 .0270545
1123.078 .0270920
1123.677 .0271262
1124.276 .0271617
1124.875 .0271992
1125.476 .0272388
1126.076 .0272858
1126.677 .0273423
1127.279 .0274052
1127.881 .0274743
1128.484 .0275443
1129.087 .0276152
1129.691 .0276861
1130.295 .0277536
1130.900 .0278205
1131.505 .0278848
1132.111 .0279554
1132.718 .0280323
1133.325 .0281155
1133.933 .0282084
1134.541 .0283094
1135.150 .0284171
1135.760 .0285275
1136.370 .0286347
1136.981 .0287432
1137.592 .0288494
1138.204 .0289556
1138.817 .0290639
1139.431 .0291816
1140.045 .0293117
1140.660 .0294520
1141.275 .0296204
1141.891 .0298354
1142.508 .0300122
1143.126 .0302175
1143.744 .0302568
1144.363 .0309202
1144.983 .0318167
