Measurement Sequence started on: 15-12-46-377
Integration time: 28
Scans to Average: 2 
>>>>>Begin Spectral Data<<<<<
432.689 .0000100
433.621 .0000100
434.552 .0000100
435.482 .0000100
436.410 .0000100
437.337 .0000100
438.262 .0280227
439.187 .0593807
440.110 .0984611
441.031 .1426124
441.952 .1855818
442.871 .2195882
443.789 .2385154
444.705 .2402257
445.621 .2272361
446.535 .2050948
447.447 .1798609
448.359 .1408776
449.269 .1215932
450.178 .1093066
451.086 .1005389
451.993 .0937419
452.898 .0882739
453.803 .0837441
454.706 .0799636
455.608 .0767443
456.508 .0739726
457.408 .0715865
458.306 .0694926
459.204 .0676273
460.100 .0659364
460.995 .0643879
461.888 .0629560
462.781 .0616194
463.673 .0603752
464.563 .0592328
465.452 .0581859
466.340 .0572302
467.228 .0563619
468.114 .0555689
468.999 .0548440
469.882 .0541630
470.765 .0535214
471.647 .0529206
472.528 .0523550
473.407 .0518318
474.286 .0513515
475.163 .0509142
476.040 .0505324
476.915 .0501979
477.790 .0499048
478.663 .0496512
479.535 .0494283
480.407 .0492412
481.277 .0490789
482.147 .0489411
483.015 .0488302
483.883 .0487462
484.749 .0486898
485.615 .0486558
486.479 .0486439
487.343 .0486547
488.206 .0486772
489.067 .0487103
489.928 .0487498
490.788 .0487924
491.647 .0488469
492.505 .0489187
493.362 .0490041
494.218 .0491099
495.073 .0492408
495.928 .0494058
496.781 .0495963
497.634 .0498251
498.486 .0500859
499.337 .0503763
500.187 .0506985
501.036 .0510463
501.884 .0514212
502.731 .0518262
503.578 .0522656
504.424 .0527330
505.268 .0532232
506.113 .0537347
506.956 .0542617
507.798 .0548237
508.640 .0554294
509.480 .0560793
510.320 .0567910
511.160 .0575842
511.998 .0584585
512.836 .0594277
513.672 .0605058
514.508 .0617065
515.344 .0630265
516.178 .0644793
517.012 .0661054
517.845 .0679210
518.677 .0699835
519.508 .0723243
520.339 .0749972
521.169 .0780642
521.998 .0815261
522.826 .0854571
523.654 .0898708
524.481 .0947925
525.307 .1002686
526.133 .1062346
526.958 .1126697
527.782 .1195055
528.605 .1265950
529.428 .1338930
530.250 .1409258
531.072 .1474793
531.892 .1531819
532.712 .1577309
533.532 .1608951
534.350 .1623941
535.168 .1621111
535.986 .1600912
536.802 .1563980
537.618 .1513315
538.434 .1450592
539.249 .1381134
540.063 .1307475
540.876 .1232932
541.689 .1160227
542.501 .1091170
543.313 .1027546
544.124 .0970176
544.934 .0918379
545.744 .0872046
546.553 .0830260
547.361 .0793181
548.169 .0760473
548.976 .0731230
549.783 .0705134
550.589 .0681830
551.395 .0660620
552.200 .0641229
553.004 .0623322
553.808 .0606618
554.611 .0591221
555.414 .0577105
556.216 .0564249
557.018 .0552631
557.819 .0542237
558.619 .0532774
559.419 .0524108
560.218 .0516219
561.017 .0508745
561.815 .0501545
562.613 .0494675
563.410 .0487943
564.207 .0481450
565.003 .0475212
565.799 .0469251
566.594 .0463493
567.388 .0458027
568.182 .0452659
568.976 .0447346
569.769 .0442112
570.562 .0436902
571.354 .0431655
572.145 .0426521
572.936 .0421415
573.727 .0416397
574.517 .0411547
575.307 .0406881
576.096 .0402382
576.885 .0398079
577.673 .0393922
578.461 .0389925
579.248 .0386093
580.035 .0382450
580.821 .0378995
581.607 .0375796
582.392 .0372810
583.177 .0370038
583.962 .0367484
584.746 .0365151
585.529 .0362996
586.313 .0361029
587.095 .0359209
587.878 .0357533
588.660 .0355987
589.441 .0354564
590.222 .0353260
591.003 .0352099
591.783 .0351046
592.563 .0350093
593.342 .0349214
594.121 .0348402
594.899 .0347641
595.678 .0346938
596.455 .0346274
597.233 .0345649
598.009 .0345060
598.786 .0344518
599.562 .0344004
600.338 .0343519
601.113 .0343057
601.888 .0342616
602.663 .0342189
603.437 .0341772
604.211 .0341354
604.984 .0340949
605.757 .0340552
606.530 .0340165
607.302 .0339785
608.074 .0339414
608.845 .0339056
609.616 .0338707
610.387 .0338374
611.158 .0338051
611.928 .0337734
612.697 .0337434
613.467 .0337143
614.236 .0336863
615.004 .0336602
615.773 .0336353
616.541 .0336119
617.308 .0335894
618.076 .0335679
618.843 .0335464
619.609 .0335252
620.375 .0335032
621.141 .0334800
621.907 .0334556
622.672 .0334299
623.437 .0334018
624.202 .0333723
624.966 .0333412
625.730 .0333085
626.493 .0332743
627.257 .0332393
628.020 .0332025
628.782 .0331647
629.545 .0331261
630.307 .0330867
631.068 .0330470
631.830 .0330081
632.591 .0329692
633.352 .0329317
634.112 .0328954
634.872 .0328594
635.632 .0328240
636.392 .0327891
637.151 .0327536
637.910 .0327170
638.668 .0326795
639.427 .0326414
640.185 .0326027
640.943 .0325646
641.700 .0325272
642.457 .0324915
643.214 .0324577
643.971 .0324242
644.727 .0323915
645.483 .0323603
646.239 .0323295
646.994 .0322992
647.750 .0322696
648.505 .0322417
649.259 .0322161
650.014 .0321928
650.768 .0321722
651.521 .0321543
652.275 .0321391
653.028 .0321247
653.781 .0321100
654.534 .0320952
655.286 .0320794
656.039 .0320628
656.791 .0320458
657.542 .0320283
658.294 .0320113
659.045 .0319956
659.796 .0319810
660.546 .0319673
661.297 .0319537
662.047 .0319395
662.796 .0319243
663.546 .0319074
664.295 .0318890
665.044 .0318687
665.793 .0318484
666.542 .0318273
667.290 .0318064
668.038 .0317859
668.786 .0317648
669.533 .0317434
670.281 .0317212
671.028 .0316970
671.774 .0316716
672.521 .0316449
673.267 .0316182
674.013 .0315920
674.759 .0315668
675.505 .0315426
676.250 .0315200
676.995 .0314984
677.740 .0314773
678.484 .0314548
679.229 .0314327
679.973 .0314093
680.717 .0313849
681.460 .0313606
682.204 .0313363
682.947 .0313131
683.690 .0312910
684.433 .0312696
685.175 .0312490
685.917 .0312284
686.659 .0312076
687.401 .0311852
688.142 .0311620
688.884 .0311374
689.625 .0311112
690.365 .0310843
691.106 .0310571
691.846 .0310296
692.586 .0310022
693.326 .0309752
694.066 .0309482
694.805 .0309217
695.545 .0308943
696.284 .0308660
697.022 .0308366
697.761 .0308062
698.499 .0307747
699.237 .0307424
699.975 .0307101
700.713 .0306778
701.450 .0306462
702.187 .0306157
702.924 .0305857
703.661 .0305569
704.397 .0305288
705.133 .0305008
705.869 .0304728
706.605 .0304450
707.341 .0304167
708.076 .0303889
708.811 .0303615
709.546 .0303349
710.281 .0303086
711.015 .0302828
711.749 .0302570
712.483 .0302318
713.217 .0302069
713.950 .0301824
714.684 .0301581
715.417 .0301343
716.150 .0301111
716.882 .0300887
717.615 .0300666
718.347 .0300455
719.079 .0300253
719.811 .0300058
720.542 .0299873
721.273 .0299701
722.005 .0299540
722.735 .0299391
723.466 .0299254
724.196 .0299123
724.927 .0298996
725.656 .0298868
726.386 .0298744
727.116 .0298626
727.845 .0298517
728.574 .0298413
729.303 .0298321
730.031 .0298247
730.760 .0298186
731.488 .0298135
732.216 .0298096
732.944 .0298066
733.671 .0298048
734.398 .0298036
735.125 .0298032
735.852 .0298037
736.579 .0298054
737.305 .0298082
738.031 .0298118
738.757 .0298163
739.483 .0298211
740.208 .0298259
740.933 .0298307
741.658 .0298348
742.383 .0298379
743.108 .0298399
743.832 .0298404
744.556 .0298397
745.280 .0298376
746.004 .0298341
746.727 .0298300
747.450 .0298256
748.173 .0298205
748.896 .0298150
749.618 .0298090
750.340 .0298023
751.062 .0297947
751.784 .0297857
752.506 .0297753
753.227 .0297636
753.948 .0297508
754.669 .0297373
755.389 .0297235
756.110 .0297102
756.830 .0296972
757.550 .0296844
758.269 .0296718
758.989 .0296584
759.708 .0296439
760.427 .0296280
761.146 .0296105
761.864 .0295915
762.582 .0295713
763.300 .0295499
764.018 .0295278
764.736 .0295056
765.453 .0294836
766.170 .0294618
766.887 .0294402
767.603 .0294188
768.320 .0293973
769.036 .0293755
769.751 .0293535
770.467 .0293307
771.182 .0293073
771.897 .0292829
772.612 .0292574
773.327 .0292312
774.041 .0292046
774.755 .0291779
775.469 .0291516
776.183 .0291261
776.896 .0291012
777.609 .0290767
778.322 .0290528
779.035 .0290289
779.747 .0290048
780.459 .0289807
781.171 .0289561
781.882 .0289317
782.594 .0289077
783.305 .0288843
784.016 .0288624
784.726 .0288421
785.436 .0288231
786.147 .0288051
786.856 .0287880
787.566 .0287713
788.275 .0287541
788.984 .0287364
789.693 .0287179
790.401 .0286981
791.110 .0286776
791.818 .0286563
792.525 .0286347
793.233 .0286133
793.940 .0285921
794.647 .0285714
795.353 .0285511
796.060 .0285314
796.766 .0285117
797.472 .0284920
798.177 .0284730
798.883 .0284542
799.588 .0284359
800.292 .0284187
800.997 .0284029
801.701 .0283888
802.405 .0283766
803.109 .0283663
803.812 .0283576
804.515 .0283502
805.218 .0283436
805.921 .0283372
806.623 .0283304
807.325 .0283238
808.027 .0283170
808.728 .0283108
809.429 .0283051
810.130 .0283001
810.831 .0282963
811.531 .0282935
812.231 .0282914
812.931 .0282897
813.630 .0282878
814.330 .0282855
815.029 .0282827
815.727 .0282795
816.426 .0282759
817.124 .0282721
817.821 .0282683
818.519 .0282650
819.216 .0282624
819.913 .0282605
820.609 .0282595
821.306 .0282597
822.002 .0282611
822.697 .0282632
823.393 .0282666
824.088 .0282713
824.783 .0282770
825.477 .0282838
826.171 .0282915
826.865 .0283001
827.559 .0283093
828.252 .0283191
828.945 .0283293
829.638 .0283396
830.330 .0283501
831.023 .0283600
831.714 .0283697
832.406 .0283791
833.097 .0283878
833.788 .0283951
834.479 .0284015
835.169 .0284069
835.859 .0284113
836.548 .0284150
837.238 .0284186
837.927 .0284219
838.615 .0284255
839.304 .0284292
839.992 .0284332
840.680 .0284375
841.367 .0284425
842.054 .0284478
842.741 .0284537
843.428 .0284599
844.114 .0284665
844.800 .0284732
845.485 .0284801
846.170 .0284864
846.855 .0284917
847.540 .0284957
848.224 .0284978
848.908 .0284979
849.592 .0284958
850.275 .0284912
850.958 .0284844
851.641 .0284753
852.323 .0284639
853.005 .0284502
853.687 .0284342
854.368 .0284163
855.049 .0283964
855.730 .0283748
856.410 .0283522
857.090 .0283290
857.769 .0283059
858.449 .0282832
859.128 .0282612
859.806 .0282398
860.485 .0282194
861.163 .0281998
861.840 .0281809
862.518 .0281626
863.195 .0281447
863.871 .0281271
864.548 .0281095
865.224 .0280920
865.899 .0280741
866.574 .0280554
867.249 .0280357
867.924 .0280147
868.598 .0279920
869.272 .0279675
869.946 .0279412
870.619 .0279133
871.292 .0278840
871.964 .0278532
872.636 .0278210
873.308 .0277875
873.979 .0277537
874.651 .0277193
875.321 .0276846
875.992 .0276502
876.662 .0276163
877.331 .0275828
878.001 .0275502
878.670 .0275183
879.338 .0274873
880.007 .0274574
880.675 .0274287
881.342 .0274006
882.009 .0273737
882.676 .0273476
883.343 .0273226
884.009 .0272982
884.675 .0272745
885.340 .0272505
886.005 .0272264
886.670 .0272024
887.334 .0271782
887.998 .0271539
888.662 .0271303
889.325 .0271068
889.988 .0270841
890.650 .0270620
891.312 .0270404
891.974 .0270194
892.636 .0269992
893.297 .0269794
893.957 .0269601
894.618 .0269418
895.278 .0269243
895.937 .0269074
896.596 .0268919
897.255 .0268773
897.914 .0268631
898.572 .0268494
899.230 .0268361
899.887 .0268227
900.544 .0268095
901.201 .0267960
901.857 .0267821
902.513 .0267679
903.168 .0267530
903.823 .0267372
904.478 .0267204
905.132 .0267027
905.786 .0266835
906.440 .0266633
907.093 .0266425
907.746 .0266210
908.399 .0265992
909.051 .0265780
909.703 .0265573
910.354 .0265374
911.005 .0265187
911.656 .0265010
912.306 .0264844
912.956 .0264691
913.605 .0264546
914.254 .0264412
914.903 .0264286
915.551 .0264176
916.199 .0264076
916.847 .0263988
917.494 .0263910
918.141 .0263842
918.788 .0263786
919.434 .0263737
920.079 .0263694
920.725 .0263657
921.370 .0263621
922.014 .0263587
922.658 .0263548
923.302 .0263506
923.946 .0263455
924.589 .0263392
925.231 .0263319
925.873 .0263241
926.515 .0263161
927.157 .0263086
927.798 .0263019
928.439 .0262970
929.079 .0262937
929.719 .0262914
930.359 .0262902
930.998 .0262892
931.637 .0262879
932.275 .0262863
932.913 .0262837
933.551 .0262810
934.188 .0262786
934.825 .0262775
935.462 .0262783
936.098 .0262812
936.733 .0262866
937.369 .0262934
938.004 .0263011
938.638 .0263094
939.273 .0263166
939.907 .0263230
940.540 .0263288
941.173 .0263342
941.806 .0263399
942.438 .0263468
943.070 .0263551
943.702 .0263653
944.333 .0263769
944.964 .0263897
945.594 .0264025
946.224 .0264156
946.854 .0264285
947.483 .0264407
948.112 .0264527
948.741 .0264647
949.369 .0264769
949.996 .0264903
950.624 .0265042
951.251 .0265187
951.878 .0265336
952.504 .0265484
953.130 .0265625
953.755 .0265759
954.380 .0265884
955.005 .0265996
955.629 .0266098
956.253 .0266191
956.877 .0266270
957.500 .0266340
958.123 .0266399
958.746 .0266441
959.368 .0266471
959.990 .0266486
960.611 .0266483
961.232 .0266470
961.853 .0266454
962.473 .0266432
963.093 .0266412
963.712 .0266398
964.331 .0266387
964.950 .0266377
965.569 .0266374
966.187 .0266375
966.804 .0266380
967.422 .0266394
968.039 .0266410
968.655 .0266429
969.272 .0266452
969.887 .0266476
970.503 .0266501
971.118 .0266529
971.733 .0266561
972.347 .0266592
972.961 .0266626
973.575 .0266667
974.188 .0266703
974.801 .0266733
975.414 .0266752
976.026 .0266755
976.638 .0266730
977.250 .0266678
977.861 .0266596
978.472 .0266489
979.083 .0266358
979.693 .0266214
980.303 .0266051
980.912 .0265880
981.521 .0265700
982.130 .0265505
982.738 .0265294
983.346 .0265069
983.954 .0264819
984.562 .0264554
985.169 .0264274
985.775 .0263989
986.382 .0263699
986.988 .0263420
987.594 .0263154
988.199 .0262902
988.804 .0262665
989.409 .0262442
990.013 .0262232
990.617 .0262027
991.221 .0261827
991.824 .0261631
992.427 .0261441
993.030 .0261262
993.632 .0261096
994.234 .0260938
994.836 .0260790
995.438 .0260651
996.039 .0260515
996.640 .0260374
997.240 .0260233
997.840 .0260086
998.440 .0259941
999.040 .0259795
999.639 .0259649
1000.238 .0259498
1000.836 .0259349
1001.435 .0259186
1002.033 .0259011
1002.630 .0258823
1003.228 .0258622
1003.825 .0258408
1004.422 .0258191
1005.018 .0257968
1005.614 .0257745
1006.210 .0257525
1006.806 .0257302
1007.401 .0257071
1007.996 .0256835
1008.591 .0256594
1009.186 .0256351
1009.780 .0256114
1010.374 .0255881
1010.967 .0255659
1011.561 .0255456
1012.154 .0255257
1012.746 .0255057
1013.339 .0254854
1013.931 .0254643
1014.523 .0254422
1015.115 .0254190
1015.706 .0253958
1016.298 .0253730
1016.888 .0253522
1017.479 .0253327
1018.069 .0253153
1018.660 .0252990
1019.250 .0252839
1019.839 .0252684
1020.429 .0252528
1021.018 .0252363
1021.607 .0252190
1022.195 .0252018
1022.784 .0251858
1023.372 .0251709
1023.960 .0251582
1024.547 .0251473
1025.135 .0251391
1025.722 .0251324
1026.309 .0251264
1026.896 .0251206
1027.483 .0251157
1028.069 .0251105
1028.655 .0251046
1029.241 .0250973
1029.827 .0250902
1030.412 .0250829
1030.997 .0250751
1031.582 .0250679
1032.167 .0250607
1032.752 .0250536
1033.336 .0250458
1033.921 .0250372
1034.505 .0250278
1035.089 .0250173
1035.672 .0250059
1036.256 .0249924
1036.839 .0249776
1037.422 .0249614
1038.005 .0249439
1038.588 .0249264
1039.171 .0249098
1039.753 .0248934
1040.335 .0248774
1040.918 .0248630
1041.500 .0248486
1042.081 .0248347
1042.663 .0248216
1043.244 .0248091
1043.826 .0247967
1044.407 .0247846
1044.988 .0247725
1045.569 .0247600
1046.150 .0247489
1046.730 .0247381
1047.311 .0247282
1047.891 .0247204
1048.471 .0247148
1049.052 .0247115
1049.632 .0247106
1050.211 .0247138
1050.791 .0247186
1051.371 .0247255
1051.950 .0247336
1052.530 .0247411
1053.109 .0247486
1053.688 .0247560
1054.268 .0247634
1054.847 .0247709
1055.426 .0247797
1056.005 .0247898
1056.583 .0248009
1057.162 .0248133
1057.741 .0248256
1058.319 .0248374
1058.898 .0248493
1059.476 .0248596
1060.055 .0248682
1060.633 .0248766
1061.211 .0248849
1061.790 .0248942
1062.368 .0249048
1062.946 .0249172
1063.524 .0249309
1064.102 .0249463
1064.680 .0249626
1065.258 .0249783
1065.836 .0249944
1066.414 .0250107
1066.992 .0250274
1067.570 .0250456
1068.148 .0250641
1068.726 .0250825
1069.304 .0251013
1069.882 .0251202
1070.460 .0251372
1071.038 .0251537
1071.616 .0251694
1072.194 .0251853
1072.772 .0252004
1073.350 .0252159
1073.928 .0252325
1074.506 .0252508
1075.084 .0252706
1075.662 .0252899
1076.240 .0253094
1076.819 .0253277
1077.397 .0253442
1077.976 .0253599
1078.554 .0253748
1079.133 .0253913
1079.711 .0254080
1080.290 .0254262
1080.869 .0254454
1081.448 .0254657
1082.027 .0254863
1082.606 .0255057
1083.185 .0255249
1083.764 .0255413
1084.343 .0255568
1084.923 .0255726
1085.502 .0255900
1086.082 .0256108
1086.662 .0256354
1087.242 .0256637
1087.822 .0256933
1088.402 .0257251
1088.983 .0257556
1089.563 .0257848
1090.144 .0258138
1090.725 .0258432
1091.306 .0258730
1091.887 .0259055
1092.469 .0259427
1093.050 .0259861
1093.632 .0260355
1094.214 .0260885
1094.796 .0261423
1095.379 .0261958
1095.961 .0262460
1096.544 .0262912
1097.127 .0263308
1097.710 .0263679
1098.294 .0264015
1098.877 .0264341
1099.461 .0264657
1100.046 .0264980
1100.630 .0265314
1101.215 .0265659
1101.800 .0266008
1102.385 .0266344
1102.970 .0266661
1103.556 .0266945
1104.142 .0267206
1104.728 .0267470
1105.315 .0267733
1105.902 .0268014
1106.489 .0268319
1107.077 .0268657
1107.664 .0269038
1108.253 .0269448
1108.841 .0269886
1109.430 .0270348
1110.019 .0270814
1110.609 .0271268
1111.198 .0271689
1111.789 .0272109
1112.379 .0272512
1112.970 .0272900
1113.561 .0273286
1114.153 .0273649
1114.745 .0274025
1115.338 .0274395
1115.931 .0274749
1116.524 .0275112
1117.117 .0275464
1117.712 .0275781
1118.306 .0276065
1118.901 .0276339
1119.496 .0276584
1120.092 .0276793
1120.689 .0276991
1121.285 .0277187
1121.882 .0277366
1122.480 .0277587
1123.078 .0277844
1123.677 .0278158
1124.276 .0278602
1124.875 .0279125
1125.476 .0279747
1126.076 .0280463
1126.677 .0281245
1127.279 .0282086
1127.881 .0282960
1128.484 .0283870
1129.087 .0284726
1129.691 .0285577
1130.295 .0286414
1130.900 .0287195
1131.505 .0287964
1132.111 .0288733
1132.718 .0289485
1133.325 .0290227
1133.933 .0290983
1134.541 .0291724
1135.150 .0292491
1135.760 .0293313
1136.370 .0294165
1136.981 .0295079
1137.592 .0296023
1138.204 .0297024
1138.817 .0298125
1139.431 .0299436
1140.045 .0300867
1140.660 .0302560
1141.275 .0304540
1141.891 .0306473
1142.508 .0309657
1143.126 .0310273
1143.744 .0315600
1144.363 .0318348
1144.983 .0312346
