Measurement Sequence started on: 15-12-46-377
Integration time: 28
Scans to Average: 2 
>>>>>Begin Spectral Data<<<<<
432.689 .0000100
433.621 .0000100
434.552 .0000100
435.482 .0000100
436.410 .0000100
437.337 .0000100
438.262 .0281907
439.187 .0597245
440.110 .0989290
441.031 .1431915
441.952 .1862323
442.871 .2201625
443.789 .2388483
444.705 .2401736
445.621 .2267178
446.535 .2040368
447.447 .1782847
448.359 .1387368
449.269 .1190781
450.178 .1065760
451.086 .0976499
451.993 .0907806
452.898 .0853532
453.803 .0809246
454.706 .0772685
455.608 .0741569
456.508 .0715149
457.408 .0692148
458.306 .0671944
459.204 .0653829
460.100 .0637421
460.995 .0622611
461.888 .0609104
462.781 .0596872
463.673 .0585809
464.563 .0575859
465.452 .0566894
466.340 .0558699
467.228 .0551232
468.114 .0544366
468.999 .0538062
469.882 .0532122
470.765 .0526517
471.647 .0521187
472.528 .0516164
473.407 .0511518
474.286 .0507230
475.163 .0503333
476.040 .0499848
476.915 .0496735
477.790 .0493891
478.663 .0491274
479.535 .0488850
480.407 .0486630
481.277 .0484633
482.147 .0482896
483.015 .0481383
483.883 .0480144
484.749 .0479196
485.615 .0478507
486.479 .0478114
487.343 .0477968
488.206 .0477983
489.067 .0478085
489.928 .0478281
490.788 .0478568
491.647 .0478987
492.505 .0479600
493.362 .0480457
494.218 .0481488
495.073 .0482704
495.928 .0484082
496.781 .0485530
497.634 .0487155
498.486 .0488973
499.337 .0491028
500.187 .0493362
501.036 .0496010
501.884 .0499070
502.731 .0502507
503.578 .0506493
504.424 .0510898
505.268 .0515585
506.113 .0520573
506.956 .0525787
507.798 .0531259
508.640 .0537114
509.480 .0543467
510.320 .0550442
511.160 .0558244
511.998 .0566832
512.836 .0576380
513.672 .0587029
514.508 .0599064
515.344 .0612515
516.178 .0627533
517.012 .0644612
517.845 .0663972
518.677 .0685894
519.508 .0710683
520.339 .0738821
521.169 .0770876
521.998 .0807039
522.826 .0848138
523.654 .0894365
524.481 .0946328
525.307 .1004289
526.133 .1068559
526.958 .1138030
527.782 .1211725
528.605 .1287036
529.428 .1362186
530.250 .1432376
531.072 .1494608
531.892 .1545218
532.712 .1582209
533.532 .1604547
534.350 .1610813
535.168 .1600558
535.986 .1575786
536.802 .1536839
537.618 .1486525
538.434 .1425752
539.249 .1358368
540.063 .1286408
540.876 .1212792
541.689 .1140113
542.501 .1070563
543.313 .1006614
544.124 .0949199
544.934 .0898057
545.744 .0853236
546.553 .0813407
547.361 .0778279
548.169 .0747142
548.976 .0719123
549.783 .0693736
550.589 .0670604
551.395 .0649358
552.200 .0630069
553.004 .0612615
553.808 .0596768
554.611 .0582745
555.414 .0570196
556.216 .0558986
557.018 .0548945
557.819 .0539934
558.619 .0531664
559.419 .0523962
560.218 .0516780
561.017 .0509951
561.815 .0503253
562.613 .0496682
563.410 .0489951
564.207 .0483292
565.003 .0476658
565.799 .0470085
566.594 .0463574
567.388 .0457314
568.182 .0451098
568.976 .0445017
569.769 .0439051
570.562 .0433146
571.354 .0427225
572.145 .0421381
572.936 .0415560
573.727 .0409932
574.517 .0404533
575.307 .0399440
576.096 .0394675
576.885 .0390288
577.673 .0386172
578.461 .0382305
579.248 .0378661
580.035 .0375231
580.821 .0371954
581.607 .0368915
582.392 .0366074
583.177 .0363456
583.962 .0361096
584.746 .0358987
585.529 .0357123
586.313 .0355461
587.095 .0353908
587.878 .0352473
588.660 .0351124
589.441 .0349837
590.222 .0348583
591.003 .0347401
591.783 .0346297
592.563 .0345265
593.342 .0344324
594.121 .0343455
594.899 .0342667
595.678 .0341956
596.455 .0341296
597.233 .0340660
598.009 .0340052
598.786 .0339458
599.562 .0338882
600.338 .0338340
601.113 .0337821
601.888 .0337335
602.663 .0336890
603.437 .0336477
604.211 .0336086
604.984 .0335698
605.757 .0335314
606.530 .0334917
607.302 .0334508
608.074 .0334075
608.845 .0333622
609.616 .0333169
610.387 .0332723
611.158 .0332285
611.928 .0331863
612.697 .0331464
613.467 .0331087
614.236 .0330726
615.004 .0330381
615.773 .0330044
616.541 .0329728
617.308 .0329425
618.076 .0329137
618.843 .0328870
619.609 .0328630
620.375 .0328418
621.141 .0328223
621.907 .0328047
622.672 .0327873
623.437 .0327687
624.202 .0327489
624.966 .0327270
625.730 .0327034
626.493 .0326776
627.257 .0326510
628.020 .0326231
628.782 .0325950
629.545 .0325658
630.307 .0325358
631.068 .0325046
631.830 .0324712
632.591 .0324348
633.352 .0323962
634.112 .0323564
634.872 .0323160
635.632 .0322755
636.392 .0322373
637.151 .0322011
637.910 .0321678
638.668 .0321359
639.427 .0321056
640.185 .0320757
640.943 .0320458
641.700 .0320146
642.457 .0319827
643.214 .0319513
643.971 .0319201
644.727 .0318898
645.483 .0318607
646.239 .0318340
646.994 .0318085
647.750 .0317843
648.505 .0317613
649.259 .0317381
650.014 .0317151
650.768 .0316917
651.521 .0316677
652.275 .0316439
653.028 .0316205
653.781 .0315975
654.534 .0315753
655.286 .0315548
656.039 .0315349
656.791 .0315164
657.542 .0314983
658.294 .0314809
659.045 .0314627
659.796 .0314441
660.546 .0314249
661.297 .0314053
662.047 .0313858
662.796 .0313659
663.546 .0313461
664.295 .0313273
665.044 .0313086
665.793 .0312905
666.542 .0312723
667.290 .0312542
668.038 .0312358
668.786 .0312162
669.533 .0311959
670.281 .0311749
671.028 .0311533
671.774 .0311314
672.521 .0311097
673.267 .0310882
674.013 .0310671
674.759 .0310460
675.505 .0310254
676.250 .0310041
676.995 .0309823
677.740 .0309596
678.484 .0309358
679.229 .0309119
679.973 .0308881
680.717 .0308638
681.460 .0308406
682.204 .0308182
682.947 .0307973
683.690 .0307771
684.433 .0307577
685.175 .0307386
685.917 .0307195
686.659 .0307001
687.401 .0306801
688.142 .0306595
688.884 .0306391
689.625 .0306181
690.365 .0305970
691.106 .0305755
691.846 .0305536
692.586 .0305312
693.326 .0305088
694.066 .0304855
694.805 .0304619
695.545 .0304379
696.284 .0304138
697.022 .0303896
697.761 .0303655
698.499 .0303415
699.237 .0303176
699.975 .0302940
700.713 .0302710
701.450 .0302479
702.187 .0302261
702.924 .0302052
703.661 .0301855
704.397 .0301670
705.133 .0301494
705.869 .0301326
706.605 .0301161
707.341 .0300998
708.076 .0300830
708.811 .0300653
709.546 .0300466
710.281 .0300270
711.015 .0300064
711.749 .0299856
712.483 .0299649
713.217 .0299445
713.950 .0299248
714.684 .0299060
715.417 .0298875
716.150 .0298697
716.882 .0298519
717.615 .0298342
718.347 .0298164
719.079 .0297988
719.811 .0297809
720.542 .0297632
721.273 .0297460
722.005 .0297293
722.735 .0297121
723.466 .0296948
724.196 .0296772
724.927 .0296589
725.656 .0296400
726.386 .0296204
727.116 .0296005
727.845 .0295810
728.574 .0295616
729.303 .0295429
730.031 .0295247
730.760 .0295078
731.488 .0294916
732.216 .0294763
732.944 .0294626
733.671 .0294505
734.398 .0294400
735.125 .0294322
735.852 .0294264
736.579 .0294224
737.305 .0294196
738.031 .0294180
738.757 .0294161
739.483 .0294135
740.208 .0294092
740.933 .0294029
741.658 .0293946
742.383 .0293849
743.108 .0293734
743.832 .0293614
744.556 .0293492
745.280 .0293363
746.004 .0293231
746.727 .0293094
747.450 .0292951
748.173 .0292802
748.896 .0292647
749.618 .0292488
750.340 .0292324
751.062 .0292164
751.784 .0292010
752.506 .0291863
753.227 .0291727
753.948 .0291594
754.669 .0291470
755.389 .0291344
756.110 .0291215
756.830 .0291081
757.550 .0290942
758.269 .0290797
758.989 .0290644
759.708 .0290482
760.427 .0290316
761.146 .0290145
761.864 .0289969
762.582 .0289792
763.300 .0289618
764.018 .0289444
764.736 .0289278
765.453 .0289123
766.170 .0288981
766.887 .0288850
767.603 .0288732
768.320 .0288620
769.036 .0288516
769.751 .0288415
770.467 .0288311
771.182 .0288206
771.897 .0288101
772.612 .0287989
773.327 .0287869
774.041 .0287749
774.755 .0287621
775.469 .0287488
776.183 .0287352
776.896 .0287207
777.609 .0287060
778.322 .0286913
779.035 .0286761
779.747 .0286611
780.459 .0286469
781.171 .0286331
781.882 .0286197
782.594 .0286079
783.305 .0285968
784.016 .0285867
784.726 .0285781
785.436 .0285703
786.147 .0285633
786.856 .0285570
787.566 .0285503
788.275 .0285432
788.984 .0285360
789.693 .0285279
790.401 .0285188
791.110 .0285089
791.818 .0284979
792.525 .0284861
793.233 .0284734
793.940 .0284601
794.647 .0284457
795.353 .0284307
796.060 .0284151
796.766 .0283990
797.472 .0283827
798.177 .0283664
798.883 .0283505
799.588 .0283353
800.292 .0283208
800.997 .0283070
801.701 .0282940
802.405 .0282821
803.109 .0282710
803.812 .0282606
804.515 .0282509
805.218 .0282417
805.921 .0282327
806.623 .0282238
807.325 .0282150
808.027 .0282058
808.728 .0281964
809.429 .0281865
810.130 .0281759
810.831 .0281648
811.531 .0281529
812.231 .0281406
812.931 .0281279
813.630 .0281147
814.330 .0281011
815.029 .0280875
815.727 .0280742
816.426 .0280607
817.124 .0280474
817.821 .0280343
818.519 .0280211
819.216 .0280080
819.913 .0279950
820.609 .0279822
821.306 .0279701
822.002 .0279589
822.697 .0279483
823.393 .0279389
824.088 .0279305
824.783 .0279224
825.477 .0279143
826.171 .0279061
826.865 .0278975
827.559 .0278883
828.252 .0278787
828.945 .0278691
829.638 .0278599
830.330 .0278520
831.023 .0278452
831.714 .0278402
832.406 .0278365
833.097 .0278336
833.788 .0278309
834.479 .0278282
835.169 .0278252
835.859 .0278219
836.548 .0278185
837.238 .0278154
837.927 .0278130
838.615 .0278112
839.304 .0278102
839.992 .0278100
840.680 .0278102
841.367 .0278102
842.054 .0278095
842.741 .0278082
843.428 .0278055
844.114 .0278019
844.800 .0277974
845.485 .0277916
846.170 .0277848
846.855 .0277772
847.540 .0277684
848.224 .0277587
848.908 .0277484
849.592 .0277370
850.275 .0277250
850.958 .0277125
851.641 .0276992
852.323 .0276850
853.005 .0276700
853.687 .0276542
854.368 .0276373
855.049 .0276202
855.730 .0276028
856.410 .0275849
857.090 .0275681
857.769 .0275522
858.449 .0275370
859.128 .0275228
859.806 .0275097
860.485 .0274970
861.163 .0274846
861.840 .0274724
862.518 .0274603
863.195 .0274485
863.871 .0274373
864.548 .0274268
865.224 .0274170
865.899 .0274082
866.574 .0273997
867.249 .0273917
867.924 .0273840
868.598 .0273759
869.272 .0273675
869.946 .0273590
870.619 .0273504
871.292 .0273410
871.964 .0273307
872.636 .0273202
873.308 .0273089
873.979 .0272971
874.651 .0272844
875.321 .0272711
875.992 .0272572
876.662 .0272428
877.331 .0272278
878.001 .0272126
878.670 .0271974
879.338 .0271818
880.007 .0271661
880.675 .0271503
881.342 .0271342
882.009 .0271184
882.676 .0271029
883.343 .0270883
884.009 .0270739
884.675 .0270602
885.340 .0270465
886.005 .0270331
886.670 .0270199
887.334 .0270070
887.998 .0269946
888.662 .0269834
889.325 .0269734
889.988 .0269648
890.650 .0269578
891.312 .0269521
891.974 .0269478
892.636 .0269443
893.297 .0269410
893.957 .0269376
894.618 .0269340
895.278 .0269301
895.937 .0269259
896.596 .0269216
897.255 .0269171
897.914 .0269119
898.572 .0269062
899.230 .0268996
899.887 .0268916
900.544 .0268824
901.201 .0268721
901.857 .0268610
902.513 .0268490
903.168 .0268363
903.823 .0268229
904.478 .0268094
905.132 .0267954
905.786 .0267809
906.440 .0267659
907.093 .0267505
907.746 .0267345
908.399 .0267178
909.051 .0267008
909.703 .0266837
910.354 .0266661
911.005 .0266485
911.656 .0266309
912.306 .0266129
912.956 .0265948
913.605 .0265765
914.254 .0265584
914.903 .0265401
915.551 .0265216
916.199 .0265036
916.847 .0264862
917.494 .0264696
918.141 .0264533
918.788 .0264379
919.434 .0264238
920.079 .0264100
920.725 .0263969
921.370 .0263843
922.014 .0263717
922.658 .0263589
923.302 .0263454
923.946 .0263309
924.589 .0263156
925.231 .0262992
925.873 .0262818
926.515 .0262635
927.157 .0262448
927.798 .0262252
928.439 .0262048
929.079 .0261840
929.719 .0261624
930.359 .0261397
930.998 .0261168
931.637 .0260930
932.275 .0260696
932.913 .0260463
933.551 .0260239
934.188 .0260029
934.825 .0259835
935.462 .0259656
936.098 .0259494
936.733 .0259353
937.369 .0259227
938.004 .0259114
938.638 .0259016
939.273 .0258930
939.907 .0258862
940.540 .0258809
941.173 .0258774
941.806 .0258760
942.438 .0258765
943.070 .0258781
943.702 .0258805
944.333 .0258831
944.964 .0258856
945.594 .0258879
946.224 .0258897
946.854 .0258914
947.483 .0258932
948.112 .0258951
948.741 .0258971
949.369 .0258989
949.996 .0259004
950.624 .0259006
951.251 .0258998
951.878 .0258978
952.504 .0258942
953.130 .0258895
953.755 .0258837
954.380 .0258772
955.005 .0258696
955.629 .0258613
956.253 .0258524
956.877 .0258430
957.500 .0258330
958.123 .0258223
958.746 .0258109
959.368 .0257991
959.990 .0257868
960.611 .0257740
961.232 .0257618
961.853 .0257504
962.473 .0257401
963.093 .0257313
963.712 .0257241
964.331 .0257185
964.950 .0257139
965.569 .0257108
966.187 .0257083
966.804 .0257066
967.422 .0257059
968.039 .0257059
968.655 .0257070
969.272 .0257091
969.887 .0257123
970.503 .0257165
971.118 .0257215
971.733 .0257269
972.347 .0257317
972.961 .0257357
973.575 .0257385
974.188 .0257396
974.801 .0257389
975.414 .0257369
976.026 .0257338
976.638 .0257295
977.250 .0257240
977.861 .0257176
978.472 .0257104
979.083 .0257024
979.693 .0256934
980.303 .0256834
980.912 .0256726
981.521 .0256611
982.130 .0256489
982.738 .0256367
983.346 .0256251
983.954 .0256139
984.562 .0256034
985.169 .0255935
985.775 .0255839
986.382 .0255739
986.988 .0255637
987.594 .0255531
988.199 .0255418
988.804 .0255301
989.409 .0255185
990.013 .0255075
990.617 .0254977
991.221 .0254894
991.824 .0254826
992.427 .0254769
993.030 .0254724
993.632 .0254680
994.234 .0254645
994.836 .0254612
995.438 .0254586
996.039 .0254572
996.640 .0254577
997.240 .0254604
997.840 .0254651
998.440 .0254722
999.040 .0254812
999.639 .0254912
1000.238 .0255011
1000.836 .0255104
1001.435 .0255185
1002.033 .0255250
1002.630 .0255302
1003.228 .0255343
1003.825 .0255379
1004.422 .0255413
1005.018 .0255448
1005.614 .0255487
1006.210 .0255522
1006.806 .0255550
1007.401 .0255562
1007.996 .0255556
1008.591 .0255528
1009.186 .0255479
1009.780 .0255415
1010.374 .0255342
1010.967 .0255265
1011.561 .0255190
1012.154 .0255122
1012.746 .0255060
1013.339 .0254997
1013.931 .0254933
1014.523 .0254862
1015.115 .0254780
1015.706 .0254686
1016.298 .0254582
1016.888 .0254476
1017.479 .0254382
1018.069 .0254301
1018.660 .0254241
1019.250 .0254203
1019.839 .0254183
1020.429 .0254175
1021.018 .0254175
1021.607 .0254175
1022.195 .0254170
1022.784 .0254169
1023.372 .0254170
1023.960 .0254178
1024.547 .0254199
1025.135 .0254236
1025.722 .0254294
1026.309 .0254371
1026.896 .0254456
1027.483 .0254538
1028.069 .0254615
1028.655 .0254680
1029.241 .0254718
1029.827 .0254737
1030.412 .0254742
1030.997 .0254736
1031.582 .0254726
1032.167 .0254718
1032.752 .0254714
1033.336 .0254721
1033.921 .0254732
1034.505 .0254742
1035.089 .0254745
1035.672 .0254729
1036.256 .0254692
1036.839 .0254631
1037.422 .0254556
1038.005 .0254468
1038.588 .0254374
1039.171 .0254289
1039.753 .0254216
1040.335 .0254156
1040.918 .0254117
1041.500 .0254090
1042.081 .0254077
1042.663 .0254057
1043.244 .0254033
1043.826 .0253990
1044.407 .0253931
1044.988 .0253855
1045.569 .0253766
1046.150 .0253674
1046.730 .0253588
1047.311 .0253502
1047.891 .0253431
1048.471 .0253370
1049.052 .0253316
1049.632 .0253257
1050.211 .0253192
1050.791 .0253095
1051.371 .0252981
1051.950 .0252848
1052.530 .0252703
1053.109 .0252556
1053.688 .0252419
1054.268 .0252294
1054.847 .0252189
1055.426 .0252111
1056.005 .0252048
1056.583 .0252001
1057.162 .0251968
1057.741 .0251931
1058.319 .0251886
1058.898 .0251842
1059.476 .0251791
1060.055 .0251749
1060.633 .0251720
1061.211 .0251704
1061.790 .0251701
1062.368 .0251725
1062.946 .0251766
1063.524 .0251828
1064.102 .0251899
1064.680 .0251973
1065.258 .0252037
1065.836 .0252090
1066.414 .0252119
1066.992 .0252138
1067.570 .0252148
1068.148 .0252156
1068.726 .0252162
1069.304 .0252192
1069.882 .0252227
1070.460 .0252276
1071.038 .0252329
1071.616 .0252378
1072.194 .0252414
1072.772 .0252425
1073.350 .0252397
1073.928 .0252358
1074.506 .0252311
1075.084 .0252261
1075.662 .0252213
1076.240 .0252196
1076.819 .0252193
1077.397 .0252204
1077.976 .0252229
1078.554 .0252255
1079.133 .0252273
1079.711 .0252275
1080.290 .0252253
1080.869 .0252213
1081.448 .0252154
1082.027 .0252079
1082.606 .0251995
1083.185 .0251940
1083.764 .0251897
1084.343 .0251867
1084.923 .0251864
1085.502 .0251895
1086.082 .0251954
1086.662 .0252037
1087.242 .0252143
1087.822 .0252250
1088.402 .0252352
1088.983 .0252449
1089.563 .0252539
1090.144 .0252629
1090.725 .0252721
1091.306 .0252812
1091.887 .0252912
1092.469 .0253025
1093.050 .0253142
1093.632 .0253256
1094.214 .0253379
1094.796 .0253491
1095.379 .0253584
1095.961 .0253641
1096.544 .0253678
1097.127 .0253694
1097.710 .0253714
1098.294 .0253739
1098.877 .0253794
1099.461 .0253883
1100.046 .0254026
1100.630 .0254211
1101.215 .0254471
1101.800 .0254766
1102.385 .0255098
1102.970 .0255435
1103.556 .0255766
1104.142 .0256075
1104.728 .0256372
1105.315 .0256649
1105.902 .0256929
1106.489 .0257218
1107.077 .0257531
1107.664 .0257857
1108.253 .0258244
1108.841 .0258648
1109.430 .0259066
1110.019 .0259473
1110.609 .0259869
1111.198 .0260221
1111.789 .0260553
1112.379 .0260847
1112.970 .0261135
1113.561 .0261438
1114.153 .0261774
1114.745 .0262144
1115.338 .0262584
1115.931 .0263083
1116.524 .0263608
1117.117 .0264166
1117.712 .0264742
1118.306 .0265311
1118.901 .0265858
1119.496 .0266371
1120.092 .0266857
1120.689 .0267303
1121.285 .0267721
1121.882 .0268103
1122.480 .0268485
1123.078 .0268875
1123.677 .0269277
1124.276 .0269697
1124.875 .0270148
1125.476 .0270622
1126.076 .0271118
1126.677 .0271666
1127.279 .0272253
1127.881 .0272887
1128.484 .0273566
1129.087 .0274297
1129.691 .0275086
1130.295 .0275923
1130.900 .0276840
1131.505 .0277794
1132.111 .0278830
1132.718 .0279942
1133.325 .0281114
1133.933 .0282359
1134.541 .0283694
1135.150 .0285109
1135.760 .0286585
1136.370 .0288102
1136.981 .0289565
1137.592 .0290929
1138.204 .0292197
1138.817 .0293357
1139.431 .0294439
1140.045 .0295487
1140.660 .0296496
1141.275 .0297502
1141.891 .0298142
1142.508 .0300617
1143.126 .0302018
1143.744 .0301285
1144.363 .0302589
1144.983 .0292657
