Measurement Sequence started on: 15-12-46-377
Integration time: 28
Scans to Average: 2 
>>>>>Begin Spectral Data<<<<<
432.689 .0000100
433.621 .0000100
434.552 .0000100
435.482 .0000100
436.410 .0000100
437.337 .0000100
438.262 .0284731
439.187 .0604880
440.110 .1002761
441.031 .1451942
441.952 .1888432
442.871 .2232627
443.789 .2421716
444.705 .2434141
445.621 .2295824
446.535 .2063663
447.447 .1799867
448.359 .1396968
449.269 .1194607
450.178 .1066019
451.086 .0974418
451.993 .0903949
452.898 .0847835
453.803 .0802076
454.706 .0764054
455.608 .0731824
456.508 .0704337
457.408 .0680922
458.306 .0660522
459.204 .0642471
460.100 .0626318
460.995 .0611711
461.888 .0598375
462.781 .0586105
463.673 .0574698
464.563 .0564317
465.452 .0554770
466.340 .0546053
467.228 .0538174
468.114 .0530978
468.999 .0524416
469.882 .0518330
470.765 .0512631
471.647 .0507255
472.528 .0502172
473.407 .0497590
474.286 .0493488
475.163 .0489916
476.040 .0486932
476.915 .0484459
477.790 .0482432
478.663 .0480802
479.535 .0479386
480.407 .0478183
481.277 .0477075
482.147 .0476100
483.015 .0475246
483.883 .0474592
484.749 .0474185
485.615 .0474038
486.479 .0474216
487.343 .0474642
488.206 .0475194
489.067 .0475826
489.928 .0476512
490.788 .0477179
491.647 .0477820
492.505 .0478548
493.362 .0479387
494.218 .0480395
495.073 .0481643
495.928 .0483279
496.781 .0485258
497.634 .0487656
498.486 .0490499
499.337 .0493633
500.187 .0497018
501.036 .0500578
501.884 .0504264
502.731 .0508092
503.578 .0512198
504.424 .0516572
505.268 .0521281
506.113 .0526486
506.956 .0532162
507.798 .0538307
508.640 .0545055
509.480 .0552327
510.320 .0559983
511.160 .0568177
511.998 .0576950
512.836 .0586244
513.672 .0596466
514.508 .0607858
515.344 .0620644
516.178 .0635084
517.012 .0651590
517.845 .0670288
518.677 .0691631
519.508 .0715818
520.339 .0743185
521.169 .0774380
521.998 .0809762
522.826 .0849833
523.654 .0895046
524.481 .0945866
525.307 .1002529
526.133 .1064661
526.958 .1131845
527.782 .1202927
528.605 .1277252
529.428 .1352853
530.250 .1425381
531.072 .1492361
531.892 .1549827
532.712 .1594348
533.532 .1623468
534.350 .1634330
535.168 .1625941
535.986 .1599038
536.802 .1555119
537.618 .1497212
538.434 .1428855
539.249 .1355025
540.063 .1278343
540.876 .1202656
541.689 .1130019
542.501 .1061817
543.313 .0999705
544.124 .0943567
544.934 .0892541
545.744 .0846471
546.553 .0804416
547.361 .0766760
548.169 .0733432
548.976 .0704081
549.783 .0678222
550.589 .0655916
551.395 .0636323
552.200 .0618982
553.004 .0603444
553.808 .0589364
554.611 .0576230
555.414 .0564089
556.216 .0552689
557.018 .0542019
557.819 .0532218
558.619 .0523059
559.419 .0514477
560.218 .0506560
561.017 .0499039
561.815 .0491844
562.613 .0484863
563.410 .0478116
564.207 .0471454
565.003 .0464999
565.799 .0458663
566.594 .0452404
567.388 .0446359
568.182 .0440525
568.976 .0434810
569.769 .0429315
570.562 .0424052
571.354 .0418948
572.145 .0414035
572.936 .0409232
573.727 .0404517
574.517 .0399840
575.307 .0395269
576.096 .0390805
576.885 .0386492
577.673 .0382390
578.461 .0378501
579.248 .0374885
580.035 .0371567
580.821 .0368474
581.607 .0365595
582.392 .0362893
583.177 .0360353
583.962 .0357930
584.746 .0355694
585.529 .0353615
586.313 .0351742
587.095 .0350058
587.878 .0348561
588.660 .0347230
589.441 .0346039
590.222 .0344947
591.003 .0343950
591.783 .0343028
592.563 .0342140
593.342 .0341298
594.121 .0340502
594.899 .0339732
595.678 .0338990
596.455 .0338284
597.233 .0337627
598.009 .0336991
598.786 .0336404
599.562 .0335851
600.338 .0335327
601.113 .0334823
601.888 .0334321
602.663 .0333822
603.437 .0333317
604.211 .0332790
604.984 .0332253
605.757 .0331710
606.530 .0331167
607.302 .0330622
608.074 .0330098
608.845 .0329602
609.616 .0329130
610.387 .0328684
611.158 .0328273
611.928 .0327888
612.697 .0327529
613.467 .0327187
614.236 .0326866
615.004 .0326569
615.773 .0326287
616.541 .0326024
617.308 .0325786
618.076 .0325579
618.843 .0325403
619.609 .0325258
620.375 .0325150
621.141 .0325056
621.907 .0324970
622.672 .0324887
623.437 .0324786
624.202 .0324659
624.966 .0324505
625.730 .0324330
626.493 .0324135
627.257 .0323932
628.020 .0323719
628.782 .0323511
629.545 .0323308
630.307 .0323094
631.068 .0322865
631.830 .0322617
632.591 .0322338
633.352 .0322028
634.112 .0321707
634.872 .0321380
635.632 .0321056
636.392 .0320746
637.151 .0320452
637.910 .0320174
638.668 .0319909
639.427 .0319649
640.185 .0319386
640.943 .0319128
641.700 .0318862
642.457 .0318589
643.214 .0318328
643.971 .0318067
644.727 .0317817
645.483 .0317578
646.239 .0317348
646.994 .0317111
647.750 .0316865
648.505 .0316609
649.259 .0316342
650.014 .0316066
650.768 .0315781
651.521 .0315485
652.275 .0315197
653.028 .0314911
653.781 .0314628
654.534 .0314345
655.286 .0314073
656.039 .0313802
656.791 .0313540
657.542 .0313277
658.294 .0313025
659.045 .0312780
659.796 .0312540
660.546 .0312294
661.297 .0312037
662.047 .0311763
662.796 .0311470
663.546 .0311150
664.295 .0310819
665.044 .0310471
665.793 .0310123
666.542 .0309773
667.290 .0309437
668.038 .0309110
668.786 .0308791
669.533 .0308476
670.281 .0308161
671.028 .0307845
671.774 .0307534
672.521 .0307229
673.267 .0306946
674.013 .0306687
674.759 .0306457
675.505 .0306251
676.250 .0306070
676.995 .0305903
677.740 .0305745
678.484 .0305590
679.229 .0305433
679.973 .0305260
680.717 .0305077
681.460 .0304885
682.204 .0304688
682.947 .0304496
683.690 .0304297
684.433 .0304095
685.175 .0303893
685.917 .0303687
686.659 .0303477
687.401 .0303268
688.142 .0303070
688.884 .0302875
689.625 .0302687
690.365 .0302500
691.106 .0302308
691.846 .0302118
692.586 .0301925
693.326 .0301724
694.066 .0301519
694.805 .0301311
695.545 .0301097
696.284 .0300889
697.022 .0300687
697.761 .0300488
698.499 .0300296
699.237 .0300109
699.975 .0299925
700.713 .0299739
701.450 .0299563
702.187 .0299390
702.924 .0299230
703.661 .0299088
704.397 .0298958
705.133 .0298849
705.869 .0298760
706.605 .0298685
707.341 .0298618
708.076 .0298559
708.811 .0298494
709.546 .0298419
710.281 .0298336
711.015 .0298238
711.749 .0298124
712.483 .0298001
713.217 .0297871
713.950 .0297729
714.684 .0297578
715.417 .0297420
716.150 .0297250
716.882 .0297076
717.615 .0296892
718.347 .0296701
719.079 .0296506
719.811 .0296313
720.542 .0296120
721.273 .0295930
722.005 .0295747
722.735 .0295568
723.466 .0295395
724.196 .0295229
724.927 .0295060
725.656 .0294888
726.386 .0294713
727.116 .0294537
727.845 .0294354
728.574 .0294168
729.303 .0293978
730.031 .0293788
730.760 .0293596
731.488 .0293401
732.216 .0293205
732.944 .0293009
733.671 .0292815
734.398 .0292621
735.125 .0292429
735.852 .0292238
736.579 .0292051
737.305 .0291869
738.031 .0291690
738.757 .0291515
739.483 .0291343
740.208 .0291173
740.933 .0291002
741.658 .0290831
742.383 .0290656
743.108 .0290475
743.832 .0290293
744.556 .0290104
745.280 .0289913
746.004 .0289717
746.727 .0289518
747.450 .0289320
748.173 .0289117
748.896 .0288910
749.618 .0288696
750.340 .0288478
751.062 .0288259
751.784 .0288029
752.506 .0287797
753.227 .0287562
753.948 .0287326
754.669 .0287090
755.389 .0286853
756.110 .0286616
756.830 .0286380
757.550 .0286147
758.269 .0285917
758.989 .0285690
759.708 .0285466
760.427 .0285243
761.146 .0285019
761.864 .0284794
762.582 .0284562
763.300 .0284325
764.018 .0284092
764.736 .0283858
765.453 .0283627
766.170 .0283400
766.887 .0283181
767.603 .0282972
768.320 .0282769
769.036 .0282572
769.751 .0282380
770.467 .0282193
771.182 .0282010
771.897 .0281834
772.612 .0281669
773.327 .0281520
774.041 .0281392
774.755 .0281282
775.469 .0281193
776.183 .0281126
776.896 .0281076
777.609 .0281046
778.322 .0281034
779.035 .0281032
779.747 .0281039
780.459 .0281059
781.171 .0281088
781.882 .0281120
782.594 .0281161
783.305 .0281207
784.016 .0281252
784.726 .0281300
785.436 .0281343
786.147 .0281383
786.856 .0281429
787.566 .0281477
788.275 .0281524
788.984 .0281576
789.693 .0281629
790.401 .0281674
791.110 .0281714
791.818 .0281747
792.525 .0281766
793.233 .0281771
793.940 .0281764
794.647 .0281743
795.353 .0281716
796.060 .0281689
796.766 .0281662
797.472 .0281637
798.177 .0281616
798.883 .0281591
799.588 .0281558
800.292 .0281517
800.997 .0281465
801.701 .0281402
802.405 .0281331
803.109 .0281258
803.812 .0281188
804.515 .0281125
805.218 .0281070
805.921 .0281023
806.623 .0280980
807.325 .0280936
808.027 .0280885
808.728 .0280822
809.429 .0280748
810.130 .0280663
810.831 .0280567
811.531 .0280464
812.231 .0280353
812.931 .0280234
813.630 .0280100
814.330 .0279957
815.029 .0279804
815.727 .0279640
816.426 .0279468
817.124 .0279291
817.821 .0279114
818.519 .0278942
819.216 .0278778
819.913 .0278627
820.609 .0278490
821.306 .0278363
822.002 .0278242
822.697 .0278127
823.393 .0278014
824.088 .0277904
824.783 .0277798
825.477 .0277695
826.171 .0277598
826.865 .0277509
827.559 .0277422
828.252 .0277343
828.945 .0277270
829.638 .0277200
830.330 .0277126
831.023 .0277050
831.714 .0276966
832.406 .0276876
833.097 .0276775
833.788 .0276665
834.479 .0276552
835.169 .0276435
835.859 .0276315
836.548 .0276194
837.238 .0276078
837.927 .0275960
838.615 .0275838
839.304 .0275713
839.992 .0275577
840.680 .0275430
841.367 .0275269
842.054 .0275098
842.741 .0274922
843.428 .0274743
844.114 .0274561
844.800 .0274378
845.485 .0274194
846.170 .0274002
846.855 .0273799
847.540 .0273589
848.224 .0273368
848.908 .0273136
849.592 .0272894
850.275 .0272648
850.958 .0272404
851.641 .0272166
852.323 .0271931
853.005 .0271701
853.687 .0271467
854.368 .0271223
855.049 .0270964
855.730 .0270684
856.410 .0270386
857.090 .0270071
857.769 .0269743
858.449 .0269412
859.128 .0269088
859.806 .0268776
860.485 .0268481
861.163 .0268204
861.840 .0267939
862.518 .0267680
863.195 .0267424
863.871 .0267165
864.548 .0266903
865.224 .0266644
865.899 .0266386
866.574 .0266132
867.249 .0265893
867.924 .0265672
868.598 .0265466
869.272 .0265281
869.946 .0265113
870.619 .0264952
871.292 .0264792
871.964 .0264635
872.636 .0264473
873.308 .0264310
873.979 .0264148
874.651 .0263986
875.321 .0263832
875.992 .0263692
876.662 .0263563
877.331 .0263452
878.001 .0263365
878.670 .0263293
879.338 .0263232
880.007 .0263190
880.675 .0263160
881.342 .0263139
882.009 .0263127
882.676 .0263123
883.343 .0263120
884.009 .0263121
884.675 .0263123
885.340 .0263126
886.005 .0263131
886.670 .0263141
887.334 .0263155
887.998 .0263179
888.662 .0263214
889.325 .0263258
889.988 .0263315
890.650 .0263386
891.312 .0263464
891.974 .0263544
892.636 .0263625
893.297 .0263708
893.957 .0263788
894.618 .0263867
895.278 .0263953
895.937 .0264048
896.596 .0264154
897.255 .0264271
897.914 .0264394
898.572 .0264522
899.230 .0264646
899.887 .0264758
900.544 .0264854
901.201 .0264936
901.857 .0265003
902.513 .0265052
903.168 .0265095
903.823 .0265130
904.478 .0265162
905.132 .0265191
905.786 .0265217
906.440 .0265236
907.093 .0265245
907.746 .0265239
908.399 .0265224
909.051 .0265199
909.703 .0265165
910.354 .0265120
911.005 .0265077
911.656 .0265031
912.306 .0264981
912.956 .0264927
913.605 .0264867
914.254 .0264798
914.903 .0264722
915.551 .0264638
916.199 .0264553
916.847 .0264472
917.494 .0264397
918.141 .0264326
918.788 .0264266
919.434 .0264212
920.079 .0264155
920.725 .0264100
921.370 .0264051
922.014 .0264000
922.658 .0263950
923.302 .0263903
923.946 .0263857
924.589 .0263814
925.231 .0263767
925.873 .0263714
926.515 .0263655
927.157 .0263586
927.798 .0263503
928.439 .0263406
929.079 .0263303
929.719 .0263188
930.359 .0263062
930.998 .0262931
931.637 .0262793
932.275 .0262648
932.913 .0262498
933.551 .0262343
934.188 .0262191
934.825 .0262042
935.462 .0261901
936.098 .0261772
936.733 .0261659
937.369 .0261557
938.004 .0261464
938.638 .0261376
939.273 .0261290
939.907 .0261200
940.540 .0261107
941.173 .0261016
941.806 .0260927
942.438 .0260839
943.070 .0260754
943.702 .0260672
944.333 .0260587
944.964 .0260495
945.594 .0260394
946.224 .0260287
946.854 .0260176
947.483 .0260062
948.112 .0259949
948.741 .0259838
949.369 .0259734
949.996 .0259634
950.624 .0259530
951.251 .0259426
951.878 .0259319
952.504 .0259207
953.130 .0259088
953.755 .0258962
954.380 .0258826
955.005 .0258685
955.629 .0258533
956.253 .0258367
956.877 .0258187
957.500 .0257996
958.123 .0257795
958.746 .0257578
959.368 .0257354
959.990 .0257123
960.611 .0256890
961.232 .0256659
961.853 .0256427
962.473 .0256200
963.093 .0255976
963.712 .0255755
964.331 .0255536
964.950 .0255323
965.569 .0255116
966.187 .0254916
966.804 .0254726
967.422 .0254545
968.039 .0254368
968.655 .0254196
969.272 .0254025
969.887 .0253854
970.503 .0253679
971.118 .0253500
971.733 .0253315
972.347 .0253127
972.961 .0252931
973.575 .0252729
974.188 .0252518
974.801 .0252297
975.414 .0252063
976.026 .0251817
976.638 .0251560
977.250 .0251293
977.861 .0251016
978.472 .0250737
979.083 .0250451
979.693 .0250158
980.303 .0249856
980.912 .0249547
981.521 .0249233
982.130 .0248918
982.738 .0248606
983.346 .0248301
983.954 .0248012
984.562 .0247742
985.169 .0247486
985.775 .0247247
986.382 .0247018
986.988 .0246799
987.594 .0246584
988.199 .0246373
988.804 .0246167
989.409 .0245969
990.013 .0245781
990.617 .0245599
991.221 .0245427
991.824 .0245262
992.427 .0245101
993.030 .0244941
993.632 .0244789
994.234 .0244640
994.836 .0244493
995.438 .0244351
996.039 .0244208
996.640 .0244068
997.240 .0243930
997.840 .0243793
998.440 .0243661
999.040 .0243533
999.639 .0243414
1000.238 .0243304
1000.836 .0243210
1001.435 .0243131
1002.033 .0243058
1002.630 .0242991
1003.228 .0242929
1003.825 .0242861
1004.422 .0242786
1005.018 .0242707
1005.614 .0242629
1006.210 .0242560
1006.806 .0242502
1007.401 .0242460
1007.996 .0242433
1008.591 .0242430
1009.186 .0242442
1009.780 .0242459
1010.374 .0242482
1010.967 .0242507
1011.561 .0242529
1012.154 .0242541
1012.746 .0242549
1013.339 .0242555
1013.931 .0242564
1014.523 .0242583
1015.115 .0242606
1015.706 .0242641
1016.298 .0242689
1016.888 .0242747
1017.479 .0242812
1018.069 .0242880
1018.660 .0242943
1019.250 .0242994
1019.839 .0243038
1020.429 .0243074
1021.018 .0243111
1021.607 .0243152
1022.195 .0243207
1022.784 .0243283
1023.372 .0243377
1023.960 .0243484
1024.547 .0243595
1025.135 .0243713
1025.722 .0243821
1026.309 .0243917
1026.896 .0244006
1027.483 .0244088
1028.069 .0244179
1028.655 .0244284
1029.241 .0244409
1029.827 .0244568
1030.412 .0244756
1030.997 .0244972
1031.582 .0245202
1032.167 .0245445
1032.752 .0245684
1033.336 .0245922
1033.921 .0246155
1034.505 .0246380
1035.089 .0246593
1035.672 .0246806
1036.256 .0247012
1036.839 .0247206
1037.422 .0247387
1038.005 .0247553
1038.588 .0247696
1039.171 .0247826
1039.753 .0247926
1040.335 .0248008
1040.918 .0248072
1041.500 .0248130
1042.081 .0248176
1042.663 .0248223
1043.244 .0248275
1043.826 .0248338
1044.407 .0248413
1044.988 .0248511
1045.569 .0248620
1046.150 .0248750
1046.730 .0248896
1047.311 .0249061
1047.891 .0249235
1048.471 .0249416
1049.052 .0249606
1049.632 .0249803
1050.211 .0250000
1050.791 .0250198
1051.371 .0250396
1051.950 .0250600
1052.530 .0250798
1053.109 .0250989
1053.688 .0251162
1054.268 .0251326
1054.847 .0251475
1055.426 .0251611
1056.005 .0251743
1056.583 .0251882
1057.162 .0252030
1057.741 .0252187
1058.319 .0252357
1058.898 .0252538
1059.476 .0252717
1060.055 .0252898
1060.633 .0253062
1061.211 .0253219
1061.790 .0253364
1062.368 .0253511
1062.946 .0253660
1063.524 .0253825
1064.102 .0254005
1064.680 .0254196
1065.258 .0254388
1065.836 .0254580
1066.414 .0254750
1066.992 .0254903
1067.570 .0255038
1068.148 .0255157
1068.726 .0255255
1069.304 .0255354
1069.882 .0255453
1070.460 .0255558
1071.038 .0255663
1071.616 .0255764
1072.194 .0255859
1072.772 .0255947
1073.350 .0256019
1073.928 .0256074
1074.506 .0256131
1075.084 .0256197
1075.662 .0256256
1076.240 .0256331
1076.819 .0256403
1077.397 .0256475
1077.976 .0256558
1078.554 .0256642
1079.133 .0256740
1079.711 .0256851
1080.290 .0256984
1080.869 .0257127
1081.448 .0257291
1082.027 .0257463
1082.606 .0257616
1083.185 .0257761
1083.764 .0257890
1084.343 .0258003
1084.923 .0258107
1085.502 .0258215
1086.082 .0258332
1086.662 .0258470
1087.242 .0258620
1087.822 .0258764
1088.402 .0258903
1088.983 .0259038
1089.563 .0259158
1090.144 .0259261
1090.725 .0259357
1091.306 .0259463
1091.887 .0259581
1092.469 .0259727
1093.050 .0259888
1093.632 .0260068
1094.214 .0260250
1094.796 .0260437
1095.379 .0260616
1095.961 .0260799
1096.544 .0260969
1097.127 .0261142
1097.710 .0261335
1098.294 .0261540
1098.877 .0261738
1099.461 .0261937
1100.046 .0262116
1100.630 .0262290
1101.215 .0262436
1101.800 .0262571
1102.385 .0262701
1102.970 .0262853
1103.556 .0263021
1104.142 .0263195
1104.728 .0263384
1105.315 .0263582
1105.902 .0263751
1106.489 .0263929
1107.077 .0264077
1107.664 .0264215
1108.253 .0264361
1108.841 .0264516
1109.430 .0264684
1110.019 .0264888
1110.609 .0265104
1111.198 .0265318
1111.789 .0265531
1112.379 .0265768
1112.970 .0265991
1113.561 .0266226
1114.153 .0266479
1114.745 .0266737
1115.338 .0267017
1115.931 .0267306
1116.524 .0267596
1117.117 .0267925
1117.712 .0268247
1118.306 .0268573
1118.901 .0268921
1119.496 .0269299
1120.092 .0269699
1120.689 .0270120
1121.285 .0270558
1121.882 .0270994
1122.480 .0271404
1123.078 .0271768
1123.677 .0272105
1124.276 .0272434
1124.875 .0272744
1125.476 .0273022
1126.076 .0273352
1126.677 .0273732
1127.279 .0274159
1127.881 .0274639
1128.484 .0275171
1129.087 .0275736
1129.691 .0276331
1130.295 .0276944
1130.900 .0277598
1131.505 .0278294
1132.111 .0279070
1132.718 .0279902
1133.325 .0280823
1133.933 .0281845
1134.541 .0282941
1135.150 .0284109
1135.760 .0285389
1136.370 .0286718
1136.981 .0288086
1137.592 .0289457
1138.204 .0290855
1138.817 .0292228
1139.431 .0293586
1140.045 .0294992
1140.660 .0296459
1141.275 .0298127
1141.891 .0299958
1142.508 .0300186
1143.126 .0303442
1143.744 .0306006
1144.363 .0310655
1144.983 .0311955
