Measurement Sequence started on: 15-12-46-377
Integration time: 28
Scans to Average: 2 
>>>>>Begin Spectral Data<<<<<
432.689 .0000100
433.621 .0000100
434.552 .0000100
435.482 .0000100
436.410 .0000100
437.337 .0000100
438.262 .0279677
439.187 .0592663
440.110 .0981537
441.031 .1420714
441.952 .1847335
442.871 .2183241
443.789 .2367880
444.705 .2380106
445.621 .2245192
446.535 .2019097
447.447 .1762504
448.359 .1369451
449.269 .1174007
450.178 .1050151
451.086 .0962112
451.993 .0894851
452.898 .0842020
453.803 .0799009
454.706 .0763620
455.608 .0733710
456.508 .0707820
457.408 .0685425
458.306 .0665556
459.204 .0647793
460.100 .0631784
460.995 .0617366
461.888 .0604465
462.781 .0592800
463.673 .0582086
464.563 .0572409
465.452 .0563370
466.340 .0554733
467.228 .0546576
468.114 .0538843
468.999 .0531554
469.882 .0524779
470.765 .0518580
471.647 .0513001
472.528 .0507960
473.407 .0503603
474.286 .0499810
475.163 .0496622
476.040 .0493887
476.915 .0491523
477.790 .0489531
478.663 .0487907
479.535 .0486464
480.407 .0485261
481.277 .0484333
482.147 .0483598
483.015 .0482996
483.883 .0482535
484.749 .0482161
485.615 .0481915
486.479 .0481725
487.343 .0481615
488.206 .0481578
489.067 .0481599
489.928 .0481661
490.788 .0481836
491.647 .0482136
492.505 .0482629
493.362 .0483335
494.218 .0484309
495.073 .0485486
495.928 .0486954
496.781 .0488704
497.634 .0490756
498.486 .0493173
499.337 .0495916
500.187 .0498935
501.036 .0502307
501.884 .0506033
502.731 .0510037
503.578 .0514288
504.424 .0518784
505.268 .0523429
506.113 .0528315
506.956 .0533443
507.798 .0539010
508.640 .0545112
509.480 .0551976
510.320 .0559563
511.160 .0568005
511.998 .0577378
512.836 .0587676
513.672 .0598973
514.508 .0611289
515.344 .0624588
516.178 .0639146
517.012 .0655405
517.845 .0674043
518.677 .0695305
519.508 .0719806
520.339 .0747879
521.169 .0779909
521.998 .0815642
522.826 .0855633
523.654 .0900293
524.481 .0949789
525.307 .1004763
526.133 .1064868
526.958 .1130487
527.782 .1201441
528.605 .1275931
529.428 .1353256
530.250 .1427751
531.072 .1496355
531.892 .1554362
532.712 .1598832
533.532 .1627040
534.350 .1636686
535.168 .1627385
535.986 .1599663
536.802 .1556344
537.618 .1500447
538.434 .1434516
539.249 .1364096
540.063 .1291476
540.876 .1219341
541.689 .1149318
542.501 .1083787
543.313 .1023475
544.124 .0969168
544.934 .0920123
545.744 .0875323
546.553 .0834860
547.361 .0798477
548.169 .0766007
548.976 .0736704
549.783 .0710353
550.589 .0686548
551.395 .0664487
552.200 .0644296
553.004 .0625296
553.808 .0607619
554.611 .0591196
555.414 .0575922
556.216 .0561552
557.018 .0548407
557.819 .0536310
558.619 .0525217
559.419 .0515150
560.218 .0506031
561.017 .0497623
561.815 .0489831
562.613 .0482517
563.410 .0475631
564.207 .0469080
565.003 .0462866
565.799 .0456801
566.594 .0450949
567.388 .0445283
568.182 .0439781
568.976 .0434467
569.769 .0429399
570.562 .0424506
571.354 .0419727
572.145 .0415059
572.936 .0410462
573.727 .0405853
574.517 .0401304
575.307 .0396811
576.096 .0392419
576.885 .0388150
577.673 .0384063
578.461 .0380219
579.248 .0376587
580.035 .0373180
580.821 .0369948
581.607 .0366866
582.392 .0363957
583.177 .0361197
583.962 .0358640
584.746 .0356314
585.529 .0354229
586.313 .0352394
587.095 .0350758
587.878 .0349332
588.660 .0348076
589.441 .0346939
590.222 .0345918
591.003 .0345000
591.783 .0344166
592.563 .0343431
593.342 .0342798
594.121 .0342243
594.899 .0341759
595.678 .0341329
596.455 .0340936
597.233 .0340556
598.009 .0340177
598.786 .0339789
599.562 .0339384
600.338 .0338979
601.113 .0338554
601.888 .0338115
602.663 .0337669
603.437 .0337212
604.211 .0336731
604.984 .0336226
605.757 .0335712
606.530 .0335183
607.302 .0334655
608.074 .0334142
608.845 .0333654
609.616 .0333189
610.387 .0332750
611.158 .0332343
611.928 .0331953
612.697 .0331583
613.467 .0331227
614.236 .0330885
615.004 .0330555
615.773 .0330239
616.541 .0329935
617.308 .0329642
618.076 .0329364
618.843 .0329080
619.609 .0328797
620.375 .0328510
621.141 .0328217
621.907 .0327912
622.672 .0327604
623.437 .0327295
624.202 .0326970
624.966 .0326648
625.730 .0326316
626.493 .0325975
627.257 .0325632
628.020 .0325280
628.782 .0324923
629.545 .0324561
630.307 .0324196
631.068 .0323828
631.830 .0323465
632.591 .0323098
633.352 .0322722
634.112 .0322341
634.872 .0321951
635.632 .0321550
636.392 .0321135
637.151 .0320724
637.910 .0320303
638.668 .0319890
639.427 .0319489
640.185 .0319099
640.943 .0318734
641.700 .0318394
642.457 .0318074
643.214 .0317778
643.971 .0317501
644.727 .0317243
645.483 .0317000
646.239 .0316777
646.994 .0316563
647.750 .0316362
648.505 .0316176
649.259 .0316006
650.014 .0315842
650.768 .0315691
651.521 .0315538
652.275 .0315383
653.028 .0315228
653.781 .0315061
654.534 .0314888
655.286 .0314708
656.039 .0314524
656.791 .0314333
657.542 .0314132
658.294 .0313925
659.045 .0313719
659.796 .0313513
660.546 .0313304
661.297 .0313086
662.047 .0312866
662.796 .0312639
663.546 .0312403
664.295 .0312162
665.044 .0311919
665.793 .0311674
666.542 .0311430
667.290 .0311181
668.038 .0310940
668.786 .0310704
669.533 .0310476
670.281 .0310259
671.028 .0310051
671.774 .0309850
672.521 .0309659
673.267 .0309479
674.013 .0309309
674.759 .0309144
675.505 .0308986
676.250 .0308830
676.995 .0308675
677.740 .0308522
678.484 .0308362
679.229 .0308203
679.973 .0308044
680.717 .0307873
681.460 .0307692
682.204 .0307503
682.947 .0307304
683.690 .0307094
684.433 .0306875
685.175 .0306651
685.917 .0306425
686.659 .0306202
687.401 .0305983
688.142 .0305772
688.884 .0305569
689.625 .0305374
690.365 .0305176
691.106 .0304979
691.846 .0304774
692.586 .0304561
693.326 .0304341
694.066 .0304115
694.805 .0303887
695.545 .0303652
696.284 .0303416
697.022 .0303180
697.761 .0302931
698.499 .0302670
699.237 .0302389
699.975 .0302093
700.713 .0301777
701.450 .0301446
702.187 .0301106
702.924 .0300768
703.661 .0300432
704.397 .0300108
705.133 .0299803
705.869 .0299521
706.605 .0299257
707.341 .0299009
708.076 .0298772
708.811 .0298540
709.546 .0298308
710.281 .0298073
711.015 .0297832
711.749 .0297595
712.483 .0297355
713.217 .0297115
713.950 .0296882
714.684 .0296656
715.417 .0296434
716.150 .0296220
716.882 .0296005
717.615 .0295785
718.347 .0295559
719.079 .0295324
719.811 .0295079
720.542 .0294830
721.273 .0294579
722.005 .0294322
722.735 .0294073
723.466 .0293836
724.196 .0293604
724.927 .0293385
725.656 .0293179
726.386 .0292982
727.116 .0292791
727.845 .0292601
728.574 .0292412
729.303 .0292226
730.031 .0292045
730.760 .0291869
731.488 .0291703
732.216 .0291558
732.944 .0291432
733.671 .0291326
734.398 .0291244
735.125 .0291177
735.852 .0291122
736.579 .0291075
737.305 .0291030
738.031 .0290988
738.757 .0290948
739.483 .0290913
740.208 .0290884
740.933 .0290861
741.658 .0290845
742.383 .0290830
743.108 .0290818
743.832 .0290804
744.556 .0290782
745.280 .0290756
746.004 .0290726
746.727 .0290691
747.450 .0290656
748.173 .0290622
748.896 .0290591
749.618 .0290559
750.340 .0290529
751.062 .0290493
751.784 .0290449
752.506 .0290398
753.227 .0290338
753.948 .0290267
754.669 .0290186
755.389 .0290094
756.110 .0289992
756.830 .0289879
757.550 .0289758
758.269 .0289628
758.989 .0289492
759.708 .0289352
760.427 .0289209
761.146 .0289062
761.864 .0288919
762.582 .0288772
763.300 .0288627
764.018 .0288485
764.736 .0288347
765.453 .0288213
766.170 .0288087
766.887 .0287969
767.603 .0287858
768.320 .0287749
769.036 .0287644
769.751 .0287528
770.467 .0287405
771.182 .0287267
771.897 .0287114
772.612 .0286950
773.327 .0286786
774.041 .0286621
774.755 .0286467
775.469 .0286320
776.183 .0286189
776.896 .0286067
777.609 .0285956
778.322 .0285848
779.035 .0285741
779.747 .0285634
780.459 .0285524
781.171 .0285419
781.882 .0285325
782.594 .0285242
783.305 .0285175
784.016 .0285123
784.726 .0285077
785.436 .0285031
786.147 .0284982
786.856 .0284921
787.566 .0284845
788.275 .0284751
788.984 .0284640
789.693 .0284514
790.401 .0284376
791.110 .0284231
791.818 .0284078
792.525 .0283924
793.233 .0283762
793.940 .0283592
794.647 .0283413
795.353 .0283224
796.060 .0283025
796.766 .0282817
797.472 .0282602
798.177 .0282380
798.883 .0282151
799.588 .0281926
800.292 .0281696
800.997 .0281468
801.701 .0281239
802.405 .0281009
803.109 .0280779
803.812 .0280548
804.515 .0280319
805.218 .0280086
805.921 .0279851
806.623 .0279612
807.325 .0279369
808.027 .0279124
808.728 .0278875
809.429 .0278621
810.130 .0278366
810.831 .0278109
811.531 .0277849
812.231 .0277586
812.931 .0277323
813.630 .0277059
814.330 .0276792
815.029 .0276525
815.727 .0276263
816.426 .0276002
817.124 .0275751
817.821 .0275507
818.519 .0275275
819.216 .0275061
819.913 .0274862
820.609 .0274679
821.306 .0274514
822.002 .0274365
822.697 .0274232
823.393 .0274112
824.088 .0274009
824.783 .0273916
825.477 .0273835
826.171 .0273766
826.865 .0273710
827.559 .0273671
828.252 .0273644
828.945 .0273625
829.638 .0273615
830.330 .0273608
831.023 .0273602
831.714 .0273595
832.406 .0273592
833.097 .0273589
833.788 .0273588
834.479 .0273588
835.169 .0273597
835.859 .0273613
836.548 .0273638
837.238 .0273665
837.927 .0273693
838.615 .0273720
839.304 .0273737
839.992 .0273747
840.680 .0273755
841.367 .0273764
842.054 .0273778
842.741 .0273799
843.428 .0273834
844.114 .0273880
844.800 .0273939
845.485 .0274000
846.170 .0274060
846.855 .0274113
847.540 .0274152
848.224 .0274178
848.908 .0274195
849.592 .0274204
850.275 .0274206
850.958 .0274204
851.641 .0274201
852.323 .0274193
853.005 .0274181
853.687 .0274158
854.368 .0274123
855.049 .0274073
855.730 .0274008
856.410 .0273924
857.090 .0273833
857.769 .0273733
858.449 .0273624
859.128 .0273512
859.806 .0273397
860.485 .0273285
861.163 .0273180
861.840 .0273083
862.518 .0272994
863.195 .0272911
863.871 .0272831
864.548 .0272752
865.224 .0272675
865.899 .0272595
866.574 .0272512
867.249 .0272424
867.924 .0272333
868.598 .0272239
869.272 .0272154
869.946 .0272077
870.619 .0272012
871.292 .0271960
871.964 .0271915
872.636 .0271872
873.308 .0271834
873.979 .0271794
874.651 .0271754
875.321 .0271717
875.992 .0271681
876.662 .0271653
877.331 .0271634
878.001 .0271628
878.670 .0271635
879.338 .0271648
880.007 .0271665
880.675 .0271676
881.342 .0271683
882.009 .0271679
882.676 .0271665
883.343 .0271639
884.009 .0271606
884.675 .0271565
885.340 .0271515
886.005 .0271462
886.670 .0271409
887.334 .0271362
887.998 .0271318
888.662 .0271282
889.325 .0271254
889.988 .0271230
890.650 .0271218
891.312 .0271210
891.974 .0271208
892.636 .0271208
893.297 .0271211
893.957 .0271215
894.618 .0271221
895.278 .0271227
895.937 .0271230
896.596 .0271232
897.255 .0271229
897.914 .0271209
898.572 .0271168
899.230 .0271102
899.887 .0271004
900.544 .0270872
901.201 .0270712
901.857 .0270522
902.513 .0270311
903.168 .0270080
903.823 .0269834
904.478 .0269574
905.132 .0269301
905.786 .0269017
906.440 .0268721
907.093 .0268413
907.746 .0268092
908.399 .0267762
909.051 .0267429
909.703 .0267091
910.354 .0266751
911.005 .0266411
911.656 .0266076
912.306 .0265742
912.956 .0265414
913.605 .0265091
914.254 .0264781
914.903 .0264476
915.551 .0264181
916.199 .0263895
916.847 .0263617
917.494 .0263349
918.141 .0263089
918.788 .0262836
919.434 .0262593
920.079 .0262354
920.725 .0262121
921.370 .0261885
922.014 .0261648
922.658 .0261407
923.302 .0261159
923.946 .0260897
924.589 .0260622
925.231 .0260330
925.873 .0260024
926.515 .0259705
927.157 .0259373
927.798 .0259034
928.439 .0258687
929.079 .0258338
929.719 .0257980
930.359 .0257617
930.998 .0257254
931.637 .0256888
932.275 .0256530
932.913 .0256183
933.551 .0255847
934.188 .0255530
934.825 .0255234
935.462 .0254962
936.098 .0254708
936.733 .0254476
937.369 .0254261
938.004 .0254059
938.638 .0253865
939.273 .0253681
939.907 .0253502
940.540 .0253338
941.173 .0253186
941.806 .0253048
942.438 .0252930
943.070 .0252831
943.702 .0252746
944.333 .0252670
944.964 .0252598
945.594 .0252524
946.224 .0252439
946.854 .0252344
947.483 .0252240
948.112 .0252131
948.741 .0252019
949.369 .0251909
949.996 .0251804
950.624 .0251702
951.251 .0251600
951.878 .0251497
952.504 .0251386
953.130 .0251265
953.755 .0251134
954.380 .0250993
955.005 .0250845
955.629 .0250696
956.253 .0250552
956.877 .0250415
957.500 .0250294
958.123 .0250185
958.746 .0250084
959.368 .0249996
959.990 .0249915
960.611 .0249837
961.232 .0249760
961.853 .0249688
962.473 .0249622
963.093 .0249564
963.712 .0249517
964.331 .0249480
964.950 .0249453
965.569 .0249437
966.187 .0249429
966.804 .0249425
967.422 .0249429
968.039 .0249436
968.655 .0249446
969.272 .0249457
969.887 .0249466
970.503 .0249473
971.118 .0249483
971.733 .0249494
972.347 .0249507
972.961 .0249520
973.575 .0249534
974.188 .0249546
974.801 .0249559
975.414 .0249572
976.026 .0249582
976.638 .0249592
977.250 .0249609
977.861 .0249630
978.472 .0249661
979.083 .0249703
979.693 .0249751
980.303 .0249798
980.912 .0249837
981.521 .0249861
982.130 .0249875
982.738 .0249884
983.346 .0249890
983.954 .0249894
984.562 .0249908
985.169 .0249926
985.775 .0249949
986.382 .0249978
986.988 .0250008
987.594 .0250029
988.199 .0250041
988.804 .0250037
989.409 .0250022
990.013 .0250008
990.617 .0250003
991.221 .0250014
991.824 .0250052
992.427 .0250122
993.030 .0250220
993.632 .0250342
994.234 .0250483
994.836 .0250628
995.438 .0250771
996.039 .0250907
996.640 .0251027
997.240 .0251138
997.840 .0251250
998.440 .0251366
999.040 .0251490
999.639 .0251623
1000.238 .0251764
1000.836 .0251909
1001.435 .0252053
1002.033 .0252188
1002.630 .0252309
1003.228 .0252417
1003.825 .0252516
1004.422 .0252609
1005.018 .0252705
1005.614 .0252810
1006.210 .0252931
1006.806 .0253067
1007.401 .0253220
1007.996 .0253376
1008.591 .0253537
1009.186 .0253702
1009.780 .0253867
1010.374 .0254024
1010.967 .0254178
1011.561 .0254334
1012.154 .0254487
1012.746 .0254633
1013.339 .0254768
1013.931 .0254885
1014.523 .0254993
1015.115 .0255080
1015.706 .0255147
1016.298 .0255207
1016.888 .0255267
1017.479 .0255323
1018.069 .0255387
1018.660 .0255459
1019.250 .0255538
1019.839 .0255624
1020.429 .0255714
1021.018 .0255797
1021.607 .0255877
1022.195 .0255954
1022.784 .0256027
1023.372 .0256106
1023.960 .0256202
1024.547 .0256311
1025.135 .0256446
1025.722 .0256607
1026.309 .0256777
1026.896 .0256954
1027.483 .0257134
1028.069 .0257306
1028.655 .0257466
1029.241 .0257609
1029.827 .0257742
1030.412 .0257863
1030.997 .0257991
1031.582 .0258122
1032.167 .0258261
1032.752 .0258411
1033.336 .0258558
1033.921 .0258697
1034.505 .0258824
1035.089 .0258925
1035.672 .0259006
1036.256 .0259059
1036.839 .0259091
1037.422 .0259101
1038.005 .0259103
1038.588 .0259106
1039.171 .0259118
1039.753 .0259135
1040.335 .0259159
1040.918 .0259177
1041.500 .0259193
1042.081 .0259194
1042.663 .0259185
1043.244 .0259171
1043.826 .0259158
1044.407 .0259150
1044.988 .0259156
1045.569 .0259173
1046.150 .0259210
1046.730 .0259252
1047.311 .0259300
1047.891 .0259334
1048.471 .0259354
1049.052 .0259343
1049.632 .0259312
1050.211 .0259267
1050.791 .0259215
1051.371 .0259161
1051.950 .0259120
1052.530 .0259084
1053.109 .0259042
1053.688 .0258984
1054.268 .0258901
1054.847 .0258782
1055.426 .0258629
1056.005 .0258442
1056.583 .0258240
1057.162 .0258035
1057.741 .0257847
1058.319 .0257673
1058.898 .0257536
1059.476 .0257414
1060.055 .0257295
1060.633 .0257179
1061.211 .0257050
1061.790 .0256904
1062.368 .0256742
1062.946 .0256579
1063.524 .0256429
1064.102 .0256298
1064.680 .0256190
1065.258 .0256093
1065.836 .0256006
1066.414 .0255916
1066.992 .0255806
1067.570 .0255671
1068.148 .0255518
1068.726 .0255342
1069.304 .0255162
1069.882 .0254986
1070.460 .0254807
1071.038 .0254639
1071.616 .0254472
1072.194 .0254308
1072.772 .0254141
1073.350 .0253965
1073.928 .0253787
1074.506 .0253608
1075.084 .0253439
1075.662 .0253278
1076.240 .0253141
1076.819 .0253030
1077.397 .0252948
1077.976 .0252892
1078.554 .0252867
1079.133 .0252848
1079.711 .0252839
1080.290 .0252825
1080.869 .0252787
1081.448 .0252723
1082.027 .0252627
1082.606 .0252503
1083.185 .0252366
1083.764 .0252229
1084.343 .0252107
1084.923 .0252000
1085.502 .0251928
1086.082 .0251884
1086.662 .0251864
1087.242 .0251855
1087.822 .0251836
1088.402 .0251795
1088.983 .0251738
1089.563 .0251662
1090.144 .0251569
1090.725 .0251480
1091.306 .0251403
1091.887 .0251354
1092.469 .0251327
1093.050 .0251314
1093.632 .0251310
1094.214 .0251304
1094.796 .0251289
1095.379 .0251253
1095.961 .0251191
1096.544 .0251117
1097.127 .0251027
1097.710 .0250958
1098.294 .0250891
1098.877 .0250836
1099.461 .0250803
1100.046 .0250788
1100.630 .0250780
1101.215 .0250806
1101.800 .0250861
1102.385 .0250953
1102.970 .0251074
1103.556 .0251227
1104.142 .0251401
1104.728 .0251612
1105.315 .0251827
1105.902 .0252024
1106.489 .0252209
1107.077 .0252368
1107.664 .0252463
1108.253 .0252543
1108.841 .0252631
1109.430 .0252737
1110.019 .0252875
1110.609 .0253050
1111.198 .0253245
1111.789 .0253461
1112.379 .0253684
1112.970 .0253891
1113.561 .0254084
1114.153 .0254274
1114.745 .0254445
1115.338 .0254644
1115.931 .0254910
1116.524 .0255219
1117.117 .0255609
1117.712 .0256066
1118.306 .0256561
1118.901 .0257081
1119.496 .0257606
1120.092 .0258139
1120.689 .0258669
1121.285 .0259177
1121.882 .0259655
1122.480 .0260120
1123.078 .0260609
1123.677 .0261066
1124.276 .0261530
1124.875 .0262005
1125.476 .0262469
1126.076 .0262929
1126.677 .0263418
1127.279 .0263917
1127.881 .0264464
1128.484 .0265034
1129.087 .0265592
1129.691 .0266159
1130.295 .0266749
1130.900 .0267388
1131.505 .0268111
1132.111 .0268946
1132.718 .0269880
1133.325 .0270926
1133.933 .0272114
1134.541 .0273384
1135.150 .0274722
1135.760 .0276077
1136.370 .0277401
1136.981 .0278666
1137.592 .0279859
1138.204 .0281040
1138.817 .0282274
1139.431 .0283592
1140.045 .0284898
1140.660 .0286203
1141.275 .0287481
1141.891 .0288827
1142.508 .0291917
1143.126 .0291151
1143.744 .0291356
1144.363 .0291969
1144.983 .0296759
