Measurement Sequence started on: 15-12-46-377
Integration time: 28
Scans to Average: 2 
>>>>>Begin Spectral Data<<<<<
432.689 .0000100
433.621 .0000100
434.552 .0000100
435.482 .0000100
436.410 .0000100
437.337 .0000100
438.262 .0267835
439.187 .0568316
440.110 .0942032
441.031 .1363319
441.952 .1772215
442.871 .2094330
443.789 .2271034
444.705 .2282024
445.621 .2152165
446.535 .1935028
447.447 .1689034
448.359 .1312868
449.269 .1125849
450.178 .1007855
451.086 .0924960
451.993 .0861841
452.898 .0811976
453.803 .0771697
454.706 .0739079
455.608 .0711835
456.508 .0688900
457.408 .0669438
458.306 .0652444
459.204 .0637318
460.100 .0623542
460.995 .0610964
461.888 .0599568
462.781 .0589168
463.673 .0579680
464.563 .0571074
465.452 .0563139
466.340 .0555712
467.228 .0548786
468.114 .0542084
468.999 .0535774
469.882 .0529608
470.765 .0523680
471.647 .0517993
472.528 .0512650
473.407 .0507721
474.286 .0503320
475.163 .0499525
476.040 .0496361
476.915 .0493663
477.790 .0491483
478.663 .0489627
479.535 .0488039
480.407 .0486617
481.277 .0485229
482.147 .0483894
483.015 .0482702
483.883 .0481589
484.749 .0480677
485.615 .0480053
486.479 .0479786
487.343 .0479830
488.206 .0480157
489.067 .0480666
489.928 .0481247
490.788 .0481867
491.647 .0482478
492.505 .0483042
493.362 .0483701
494.218 .0484444
495.073 .0485412
495.928 .0486741
496.781 .0488358
497.634 .0490281
498.486 .0492455
499.337 .0494827
500.187 .0497284
501.036 .0499763
501.884 .0502389
502.731 .0505079
503.578 .0508125
504.424 .0511479
505.268 .0515176
506.113 .0519311
506.956 .0523885
507.798 .0528785
508.640 .0534085
509.480 .0539674
510.320 .0545799
511.160 .0552611
511.998 .0560351
512.836 .0569138
513.672 .0579176
514.508 .0590606
515.344 .0603584
516.178 .0618057
517.012 .0634603
517.845 .0652918
518.677 .0673669
519.508 .0697121
520.339 .0724101
521.169 .0755501
521.998 .0792047
522.826 .0834357
523.654 .0882752
524.481 .0937272
525.307 .0997684
526.133 .1063964
526.958 .1135438
527.782 .1211467
528.605 .1290122
529.428 .1370139
530.250 .1446416
531.072 .1515668
531.892 .1574665
532.712 .1620228
533.532 .1649453
534.350 .1660053
535.168 .1650361
535.986 .1621689
536.802 .1575534
537.618 .1515553
538.434 .1444115
539.249 .1367186
540.063 .1287327
540.876 .1207849
541.689 .1131487
542.501 .1060774
543.313 .0996664
544.124 .0939207
544.934 .0887532
545.744 .0840605
546.553 .0797934
547.361 .0759950
548.169 .0726220
548.976 .0696661
549.783 .0670670
550.589 .0648025
551.395 .0627899
552.200 .0610205
553.004 .0594362
553.808 .0579920
554.611 .0566767
555.414 .0554695
556.216 .0543483
557.018 .0533283
557.819 .0524047
558.619 .0515613
559.419 .0507865
560.218 .0500750
561.017 .0493967
561.815 .0487311
562.613 .0480716
563.410 .0474087
564.207 .0467493
565.003 .0460996
565.799 .0454629
566.594 .0448435
567.388 .0442545
568.182 .0436922
568.976 .0431501
569.769 .0426270
570.562 .0421162
571.354 .0416098
572.145 .0411195
572.936 .0406387
573.727 .0401704
574.517 .0397154
575.307 .0392845
576.096 .0388709
576.885 .0384796
577.673 .0381109
578.461 .0377636
579.248 .0374370
580.035 .0371291
580.821 .0368350
581.607 .0365540
582.392 .0362857
583.177 .0360319
583.962 .0357909
584.746 .0355685
585.529 .0353633
586.313 .0351780
587.095 .0350109
587.878 .0348625
588.660 .0347289
589.441 .0346070
590.222 .0344978
591.003 .0343987
591.783 .0343076
592.563 .0342203
593.342 .0341386
594.121 .0340602
594.899 .0339859
595.678 .0339157
596.455 .0338490
597.233 .0337877
598.009 .0337289
598.786 .0336716
599.562 .0336160
600.338 .0335603
601.113 .0335050
601.888 .0334489
602.663 .0333940
603.437 .0333392
604.211 .0332855
604.984 .0332333
605.757 .0331838
606.530 .0331355
607.302 .0330889
608.074 .0330442
608.845 .0330014
609.616 .0329608
610.387 .0329212
611.158 .0328842
611.928 .0328495
612.697 .0328158
613.467 .0327837
614.236 .0327521
615.004 .0327224
615.773 .0326934
616.541 .0326653
617.308 .0326390
618.076 .0326146
618.843 .0325921
619.609 .0325712
620.375 .0325517
621.141 .0325332
621.907 .0325147
622.672 .0324952
623.437 .0324751
624.202 .0324538
624.966 .0324324
625.730 .0324108
626.493 .0323897
627.257 .0323692
628.020 .0323485
628.782 .0323270
629.545 .0323041
630.307 .0322783
631.068 .0322503
631.830 .0322188
632.591 .0321848
633.352 .0321488
634.112 .0321123
634.872 .0320752
635.632 .0320390
636.392 .0320026
637.151 .0319676
637.910 .0319316
638.668 .0318958
639.427 .0318592
640.185 .0318228
640.943 .0317868
641.700 .0317513
642.457 .0317172
643.214 .0316856
643.971 .0316553
644.727 .0316281
645.483 .0316030
646.239 .0315803
646.994 .0315581
647.750 .0315363
648.505 .0315149
649.259 .0314940
650.014 .0314727
650.768 .0314514
651.521 .0314303
652.275 .0314103
653.028 .0313903
653.781 .0313701
654.534 .0313507
655.286 .0313314
656.039 .0313111
656.791 .0312898
657.542 .0312671
658.294 .0312431
659.045 .0312182
659.796 .0311924
660.546 .0311665
661.297 .0311411
662.047 .0311164
662.796 .0310921
663.546 .0310688
664.295 .0310461
665.044 .0310231
665.793 .0310002
666.542 .0309770
667.290 .0309531
668.038 .0309290
668.786 .0309050
669.533 .0308818
670.281 .0308593
671.028 .0308380
671.774 .0308170
672.521 .0307974
673.267 .0307788
674.013 .0307599
674.759 .0307410
675.505 .0307217
676.250 .0307013
676.995 .0306799
677.740 .0306577
678.484 .0306352
679.229 .0306125
679.973 .0305908
680.717 .0305692
681.460 .0305482
682.204 .0305280
682.947 .0305080
683.690 .0304879
684.433 .0304677
685.175 .0304464
685.917 .0304242
686.659 .0304017
687.401 .0303792
688.142 .0303571
688.884 .0303364
689.625 .0303166
690.365 .0302971
691.106 .0302774
691.846 .0302571
692.586 .0302354
693.326 .0302128
694.066 .0301886
694.805 .0301634
695.545 .0301376
696.284 .0301121
697.022 .0300871
697.761 .0300637
698.499 .0300418
699.237 .0300211
699.975 .0300009
700.713 .0299812
701.450 .0299610
702.187 .0299408
702.924 .0299203
703.661 .0299002
704.397 .0298804
705.133 .0298619
705.869 .0298445
706.605 .0298291
707.341 .0298147
708.076 .0298011
708.811 .0297871
709.546 .0297725
710.281 .0297559
711.015 .0297370
711.749 .0297156
712.483 .0296930
713.217 .0296687
713.950 .0296438
714.684 .0296184
715.417 .0295932
716.150 .0295685
716.882 .0295445
717.615 .0295207
718.347 .0294975
719.079 .0294746
719.811 .0294519
720.542 .0294290
721.273 .0294067
722.005 .0293845
722.735 .0293631
723.466 .0293426
724.196 .0293230
724.927 .0293041
725.656 .0292864
726.386 .0292691
727.116 .0292524
727.845 .0292362
728.574 .0292195
729.303 .0292025
730.031 .0291857
730.760 .0291686
731.488 .0291515
732.216 .0291351
732.944 .0291200
733.671 .0291060
734.398 .0290937
735.125 .0290827
735.852 .0290729
736.579 .0290641
737.305 .0290555
738.031 .0290473
738.757 .0290390
739.483 .0290309
740.208 .0290227
740.933 .0290152
741.658 .0290084
742.383 .0290016
743.108 .0289948
743.832 .0289879
744.556 .0289804
745.280 .0289719
746.004 .0289623
746.727 .0289518
747.450 .0289407
748.173 .0289289
748.896 .0289169
749.618 .0289050
750.340 .0288932
751.062 .0288814
751.784 .0288695
752.506 .0288580
753.227 .0288464
753.948 .0288344
754.669 .0288225
755.389 .0288099
756.110 .0287967
756.830 .0287824
757.550 .0287670
758.269 .0287508
758.989 .0287337
759.708 .0287155
760.427 .0286969
761.146 .0286781
761.864 .0286591
762.582 .0286402
763.300 .0286216
764.018 .0286033
764.736 .0285849
765.453 .0285665
766.170 .0285482
766.887 .0285298
767.603 .0285120
768.320 .0284942
769.036 .0284773
769.751 .0284610
770.467 .0284455
771.182 .0284306
771.897 .0284162
772.612 .0284023
773.327 .0283882
774.041 .0283744
774.755 .0283610
775.469 .0283480
776.183 .0283360
776.896 .0283251
777.609 .0283156
778.322 .0283071
779.035 .0282995
779.747 .0282922
780.459 .0282855
781.171 .0282788
781.882 .0282725
782.594 .0282665
783.305 .0282614
784.016 .0282576
784.726 .0282552
785.436 .0282538
786.147 .0282530
786.856 .0282524
787.566 .0282513
788.275 .0282488
788.984 .0282443
789.693 .0282373
790.401 .0282285
791.110 .0282178
791.818 .0282059
792.525 .0281931
793.233 .0281803
793.940 .0281678
794.647 .0281555
795.353 .0281431
796.060 .0281306
796.766 .0281175
797.472 .0281039
798.177 .0280893
798.883 .0280740
799.588 .0280581
800.292 .0280425
800.997 .0280274
801.701 .0280133
802.405 .0280007
803.109 .0279894
803.812 .0279792
804.515 .0279699
805.218 .0279604
805.921 .0279502
806.623 .0279386
807.325 .0279255
808.027 .0279107
808.728 .0278946
809.429 .0278778
810.130 .0278606
810.831 .0278435
811.531 .0278266
812.231 .0278094
812.931 .0277920
813.630 .0277736
814.330 .0277539
815.029 .0277335
815.727 .0277122
816.426 .0276906
817.124 .0276696
817.821 .0276495
818.519 .0276312
819.216 .0276148
819.913 .0276003
820.609 .0275874
821.306 .0275757
822.002 .0275648
822.697 .0275543
823.393 .0275441
824.088 .0275344
824.783 .0275251
825.477 .0275166
826.171 .0275088
826.865 .0275026
827.559 .0274978
828.252 .0274942
828.945 .0274919
829.638 .0274900
830.330 .0274881
831.023 .0274857
831.714 .0274828
832.406 .0274791
833.097 .0274748
833.788 .0274701
834.479 .0274653
835.169 .0274612
835.859 .0274579
836.548 .0274558
837.238 .0274547
837.927 .0274541
838.615 .0274533
839.304 .0274525
839.992 .0274512
840.680 .0274491
841.367 .0274468
842.054 .0274443
842.741 .0274418
843.428 .0274398
844.114 .0274383
844.800 .0274373
845.485 .0274370
846.170 .0274367
846.855 .0274360
847.540 .0274349
848.224 .0274329
848.908 .0274301
849.592 .0274262
850.275 .0274210
850.958 .0274142
851.641 .0274056
852.323 .0273952
853.005 .0273828
853.687 .0273684
854.368 .0273523
855.049 .0273347
855.730 .0273159
856.410 .0272962
857.090 .0272760
857.769 .0272556
858.449 .0272349
859.128 .0272137
859.806 .0271924
860.485 .0271714
861.163 .0271507
861.840 .0271306
862.518 .0271119
863.195 .0270948
863.871 .0270792
864.548 .0270652
865.224 .0270529
865.899 .0270416
866.574 .0270313
867.249 .0270212
867.924 .0270114
868.598 .0270019
869.272 .0269925
869.946 .0269840
870.619 .0269768
871.292 .0269711
871.964 .0269661
872.636 .0269621
873.308 .0269590
873.979 .0269561
874.651 .0269528
875.321 .0269490
875.992 .0269447
876.662 .0269396
877.331 .0269342
878.001 .0269285
878.670 .0269232
879.338 .0269182
880.007 .0269135
880.675 .0269091
881.342 .0269046
882.009 .0268999
882.676 .0268948
883.343 .0268893
884.009 .0268833
884.675 .0268766
885.340 .0268696
886.005 .0268626
886.670 .0268561
887.334 .0268498
887.998 .0268445
888.662 .0268403
889.325 .0268370
889.988 .0268344
890.650 .0268323
891.312 .0268301
891.974 .0268280
892.636 .0268257
893.297 .0268232
893.957 .0268207
894.618 .0268186
895.278 .0268169
895.937 .0268160
896.596 .0268156
897.255 .0268155
897.914 .0268150
898.572 .0268143
899.230 .0268129
899.887 .0268103
900.544 .0268070
901.201 .0268026
901.857 .0267972
902.513 .0267907
903.168 .0267826
903.823 .0267728
904.478 .0267608
905.132 .0267464
905.786 .0267299
906.440 .0267111
907.093 .0266910
907.746 .0266696
908.399 .0266480
909.051 .0266261
909.703 .0266045
910.354 .0265822
911.005 .0265599
911.656 .0265369
912.306 .0265132
912.956 .0264887
913.605 .0264640
914.254 .0264401
914.903 .0264168
915.551 .0263947
916.199 .0263744
916.847 .0263556
917.494 .0263383
918.141 .0263215
918.788 .0263050
919.434 .0262886
920.079 .0262719
920.725 .0262550
921.370 .0262384
922.014 .0262224
922.658 .0262071
923.302 .0261926
923.946 .0261789
924.589 .0261654
925.231 .0261510
925.873 .0261361
926.515 .0261205
927.157 .0261034
927.798 .0260850
928.439 .0260652
929.079 .0260444
929.719 .0260228
930.359 .0260006
930.998 .0259780
931.637 .0259551
932.275 .0259319
932.913 .0259082
933.551 .0258840
934.188 .0258602
934.825 .0258366
935.462 .0258139
936.098 .0257921
936.733 .0257714
937.369 .0257512
938.004 .0257321
938.638 .0257137
939.273 .0256962
939.907 .0256791
940.540 .0256629
941.173 .0256473
941.806 .0256334
942.438 .0256206
943.070 .0256097
943.702 .0256000
944.333 .0255913
944.964 .0255823
945.594 .0255736
946.224 .0255642
946.854 .0255552
947.483 .0255463
948.112 .0255384
948.741 .0255314
949.369 .0255260
949.996 .0255213
950.624 .0255172
951.251 .0255131
951.878 .0255082
952.504 .0255015
953.130 .0254936
953.755 .0254837
954.380 .0254730
955.005 .0254620
955.629 .0254513
956.253 .0254409
956.877 .0254314
957.500 .0254225
958.123 .0254140
958.746 .0254057
959.368 .0253973
959.990 .0253879
960.611 .0253784
961.232 .0253689
961.853 .0253592
962.473 .0253503
963.093 .0253422
963.712 .0253349
964.331 .0253282
964.950 .0253219
965.569 .0253157
966.187 .0253097
966.804 .0253038
967.422 .0252979
968.039 .0252914
968.655 .0252845
969.272 .0252769
969.887 .0252686
970.503 .0252598
971.118 .0252502
971.733 .0252404
972.347 .0252304
972.961 .0252206
973.575 .0252111
974.188 .0252016
974.801 .0251920
975.414 .0251822
976.026 .0251712
976.638 .0251594
977.250 .0251468
977.861 .0251340
978.472 .0251215
979.083 .0251099
979.693 .0250991
980.303 .0250890
980.912 .0250795
981.521 .0250699
982.130 .0250596
982.738 .0250487
983.346 .0250366
983.954 .0250237
984.562 .0250104
985.169 .0249974
985.775 .0249850
986.382 .0249744
986.988 .0249652
987.594 .0249573
988.199 .0249503
988.804 .0249439
989.409 .0249373
990.013 .0249305
990.617 .0249235
991.221 .0249167
991.824 .0249105
992.427 .0249056
993.030 .0249019
993.632 .0249000
994.234 .0249002
994.836 .0249020
995.438 .0249039
996.039 .0249062
996.640 .0249082
997.240 .0249100
997.840 .0249120
998.440 .0249146
999.040 .0249179
999.639 .0249228
1000.238 .0249284
1000.836 .0249342
1001.435 .0249405
1002.033 .0249473
1002.630 .0249533
1003.228 .0249591
1003.825 .0249644
1004.422 .0249693
1005.018 .0249748
1005.614 .0249816
1006.210 .0249895
1006.806 .0249987
1007.401 .0250084
1007.996 .0250171
1008.591 .0250250
1009.186 .0250313
1009.780 .0250356
1010.374 .0250387
1010.967 .0250412
1011.561 .0250431
1012.154 .0250452
1012.746 .0250483
1013.339 .0250527
1013.931 .0250585
1014.523 .0250653
1015.115 .0250718
1015.706 .0250786
1016.298 .0250844
1016.888 .0250894
1017.479 .0250936
1018.069 .0250980
1018.660 .0251019
1019.250 .0251065
1019.839 .0251120
1020.429 .0251192
1021.018 .0251281
1021.607 .0251389
1022.195 .0251505
1022.784 .0251633
1023.372 .0251759
1023.960 .0251878
1024.547 .0251990
1025.135 .0252106
1025.722 .0252215
1026.309 .0252322
1026.896 .0252434
1027.483 .0252551
1028.069 .0252672
1028.655 .0252799
1029.241 .0252926
1029.827 .0253050
1030.412 .0253167
1030.997 .0253275
1031.582 .0253368
1032.167 .0253460
1032.752 .0253548
1033.336 .0253632
1033.921 .0253718
1034.505 .0253809
1035.089 .0253901
1035.672 .0253996
1036.256 .0254097
1036.839 .0254200
1037.422 .0254297
1038.005 .0254403
1038.588 .0254509
1039.171 .0254623
1039.753 .0254747
1040.335 .0254873
1040.918 .0255002
1041.500 .0255131
1042.081 .0255244
1042.663 .0255342
1043.244 .0255432
1043.826 .0255512
1044.407 .0255577
1044.988 .0255636
1045.569 .0255684
1046.150 .0255723
1046.730 .0255758
1047.311 .0255785
1047.891 .0255791
1048.471 .0255784
1049.052 .0255756
1049.632 .0255699
1050.211 .0255633
1050.791 .0255552
1051.371 .0255471
1051.950 .0255402
1052.530 .0255343
1053.109 .0255289
1053.688 .0255248
1054.268 .0255224
1054.847 .0255205
1055.426 .0255193
1056.005 .0255188
1056.583 .0255176
1057.162 .0255168
1057.741 .0255153
1058.319 .0255135
1058.898 .0255118
1059.476 .0255098
1060.055 .0255072
1060.633 .0255052
1061.211 .0255042
1061.790 .0255040
1062.368 .0255057
1062.946 .0255099
1063.524 .0255155
1064.102 .0255217
1064.680 .0255275
1065.258 .0255326
1065.836 .0255371
1066.414 .0255405
1066.992 .0255426
1067.570 .0255458
1068.148 .0255510
1068.726 .0255575
1069.304 .0255669
1069.882 .0255786
1070.460 .0255911
1071.038 .0256024
1071.616 .0256113
1072.194 .0256169
1072.772 .0256186
1073.350 .0256174
1073.928 .0256129
1074.506 .0256076
1075.084 .0256033
1075.662 .0255982
1076.240 .0255952
1076.819 .0255948
1077.397 .0255957
1077.976 .0255963
1078.554 .0255989
1079.133 .0256016
1079.711 .0256040
1080.290 .0256060
1080.869 .0256073
1081.448 .0256080
1082.027 .0256084
1082.606 .0256079
1083.185 .0256073
1083.764 .0256087
1084.343 .0256121
1084.923 .0256157
1085.502 .0256218
1086.082 .0256275
1086.662 .0256322
1087.242 .0256347
1087.822 .0256368
1088.402 .0256359
1088.983 .0256351
1089.563 .0256352
1090.144 .0256379
1090.725 .0256450
1091.306 .0256549
1091.887 .0256684
1092.469 .0256856
1093.050 .0257038
1093.632 .0257219
1094.214 .0257383
1094.796 .0257548
1095.379 .0257696
1095.961 .0257847
1096.544 .0257990
1097.127 .0258132
1097.710 .0258262
1098.294 .0258372
1098.877 .0258460
1099.461 .0258532
1100.046 .0258588
1100.630 .0258633
1101.215 .0258700
1101.800 .0258766
1102.385 .0258841
1102.970 .0258942
1103.556 .0259044
1104.142 .0259142
1104.728 .0259232
1105.315 .0259316
1105.902 .0259396
1106.489 .0259499
1107.077 .0259642
1107.664 .0259839
1108.253 .0260112
1108.841 .0260425
1109.430 .0260776
1110.019 .0261150
1110.609 .0261521
1111.198 .0261852
1111.789 .0262167
1112.379 .0262462
1112.970 .0262738
1113.561 .0263012
1114.153 .0263306
1114.745 .0263624
1115.338 .0263974
1115.931 .0264348
1116.524 .0264730
1117.117 .0265140
1117.712 .0265536
1118.306 .0265904
1118.901 .0266283
1119.496 .0266637
1120.092 .0266989
1120.689 .0267322
1121.285 .0267669
1121.882 .0268006
1122.480 .0268342
1123.078 .0268696
1123.677 .0269060
1124.276 .0269454
1124.875 .0269852
1125.476 .0270261
1126.076 .0270704
1126.677 .0271174
1127.279 .0271679
1127.881 .0272253
1128.484 .0272897
1129.087 .0273572
1129.691 .0274309
1130.295 .0275075
1130.900 .0275885
1131.505 .0276712
1132.111 .0277553
1132.718 .0278425
1133.325 .0279325
1133.933 .0280224
1134.541 .0281145
1135.150 .0282113
1135.760 .0283123
1136.370 .0284101
1136.981 .0285081
1137.592 .0286004
1138.204 .0286903
1138.817 .0287747
1139.431 .0288612
1140.045 .0289524
1140.660 .0290391
1141.275 .0291285
1141.891 .0292080
1142.508 .0294349
1143.126 .0296004
1143.744 .0293197
1144.363 .0295659
1144.983 .0293458
