Measurement Sequence started on: 15-12-46-377
Integration time: 28
Scans to Average: 2 
>>>>>Begin Spectral Data<<<<<
432.689 .0000100
433.621 .0000100
434.552 .0000100
435.482 .0000100
436.410 .0000100
437.337 .0000100
438.262 .0290119
439.187 .0613428
440.110 .1013843
441.031 .1464388
441.952 .1900426
442.871 .2241316
443.789 .2424816
444.705 .2429970
445.621 .2284181
446.535 .2045832
447.447 .1778256
448.359 .1371055
449.269 .1170792
450.178 .1045600
451.086 .0957815
451.993 .0890932
452.898 .0838430
453.803 .0795741
454.706 .0760700
455.608 .0731066
456.508 .0705556
457.408 .0683196
458.306 .0663309
459.204 .0645525
460.100 .0629305
460.995 .0614506
461.888 .0601220
462.781 .0589053
463.673 .0577886
464.563 .0567699
465.452 .0558226
466.340 .0549322
467.228 .0541202
468.114 .0533626
468.999 .0526669
469.882 .0520234
470.765 .0514385
471.647 .0509215
472.528 .0504764
473.407 .0500899
474.286 .0497453
475.163 .0494366
476.040 .0491571
476.915 .0488914
477.790 .0486508
478.663 .0484302
479.535 .0482370
480.407 .0480801
481.277 .0479600
482.147 .0478695
483.015 .0478018
483.883 .0477483
484.749 .0477035
485.615 .0476539
486.479 .0475990
487.343 .0475413
488.206 .0474906
489.067 .0474534
489.928 .0474350
490.788 .0474371
491.647 .0474592
492.505 .0475010
493.362 .0475633
494.218 .0476375
495.073 .0477258
495.928 .0478280
496.781 .0479397
497.634 .0480776
498.486 .0482432
499.337 .0484262
500.187 .0486397
501.036 .0488760
501.884 .0491365
502.731 .0494157
503.578 .0497273
504.424 .0500772
505.268 .0504584
506.113 .0508855
506.956 .0513482
507.798 .0518495
508.640 .0523955
509.480 .0529745
510.320 .0536086
511.160 .0543149
511.998 .0550993
512.836 .0559711
513.672 .0569575
514.508 .0580675
515.344 .0593074
516.178 .0607067
517.012 .0622957
517.845 .0641074
518.677 .0661851
519.508 .0685448
520.339 .0712353
521.169 .0743090
521.998 .0777737
522.826 .0816416
523.654 .0859351
524.481 .0906447
525.307 .0958099
526.133 .1014239
526.958 .1074689
527.782 .1139173
528.605 .1206668
529.428 .1276451
530.250 .1343335
531.072 .1405115
531.892 .1457760
532.712 .1498149
533.532 .1524479
534.350 .1534377
535.168 .1527610
535.986 .1505040
536.802 .1468267
537.618 .1420227
538.434 .1362584
539.249 .1300136
540.063 .1233995
540.876 .1167071
541.689 .1101296
542.501 .1038196
543.313 .0979489
544.124 .0925900
544.934 .0877362
545.744 .0833402
546.553 .0793590
547.361 .0758105
548.169 .0726679
548.976 .0698629
549.783 .0673632
550.589 .0651439
551.395 .0631352
552.200 .0613346
553.004 .0596960
553.808 .0581992
554.611 .0568394
555.414 .0555967
556.216 .0544673
557.018 .0534415
557.819 .0525091
558.619 .0516404
559.419 .0508204
560.218 .0500621
561.017 .0493296
561.815 .0486170
562.613 .0479296
563.410 .0472617
564.207 .0466051
565.003 .0459702
565.799 .0453583
566.594 .0447624
567.388 .0441880
568.182 .0436262
568.976 .0430785
569.769 .0425518
570.562 .0420378
571.354 .0415324
572.145 .0410436
572.936 .0405732
573.727 .0401057
574.517 .0396524
575.307 .0392104
576.096 .0387769
576.885 .0383605
577.673 .0379599
578.461 .0375782
579.248 .0372236
580.035 .0368989
580.821 .0366003
581.607 .0363264
582.392 .0360726
583.177 .0358302
583.962 .0356033
584.746 .0353914
585.529 .0351894
586.313 .0350008
587.095 .0348286
587.878 .0346698
588.660 .0345259
589.441 .0343978
590.222 .0342809
591.003 .0341779
591.783 .0340840
592.563 .0339948
593.342 .0339100
594.121 .0338303
594.899 .0337561
595.678 .0336855
596.455 .0336202
597.233 .0335594
598.009 .0335018
598.786 .0334475
599.562 .0333953
600.338 .0333455
601.113 .0332977
601.888 .0332518
602.663 .0332058
603.437 .0331618
604.211 .0331181
604.984 .0330747
605.757 .0330317
606.530 .0329884
607.302 .0329445
608.074 .0328990
608.845 .0328546
609.616 .0328119
610.387 .0327720
611.158 .0327354
611.928 .0327016
612.697 .0326702
613.467 .0326402
614.236 .0326105
615.004 .0325812
615.773 .0325517
616.541 .0325222
617.308 .0324927
618.076 .0324642
618.843 .0324376
619.609 .0324131
620.375 .0323903
621.141 .0323695
621.907 .0323491
622.672 .0323288
623.437 .0323070
624.202 .0322850
624.966 .0322630
625.730 .0322406
626.493 .0322179
627.257 .0321951
628.020 .0321716
628.782 .0321475
629.545 .0321217
630.307 .0320937
631.068 .0320642
631.830 .0320332
632.591 .0320002
633.352 .0319664
634.112 .0319323
634.872 .0318980
635.632 .0318627
636.392 .0318275
637.151 .0317919
637.910 .0317564
638.668 .0317217
639.427 .0316878
640.185 .0316550
640.943 .0316233
641.700 .0315931
642.457 .0315642
643.214 .0315364
643.971 .0315091
644.727 .0314822
645.483 .0314559
646.239 .0314312
646.994 .0314077
647.750 .0313853
648.505 .0313649
649.259 .0313457
650.014 .0313263
650.768 .0313060
651.521 .0312843
652.275 .0312614
653.028 .0312367
653.781 .0312107
654.534 .0311835
655.286 .0311555
656.039 .0311280
656.791 .0311004
657.542 .0310722
658.294 .0310438
659.045 .0310143
659.796 .0309831
660.546 .0309506
661.297 .0309162
662.047 .0308805
662.796 .0308439
663.546 .0308074
664.295 .0307712
665.044 .0307357
665.793 .0307025
666.542 .0306714
667.290 .0306427
668.038 .0306166
668.786 .0305920
669.533 .0305688
670.281 .0305467
671.028 .0305253
671.774 .0305046
672.521 .0304847
673.267 .0304667
674.013 .0304502
674.759 .0304352
675.505 .0304220
676.250 .0304097
676.995 .0303978
677.740 .0303859
678.484 .0303730
679.229 .0303590
679.973 .0303439
680.717 .0303281
681.460 .0303114
682.204 .0302951
682.947 .0302796
683.690 .0302646
684.433 .0302499
685.175 .0302358
685.917 .0302215
686.659 .0302067
687.401 .0301917
688.142 .0301762
688.884 .0301606
689.625 .0301449
690.365 .0301297
691.106 .0301147
691.846 .0301004
692.586 .0300864
693.326 .0300721
694.066 .0300577
694.805 .0300425
695.545 .0300255
696.284 .0300073
697.022 .0299877
697.761 .0299667
698.499 .0299445
699.237 .0299221
699.975 .0298993
700.713 .0298767
701.450 .0298545
702.187 .0298324
702.924 .0298106
703.661 .0297891
704.397 .0297672
705.133 .0297458
705.869 .0297248
706.605 .0297043
707.341 .0296847
708.076 .0296666
708.811 .0296492
709.546 .0296320
710.281 .0296145
711.015 .0295965
711.749 .0295769
712.483 .0295567
713.217 .0295353
713.950 .0295133
714.684 .0294912
715.417 .0294691
716.150 .0294473
716.882 .0294260
717.615 .0294046
718.347 .0293830
719.079 .0293607
719.811 .0293376
720.542 .0293136
721.273 .0292896
722.005 .0292660
722.735 .0292430
723.466 .0292207
724.196 .0291994
724.927 .0291782
725.656 .0291570
726.386 .0291353
727.116 .0291131
727.845 .0290902
728.574 .0290664
729.303 .0290423
730.031 .0290183
730.760 .0289947
731.488 .0289720
732.216 .0289506
732.944 .0289307
733.671 .0289117
734.398 .0288941
735.125 .0288772
735.852 .0288613
736.579 .0288463
737.305 .0288321
738.031 .0288193
738.757 .0288080
739.483 .0287980
740.208 .0287891
740.933 .0287819
741.658 .0287758
742.383 .0287701
743.108 .0287648
743.832 .0287598
744.556 .0287546
745.280 .0287491
746.004 .0287435
746.727 .0287377
747.450 .0287323
748.173 .0287261
748.896 .0287197
749.618 .0287128
750.340 .0287048
751.062 .0286958
751.784 .0286856
752.506 .0286740
753.227 .0286610
753.948 .0286465
754.669 .0286305
755.389 .0286132
756.110 .0285948
756.830 .0285750
757.550 .0285545
758.269 .0285334
758.989 .0285119
759.708 .0284902
760.427 .0284695
761.146 .0284495
761.864 .0284308
762.582 .0284136
763.300 .0283973
764.018 .0283825
764.736 .0283685
765.453 .0283557
766.170 .0283436
766.887 .0283322
767.603 .0283212
768.320 .0283104
769.036 .0283003
769.751 .0282911
770.467 .0282818
771.182 .0282730
771.897 .0282642
772.612 .0282549
773.327 .0282452
774.041 .0282349
774.755 .0282243
775.469 .0282135
776.183 .0282031
776.896 .0281934
777.609 .0281840
778.322 .0281761
779.035 .0281692
779.747 .0281634
780.459 .0281590
781.171 .0281552
781.882 .0281518
782.594 .0281494
783.305 .0281479
784.016 .0281472
784.726 .0281475
785.436 .0281490
786.147 .0281508
786.856 .0281529
787.566 .0281550
788.275 .0281564
788.984 .0281573
789.693 .0281577
790.401 .0281571
791.110 .0281555
791.818 .0281528
792.525 .0281493
793.233 .0281447
793.940 .0281392
794.647 .0281325
795.353 .0281248
796.060 .0281163
796.766 .0281070
797.472 .0280965
798.177 .0280855
798.883 .0280738
799.588 .0280614
800.292 .0280483
800.997 .0280346
801.701 .0280201
802.405 .0280051
803.109 .0279898
803.812 .0279748
804.515 .0279597
805.218 .0279448
805.921 .0279296
806.623 .0279139
807.325 .0278974
808.027 .0278804
808.728 .0278622
809.429 .0278434
810.130 .0278241
810.831 .0278048
811.531 .0277854
812.231 .0277665
812.931 .0277479
813.630 .0277297
814.330 .0277117
815.029 .0276940
815.727 .0276757
816.426 .0276575
817.124 .0276391
817.821 .0276210
818.519 .0276031
819.216 .0275859
819.913 .0275691
820.609 .0275531
821.306 .0275378
822.002 .0275231
822.697 .0275086
823.393 .0274952
824.088 .0274820
824.783 .0274690
825.477 .0274561
826.171 .0274432
826.865 .0274304
827.559 .0274183
828.252 .0274064
828.945 .0273952
829.638 .0273849
830.330 .0273757
831.023 .0273671
831.714 .0273598
832.406 .0273536
833.097 .0273476
833.788 .0273418
834.479 .0273360
835.169 .0273292
835.859 .0273223
836.548 .0273147
837.238 .0273068
837.927 .0272986
838.615 .0272902
839.304 .0272816
839.992 .0272731
840.680 .0272647
841.367 .0272560
842.054 .0272473
842.741 .0272383
843.428 .0272290
844.114 .0272195
844.800 .0272100
845.485 .0272002
846.170 .0271900
846.855 .0271792
847.540 .0271671
848.224 .0271539
848.908 .0271400
849.592 .0271250
850.275 .0271096
850.958 .0270937
851.641 .0270777
852.323 .0270614
853.005 .0270447
853.687 .0270269
854.368 .0270080
855.049 .0269877
855.730 .0269659
856.410 .0269426
857.090 .0269184
857.769 .0268938
858.449 .0268693
859.128 .0268458
859.806 .0268239
860.485 .0268033
861.163 .0267839
861.840 .0267655
862.518 .0267478
863.195 .0267307
863.871 .0267136
864.548 .0266968
865.224 .0266808
865.899 .0266659
866.574 .0266518
867.249 .0266395
867.924 .0266295
868.598 .0266211
869.272 .0266143
869.946 .0266088
870.619 .0266042
871.292 .0266003
871.964 .0265970
872.636 .0265942
873.308 .0265916
873.979 .0265894
874.651 .0265868
875.321 .0265841
875.992 .0265812
876.662 .0265778
877.331 .0265739
878.001 .0265697
878.670 .0265648
879.338 .0265596
880.007 .0265545
880.675 .0265506
881.342 .0265472
882.009 .0265446
882.676 .0265428
883.343 .0265419
884.009 .0265417
884.675 .0265418
885.340 .0265425
886.005 .0265439
886.670 .0265457
887.334 .0265483
887.998 .0265512
888.662 .0265551
889.325 .0265598
889.988 .0265647
890.650 .0265696
891.312 .0265742
891.974 .0265786
892.636 .0265833
893.297 .0265883
893.957 .0265931
894.618 .0265977
895.278 .0266020
895.937 .0266059
896.596 .0266094
897.255 .0266124
897.914 .0266155
898.572 .0266186
899.230 .0266220
899.887 .0266256
900.544 .0266294
901.201 .0266335
901.857 .0266372
902.513 .0266401
903.168 .0266412
903.823 .0266404
904.478 .0266381
905.132 .0266343
905.786 .0266291
906.440 .0266232
907.093 .0266168
907.746 .0266099
908.399 .0266024
909.051 .0265936
909.703 .0265838
910.354 .0265728
911.005 .0265605
911.656 .0265468
912.306 .0265322
912.956 .0265170
913.605 .0265019
914.254 .0264870
914.903 .0264726
915.551 .0264587
916.199 .0264452
916.847 .0264320
917.494 .0264191
918.141 .0264066
918.788 .0263947
919.434 .0263839
920.079 .0263737
920.725 .0263639
921.370 .0263545
922.014 .0263453
922.658 .0263360
923.302 .0263262
923.946 .0263155
924.589 .0263038
925.231 .0262910
925.873 .0262771
926.515 .0262623
927.157 .0262468
927.798 .0262307
928.439 .0262137
929.079 .0261957
929.719 .0261768
930.359 .0261563
930.998 .0261351
931.637 .0261132
932.275 .0260910
932.913 .0260687
933.551 .0260466
934.188 .0260255
934.825 .0260056
935.462 .0259871
936.098 .0259699
936.733 .0259537
937.369 .0259386
938.004 .0259240
938.638 .0259099
939.273 .0258961
939.907 .0258829
940.540 .0258699
941.173 .0258574
941.806 .0258456
942.438 .0258345
943.070 .0258241
943.702 .0258147
944.333 .0258055
944.964 .0257965
945.594 .0257875
946.224 .0257784
946.854 .0257694
947.483 .0257606
948.112 .0257515
948.741 .0257420
949.369 .0257324
949.996 .0257226
950.624 .0257123
951.251 .0257019
951.878 .0256915
952.504 .0256809
953.130 .0256707
953.755 .0256605
954.380 .0256505
955.005 .0256406
955.629 .0256307
956.253 .0256204
956.877 .0256094
957.500 .0255980
958.123 .0255859
958.746 .0255732
959.368 .0255603
959.990 .0255476
960.611 .0255353
961.232 .0255238
961.853 .0255134
962.473 .0255039
963.093 .0254946
963.712 .0254850
964.331 .0254739
964.950 .0254613
965.569 .0254476
966.187 .0254328
966.804 .0254176
967.422 .0254034
968.039 .0253904
968.655 .0253789
969.272 .0253689
969.887 .0253598
970.503 .0253509
971.118 .0253412
971.733 .0253297
972.347 .0253159
972.961 .0253005
973.575 .0252835
974.188 .0252653
974.801 .0252468
975.414 .0252279
976.026 .0252083
976.638 .0251880
977.250 .0251670
977.861 .0251450
978.472 .0251222
979.083 .0250985
979.693 .0250739
980.303 .0250492
980.912 .0250242
981.521 .0249998
982.130 .0249761
982.738 .0249534
983.346 .0249310
983.954 .0249089
984.562 .0248872
985.169 .0248655
985.775 .0248438
986.382 .0248224
986.988 .0248011
987.594 .0247800
988.199 .0247589
988.804 .0247381
989.409 .0247178
990.013 .0246982
990.617 .0246791
991.221 .0246602
991.824 .0246415
992.427 .0246236
993.030 .0246062
993.632 .0245901
994.234 .0245765
994.836 .0245652
995.438 .0245569
996.039 .0245518
996.640 .0245489
997.240 .0245481
997.840 .0245490
998.440 .0245504
999.040 .0245507
999.639 .0245501
1000.238 .0245475
1000.836 .0245433
1001.435 .0245381
1002.033 .0245324
1002.630 .0245261
1003.228 .0245206
1003.825 .0245155
1004.422 .0245106
1005.018 .0245059
1005.614 .0245011
1006.210 .0244957
1006.806 .0244902
1007.401 .0244841
1007.996 .0244781
1008.591 .0244727
1009.186 .0244690
1009.780 .0244666
1010.374 .0244662
1010.967 .0244670
1011.561 .0244685
1012.154 .0244701
1012.746 .0244714
1013.339 .0244720
1013.931 .0244720
1014.523 .0244712
1015.115 .0244705
1015.706 .0244704
1016.298 .0244715
1016.888 .0244737
1017.479 .0244774
1018.069 .0244821
1018.660 .0244866
1019.250 .0244906
1019.839 .0244944
1020.429 .0244978
1021.018 .0245017
1021.607 .0245064
1022.195 .0245116
1022.784 .0245184
1023.372 .0245261
1023.960 .0245345
1024.547 .0245433
1025.135 .0245522
1025.722 .0245600
1026.309 .0245666
1026.896 .0245731
1027.483 .0245800
1028.069 .0245865
1028.655 .0245943
1029.241 .0246026
1029.827 .0246118
1030.412 .0246211
1030.997 .0246309
1031.582 .0246409
1032.167 .0246519
1032.752 .0246632
1033.336 .0246749
1033.921 .0246872
1034.505 .0247009
1035.089 .0247145
1035.672 .0247288
1036.256 .0247434
1036.839 .0247577
1037.422 .0247707
1038.005 .0247835
1038.588 .0247959
1039.171 .0248082
1039.753 .0248204
1040.335 .0248330
1040.918 .0248461
1041.500 .0248594
1042.081 .0248728
1042.663 .0248860
1043.244 .0248983
1043.826 .0249100
1044.407 .0249194
1044.988 .0249270
1045.569 .0249328
1046.150 .0249366
1046.730 .0249392
1047.311 .0249411
1047.891 .0249431
1048.471 .0249452
1049.052 .0249484
1049.632 .0249530
1050.211 .0249586
1050.791 .0249651
1051.371 .0249725
1051.950 .0249801
1052.530 .0249877
1053.109 .0249953
1053.688 .0250024
1054.268 .0250103
1054.847 .0250193
1055.426 .0250301
1056.005 .0250427
1056.583 .0250580
1057.162 .0250753
1057.741 .0250929
1058.319 .0251106
1058.898 .0251268
1059.476 .0251396
1060.055 .0251494
1060.633 .0251547
1061.211 .0251565
1061.790 .0251555
1062.368 .0251532
1062.946 .0251498
1063.524 .0251473
1064.102 .0251462
1064.680 .0251458
1065.258 .0251458
1065.836 .0251469
1066.414 .0251467
1066.992 .0251453
1067.570 .0251437
1068.148 .0251416
1068.726 .0251408
1069.304 .0251431
1069.882 .0251481
1070.460 .0251571
1071.038 .0251693
1071.616 .0251835
1072.194 .0251996
1072.772 .0252181
1073.350 .0252376
1073.928 .0252577
1074.506 .0252797
1075.084 .0253026
1075.662 .0253261
1076.240 .0253515
1076.819 .0253760
1077.397 .0253996
1077.976 .0254219
1078.554 .0254414
1079.133 .0254575
1079.711 .0254726
1080.290 .0254865
1080.869 .0254997
1081.448 .0255135
1082.027 .0255271
1082.606 .0255396
1083.185 .0255518
1083.764 .0255627
1084.343 .0255720
1084.923 .0255798
1085.502 .0255876
1086.082 .0255940
1086.662 .0256018
1087.242 .0256104
1087.822 .0256196
1088.402 .0256293
1088.983 .0256407
1089.563 .0256512
1090.144 .0256617
1090.725 .0256725
1091.306 .0256845
1091.887 .0256967
1092.469 .0257118
1093.050 .0257280
1093.632 .0257452
1094.214 .0257632
1094.796 .0257822
1095.379 .0258009
1095.961 .0258217
1096.544 .0258444
1097.127 .0258692
1097.710 .0258979
1098.294 .0259300
1098.877 .0259632
1099.461 .0259983
1100.046 .0260333
1100.630 .0260674
1101.215 .0261002
1101.800 .0261323
1102.385 .0261625
1102.970 .0261919
1103.556 .0262222
1104.142 .0262510
1104.728 .0262824
1105.315 .0263127
1105.902 .0263424
1106.489 .0263721
1107.077 .0264023
1107.664 .0264311
1108.253 .0264608
1108.841 .0264920
1109.430 .0265235
1110.019 .0265543
1110.609 .0265843
1111.198 .0266113
1111.789 .0266375
1112.379 .0266629
1112.970 .0266868
1113.561 .0267119
1114.153 .0267430
1114.745 .0267754
1115.338 .0268110
1115.931 .0268463
1116.524 .0268818
1117.117 .0269144
1117.712 .0269439
1118.306 .0269716
1118.901 .0269986
1119.496 .0270294
1120.092 .0270650
1120.689 .0271075
1121.285 .0271587
1121.882 .0272179
1122.480 .0272818
1123.078 .0273490
1123.677 .0274176
1124.276 .0274837
1124.875 .0275485
1125.476 .0276103
1126.076 .0276700
1126.677 .0277264
1127.279 .0277806
1127.881 .0278370
1128.484 .0278903
1129.087 .0279438
1129.691 .0279959
1130.295 .0280502
1130.900 .0281057
1131.505 .0281606
1132.111 .0282160
1132.718 .0282752
1133.325 .0283409
1133.933 .0284091
1134.541 .0284818
1135.150 .0285626
1135.760 .0286532
1136.370 .0287529
1136.981 .0288601
1137.592 .0289743
1138.204 .0290970
1138.817 .0292240
1139.431 .0293509
1140.045 .0294843
1140.660 .0296104
1141.275 .0297349
1141.891 .0298397
1142.508 .0299595
1143.126 .0303120
1143.744 .0300542
1144.363 .0302788
1144.983 .0299566
