Measurement Sequence started on: 15-12-46-377
Integration time: 28
Scans to Average: 2 
>>>>>Begin Spectral Data<<<<<
432.689 .0000100
433.621 .0000100
434.552 .0000100
435.482 .0000100
436.410 .0000100
437.337 .0000100
438.262 .0277850
439.187 .0588680
440.110 .0975373
441.031 .1410777
441.952 .1834025
442.871 .2167279
443.789 .2349768
444.705 .2360832
445.621 .2226179
446.535 .2000918
447.447 .1745497
448.359 .1354782
449.269 .1160664
450.178 .1037435
451.086 .0950612
451.993 .0883681
452.898 .0831002
453.803 .0788361
454.706 .0753235
455.608 .0723310
456.508 .0697672
457.408 .0675414
458.306 .0655581
459.204 .0637863
460.100 .0622036
460.995 .0607847
461.888 .0595080
462.781 .0583591
463.673 .0573205
464.563 .0563705
465.452 .0554902
466.340 .0546662
467.228 .0538896
468.114 .0531487
468.999 .0524533
469.882 .0517889
470.765 .0511755
471.647 .0506027
472.528 .0500721
473.407 .0495898
474.286 .0491509
475.163 .0487450
476.040 .0483752
476.915 .0480445
477.790 .0477434
478.663 .0474762
479.535 .0472464
480.407 .0470540
481.277 .0468932
482.147 .0467699
483.015 .0466761
483.883 .0466077
484.749 .0465666
485.615 .0465432
486.479 .0465366
487.343 .0465498
488.206 .0465779
489.067 .0466233
489.928 .0466795
490.788 .0467523
491.647 .0468334
492.505 .0469341
493.362 .0470469
494.218 .0471713
495.073 .0473046
495.928 .0474548
496.781 .0476130
497.634 .0477882
498.486 .0479803
499.337 .0481929
500.187 .0484317
501.036 .0487072
501.884 .0490163
502.731 .0493634
503.578 .0497465
504.424 .0501709
505.268 .0506184
506.113 .0510993
506.956 .0516057
507.798 .0521572
508.640 .0527630
509.480 .0534286
510.320 .0541750
511.160 .0550277
511.998 .0559722
512.836 .0570095
513.672 .0581468
514.508 .0593891
515.344 .0607331
516.178 .0622136
517.012 .0638573
517.845 .0657188
518.677 .0678396
519.508 .0702549
520.339 .0729995
521.169 .0761180
521.998 .0795715
522.826 .0833887
523.654 .0875912
524.481 .0921719
525.307 .0971640
526.133 .1026424
526.958 .1086168
527.782 .1150237
528.605 .1217164
529.428 .1285941
530.250 .1350862
531.072 .1409756
531.892 .1457826
532.712 .1492823
533.532 .1512733
534.350 .1516354
535.168 .1503318
535.986 .1475811
536.802 .1436194
537.618 .1387044
538.434 .1329904
539.249 .1269567
540.063 .1206267
540.876 .1142714
541.689 .1079948
542.501 .1019901
543.313 .0963534
544.124 .0911827
544.934 .0864328
545.744 .0821475
546.553 .0783208
547.361 .0749592
548.169 .0720183
548.976 .0694509
549.783 .0671805
550.589 .0651422
551.395 .0632723
552.200 .0615493
553.004 .0599352
553.808 .0584282
554.611 .0570296
555.414 .0557590
556.216 .0546145
557.018 .0535898
557.819 .0526807
558.619 .0518718
559.419 .0511345
560.218 .0504490
561.017 .0497889
561.815 .0491381
562.613 .0484922
563.410 .0478320
564.207 .0471647
565.003 .0465016
565.799 .0458482
566.594 .0451952
567.388 .0445542
568.182 .0439246
568.976 .0433039
569.769 .0426906
570.562 .0420924
571.354 .0415026
572.145 .0409306
572.936 .0403734
573.727 .0398305
574.517 .0393025
575.307 .0387983
576.096 .0383090
576.885 .0378428
577.673 .0374025
578.461 .0369910
579.248 .0366094
580.035 .0362609
580.821 .0359408
581.607 .0356476
582.392 .0353787
583.177 .0351296
583.962 .0348972
584.746 .0346847
585.529 .0344883
586.313 .0343104
587.095 .0341497
587.878 .0340050
588.660 .0338768
589.441 .0337652
590.222 .0336660
591.003 .0335800
591.783 .0335007
592.563 .0334266
593.342 .0333567
594.121 .0332889
594.899 .0332234
595.678 .0331596
596.455 .0330973
597.233 .0330382
598.009 .0329813
598.786 .0329274
599.562 .0328757
600.338 .0328270
601.113 .0327798
601.888 .0327345
602.663 .0326912
603.437 .0326494
604.211 .0326089
604.984 .0325704
605.757 .0325336
606.530 .0324980
607.302 .0324640
608.074 .0324302
608.845 .0323971
609.616 .0323656
610.387 .0323340
611.158 .0323034
611.928 .0322736
612.697 .0322452
613.467 .0322176
614.236 .0321917
615.004 .0321663
615.773 .0321410
616.541 .0321164
617.308 .0320918
618.076 .0320672
618.843 .0320432
619.609 .0320203
620.375 .0319982
621.141 .0319772
621.907 .0319568
622.672 .0319358
623.437 .0319145
624.202 .0318929
624.966 .0318699
625.730 .0318456
626.493 .0318211
627.257 .0317961
628.020 .0317708
628.782 .0317461
629.545 .0317215
630.307 .0316964
631.068 .0316708
631.830 .0316443
632.591 .0316164
633.352 .0315884
634.112 .0315605
634.872 .0315332
635.632 .0315073
636.392 .0314827
637.151 .0314586
637.910 .0314352
638.668 .0314124
639.427 .0313883
640.185 .0313628
640.943 .0313356
641.700 .0313061
642.457 .0312748
643.214 .0312424
643.971 .0312095
644.727 .0311767
645.483 .0311442
646.239 .0311119
646.994 .0310799
647.750 .0310489
648.505 .0310188
649.259 .0309896
650.014 .0309617
650.768 .0309348
651.521 .0309085
652.275 .0308828
653.028 .0308574
653.781 .0308325
654.534 .0308075
655.286 .0307828
656.039 .0307584
656.791 .0307345
657.542 .0307108
658.294 .0306876
659.045 .0306646
659.796 .0306415
660.546 .0306180
661.297 .0305935
662.047 .0305679
662.796 .0305417
663.546 .0305143
664.295 .0304862
665.044 .0304577
665.793 .0304299
666.542 .0304027
667.290 .0303761
668.038 .0303502
668.786 .0303248
669.533 .0302997
670.281 .0302748
671.028 .0302501
671.774 .0302259
672.521 .0302022
673.267 .0301792
674.013 .0301570
674.759 .0301354
675.505 .0301140
676.250 .0300928
676.995 .0300713
677.740 .0300495
678.484 .0300277
679.229 .0300057
679.973 .0299843
680.717 .0299637
681.460 .0299431
682.204 .0299222
682.947 .0299009
683.690 .0298794
684.433 .0298574
685.175 .0298356
685.917 .0298138
686.659 .0297930
687.401 .0297742
688.142 .0297571
688.884 .0297415
689.625 .0297271
690.365 .0297131
691.106 .0296982
691.846 .0296825
692.586 .0296654
693.326 .0296469
694.066 .0296283
694.805 .0296097
695.545 .0295911
696.284 .0295730
697.022 .0295555
697.761 .0295379
698.499 .0295204
699.237 .0295030
699.975 .0294846
700.713 .0294664
701.450 .0294488
702.187 .0294321
702.924 .0294166
703.661 .0294023
704.397 .0293891
705.133 .0293771
705.869 .0293657
706.605 .0293546
707.341 .0293440
708.076 .0293336
708.811 .0293232
709.546 .0293124
710.281 .0293016
711.015 .0292902
711.749 .0292779
712.483 .0292643
713.217 .0292492
713.950 .0292331
714.684 .0292155
715.417 .0291969
716.150 .0291781
716.882 .0291589
717.615 .0291397
718.347 .0291202
719.079 .0291008
719.811 .0290813
720.542 .0290622
721.273 .0290427
722.005 .0290229
722.735 .0290028
723.466 .0289825
724.196 .0289621
724.927 .0289412
725.656 .0289197
726.386 .0288976
727.116 .0288751
727.845 .0288522
728.574 .0288288
729.303 .0288057
730.031 .0287832
730.760 .0287620
731.488 .0287415
732.216 .0287218
732.944 .0287031
733.671 .0286852
734.398 .0286681
735.125 .0286512
735.852 .0286348
736.579 .0286185
737.305 .0286032
738.031 .0285888
738.757 .0285752
739.483 .0285626
740.208 .0285511
740.933 .0285402
741.658 .0285294
742.383 .0285180
743.108 .0285058
743.832 .0284927
744.556 .0284792
745.280 .0284649
746.004 .0284503
746.727 .0284360
747.450 .0284221
748.173 .0284085
748.896 .0283955
749.618 .0283830
750.340 .0283707
751.062 .0283589
751.784 .0283471
752.506 .0283351
753.227 .0283228
753.948 .0283104
754.669 .0282977
755.389 .0282846
756.110 .0282711
756.830 .0282573
757.550 .0282431
758.269 .0282288
758.989 .0282140
759.708 .0281989
760.427 .0281832
761.146 .0281667
761.864 .0281489
762.582 .0281302
763.300 .0281103
764.018 .0280899
764.736 .0280690
765.453 .0280485
766.170 .0280284
766.887 .0280093
767.603 .0279917
768.320 .0279751
769.036 .0279591
769.751 .0279438
770.467 .0279285
771.182 .0279131
771.897 .0278975
772.612 .0278818
773.327 .0278666
774.041 .0278523
774.755 .0278389
775.469 .0278265
776.183 .0278155
776.896 .0278054
777.609 .0277958
778.322 .0277867
779.035 .0277778
779.747 .0277685
780.459 .0277596
781.171 .0277505
781.882 .0277416
782.594 .0277331
783.305 .0277256
784.016 .0277191
784.726 .0277139
785.436 .0277098
786.147 .0277066
786.856 .0277043
787.566 .0277024
788.275 .0277002
788.984 .0276980
789.693 .0276949
790.401 .0276909
791.110 .0276856
791.818 .0276791
792.525 .0276712
793.233 .0276621
793.940 .0276519
794.647 .0276405
795.353 .0276283
796.060 .0276151
796.766 .0276009
797.472 .0275861
798.177 .0275705
798.883 .0275541
799.588 .0275374
800.292 .0275210
800.997 .0275046
801.701 .0274891
802.405 .0274748
803.109 .0274617
803.812 .0274503
804.515 .0274403
805.218 .0274314
805.921 .0274232
806.623 .0274157
807.325 .0274084
808.027 .0274011
808.728 .0273938
809.429 .0273861
810.130 .0273776
810.831 .0273687
811.531 .0273587
812.231 .0273478
812.931 .0273360
813.630 .0273233
814.330 .0273095
815.029 .0272947
815.727 .0272791
816.426 .0272631
817.124 .0272468
817.821 .0272307
818.519 .0272146
819.216 .0271989
819.913 .0271843
820.609 .0271708
821.306 .0271586
822.002 .0271483
822.697 .0271397
823.393 .0271329
824.088 .0271270
824.783 .0271222
825.477 .0271181
826.171 .0271148
826.865 .0271127
827.559 .0271116
828.252 .0271117
828.945 .0271131
829.638 .0271153
830.330 .0271182
831.023 .0271212
831.714 .0271233
832.406 .0271239
833.097 .0271230
833.788 .0271202
834.479 .0271160
835.169 .0271110
835.859 .0271061
836.548 .0271013
837.238 .0270970
837.927 .0270929
838.615 .0270889
839.304 .0270851
839.992 .0270804
840.680 .0270752
841.367 .0270689
842.054 .0270617
842.741 .0270539
843.428 .0270464
844.114 .0270394
844.800 .0270329
845.485 .0270267
846.170 .0270201
846.855 .0270127
847.540 .0270041
848.224 .0269938
848.908 .0269825
849.592 .0269699
850.275 .0269568
850.958 .0269430
851.641 .0269293
852.323 .0269152
853.005 .0269012
853.687 .0268868
854.368 .0268718
855.049 .0268558
855.730 .0268391
856.410 .0268216
857.090 .0268042
857.769 .0267865
858.449 .0267692
859.128 .0267524
859.806 .0267365
860.485 .0267208
861.163 .0267060
861.840 .0266916
862.518 .0266776
863.195 .0266642
863.871 .0266514
864.548 .0266392
865.224 .0266281
865.899 .0266177
866.574 .0266078
867.249 .0265985
867.924 .0265895
868.598 .0265801
869.272 .0265709
869.946 .0265619
870.619 .0265526
871.292 .0265436
871.964 .0265351
872.636 .0265267
873.308 .0265184
873.979 .0265098
874.651 .0265004
875.321 .0264903
875.992 .0264796
876.662 .0264681
877.331 .0264561
878.001 .0264443
878.670 .0264323
879.338 .0264205
880.007 .0264094
880.675 .0263987
881.342 .0263882
882.009 .0263780
882.676 .0263674
883.343 .0263561
884.009 .0263438
884.675 .0263305
885.340 .0263160
886.005 .0263009
886.670 .0262853
887.334 .0262696
887.998 .0262548
888.662 .0262408
889.325 .0262277
889.988 .0262159
890.650 .0262053
891.312 .0261955
891.974 .0261866
892.636 .0261785
893.297 .0261713
893.957 .0261650
894.618 .0261593
895.278 .0261545
895.937 .0261507
896.596 .0261482
897.255 .0261465
897.914 .0261453
898.572 .0261449
899.230 .0261444
899.887 .0261438
900.544 .0261425
901.201 .0261398
901.857 .0261358
902.513 .0261297
903.168 .0261213
903.823 .0261107
904.478 .0260975
905.132 .0260819
905.786 .0260643
906.440 .0260450
907.093 .0260241
907.746 .0260021
908.399 .0259796
909.051 .0259569
909.703 .0259340
910.354 .0259107
911.005 .0258870
911.656 .0258635
912.306 .0258398
912.956 .0258157
913.605 .0257922
914.254 .0257699
914.903 .0257485
915.551 .0257289
916.199 .0257115
916.847 .0256959
917.494 .0256821
918.141 .0256697
918.788 .0256580
919.434 .0256472
920.079 .0256369
920.725 .0256266
921.370 .0256165
922.014 .0256075
922.658 .0255984
923.302 .0255893
923.946 .0255807
924.589 .0255717
925.231 .0255617
925.873 .0255507
926.515 .0255379
927.157 .0255234
927.798 .0255073
928.439 .0254897
929.079 .0254703
929.719 .0254496
930.359 .0254274
930.998 .0254039
931.637 .0253795
932.275 .0253546
932.913 .0253288
933.551 .0253030
934.188 .0252778
934.825 .0252529
935.462 .0252283
936.098 .0252051
936.733 .0251829
937.369 .0251623
938.004 .0251434
938.638 .0251263
939.273 .0251115
939.907 .0250994
940.540 .0250899
941.173 .0250825
941.806 .0250775
942.438 .0250739
943.070 .0250709
943.702 .0250685
944.333 .0250657
944.964 .0250620
945.594 .0250577
946.224 .0250529
946.854 .0250473
947.483 .0250412
948.112 .0250354
948.741 .0250293
949.369 .0250234
949.996 .0250174
950.624 .0250106
951.251 .0250033
951.878 .0249952
952.504 .0249862
953.130 .0249765
953.755 .0249666
954.380 .0249565
955.005 .0249466
955.629 .0249380
956.253 .0249302
956.877 .0249235
957.500 .0249183
958.123 .0249146
958.746 .0249117
959.368 .0249094
959.990 .0249073
960.611 .0249045
961.232 .0249008
961.853 .0248960
962.473 .0248901
963.093 .0248830
963.712 .0248749
964.331 .0248661
964.950 .0248571
965.569 .0248485
966.187 .0248403
966.804 .0248328
967.422 .0248264
968.039 .0248204
968.655 .0248146
969.272 .0248089
969.887 .0248032
970.503 .0247977
971.118 .0247930
971.733 .0247892
972.347 .0247871
972.961 .0247867
973.575 .0247884
974.188 .0247913
974.801 .0247949
975.414 .0247981
976.026 .0248002
976.638 .0248007
977.250 .0247995
977.861 .0247965
978.472 .0247925
979.083 .0247880
979.693 .0247827
980.303 .0247768
980.912 .0247701
981.521 .0247621
982.130 .0247528
982.738 .0247424
983.346 .0247308
983.954 .0247185
984.562 .0247064
985.169 .0246947
985.775 .0246839
986.382 .0246747
986.988 .0246664
987.594 .0246597
988.199 .0246537
988.804 .0246483
989.409 .0246431
990.013 .0246385
990.617 .0246348
991.221 .0246315
991.824 .0246297
992.427 .0246295
993.030 .0246300
993.632 .0246317
994.234 .0246339
994.836 .0246372
995.438 .0246410
996.039 .0246451
996.640 .0246489
997.240 .0246534
997.840 .0246585
998.440 .0246637
999.040 .0246689
999.639 .0246746
1000.238 .0246797
1000.836 .0246841
1001.435 .0246879
1002.033 .0246908
1002.630 .0246932
1003.228 .0246962
1003.825 .0246992
1004.422 .0247031
1005.018 .0247079
1005.614 .0247135
1006.210 .0247200
1006.806 .0247271
1007.401 .0247336
1007.996 .0247382
1008.591 .0247422
1009.186 .0247453
1009.780 .0247473
1010.374 .0247489
1010.967 .0247509
1011.561 .0247540
1012.154 .0247579
1012.746 .0247616
1013.339 .0247646
1013.931 .0247667
1014.523 .0247676
1015.115 .0247662
1015.706 .0247628
1016.298 .0247587
1016.888 .0247555
1017.479 .0247539
1018.069 .0247543
1018.660 .0247568
1019.250 .0247617
1019.839 .0247678
1020.429 .0247750
1021.018 .0247828
1021.607 .0247908
1022.195 .0247990
1022.784 .0248081
1023.372 .0248180
1023.960 .0248300
1024.547 .0248438
1025.135 .0248596
1025.722 .0248767
1026.309 .0248942
1026.896 .0249110
1027.483 .0249267
1028.069 .0249414
1028.655 .0249557
1029.241 .0249687
1029.827 .0249819
1030.412 .0249942
1030.997 .0250068
1031.582 .0250191
1032.167 .0250309
1032.752 .0250420
1033.336 .0250522
1033.921 .0250612
1034.505 .0250686
1035.089 .0250746
1035.672 .0250803
1036.256 .0250850
1036.839 .0250892
1037.422 .0250921
1038.005 .0250945
1038.588 .0250956
1039.171 .0250962
1039.753 .0250950
1040.335 .0250935
1040.918 .0250914
1041.500 .0250881
1042.081 .0250835
1042.663 .0250784
1043.244 .0250737
1043.826 .0250687
1044.407 .0250640
1044.988 .0250600
1045.569 .0250559
1046.150 .0250529
1046.730 .0250500
1047.311 .0250476
1047.891 .0250466
1048.471 .0250461
1049.052 .0250465
1049.632 .0250481
1050.211 .0250517
1050.791 .0250557
1051.371 .0250611
1051.950 .0250678
1052.530 .0250747
1053.109 .0250800
1053.688 .0250834
1054.268 .0250847
1054.847 .0250839
1055.426 .0250808
1056.005 .0250755
1056.583 .0250684
1057.162 .0250607
1057.741 .0250521
1058.319 .0250434
1058.898 .0250349
1059.476 .0250271
1060.055 .0250197
1060.633 .0250122
1061.211 .0250046
1061.790 .0249974
1062.368 .0249918
1062.946 .0249875
1063.524 .0249854
1064.102 .0249852
1064.680 .0249865
1065.258 .0249893
1065.836 .0249926
1066.414 .0249964
1066.992 .0250001
1067.570 .0250028
1068.148 .0250044
1068.726 .0250037
1069.304 .0250018
1069.882 .0249976
1070.460 .0249910
1071.038 .0249829
1071.616 .0249729
1072.194 .0249602
1072.772 .0249459
1073.350 .0249308
1073.928 .0249167
1074.506 .0249034
1075.084 .0248938
1075.662 .0248879
1076.240 .0248856
1076.819 .0248864
1077.397 .0248895
1077.976 .0248954
1078.554 .0249036
1079.133 .0249123
1079.711 .0249208
1080.290 .0249309
1080.869 .0249411
1081.448 .0249500
1082.027 .0249587
1082.606 .0249664
1083.185 .0249721
1083.764 .0249748
1084.343 .0249741
1084.923 .0249699
1085.502 .0249632
1086.082 .0249562
1086.662 .0249483
1087.242 .0249416
1087.822 .0249362
1088.402 .0249337
1088.983 .0249338
1089.563 .0249364
1090.144 .0249396
1090.725 .0249447
1091.306 .0249507
1091.887 .0249566
1092.469 .0249643
1093.050 .0249759
1093.632 .0249912
1094.214 .0250116
1094.796 .0250349
1095.379 .0250618
1095.961 .0250886
1096.544 .0251146
1097.127 .0251371
1097.710 .0251546
1098.294 .0251673
1098.877 .0251770
1099.461 .0251854
1100.046 .0251953
1100.630 .0252058
1101.215 .0252193
1101.800 .0252339
1102.385 .0252482
1102.970 .0252587
1103.556 .0252640
1104.142 .0252655
1104.728 .0252625
1105.315 .0252553
1105.902 .0252498
1106.489 .0252492
1107.077 .0252548
1107.664 .0252686
1108.253 .0252902
1108.841 .0253165
1109.430 .0253450
1110.019 .0253739
1110.609 .0254007
1111.198 .0254268
1111.789 .0254522
1112.379 .0254795
1112.970 .0255107
1113.561 .0255491
1114.153 .0255914
1114.745 .0256385
1115.338 .0256911
1115.931 .0257434
1116.524 .0257920
1117.117 .0258388
1117.712 .0258826
1118.306 .0259243
1118.901 .0259643
1119.496 .0260025
1120.092 .0260392
1120.689 .0260754
1121.285 .0261073
1121.882 .0261350
1122.480 .0261580
1123.078 .0261771
1123.677 .0261918
1124.276 .0262038
1124.875 .0262157
1125.476 .0262251
1126.076 .0262373
1126.677 .0262511
1127.279 .0262639
1127.881 .0262777
1128.484 .0262929
1129.087 .0263086
1129.691 .0263284
1130.295 .0263540
1130.900 .0263887
1131.505 .0264340
1132.111 .0264957
1132.718 .0265709
1133.325 .0266589
1133.933 .0267587
1134.541 .0268670
1135.150 .0269829
1135.760 .0271095
1136.370 .0272355
1136.981 .0273683
1137.592 .0275079
1138.204 .0276516
1138.817 .0278019
1139.431 .0279597
1140.045 .0281215
1140.660 .0282916
1141.275 .0284876
1141.891 .0286683
1142.508 .0288651
1143.126 .0289414
1143.744 .0292049
1144.363 .0299975
1144.983 .0293094
