Measurement Sequence started on: 15-12-46-377
Integration time: 28
Scans to Average: 2 
>>>>>Begin Spectral Data<<<<<
432.689 .0000100
433.621 .0000100
434.552 .0000100
435.482 .0000100
436.410 .0000100
437.337 .0000100
438.262 .0270516
439.187 .0572992
440.110 .0949134
441.031 .1372948
441.952 .1784324
442.871 .2107649
443.789 .2284270
444.705 .2293813
445.621 .2161274
446.535 .1940983
447.447 .1691765
448.359 .1311343
449.269 .1122797
450.178 .1003643
451.086 .0919817
451.993 .0855504
452.898 .0804550
453.803 .0762637
454.706 .0727774
455.608 .0697803
456.508 .0671711
457.408 .0649192
458.306 .0629431
459.204 .0612185
460.100 .0597006
460.995 .0583721
461.888 .0572036
462.781 .0561567
463.673 .0551928
464.563 .0543054
465.452 .0534675
466.340 .0526541
467.228 .0518760
468.114 .0511218
468.999 .0504050
469.882 .0497272
470.765 .0491005
471.647 .0485345
472.528 .0480214
473.407 .0475673
474.286 .0471611
475.163 .0468045
476.040 .0464891
476.915 .0462026
477.790 .0459483
478.663 .0457292
479.535 .0455476
480.407 .0454033
481.277 .0452991
482.147 .0452310
483.015 .0451981
483.883 .0451897
484.749 .0451952
485.615 .0452068
486.479 .0452215
487.343 .0452434
488.206 .0452663
489.067 .0452856
489.928 .0453032
490.788 .0453229
491.647 .0453570
492.505 .0454006
493.362 .0454594
494.218 .0455329
495.073 .0456282
495.928 .0457501
496.781 .0458929
497.634 .0460640
498.486 .0462736
499.337 .0465131
500.187 .0467803
501.036 .0470713
501.884 .0473863
502.731 .0477332
503.578 .0481202
504.424 .0485472
505.268 .0490098
506.113 .0495118
506.956 .0500694
507.798 .0506855
508.640 .0513575
509.480 .0520869
510.320 .0528617
511.160 .0537031
511.998 .0546038
512.836 .0555541
513.672 .0565931
514.508 .0577435
515.344 .0590147
516.178 .0604299
517.012 .0620139
517.845 .0638196
518.677 .0658434
519.508 .0681208
520.339 .0706483
521.169 .0734867
521.998 .0766605
522.826 .0802333
523.654 .0842509
524.481 .0887678
525.307 .0938808
526.133 .0995853
526.958 .1058761
527.782 .1126830
528.605 .1198533
529.428 .1272954
530.250 .1344602
531.072 .1410879
531.892 .1467081
532.712 .1510802
533.532 .1539880
534.350 .1552104
535.168 .1546705
535.986 .1524145
536.802 .1486258
537.618 .1435764
538.434 .1374938
539.249 .1308485
540.063 .1238431
540.876 .1168259
541.689 .1099492
542.501 .1034093
543.313 .0973215
544.124 .0917927
544.934 .0867577
545.744 .0821645
546.553 .0779674
547.361 .0741892
548.169 .0708719
548.976 .0679518
549.783 .0654024
550.589 .0631800
551.395 .0611998
552.200 .0594383
553.004 .0578250
553.808 .0563381
554.611 .0549673
555.414 .0537103
556.216 .0525575
557.018 .0515198
557.819 .0505852
558.619 .0497167
559.419 .0489211
560.218 .0481889
561.017 .0474836
561.815 .0467930
562.613 .0461078
563.410 .0454177
564.207 .0447357
565.003 .0440766
565.799 .0434388
566.594 .0428304
567.388 .0422644
568.182 .0417203
568.976 .0411949
569.769 .0406941
570.562 .0402037
571.354 .0397221
572.145 .0392567
572.936 .0387972
573.727 .0383476
574.517 .0379149
575.307 .0375022
576.096 .0371066
576.885 .0367382
577.673 .0363896
578.461 .0360610
579.248 .0357549
580.035 .0354680
580.821 .0351986
581.607 .0349497
582.392 .0347194
583.177 .0345030
583.962 .0342984
584.746 .0341090
585.529 .0339291
586.313 .0337633
587.095 .0336099
587.878 .0334678
588.660 .0333389
589.441 .0332220
590.222 .0331146
591.003 .0330170
591.783 .0329275
592.563 .0328453
593.342 .0327697
594.121 .0326986
594.899 .0326313
595.678 .0325672
596.455 .0325062
597.233 .0324473
598.009 .0323899
598.786 .0323339
599.562 .0322794
600.338 .0322259
601.113 .0321735
601.888 .0321223
602.663 .0320736
603.437 .0320265
604.211 .0319808
604.984 .0319370
605.757 .0318951
606.530 .0318543
607.302 .0318155
608.074 .0317782
608.845 .0317438
609.616 .0317120
610.387 .0316840
611.158 .0316586
611.928 .0316365
612.697 .0316167
613.467 .0315996
614.236 .0315842
615.004 .0315705
615.773 .0315574
616.541 .0315459
617.308 .0315363
618.076 .0315282
618.843 .0315206
619.609 .0315148
620.375 .0315090
621.141 .0315028
621.907 .0314946
622.672 .0314849
623.437 .0314730
624.202 .0314602
624.966 .0314468
625.730 .0314325
626.493 .0314185
627.257 .0314046
628.020 .0313902
628.782 .0313748
629.545 .0313574
630.307 .0313369
631.068 .0313139
631.830 .0312881
632.591 .0312588
633.352 .0312278
634.112 .0311964
634.872 .0311640
635.632 .0311319
636.392 .0310992
637.151 .0310670
637.910 .0310335
638.668 .0309999
639.427 .0309653
640.185 .0309304
640.943 .0308952
641.700 .0308597
642.457 .0308245
643.214 .0307906
643.971 .0307570
644.727 .0307248
645.483 .0306944
646.239 .0306654
646.994 .0306366
647.750 .0306091
648.505 .0305825
649.259 .0305575
650.014 .0305331
650.768 .0305099
651.521 .0304874
652.275 .0304651
653.028 .0304422
653.781 .0304179
654.534 .0303932
655.286 .0303672
656.039 .0303387
656.791 .0303092
657.542 .0302774
658.294 .0302441
659.045 .0302100
659.796 .0301759
660.546 .0301423
661.297 .0301098
662.047 .0300783
662.796 .0300480
663.546 .0300194
664.295 .0299918
665.044 .0299650
665.793 .0299397
666.542 .0299156
667.290 .0298929
668.038 .0298719
668.786 .0298536
669.533 .0298371
670.281 .0298234
671.028 .0298113
671.774 .0298002
672.521 .0297903
673.267 .0297809
674.013 .0297714
674.759 .0297624
675.505 .0297532
676.250 .0297442
676.995 .0297359
677.740 .0297284
678.484 .0297219
679.229 .0297172
679.973 .0297135
680.717 .0297112
681.460 .0297096
682.204 .0297086
682.947 .0297079
683.690 .0297076
684.433 .0297074
685.175 .0297067
685.917 .0297061
686.659 .0297049
687.401 .0297028
688.142 .0297001
688.884 .0296959
689.625 .0296898
690.365 .0296821
691.106 .0296721
691.846 .0296603
692.586 .0296474
693.326 .0296337
694.066 .0296189
694.805 .0296037
695.545 .0295875
696.284 .0295704
697.022 .0295521
697.761 .0295332
698.499 .0295133
699.237 .0294930
699.975 .0294726
700.713 .0294522
701.450 .0294327
702.187 .0294140
702.924 .0293957
703.661 .0293778
704.397 .0293593
705.133 .0293399
705.869 .0293189
706.605 .0292971
707.341 .0292746
708.076 .0292520
708.811 .0292296
709.546 .0292078
710.281 .0291863
711.015 .0291649
711.749 .0291432
712.483 .0291206
713.217 .0290971
713.950 .0290725
714.684 .0290465
715.417 .0290196
716.150 .0289922
716.882 .0289651
717.615 .0289377
718.347 .0289106
719.079 .0288831
719.811 .0288544
720.542 .0288250
721.273 .0287947
722.005 .0287636
722.735 .0287322
723.466 .0287013
724.196 .0286710
724.927 .0286411
725.656 .0286119
726.386 .0285833
727.116 .0285553
727.845 .0285282
728.574 .0285014
729.303 .0284750
730.031 .0284500
730.760 .0284265
731.488 .0284044
732.216 .0283845
732.944 .0283667
733.671 .0283509
734.398 .0283369
735.125 .0283245
735.852 .0283135
736.579 .0283039
737.305 .0282968
738.031 .0282911
738.757 .0282866
739.483 .0282833
740.208 .0282806
740.933 .0282783
741.658 .0282759
742.383 .0282731
743.108 .0282695
743.832 .0282655
744.556 .0282615
745.280 .0282569
746.004 .0282525
746.727 .0282486
747.450 .0282447
748.173 .0282407
748.896 .0282363
749.618 .0282311
750.340 .0282259
751.062 .0282212
751.784 .0282165
752.506 .0282126
753.227 .0282099
753.948 .0282085
754.669 .0282085
755.389 .0282099
756.110 .0282122
756.830 .0282152
757.550 .0282189
758.269 .0282221
758.989 .0282245
759.708 .0282264
760.427 .0282273
761.146 .0282271
761.864 .0282261
762.582 .0282239
763.300 .0282213
764.018 .0282183
764.736 .0282151
765.453 .0282113
766.170 .0282074
766.887 .0282026
767.603 .0281968
768.320 .0281900
769.036 .0281823
769.751 .0281740
770.467 .0281656
771.182 .0281574
771.897 .0281497
772.612 .0281426
773.327 .0281365
774.041 .0281310
774.755 .0281262
775.469 .0281213
776.183 .0281164
776.896 .0281112
777.609 .0281058
778.322 .0280999
779.035 .0280935
779.747 .0280871
780.459 .0280804
781.171 .0280733
781.882 .0280657
782.594 .0280576
783.305 .0280489
784.016 .0280390
784.726 .0280279
785.436 .0280152
786.147 .0280011
786.856 .0279855
787.566 .0279681
788.275 .0279492
788.984 .0279293
789.693 .0279082
790.401 .0278865
791.110 .0278644
791.818 .0278419
792.525 .0278198
793.233 .0277978
793.940 .0277755
794.647 .0277530
795.353 .0277302
796.060 .0277068
796.766 .0276829
797.472 .0276586
798.177 .0276332
798.883 .0276076
799.588 .0275819
800.292 .0275560
800.997 .0275305
801.701 .0275053
802.405 .0274802
803.109 .0274553
803.812 .0274302
804.515 .0274044
805.218 .0273775
805.921 .0273499
806.623 .0273203
807.325 .0272893
808.027 .0272569
808.728 .0272236
809.429 .0271900
810.130 .0271569
810.831 .0271241
811.531 .0270925
812.231 .0270619
812.931 .0270321
813.630 .0270028
814.330 .0269741
815.029 .0269458
815.727 .0269181
816.426 .0268914
817.124 .0268661
817.821 .0268421
818.519 .0268205
819.216 .0268008
819.913 .0267834
820.609 .0267681
821.306 .0267545
822.002 .0267422
822.697 .0267314
823.393 .0267218
824.088 .0267131
824.783 .0267052
825.477 .0266981
826.171 .0266914
826.865 .0266854
827.559 .0266802
828.252 .0266760
828.945 .0266728
829.638 .0266715
830.330 .0266713
831.023 .0266727
831.714 .0266751
832.406 .0266785
833.097 .0266821
833.788 .0266855
834.479 .0266885
835.169 .0266912
835.859 .0266939
836.548 .0266973
837.238 .0267012
837.927 .0267063
838.615 .0267124
839.304 .0267194
839.992 .0267268
840.680 .0267343
841.367 .0267411
842.054 .0267476
842.741 .0267537
843.428 .0267596
844.114 .0267656
844.800 .0267722
845.485 .0267792
846.170 .0267868
846.855 .0267946
847.540 .0268024
848.224 .0268096
848.908 .0268164
849.592 .0268219
850.275 .0268269
850.958 .0268312
851.641 .0268351
852.323 .0268387
853.005 .0268426
853.687 .0268465
854.368 .0268503
855.049 .0268540
855.730 .0268573
856.410 .0268597
857.090 .0268614
857.769 .0268620
858.449 .0268616
859.128 .0268607
859.806 .0268592
860.485 .0268578
861.163 .0268571
861.840 .0268568
862.518 .0268567
863.195 .0268574
863.871 .0268582
864.548 .0268587
865.224 .0268587
865.899 .0268586
866.574 .0268578
867.249 .0268568
867.924 .0268554
868.598 .0268540
869.272 .0268531
869.946 .0268523
870.619 .0268512
871.292 .0268504
871.964 .0268491
872.636 .0268469
873.308 .0268433
873.979 .0268382
874.651 .0268310
875.321 .0268224
875.992 .0268127
876.662 .0268021
877.331 .0267916
878.001 .0267817
878.670 .0267723
879.338 .0267643
880.007 .0267574
880.675 .0267509
881.342 .0267446
882.009 .0267379
882.676 .0267298
883.343 .0267205
884.009 .0267102
884.675 .0266991
885.340 .0266874
886.005 .0266753
886.670 .0266635
887.334 .0266518
887.998 .0266401
888.662 .0266279
889.325 .0266149
889.988 .0266011
890.650 .0265856
891.312 .0265688
891.974 .0265506
892.636 .0265323
893.297 .0265135
893.957 .0264947
894.618 .0264760
895.278 .0264573
895.937 .0264384
896.596 .0264190
897.255 .0263991
897.914 .0263781
898.572 .0263559
899.230 .0263328
899.887 .0263084
900.544 .0262835
901.201 .0262580
901.857 .0262326
902.513 .0262069
903.168 .0261812
903.823 .0261548
904.478 .0261278
905.132 .0261004
905.786 .0260725
906.440 .0260437
907.093 .0260145
907.746 .0259850
908.399 .0259551
909.051 .0259248
909.703 .0258945
910.354 .0258636
911.005 .0258323
911.656 .0258002
912.306 .0257670
912.956 .0257331
913.605 .0256986
914.254 .0256636
914.903 .0256279
915.551 .0255923
916.199 .0255563
916.847 .0255199
917.494 .0254839
918.141 .0254479
918.788 .0254125
919.434 .0253784
920.079 .0253448
920.725 .0253122
921.370 .0252805
922.014 .0252498
922.658 .0252193
923.302 .0251894
923.946 .0251597
924.589 .0251297
925.231 .0250999
925.873 .0250706
926.515 .0250420
927.157 .0250142
927.798 .0249873
928.439 .0249611
929.079 .0249360
929.719 .0249112
930.359 .0248863
930.998 .0248620
931.637 .0248378
932.275 .0248140
932.913 .0247909
933.551 .0247685
934.188 .0247478
934.825 .0247286
935.462 .0247110
936.098 .0246951
936.733 .0246812
937.369 .0246693
938.004 .0246591
938.638 .0246506
939.273 .0246435
939.907 .0246374
940.540 .0246328
941.173 .0246290
941.806 .0246262
942.438 .0246246
943.070 .0246241
943.702 .0246246
944.333 .0246261
944.964 .0246283
945.594 .0246309
946.224 .0246340
946.854 .0246373
947.483 .0246403
948.112 .0246428
948.741 .0246453
949.369 .0246480
949.996 .0246511
950.624 .0246546
951.251 .0246588
951.878 .0246636
952.504 .0246688
953.130 .0246743
953.755 .0246801
954.380 .0246864
955.005 .0246930
955.629 .0247001
956.253 .0247076
956.877 .0247160
957.500 .0247252
958.123 .0247350
958.746 .0247450
959.368 .0247551
959.990 .0247648
960.611 .0247742
961.232 .0247837
961.853 .0247931
962.473 .0248032
963.093 .0248142
963.712 .0248260
964.331 .0248387
964.950 .0248516
965.569 .0248653
966.187 .0248789
966.804 .0248927
967.422 .0249063
968.039 .0249205
968.655 .0249353
969.272 .0249510
969.887 .0249679
970.503 .0249859
971.118 .0250046
971.733 .0250237
972.347 .0250420
972.961 .0250598
973.575 .0250763
974.188 .0250909
974.801 .0251033
975.414 .0251145
976.026 .0251237
976.638 .0251322
977.250 .0251398
977.861 .0251474
978.472 .0251545
979.083 .0251612
979.693 .0251671
980.303 .0251718
980.912 .0251752
981.521 .0251772
982.130 .0251776
982.738 .0251777
983.346 .0251773
983.954 .0251776
984.562 .0251791
985.169 .0251816
985.775 .0251849
986.382 .0251888
986.988 .0251924
987.594 .0251951
988.199 .0251964
988.804 .0251968
989.409 .0251964
990.013 .0251960
990.617 .0251961
991.221 .0251973
991.824 .0252000
992.427 .0252045
993.030 .0252102
993.632 .0252176
994.234 .0252255
994.836 .0252340
995.438 .0252428
996.039 .0252517
996.640 .0252609
997.240 .0252706
997.840 .0252812
998.440 .0252925
999.040 .0253037
999.639 .0253149
1000.238 .0253253
1000.836 .0253349
1001.435 .0253424
1002.033 .0253487
1002.630 .0253532
1003.228 .0253559
1003.825 .0253569
1004.422 .0253567
1005.018 .0253554
1005.614 .0253531
1006.210 .0253494
1006.806 .0253446
1007.401 .0253385
1007.996 .0253312
1008.591 .0253226
1009.186 .0253141
1009.780 .0253056
1010.374 .0252968
1010.967 .0252875
1011.561 .0252786
1012.154 .0252690
1012.746 .0252591
1013.339 .0252485
1013.931 .0252373
1014.523 .0252258
1015.115 .0252145
1015.706 .0252034
1016.298 .0251939
1016.888 .0251862
1017.479 .0251799
1018.069 .0251749
1018.660 .0251703
1019.250 .0251652
1019.839 .0251589
1020.429 .0251511
1021.018 .0251424
1021.607 .0251326
1022.195 .0251232
1022.784 .0251149
1023.372 .0251081
1023.960 .0251034
1024.547 .0250998
1025.135 .0250972
1025.722 .0250946
1026.309 .0250913
1026.896 .0250864
1027.483 .0250793
1028.069 .0250708
1028.655 .0250616
1029.241 .0250522
1029.827 .0250438
1030.412 .0250365
1030.997 .0250306
1031.582 .0250256
1032.167 .0250200
1032.752 .0250135
1033.336 .0250054
1033.921 .0249954
1034.505 .0249832
1035.089 .0249697
1035.672 .0249548
1036.256 .0249397
1036.839 .0249245
1037.422 .0249096
1038.005 .0248950
1038.588 .0248802
1039.171 .0248647
1039.753 .0248487
1040.335 .0248316
1040.918 .0248132
1041.500 .0247938
1042.081 .0247733
1042.663 .0247507
1043.244 .0247271
1043.826 .0247014
1044.407 .0246746
1044.988 .0246464
1045.569 .0246179
1046.150 .0245886
1046.730 .0245595
1047.311 .0245307
1047.891 .0245018
1048.471 .0244744
1049.052 .0244481
1049.632 .0244225
1050.211 .0243987
1050.791 .0243764
1051.371 .0243555
1051.950 .0243371
1052.530 .0243209
1053.109 .0243069
1053.688 .0242948
1054.268 .0242846
1054.847 .0242743
1055.426 .0242639
1056.005 .0242529
1056.583 .0242416
1057.162 .0242298
1057.741 .0242185
1058.319 .0242073
1058.898 .0241973
1059.476 .0241878
1060.055 .0241790
1060.633 .0241705
1061.211 .0241629
1061.790 .0241542
1062.368 .0241455
1062.946 .0241365
1063.524 .0241282
1064.102 .0241205
1064.680 .0241140
1065.258 .0241093
1065.836 .0241059
1066.414 .0241027
1066.992 .0240993
1067.570 .0240955
1068.148 .0240915
1068.726 .0240846
1069.304 .0240765
1069.882 .0240673
1070.460 .0240574
1071.038 .0240459
1071.616 .0240345
1072.194 .0240230
1072.772 .0240112
1073.350 .0239985
1073.928 .0239845
1074.506 .0239694
1075.084 .0239536
1075.662 .0239369
1076.240 .0239211
1076.819 .0239073
1077.397 .0238959
1077.976 .0238845
1078.554 .0238765
1079.133 .0238713
1079.711 .0238669
1080.290 .0238634
1080.869 .0238610
1081.448 .0238605
1082.027 .0238613
1082.606 .0238639
1083.185 .0238700
1083.764 .0238798
1084.343 .0238944
1084.923 .0239112
1085.502 .0239300
1086.082 .0239501
1086.662 .0239706
1087.242 .0239901
1087.822 .0240091
1088.402 .0240281
1088.983 .0240467
1089.563 .0240662
1090.144 .0240867
1090.725 .0241090
1091.306 .0241291
1091.887 .0241488
1092.469 .0241675
1093.050 .0241840
1093.632 .0241985
1094.214 .0242116
1094.796 .0242248
1095.379 .0242394
1095.961 .0242546
1096.544 .0242706
1097.127 .0242876
1097.710 .0243081
1098.294 .0243300
1098.877 .0243531
1099.461 .0243779
1100.046 .0244052
1100.630 .0244348
1101.215 .0244675
1101.800 .0245019
1102.385 .0245369
1102.970 .0245719
1103.556 .0246058
1104.142 .0246380
1104.728 .0246678
1105.315 .0246959
1105.902 .0247214
1106.489 .0247467
1107.077 .0247693
1107.664 .0247900
1108.253 .0248086
1108.841 .0248280
1109.430 .0248482
1110.019 .0248686
1110.609 .0248912
1111.198 .0249186
1111.789 .0249509
1112.379 .0249904
1112.970 .0250331
1113.561 .0250804
1114.153 .0251308
1114.745 .0251840
1115.338 .0252385
1115.931 .0252961
1116.524 .0253563
1117.117 .0254227
1117.712 .0254926
1118.306 .0255669
1118.901 .0256420
1119.496 .0257191
1120.092 .0257944
1120.689 .0258656
1121.285 .0259311
1121.882 .0259928
1122.480 .0260510
1123.078 .0261107
1123.677 .0261707
1124.276 .0262323
1124.875 .0262978
1125.476 .0263651
1126.076 .0264339
1126.677 .0265041
1127.279 .0265730
1127.881 .0266441
1128.484 .0267138
1129.087 .0267829
1129.691 .0268526
1130.295 .0269256
1130.900 .0270049
1131.505 .0270867
1132.111 .0271748
1132.718 .0272688
1133.325 .0273706
1133.933 .0274840
1134.541 .0276067
1135.150 .0277380
1135.760 .0278792
1136.370 .0280275
1136.981 .0281808
1137.592 .0283375
1138.204 .0284995
1138.817 .0286652
1139.431 .0288340
1140.045 .0290090
1140.660 .0291820
1141.275 .0293587
1141.891 .0295567
1142.508 .0297382
1143.126 .0300033
1143.744 .0300006
1144.363 .0302309
1144.983 .0309227
