Measurement Sequence started on: 15-12-46-377
Integration time: 28
Scans to Average: 2 
>>>>>Begin Spectral Data<<<<<
432.689 .0000100
433.621 .0000100
434.552 .0000100
435.482 .0000100
436.410 .0000100
437.337 .0000100
438.262 .0280122
439.187 .0593242
440.110 .0981628
441.031 .1419517
441.952 .1844142
442.871 .2178155
443.789 .2360587
444.705 .2370949
445.621 .2234940
446.535 .2008685
447.447 .1752860
448.359 .1361024
449.269 .1167569
450.178 .1045960
451.086 .0959697
451.993 .0893515
452.898 .0840797
453.803 .0797727
454.706 .0761925
455.608 .0731451
456.508 .0704954
457.408 .0681801
458.306 .0661077
459.204 .0642504
460.100 .0625759
460.995 .0610749
461.888 .0597197
462.781 .0584774
463.673 .0573389
464.563 .0562953
465.452 .0553188
466.340 .0544009
467.228 .0535519
468.114 .0527595
468.999 .0520189
469.882 .0513297
470.765 .0506990
471.647 .0501261
472.528 .0496086
473.407 .0491523
474.286 .0487443
475.163 .0483776
476.040 .0480511
476.915 .0477581
477.790 .0474998
478.663 .0472760
479.535 .0470822
480.407 .0469240
481.277 .0467999
482.147 .0466974
483.015 .0466189
483.883 .0465619
484.749 .0465176
485.615 .0464811
486.479 .0464508
487.343 .0464352
488.206 .0464282
489.067 .0464396
489.928 .0464738
490.788 .0465242
491.647 .0465955
492.505 .0466804
493.362 .0467734
494.218 .0468777
495.073 .0469875
495.928 .0471173
496.781 .0472646
497.634 .0474444
498.486 .0476557
499.337 .0479058
500.187 .0481947
501.036 .0485187
501.884 .0488596
502.731 .0492207
503.578 .0495854
504.424 .0499475
505.268 .0503154
506.113 .0506945
506.956 .0510875
507.798 .0515189
508.640 .0519911
509.480 .0525254
510.320 .0531257
511.160 .0538173
511.998 .0545842
512.836 .0554411
513.672 .0563870
514.508 .0574189
515.344 .0585487
516.178 .0598118
517.012 .0612326
517.845 .0628727
518.677 .0647720
519.508 .0669465
520.339 .0694624
521.169 .0723985
521.998 .0757836
522.826 .0796355
523.654 .0839759
524.481 .0887985
525.307 .0941005
526.133 .0998363
526.958 .1059619
527.782 .1124809
528.605 .1192989
529.428 .1263527
530.250 .1331444
531.072 .1395278
531.892 .1451146
532.712 .1496226
533.532 .1527895
534.350 .1543222
535.168 .1541060
535.986 .1521539
536.802 .1485750
537.618 .1436763
538.434 .1376522
539.249 .1310567
540.063 .1240751
540.876 .1170924
541.689 .1102808
542.501 .1038516
543.313 .0979610
544.124 .0926418
544.934 .0878139
545.744 .0834070
546.553 .0793656
547.361 .0757222
548.169 .0724712
548.976 .0695528
549.783 .0669632
550.589 .0646953
551.395 .0626785
552.200 .0608749
553.004 .0592291
553.808 .0577204
554.611 .0563316
555.414 .0550463
556.216 .0538505
557.018 .0527446
557.819 .0517339
558.619 .0507956
559.419 .0499292
560.218 .0491295
561.017 .0483834
561.815 .0476689
562.613 .0469828
563.410 .0463077
564.207 .0456443
565.003 .0449926
565.799 .0443519
566.594 .0437289
567.388 .0431424
568.182 .0425748
568.976 .0420347
569.769 .0415217
570.562 .0410364
571.354 .0405712
572.145 .0401248
572.936 .0396955
573.727 .0392799
574.517 .0388717
575.307 .0384751
576.096 .0380872
576.885 .0377146
577.673 .0373562
578.461 .0370104
579.248 .0366798
580.035 .0363639
580.821 .0360630
581.607 .0357761
582.392 .0355044
583.177 .0352477
583.962 .0350048
584.746 .0347754
585.529 .0345575
586.313 .0343501
587.095 .0341569
587.878 .0339801
588.660 .0338164
589.441 .0336681
590.222 .0335352
591.003 .0334175
591.783 .0333148
592.563 .0332240
593.342 .0331443
594.121 .0330721
594.899 .0330060
595.678 .0329446
596.455 .0328861
597.233 .0328323
598.009 .0327806
598.786 .0327326
599.562 .0326869
600.338 .0326433
601.113 .0326007
601.888 .0325596
602.663 .0325194
603.437 .0324789
604.211 .0324369
604.984 .0323946
605.757 .0323517
606.530 .0323093
607.302 .0322680
608.074 .0322297
608.845 .0321935
609.616 .0321604
610.387 .0321291
611.158 .0321003
611.928 .0320730
612.697 .0320471
613.467 .0320217
614.236 .0319968
615.004 .0319728
615.773 .0319496
616.541 .0319280
617.308 .0319092
618.076 .0318923
618.843 .0318771
619.609 .0318630
620.375 .0318495
621.141 .0318357
621.907 .0318215
622.672 .0318061
623.437 .0317894
624.202 .0317712
624.966 .0317517
625.730 .0317307
626.493 .0317095
627.257 .0316882
628.020 .0316657
628.782 .0316421
629.545 .0316168
630.307 .0315896
631.068 .0315604
631.830 .0315295
632.591 .0314966
633.352 .0314625
634.112 .0314271
634.872 .0313907
635.632 .0313540
636.392 .0313176
637.151 .0312823
637.910 .0312479
638.668 .0312152
639.427 .0311837
640.185 .0311529
640.943 .0311244
641.700 .0310971
642.457 .0310716
643.214 .0310474
643.971 .0310243
644.727 .0310026
645.483 .0309815
646.239 .0309600
646.994 .0309382
647.750 .0309158
648.505 .0308925
649.259 .0308681
650.014 .0308429
650.768 .0308170
651.521 .0307908
652.275 .0307649
653.028 .0307393
653.781 .0307143
654.534 .0306899
655.286 .0306659
656.039 .0306424
656.791 .0306189
657.542 .0305949
658.294 .0305714
659.045 .0305491
659.796 .0305276
660.546 .0305071
661.297 .0304876
662.047 .0304691
662.796 .0304509
663.546 .0304325
664.295 .0304134
665.044 .0303933
665.793 .0303724
666.542 .0303499
667.290 .0303274
668.038 .0303049
668.786 .0302826
669.533 .0302605
670.281 .0302390
671.028 .0302171
671.774 .0301947
672.521 .0301719
673.267 .0301490
674.013 .0301263
674.759 .0301034
675.505 .0300805
676.250 .0300583
676.995 .0300372
677.740 .0300169
678.484 .0299971
679.229 .0299786
679.973 .0299608
680.717 .0299439
681.460 .0299273
682.204 .0299113
682.947 .0298964
683.690 .0298827
684.433 .0298702
685.175 .0298592
685.917 .0298495
686.659 .0298407
687.401 .0298329
688.142 .0298254
688.884 .0298177
689.625 .0298094
690.365 .0297996
691.106 .0297886
691.846 .0297756
692.586 .0297612
693.326 .0297448
694.066 .0297278
694.805 .0297101
695.545 .0296915
696.284 .0296727
697.022 .0296537
697.761 .0296345
698.499 .0296154
699.237 .0295958
699.975 .0295761
700.713 .0295564
701.450 .0295373
702.187 .0295185
702.924 .0295014
703.661 .0294854
704.397 .0294712
705.133 .0294582
705.869 .0294461
706.605 .0294340
707.341 .0294215
708.076 .0294082
708.811 .0293934
709.546 .0293773
710.281 .0293598
711.015 .0293409
711.749 .0293219
712.483 .0293027
713.217 .0292838
713.950 .0292653
714.684 .0292471
715.417 .0292286
716.150 .0292099
716.882 .0291904
717.615 .0291698
718.347 .0291484
719.079 .0291265
719.811 .0291045
720.542 .0290827
721.273 .0290615
722.005 .0290408
722.735 .0290203
723.466 .0290001
724.196 .0289796
724.927 .0289588
725.656 .0289371
726.386 .0289148
727.116 .0288921
727.845 .0288690
728.574 .0288460
729.303 .0288230
730.031 .0288004
730.760 .0287784
731.488 .0287568
732.216 .0287359
732.944 .0287158
733.671 .0286973
734.398 .0286798
735.125 .0286637
735.852 .0286489
736.579 .0286348
737.305 .0286218
738.031 .0286098
738.757 .0285982
739.483 .0285868
740.208 .0285754
740.933 .0285642
741.658 .0285526
742.383 .0285411
743.108 .0285295
743.832 .0285182
744.556 .0285074
745.280 .0284963
746.004 .0284848
746.727 .0284733
747.450 .0284616
748.173 .0284489
748.896 .0284361
749.618 .0284223
750.340 .0284073
751.062 .0283916
751.784 .0283757
752.506 .0283594
753.227 .0283431
753.948 .0283273
754.669 .0283121
755.389 .0282971
756.110 .0282829
756.830 .0282686
757.550 .0282551
758.269 .0282418
758.989 .0282282
759.708 .0282145
760.427 .0282008
761.146 .0281871
761.864 .0281731
762.582 .0281588
763.300 .0281447
764.018 .0281303
764.736 .0281159
765.453 .0281020
766.170 .0280885
766.887 .0280758
767.603 .0280639
768.320 .0280525
769.036 .0280418
769.751 .0280309
770.467 .0280204
771.182 .0280099
771.897 .0280001
772.612 .0279910
773.327 .0279827
774.041 .0279761
774.755 .0279713
775.469 .0279676
776.183 .0279651
776.896 .0279635
777.609 .0279624
778.322 .0279612
779.035 .0279597
779.747 .0279582
780.459 .0279570
781.171 .0279562
781.882 .0279561
782.594 .0279561
783.305 .0279567
784.016 .0279570
784.726 .0279569
785.436 .0279563
786.147 .0279550
786.856 .0279533
787.566 .0279516
788.275 .0279506
788.984 .0279499
789.693 .0279495
790.401 .0279497
791.110 .0279494
791.818 .0279483
792.525 .0279457
793.233 .0279421
793.940 .0279371
794.647 .0279312
795.353 .0279246
796.060 .0279177
796.766 .0279108
797.472 .0279039
798.177 .0278969
798.883 .0278897
799.588 .0278823
800.292 .0278741
800.997 .0278653
801.701 .0278558
802.405 .0278456
803.109 .0278350
803.812 .0278242
804.515 .0278134
805.218 .0278019
805.921 .0277901
806.623 .0277782
807.325 .0277659
808.027 .0277534
808.728 .0277404
809.429 .0277271
810.130 .0277132
810.831 .0276990
811.531 .0276840
812.231 .0276682
812.931 .0276518
813.630 .0276349
814.330 .0276174
815.029 .0276000
815.727 .0275828
816.426 .0275660
817.124 .0275503
817.821 .0275350
818.519 .0275199
819.216 .0275053
819.913 .0274910
820.609 .0274769
821.306 .0274628
822.002 .0274495
822.697 .0274368
823.393 .0274251
824.088 .0274146
824.783 .0274050
825.477 .0273964
826.171 .0273885
826.865 .0273807
827.559 .0273726
828.252 .0273638
828.945 .0273544
829.638 .0273441
830.330 .0273337
831.023 .0273230
831.714 .0273119
832.406 .0273010
833.097 .0272899
833.788 .0272781
834.479 .0272658
835.169 .0272525
835.859 .0272386
836.548 .0272240
837.238 .0272089
837.927 .0271935
838.615 .0271784
839.304 .0271641
839.992 .0271502
840.680 .0271369
841.367 .0271242
842.054 .0271117
842.741 .0270999
843.428 .0270884
844.114 .0270772
844.800 .0270660
845.485 .0270546
846.170 .0270423
846.855 .0270294
847.540 .0270151
848.224 .0270000
848.908 .0269840
849.592 .0269671
850.275 .0269499
850.958 .0269323
851.641 .0269146
852.323 .0268967
853.005 .0268782
853.687 .0268586
854.368 .0268373
855.049 .0268151
855.730 .0267918
856.410 .0267678
857.090 .0267439
857.769 .0267206
858.449 .0266982
859.128 .0266769
859.806 .0266563
860.485 .0266368
861.163 .0266178
861.840 .0265990
862.518 .0265802
863.195 .0265614
863.871 .0265425
864.548 .0265240
865.224 .0265059
865.899 .0264882
866.574 .0264709
867.249 .0264538
867.924 .0264369
868.598 .0264201
869.272 .0264034
869.946 .0263869
870.619 .0263706
871.292 .0263549
871.964 .0263393
872.636 .0263244
873.308 .0263103
873.979 .0262973
874.651 .0262850
875.321 .0262738
875.992 .0262636
876.662 .0262547
877.331 .0262470
878.001 .0262404
878.670 .0262348
879.338 .0262301
880.007 .0262265
880.675 .0262236
881.342 .0262212
882.009 .0262195
882.676 .0262182
883.343 .0262171
884.009 .0262160
884.675 .0262149
885.340 .0262137
886.005 .0262126
886.670 .0262119
887.334 .0262117
887.998 .0262123
888.662 .0262138
889.325 .0262159
889.988 .0262189
890.650 .0262225
891.312 .0262264
891.974 .0262307
892.636 .0262354
893.297 .0262407
893.957 .0262468
894.618 .0262541
895.278 .0262625
895.937 .0262722
896.596 .0262826
897.255 .0262933
897.914 .0263036
898.572 .0263134
899.230 .0263220
899.887 .0263294
900.544 .0263352
901.201 .0263395
901.857 .0263426
902.513 .0263445
903.168 .0263453
903.823 .0263451
904.478 .0263437
905.132 .0263408
905.786 .0263362
906.440 .0263300
907.093 .0263223
907.746 .0263130
908.399 .0263023
909.051 .0262901
909.703 .0262770
910.354 .0262635
911.005 .0262501
911.656 .0262374
912.306 .0262259
912.956 .0262155
913.605 .0262065
914.254 .0261989
914.903 .0261924
915.551 .0261867
916.199 .0261820
916.847 .0261775
917.494 .0261729
918.141 .0261687
918.788 .0261649
919.434 .0261617
920.079 .0261593
920.725 .0261574
921.370 .0261560
922.014 .0261544
922.658 .0261529
923.302 .0261502
923.946 .0261463
924.589 .0261406
925.231 .0261324
925.873 .0261225
926.515 .0261106
927.157 .0260972
927.798 .0260828
928.439 .0260675
929.079 .0260517
929.719 .0260353
930.359 .0260189
930.998 .0260025
931.637 .0259866
932.275 .0259709
932.913 .0259557
933.551 .0259411
934.188 .0259276
934.825 .0259152
935.462 .0259043
936.098 .0258950
936.733 .0258870
937.369 .0258804
938.004 .0258749
938.638 .0258697
939.273 .0258655
939.907 .0258614
940.540 .0258577
941.173 .0258542
941.806 .0258518
942.438 .0258496
943.070 .0258479
943.702 .0258460
944.333 .0258431
944.964 .0258388
945.594 .0258330
946.224 .0258250
946.854 .0258159
947.483 .0258062
948.112 .0257965
948.741 .0257871
949.369 .0257791
949.996 .0257721
950.624 .0257657
951.251 .0257594
951.878 .0257525
952.504 .0257442
953.130 .0257345
953.755 .0257233
954.380 .0257114
955.005 .0256991
955.629 .0256869
956.253 .0256751
956.877 .0256645
957.500 .0256547
958.123 .0256455
958.746 .0256363
959.368 .0256269
959.990 .0256169
960.611 .0256060
961.232 .0255943
961.853 .0255820
962.473 .0255695
963.093 .0255564
963.712 .0255432
964.331 .0255303
964.950 .0255173
965.569 .0255048
966.187 .0254929
966.804 .0254815
967.422 .0254706
968.039 .0254602
968.655 .0254498
969.272 .0254392
969.887 .0254285
970.503 .0254171
971.118 .0254049
971.733 .0253923
972.347 .0253788
972.961 .0253643
973.575 .0253494
974.188 .0253338
974.801 .0253171
975.414 .0252996
976.026 .0252814
976.638 .0252625
977.250 .0252435
977.861 .0252243
978.472 .0252051
979.083 .0251857
979.693 .0251663
980.303 .0251459
980.912 .0251248
981.521 .0251028
982.130 .0250795
982.738 .0250555
983.346 .0250313
983.954 .0250069
984.562 .0249828
985.169 .0249587
985.775 .0249354
986.382 .0249115
986.988 .0248877
987.594 .0248634
988.199 .0248387
988.804 .0248134
989.409 .0247877
990.013 .0247623
990.617 .0247379
991.221 .0247148
991.824 .0246941
992.427 .0246756
993.030 .0246605
993.632 .0246479
994.234 .0246384
994.836 .0246310
995.438 .0246258
996.039 .0246204
996.640 .0246155
997.240 .0246095
997.840 .0246025
998.440 .0245943
999.040 .0245854
999.639 .0245760
1000.238 .0245665
1000.836 .0245568
1001.435 .0245472
1002.033 .0245371
1002.630 .0245268
1003.228 .0245147
1003.825 .0245018
1004.422 .0244875
1005.018 .0244724
1005.614 .0244574
1006.210 .0244439
1006.806 .0244321
1007.401 .0244221
1007.996 .0244140
1008.591 .0244077
1009.186 .0244024
1009.780 .0243982
1010.374 .0243938
1010.967 .0243895
1011.561 .0243852
1012.154 .0243808
1012.746 .0243765
1013.339 .0243732
1013.931 .0243709
1014.523 .0243691
1015.115 .0243673
1015.706 .0243648
1016.298 .0243611
1016.888 .0243567
1017.479 .0243516
1018.069 .0243455
1018.660 .0243397
1019.250 .0243344
1019.839 .0243300
1020.429 .0243266
1021.018 .0243247
1021.607 .0243235
1022.195 .0243229
1022.784 .0243219
1023.372 .0243207
1023.960 .0243193
1024.547 .0243187
1025.135 .0243192
1025.722 .0243210
1026.309 .0243245
1026.896 .0243291
1027.483 .0243349
1028.069 .0243420
1028.655 .0243489
1029.241 .0243562
1029.827 .0243630
1030.412 .0243695
1030.997 .0243760
1031.582 .0243831
1032.167 .0243909
1032.752 .0243996
1033.336 .0244088
1033.921 .0244177
1034.505 .0244263
1035.089 .0244341
1035.672 .0244409
1036.256 .0244467
1036.839 .0244520
1037.422 .0244567
1038.005 .0244616
1038.588 .0244674
1039.171 .0244731
1039.753 .0244792
1040.335 .0244852
1040.918 .0244905
1041.500 .0244951
1042.081 .0244995
1042.663 .0245045
1043.244 .0245104
1043.826 .0245170
1044.407 .0245243
1044.988 .0245321
1045.569 .0245408
1046.150 .0245491
1046.730 .0245572
1047.311 .0245651
1047.891 .0245731
1048.471 .0245809
1049.052 .0245894
1049.632 .0245985
1050.211 .0246092
1050.791 .0246200
1051.371 .0246306
1051.950 .0246403
1052.530 .0246492
1053.109 .0246562
1053.688 .0246618
1054.268 .0246660
1054.847 .0246688
1055.426 .0246708
1056.005 .0246728
1056.583 .0246745
1057.162 .0246760
1057.741 .0246773
1058.319 .0246786
1058.898 .0246795
1059.476 .0246807
1060.055 .0246805
1060.633 .0246801
1061.211 .0246797
1061.790 .0246793
1062.368 .0246780
1062.946 .0246771
1063.524 .0246770
1064.102 .0246787
1064.680 .0246827
1065.258 .0246890
1065.836 .0246982
1066.414 .0247107
1066.992 .0247253
1067.570 .0247410
1068.148 .0247567
1068.726 .0247725
1069.304 .0247871
1069.882 .0248015
1070.460 .0248156
1071.038 .0248296
1071.616 .0248447
1072.194 .0248607
1072.772 .0248775
1073.350 .0248943
1073.928 .0249106
1074.506 .0249254
1075.084 .0249382
1075.662 .0249488
1076.240 .0249575
1076.819 .0249650
1077.397 .0249742
1077.976 .0249856
1078.554 .0250002
1079.133 .0250187
1079.711 .0250402
1080.290 .0250633
1080.869 .0250882
1081.448 .0251118
1082.027 .0251345
1082.606 .0251556
1083.185 .0251764
1083.764 .0251964
1084.343 .0252187
1084.923 .0252431
1085.502 .0252695
1086.082 .0252982
1086.662 .0253278
1087.242 .0253550
1087.822 .0253808
1088.402 .0254032
1088.983 .0254226
1089.563 .0254396
1090.144 .0254549
1090.725 .0254679
1091.306 .0254814
1091.887 .0254943
1092.469 .0255074
1093.050 .0255215
1093.632 .0255367
1094.214 .0255521
1094.796 .0255695
1095.379 .0255886
1095.961 .0256100
1096.544 .0256363
1097.127 .0256657
1097.710 .0256979
1098.294 .0257318
1098.877 .0257662
1099.461 .0257997
1100.046 .0258325
1100.630 .0258650
1101.215 .0258964
1101.800 .0259292
1102.385 .0259618
1102.970 .0259937
1103.556 .0260283
1104.142 .0260626
1104.728 .0260965
1105.315 .0261291
1105.902 .0261599
1106.489 .0261862
1107.077 .0262106
1107.664 .0262311
1108.253 .0262509
1108.841 .0262711
1109.430 .0262940
1110.019 .0263180
1110.609 .0263478
1111.198 .0263827
1111.789 .0264207
1112.379 .0264619
1112.970 .0265046
1113.561 .0265431
1114.153 .0265801
1114.745 .0266127
1115.338 .0266425
1115.931 .0266688
1116.524 .0266973
1117.117 .0267269
1117.712 .0267620
1118.306 .0268014
1118.901 .0268486
1119.496 .0269019
1120.092 .0269617
1120.689 .0270247
1121.285 .0270887
1121.882 .0271536
1122.480 .0272198
1123.078 .0272845
1123.677 .0273475
1124.276 .0274066
1124.875 .0274670
1125.476 .0275250
1126.076 .0275874
1126.677 .0276526
1127.279 .0277206
1127.881 .0277925
1128.484 .0278679
1129.087 .0279401
1129.691 .0280079
1130.295 .0280745
1130.900 .0281357
1131.505 .0281919
1132.111 .0282485
1132.718 .0283047
1133.325 .0283697
1133.933 .0284463
1134.541 .0285337
1135.150 .0286305
1135.760 .0287390
1136.370 .0288487
1136.981 .0289564
1137.592 .0290616
1138.204 .0291601
1138.817 .0292547
1139.431 .0293436
1140.045 .0294267
1140.660 .0295078
1141.275 .0295933
1141.891 .0296770
1142.508 .0297558
1143.126 .0298189
1143.744 .0299060
1144.363 .0301119
1144.983 .0300653
