Measurement Sequence started on: 15-12-46-377
Integration time: 28
Scans to Average: 2 
>>>>>Begin Spectral Data<<<<<
432.689 .0000100
433.621 .0000100
434.552 .0000100
435.482 .0000100
436.410 .0000100
437.337 .0000100
438.262 .0258962
439.187 .0547916
440.110 .0906734
441.031 .1311632
441.952 .1704772
442.871 .2014105
443.789 .2183565
444.705 .2194231
445.621 .2070191
446.535 .1863027
447.447 .1628883
448.359 .1269107
449.269 .1093128
450.178 .0983116
451.086 .0905562
451.993 .0846347
452.898 .0799649
453.803 .0761679
454.706 .0730145
455.608 .0703221
456.508 .0680037
457.408 .0659906
458.306 .0642043
459.204 .0625840
460.100 .0610732
460.995 .0596729
461.888 .0583677
462.781 .0571459
463.673 .0560027
464.563 .0549576
465.452 .0539887
466.340 .0530957
467.228 .0522736
468.114 .0515073
468.999 .0507852
469.882 .0501215
470.765 .0495020
471.647 .0489300
472.528 .0484054
473.407 .0479384
474.286 .0475312
475.163 .0471845
476.040 .0468925
476.915 .0466558
477.790 .0464729
478.663 .0463383
479.535 .0462308
480.407 .0461591
481.277 .0461041
482.147 .0460652
483.015 .0460360
483.883 .0460201
484.749 .0460132
485.615 .0460226
486.479 .0460506
487.343 .0461010
488.206 .0461687
489.067 .0462484
489.928 .0463333
490.788 .0464223
491.647 .0465076
492.505 .0465844
493.362 .0466536
494.218 .0467288
495.073 .0468100
495.928 .0469165
496.781 .0470507
497.634 .0472205
498.486 .0474239
499.337 .0476513
500.187 .0478971
501.036 .0481577
501.884 .0484358
502.731 .0487376
503.578 .0490637
504.424 .0494265
505.268 .0498257
506.113 .0502590
506.956 .0507347
507.798 .0512673
508.640 .0518572
509.480 .0525080
510.320 .0532270
511.160 .0540346
511.998 .0549430
512.836 .0559766
513.672 .0571427
514.508 .0584646
515.344 .0599398
516.178 .0615812
517.012 .0634001
517.845 .0654290
518.677 .0676998
519.508 .0702067
520.339 .0730061
521.169 .0761425
521.998 .0796105
522.826 .0834533
523.654 .0877093
524.481 .0924448
525.307 .0976613
526.133 .1033245
526.958 .1093975
527.782 .1158308
528.605 .1224420
529.428 .1291736
530.250 .1355193
531.072 .1413152
531.892 .1461920
532.712 .1498569
533.532 .1520988
534.350 .1527604
535.168 .1517365
535.986 .1490965
536.802 .1449816
537.618 .1396641
538.434 .1332992
539.249 .1264394
540.063 .1192854
540.876 .1121607
541.689 .1052895
542.501 .0988799
543.313 .0930206
544.124 .0878067
544.934 .0831498
545.744 .0789884
546.553 .0752828
547.361 .0719985
548.169 .0690852
548.976 .0664945
549.783 .0642082
550.589 .0621827
551.395 .0603490
552.200 .0587141
553.004 .0572191
553.808 .0558273
554.611 .0545398
555.414 .0533470
556.216 .0522332
557.018 .0512233
557.819 .0502866
558.619 .0494206
559.419 .0486230
560.218 .0478798
561.017 .0471824
561.815 .0465158
562.613 .0458842
563.410 .0452810
564.207 .0447187
565.003 .0441979
565.799 .0436936
566.594 .0432072
567.388 .0427499
568.182 .0422929
568.976 .0418316
569.769 .0413621
570.562 .0408862
571.354 .0404092
572.145 .0399304
572.936 .0394571
573.727 .0389943
574.517 .0385558
575.307 .0381377
576.096 .0377370
576.885 .0373573
577.673 .0369970
578.461 .0366557
579.248 .0363317
580.035 .0360260
580.821 .0357356
581.607 .0354610
582.392 .0352045
583.177 .0349651
583.962 .0347440
584.746 .0345393
585.529 .0343526
586.313 .0341806
587.095 .0340234
587.878 .0338780
588.660 .0337456
589.441 .0336225
590.222 .0335089
591.003 .0334041
591.783 .0333056
592.563 .0332132
593.342 .0331251
594.121 .0330402
594.899 .0329596
595.678 .0328824
596.455 .0328099
597.233 .0327415
598.009 .0326788
598.786 .0326214
599.562 .0325680
600.338 .0325175
601.113 .0324679
601.888 .0324182
602.663 .0323700
603.437 .0323214
604.211 .0322726
604.984 .0322245
605.757 .0321784
606.530 .0321346
607.302 .0320946
608.074 .0320582
608.845 .0320249
609.616 .0319936
610.387 .0319648
611.158 .0319359
611.928 .0319075
612.697 .0318800
613.467 .0318534
614.236 .0318288
615.004 .0318063
615.773 .0317850
616.541 .0317660
617.308 .0317490
618.076 .0317339
618.843 .0317188
619.609 .0317053
620.375 .0316915
621.141 .0316775
621.907 .0316630
622.672 .0316475
623.437 .0316307
624.202 .0316132
624.966 .0315945
625.730 .0315744
626.493 .0315537
627.257 .0315329
628.020 .0315124
628.782 .0314929
629.545 .0314740
630.307 .0314558
631.068 .0314373
631.830 .0314192
632.591 .0313998
633.352 .0313798
634.112 .0313590
634.872 .0313380
635.632 .0313174
636.392 .0312964
637.151 .0312762
637.910 .0312557
638.668 .0312351
639.427 .0312135
640.185 .0311899
640.943 .0311647
641.700 .0311385
642.457 .0311116
643.214 .0310842
643.971 .0310580
644.727 .0310333
645.483 .0310088
646.239 .0309849
646.994 .0309602
647.750 .0309340
648.505 .0309060
649.259 .0308771
650.014 .0308469
650.768 .0308171
651.521 .0307882
652.275 .0307604
653.028 .0307343
653.781 .0307095
654.534 .0306845
655.286 .0306585
656.039 .0306321
656.791 .0306045
657.542 .0305750
658.294 .0305463
659.045 .0305184
659.796 .0304916
660.546 .0304669
661.297 .0304437
662.047 .0304213
662.796 .0303990
663.546 .0303764
664.295 .0303517
665.044 .0303255
665.793 .0302980
666.542 .0302692
667.290 .0302397
668.038 .0302105
668.786 .0301807
669.533 .0301513
670.281 .0301227
671.028 .0300938
671.774 .0300645
672.521 .0300353
673.267 .0300058
674.013 .0299763
674.759 .0299470
675.505 .0299180
676.250 .0298894
676.995 .0298620
677.740 .0298353
678.484 .0298095
679.229 .0297852
679.973 .0297624
680.717 .0297412
681.460 .0297216
682.204 .0297024
682.947 .0296843
683.690 .0296667
684.433 .0296491
685.175 .0296316
685.917 .0296143
686.659 .0295978
687.401 .0295823
688.142 .0295686
688.884 .0295563
689.625 .0295456
690.365 .0295360
691.106 .0295259
691.846 .0295152
692.586 .0295033
693.326 .0294894
694.066 .0294737
694.805 .0294571
695.545 .0294391
696.284 .0294205
697.022 .0294017
697.761 .0293827
698.499 .0293631
699.237 .0293429
699.975 .0293219
700.713 .0292997
701.450 .0292776
702.187 .0292556
702.924 .0292343
703.661 .0292148
704.397 .0291971
705.133 .0291817
705.869 .0291688
706.605 .0291584
707.341 .0291494
708.076 .0291414
708.811 .0291340
709.546 .0291262
710.281 .0291179
711.015 .0291095
711.749 .0291008
712.483 .0290920
713.217 .0290836
713.950 .0290748
714.684 .0290660
715.417 .0290571
716.150 .0290482
716.882 .0290386
717.615 .0290277
718.347 .0290160
719.079 .0290027
719.811 .0289888
720.542 .0289747
721.273 .0289606
722.005 .0289475
722.735 .0289354
723.466 .0289243
724.196 .0289138
724.927 .0289038
725.656 .0288936
726.386 .0288826
727.116 .0288707
727.845 .0288575
728.574 .0288434
729.303 .0288289
730.031 .0288147
730.760 .0288011
731.488 .0287883
732.216 .0287763
732.944 .0287652
733.671 .0287545
734.398 .0287439
735.125 .0287333
735.852 .0287227
736.579 .0287121
737.305 .0287019
738.031 .0286919
738.757 .0286830
739.483 .0286745
740.208 .0286662
740.933 .0286581
741.658 .0286495
742.383 .0286399
743.108 .0286291
743.832 .0286170
744.556 .0286031
745.280 .0285880
746.004 .0285718
746.727 .0285548
747.450 .0285375
748.173 .0285200
748.896 .0285024
749.618 .0284849
750.340 .0284679
751.062 .0284507
751.784 .0284339
752.506 .0284173
753.227 .0284007
753.948 .0283839
754.669 .0283668
755.389 .0283494
756.110 .0283320
756.830 .0283148
757.550 .0282975
758.269 .0282804
758.989 .0282641
759.708 .0282474
760.427 .0282309
761.146 .0282139
761.864 .0281964
762.582 .0281780
763.300 .0281589
764.018 .0281393
764.736 .0281194
765.453 .0280998
766.170 .0280803
766.887 .0280614
767.603 .0280430
768.320 .0280246
769.036 .0280059
769.751 .0279867
770.467 .0279668
771.182 .0279462
771.897 .0279248
772.612 .0279030
773.327 .0278814
774.041 .0278598
774.755 .0278389
775.469 .0278189
776.183 .0277997
776.896 .0277815
777.609 .0277636
778.322 .0277468
779.035 .0277305
779.747 .0277153
780.459 .0277011
781.171 .0276883
781.882 .0276769
782.594 .0276669
783.305 .0276580
784.016 .0276500
784.726 .0276425
785.436 .0276351
786.147 .0276272
786.856 .0276188
787.566 .0276094
788.275 .0275995
788.984 .0275888
789.693 .0275778
790.401 .0275660
791.110 .0275542
791.818 .0275417
792.525 .0275290
793.233 .0275162
793.940 .0275030
794.647 .0274898
795.353 .0274768
796.060 .0274643
796.766 .0274520
797.472 .0274402
798.177 .0274289
798.883 .0274178
799.588 .0274071
800.292 .0273960
800.997 .0273846
801.701 .0273731
802.405 .0273617
803.109 .0273499
803.812 .0273385
804.515 .0273273
805.218 .0273162
805.921 .0273054
806.623 .0272944
807.325 .0272827
808.027 .0272707
808.728 .0272584
809.429 .0272454
810.130 .0272321
810.831 .0272190
811.531 .0272062
812.231 .0271941
812.931 .0271829
813.630 .0271723
814.330 .0271623
815.029 .0271533
815.727 .0271438
816.426 .0271345
817.124 .0271253
817.821 .0271161
818.519 .0271071
819.216 .0270988
819.913 .0270913
820.609 .0270849
821.306 .0270796
822.002 .0270756
822.697 .0270727
823.393 .0270715
824.088 .0270712
824.783 .0270722
825.477 .0270745
826.171 .0270778
826.865 .0270819
827.559 .0270874
828.252 .0270933
828.945 .0270998
829.638 .0271067
830.330 .0271140
831.023 .0271214
831.714 .0271291
832.406 .0271368
833.097 .0271444
833.788 .0271516
834.479 .0271580
835.169 .0271633
835.859 .0271682
836.548 .0271723
837.238 .0271756
837.927 .0271785
838.615 .0271813
839.304 .0271837
839.992 .0271862
840.680 .0271882
841.367 .0271900
842.054 .0271912
842.741 .0271920
843.428 .0271918
844.114 .0271912
844.800 .0271902
845.485 .0271886
846.170 .0271865
846.855 .0271842
847.540 .0271813
848.224 .0271782
848.908 .0271751
849.592 .0271718
850.275 .0271681
850.958 .0271646
851.641 .0271603
852.323 .0271552
853.005 .0271491
853.687 .0271417
854.368 .0271332
855.049 .0271244
855.730 .0271147
856.410 .0271047
857.090 .0270953
857.769 .0270865
858.449 .0270778
859.128 .0270694
859.806 .0270602
860.485 .0270502
861.163 .0270391
861.840 .0270271
862.518 .0270140
863.195 .0270006
863.871 .0269873
864.548 .0269743
865.224 .0269621
865.899 .0269505
866.574 .0269388
867.249 .0269277
867.924 .0269167
868.598 .0269049
869.272 .0268925
869.946 .0268797
870.619 .0268668
871.292 .0268542
871.964 .0268416
872.636 .0268293
873.308 .0268172
873.979 .0268054
874.651 .0267929
875.321 .0267798
875.992 .0267661
876.662 .0267519
877.331 .0267373
878.001 .0267227
878.670 .0267078
879.338 .0266930
880.007 .0266791
880.675 .0266655
881.342 .0266521
882.009 .0266385
882.676 .0266244
883.343 .0266104
884.009 .0265961
884.675 .0265816
885.340 .0265673
886.005 .0265539
886.670 .0265420
887.334 .0265313
887.998 .0265218
888.662 .0265134
889.325 .0265059
889.988 .0264989
890.650 .0264919
891.312 .0264848
891.974 .0264778
892.636 .0264710
893.297 .0264646
893.957 .0264587
894.618 .0264533
895.278 .0264486
895.937 .0264436
896.596 .0264388
897.255 .0264332
897.914 .0264267
898.572 .0264192
899.230 .0264110
899.887 .0264019
900.544 .0263923
901.201 .0263818
901.857 .0263706
902.513 .0263582
903.168 .0263444
903.823 .0263284
904.478 .0263101
905.132 .0262892
905.786 .0262659
906.440 .0262402
907.093 .0262128
907.746 .0261841
908.399 .0261547
909.051 .0261248
909.703 .0260948
910.354 .0260641
911.005 .0260332
911.656 .0260017
912.306 .0259701
912.956 .0259382
913.605 .0259067
914.254 .0258756
914.903 .0258455
915.551 .0258164
916.199 .0257887
916.847 .0257618
917.494 .0257356
918.141 .0257102
918.788 .0256853
919.434 .0256607
920.079 .0256366
920.725 .0256128
921.370 .0255896
922.014 .0255665
922.658 .0255439
923.302 .0255211
923.946 .0254985
924.589 .0254757
925.231 .0254524
925.873 .0254287
926.515 .0254045
927.157 .0253800
927.798 .0253556
928.439 .0253310
929.079 .0253063
929.719 .0252812
930.359 .0252557
930.998 .0252293
931.637 .0252026
932.275 .0251755
932.913 .0251484
933.551 .0251213
934.188 .0250947
934.825 .0250687
935.462 .0250439
936.098 .0250207
936.733 .0249992
937.369 .0249794
938.004 .0249616
938.638 .0249454
939.273 .0249311
939.907 .0249187
940.540 .0249087
941.173 .0249005
941.806 .0248943
942.438 .0248900
943.070 .0248871
943.702 .0248852
944.333 .0248846
944.964 .0248840
945.594 .0248836
946.224 .0248826
946.854 .0248807
947.483 .0248779
948.112 .0248749
948.741 .0248713
949.369 .0248673
949.996 .0248629
950.624 .0248580
951.251 .0248520
951.878 .0248455
952.504 .0248378
953.130 .0248288
953.755 .0248191
954.380 .0248088
955.005 .0247975
955.629 .0247867
956.253 .0247761
956.877 .0247662
957.500 .0247574
958.123 .0247496
958.746 .0247423
959.368 .0247355
959.990 .0247292
960.611 .0247225
961.232 .0247160
961.853 .0247098
962.473 .0247034
963.093 .0246976
963.712 .0246924
964.331 .0246874
964.950 .0246829
965.569 .0246792
966.187 .0246763
966.804 .0246740
967.422 .0246729
968.039 .0246728
968.655 .0246743
969.272 .0246768
969.887 .0246805
970.503 .0246845
971.118 .0246893
971.733 .0246940
972.347 .0246987
972.961 .0247040
973.575 .0247095
974.188 .0247155
974.801 .0247219
975.414 .0247288
976.026 .0247358
976.638 .0247418
977.250 .0247475
977.861 .0247520
978.472 .0247556
979.083 .0247579
979.693 .0247592
980.303 .0247597
980.912 .0247599
981.521 .0247592
982.130 .0247579
982.738 .0247564
983.346 .0247550
983.954 .0247534
984.562 .0247526
985.169 .0247526
985.775 .0247531
986.382 .0247544
986.988 .0247566
987.594 .0247590
988.199 .0247619
988.804 .0247645
989.409 .0247666
990.013 .0247681
990.617 .0247691
991.221 .0247696
991.824 .0247707
992.427 .0247731
993.030 .0247768
993.632 .0247810
994.234 .0247861
994.836 .0247913
995.438 .0247964
996.039 .0248014
996.640 .0248057
997.240 .0248102
997.840 .0248151
998.440 .0248209
999.040 .0248278
999.639 .0248360
1000.238 .0248462
1000.836 .0248576
1001.435 .0248695
1002.033 .0248818
1002.630 .0248939
1003.228 .0249064
1003.825 .0249194
1004.422 .0249334
1005.018 .0249477
1005.614 .0249626
1006.210 .0249781
1006.806 .0249935
1007.401 .0250081
1007.996 .0250214
1008.591 .0250332
1009.186 .0250445
1009.780 .0250554
1010.374 .0250655
1010.967 .0250761
1011.561 .0250882
1012.154 .0251010
1012.746 .0251142
1013.339 .0251272
1013.931 .0251397
1014.523 .0251517
1015.115 .0251632
1015.706 .0251745
1016.298 .0251859
1016.888 .0251989
1017.479 .0252137
1018.069 .0252296
1018.660 .0252466
1019.250 .0252637
1019.839 .0252806
1020.429 .0252958
1021.018 .0253091
1021.607 .0253195
1022.195 .0253282
1022.784 .0253355
1023.372 .0253420
1023.960 .0253482
1024.547 .0253554
1025.135 .0253634
1025.722 .0253724
1026.309 .0253817
1026.896 .0253916
1027.483 .0254010
1028.069 .0254104
1028.655 .0254194
1029.241 .0254289
1029.827 .0254381
1030.412 .0254488
1030.997 .0254606
1031.582 .0254748
1032.167 .0254911
1032.752 .0255099
1033.336 .0255303
1033.921 .0255524
1034.505 .0255736
1035.089 .0255929
1035.672 .0256089
1036.256 .0256217
1036.839 .0256298
1037.422 .0256345
1038.005 .0256363
1038.588 .0256370
1039.171 .0256368
1039.753 .0256372
1040.335 .0256383
1040.918 .0256409
1041.500 .0256430
1042.081 .0256442
1042.663 .0256438
1043.244 .0256417
1043.826 .0256377
1044.407 .0256329
1044.988 .0256281
1045.569 .0256239
1046.150 .0256209
1046.730 .0256194
1047.311 .0256194
1047.891 .0256213
1048.471 .0256243
1049.052 .0256275
1049.632 .0256318
1050.211 .0256367
1050.791 .0256409
1051.371 .0256454
1051.950 .0256503
1052.530 .0256542
1053.109 .0256573
1053.688 .0256594
1054.268 .0256604
1054.847 .0256602
1055.426 .0256594
1056.005 .0256577
1056.583 .0256570
1057.162 .0256563
1057.741 .0256556
1058.319 .0256554
1058.898 .0256564
1059.476 .0256572
1060.055 .0256575
1060.633 .0256571
1061.211 .0256565
1061.790 .0256546
1062.368 .0256528
1062.946 .0256505
1063.524 .0256502
1064.102 .0256510
1064.680 .0256536
1065.258 .0256583
1065.836 .0256646
1066.414 .0256706
1066.992 .0256763
1067.570 .0256801
1068.148 .0256819
1068.726 .0256797
1069.304 .0256737
1069.882 .0256636
1070.460 .0256507
1071.038 .0256343
1071.616 .0256157
1072.194 .0255954
1072.772 .0255745
1073.350 .0255520
1073.928 .0255298
1074.506 .0255084
1075.084 .0254887
1075.662 .0254720
1076.240 .0254575
1076.819 .0254454
1077.397 .0254365
1077.976 .0254289
1078.554 .0254232
1079.133 .0254181
1079.711 .0254133
1080.290 .0254073
1080.869 .0254014
1081.448 .0253959
1082.027 .0253895
1082.606 .0253836
1083.185 .0253772
1083.764 .0253694
1084.343 .0253621
1084.923 .0253535
1085.502 .0253447
1086.082 .0253373
1086.662 .0253328
1087.242 .0253292
1087.822 .0253270
1088.402 .0253267
1088.983 .0253278
1089.563 .0253297
1090.144 .0253331
1090.725 .0253362
1091.306 .0253406
1091.887 .0253478
1092.469 .0253563
1093.050 .0253669
1093.632 .0253801
1094.214 .0253928
1094.796 .0254056
1095.379 .0254150
1095.961 .0254207
1096.544 .0254210
1097.127 .0254183
1097.710 .0254126
1098.294 .0254042
1098.877 .0253966
1099.461 .0253911
1100.046 .0253892
1100.630 .0253928
1101.215 .0254000
1101.800 .0254102
1102.385 .0254214
1102.970 .0254331
1103.556 .0254417
1104.142 .0254474
1104.728 .0254501
1105.315 .0254500
1105.902 .0254474
1106.489 .0254443
1107.077 .0254415
1107.664 .0254388
1108.253 .0254371
1108.841 .0254360
1109.430 .0254344
1110.019 .0254322
1110.609 .0254291
1111.198 .0254244
1111.789 .0254202
1112.379 .0254161
1112.970 .0254125
1113.561 .0254114
1114.153 .0254148
1114.745 .0254215
1115.338 .0254344
1115.931 .0254533
1116.524 .0254786
1117.117 .0255104
1117.712 .0255486
1118.306 .0255952
1118.901 .0256468
1119.496 .0257004
1120.092 .0257586
1120.689 .0258176
1121.285 .0258763
1121.882 .0259310
1122.480 .0259853
1123.078 .0260384
1123.677 .0260913
1124.276 .0261446
1124.875 .0261991
1125.476 .0262581
1126.076 .0263218
1126.677 .0263878
1127.279 .0264543
1127.881 .0265214
1128.484 .0265816
1129.087 .0266339
1129.691 .0266824
1130.295 .0267196
1130.900 .0267524
1131.505 .0267819
1132.111 .0268166
1132.718 .0268611
1133.325 .0269152
1133.933 .0269835
1134.541 .0270677
1135.150 .0271699
1135.760 .0272827
1136.370 .0273995
1136.981 .0275213
1137.592 .0276412
1138.204 .0277621
1138.817 .0278851
1139.431 .0280148
1140.045 .0281590
1140.660 .0283209
1141.275 .0284852
1141.891 .0286165
1142.508 .0289226
1143.126 .0291610
1143.744 .0293782
1144.363 .0292031
1144.983 .0282661
