Measurement Sequence started on: 15-12-46-377
Integration time: 28
Scans to Average: 2 
>>>>>Begin Spectral Data<<<<<
432.689 .0000100
433.621 .0000100
434.552 .0000100
435.482 .0000100
436.410 .0000100
437.337 .0000100
438.262 .0270953
439.187 .0573908
440.110 .0951471
441.031 .1377508
441.952 .1791974
442.871 .2119134
443.789 .2299490
444.705 .2312939
445.621 .2183906
446.535 .1966313
447.447 .1718921
448.359 .1338948
449.269 .1150418
450.178 .1030311
451.086 .0945373
451.993 .0880178
452.898 .0828571
453.803 .0786588
454.706 .0751439
455.608 .0721224
456.508 .0694823
457.408 .0671501
458.306 .0650612
459.204 .0631637
460.100 .0614337
460.995 .0598674
461.888 .0584427
462.781 .0571634
463.673 .0560018
464.563 .0549493
465.452 .0539809
466.340 .0530761
467.228 .0522425
468.114 .0514606
468.999 .0507373
469.882 .0500774
470.765 .0494828
471.647 .0489541
472.528 .0484842
473.407 .0480743
474.286 .0477201
475.163 .0474188
476.040 .0471602
476.915 .0469394
477.790 .0467404
478.663 .0465611
479.535 .0463950
480.407 .0462456
481.277 .0461061
482.147 .0459757
483.015 .0458584
483.883 .0457496
484.749 .0456448
485.615 .0455394
486.479 .0454370
487.343 .0453421
488.206 .0452482
489.067 .0451581
489.928 .0450724
490.788 .0450007
491.647 .0449426
492.505 .0449034
493.362 .0448898
494.218 .0449058
495.073 .0449540
495.928 .0450363
496.781 .0451520
497.634 .0453105
498.486 .0455107
499.337 .0457484
500.187 .0460324
501.036 .0463534
501.884 .0467097
502.731 .0471041
503.578 .0475398
504.424 .0480152
505.268 .0485271
506.113 .0490840
506.956 .0496825
507.798 .0503295
508.640 .0510274
509.480 .0517789
510.320 .0526041
511.160 .0535149
511.998 .0545056
512.836 .0555936
513.672 .0567991
514.508 .0581202
515.344 .0595684
516.178 .0611630
517.012 .0629219
517.845 .0648768
518.677 .0670475
519.508 .0694496
520.339 .0721325
521.169 .0751737
521.998 .0785728
522.826 .0824166
523.654 .0867662
524.481 .0916307
525.307 .0970750
526.133 .1030936
526.958 .1095848
527.782 .1165371
528.605 .1237327
529.428 .1310169
530.250 .1378682
531.072 .1440400
531.892 .1491244
532.712 .1528482
533.532 .1550827
534.350 .1556398
535.168 .1544536
535.986 .1516757
536.802 .1474089
537.618 .1419560
538.434 .1355538
539.249 .1286375
540.063 .1214282
540.876 .1142740
541.689 .1073745
542.501 .1009197
543.313 .0950682
544.124 .0898978
544.934 .0853137
545.744 .0812233
546.553 .0775702
547.361 .0742730
548.169 .0713417
548.976 .0686976
549.783 .0662962
550.589 .0641352
551.395 .0621331
552.200 .0602766
553.004 .0585350
553.808 .0568988
554.611 .0553691
555.414 .0539526
556.216 .0526593
557.018 .0514805
557.819 .0504274
558.619 .0494881
559.419 .0486631
560.218 .0479401
561.017 .0472959
561.815 .0466960
562.613 .0461247
563.410 .0455756
564.207 .0450302
565.003 .0445001
565.799 .0439864
566.594 .0434820
567.388 .0430002
568.182 .0425332
568.976 .0420720
569.769 .0416084
570.562 .0411470
571.354 .0406685
572.145 .0401781
572.936 .0396792
573.727 .0391774
574.517 .0386851
575.307 .0382112
576.096 .0377599
576.885 .0373359
577.673 .0369413
578.461 .0365735
579.248 .0362291
580.035 .0359133
580.821 .0356160
581.607 .0353397
582.392 .0350790
583.177 .0348357
583.962 .0346067
584.746 .0343928
585.529 .0341910
586.313 .0340023
587.095 .0338263
587.878 .0336622
588.660 .0335094
589.441 .0333721
590.222 .0332456
591.003 .0331324
591.783 .0330309
592.563 .0329396
593.342 .0328585
594.121 .0327854
594.899 .0327206
595.678 .0326654
596.455 .0326177
597.233 .0325778
598.009 .0325428
598.786 .0325120
599.562 .0324822
600.338 .0324522
601.113 .0324206
601.888 .0323872
602.663 .0323507
603.437 .0323124
604.211 .0322725
604.984 .0322324
605.757 .0321934
606.530 .0321556
607.302 .0321205
608.074 .0320870
608.845 .0320535
609.616 .0320199
610.387 .0319856
611.158 .0319507
611.928 .0319143
612.697 .0318787
613.467 .0318439
614.236 .0318102
615.004 .0317792
615.773 .0317512
616.541 .0317264
617.308 .0317049
618.076 .0316857
618.843 .0316667
619.609 .0316481
620.375 .0316294
621.141 .0316095
621.907 .0315896
622.672 .0315697
623.437 .0315488
624.202 .0315275
624.966 .0315065
625.730 .0314845
626.493 .0314611
627.257 .0314373
628.020 .0314123
628.782 .0313862
629.545 .0313596
630.307 .0313328
631.068 .0313069
631.830 .0312827
632.591 .0312591
633.352 .0312355
634.112 .0312117
634.872 .0311872
635.632 .0311610
636.392 .0311335
637.151 .0311049
637.910 .0310754
638.668 .0310459
639.427 .0310172
640.185 .0309894
640.943 .0309623
641.700 .0309360
642.457 .0309102
643.214 .0308838
643.971 .0308563
644.727 .0308279
645.483 .0307990
646.239 .0307696
646.994 .0307400
647.750 .0307106
648.505 .0306834
649.259 .0306583
650.014 .0306353
650.768 .0306142
651.521 .0305959
652.275 .0305797
653.028 .0305649
653.781 .0305508
654.534 .0305371
655.286 .0305231
656.039 .0305081
656.791 .0304915
657.542 .0304735
658.294 .0304540
659.045 .0304333
659.796 .0304115
660.546 .0303895
661.297 .0303668
662.047 .0303443
662.796 .0303216
663.546 .0302983
664.295 .0302735
665.044 .0302475
665.793 .0302201
666.542 .0301920
667.290 .0301637
668.038 .0301364
668.786 .0301101
669.533 .0300854
670.281 .0300619
671.028 .0300397
671.774 .0300185
672.521 .0299987
673.267 .0299795
674.013 .0299612
674.759 .0299439
675.505 .0299280
676.250 .0299130
676.995 .0298996
677.740 .0298866
678.484 .0298740
679.229 .0298616
679.973 .0298486
680.717 .0298345
681.460 .0298200
682.204 .0298052
682.947 .0297905
683.690 .0297760
684.433 .0297621
685.175 .0297481
685.917 .0297343
686.659 .0297204
687.401 .0297057
688.142 .0296907
688.884 .0296752
689.625 .0296587
690.365 .0296415
691.106 .0296235
691.846 .0296045
692.586 .0295849
693.326 .0295647
694.066 .0295437
694.805 .0295220
695.545 .0295005
696.284 .0294791
697.022 .0294581
697.761 .0294383
698.499 .0294194
699.237 .0294012
699.975 .0293838
700.713 .0293665
701.450 .0293497
702.187 .0293332
702.924 .0293169
703.661 .0293014
704.397 .0292862
705.133 .0292717
705.869 .0292571
706.605 .0292429
707.341 .0292290
708.076 .0292147
708.811 .0292001
709.546 .0291847
710.281 .0291683
711.015 .0291508
711.749 .0291321
712.483 .0291129
713.217 .0290928
713.950 .0290722
714.684 .0290512
715.417 .0290304
716.150 .0290100
716.882 .0289902
717.615 .0289711
718.347 .0289532
719.079 .0289359
719.811 .0289186
720.542 .0289013
721.273 .0288836
722.005 .0288658
722.735 .0288476
723.466 .0288291
724.196 .0288105
724.927 .0287917
725.656 .0287728
726.386 .0287538
727.116 .0287350
727.845 .0287165
728.574 .0286982
729.303 .0286803
730.031 .0286625
730.760 .0286449
731.488 .0286277
732.216 .0286107
732.944 .0285939
733.671 .0285772
734.398 .0285607
735.125 .0285447
735.852 .0285291
736.579 .0285143
737.305 .0285005
738.031 .0284877
738.757 .0284756
739.483 .0284635
740.208 .0284513
740.933 .0284390
741.658 .0284259
742.383 .0284119
743.108 .0283973
743.832 .0283821
744.556 .0283662
745.280 .0283503
746.004 .0283349
746.727 .0283199
747.450 .0283058
748.173 .0282922
748.896 .0282796
749.618 .0282677
750.340 .0282563
751.062 .0282456
751.784 .0282354
752.506 .0282257
753.227 .0282156
753.948 .0282053
754.669 .0281950
755.389 .0281842
756.110 .0281732
756.830 .0281618
757.550 .0281500
758.269 .0281378
758.989 .0281254
759.708 .0281123
760.427 .0280989
761.146 .0280850
761.864 .0280707
762.582 .0280564
763.300 .0280422
764.018 .0280283
764.736 .0280143
765.453 .0280009
766.170 .0279877
766.887 .0279745
767.603 .0279617
768.320 .0279490
769.036 .0279372
769.751 .0279261
770.467 .0279154
771.182 .0279048
771.897 .0278943
772.612 .0278833
773.327 .0278715
774.041 .0278584
774.755 .0278445
775.469 .0278302
776.183 .0278161
776.896 .0278021
777.609 .0277891
778.322 .0277775
779.035 .0277670
779.747 .0277575
780.459 .0277487
781.171 .0277400
781.882 .0277314
782.594 .0277227
783.305 .0277141
784.016 .0277059
784.726 .0276984
785.436 .0276916
786.147 .0276854
786.856 .0276797
787.566 .0276739
788.275 .0276677
788.984 .0276613
789.693 .0276543
790.401 .0276463
791.110 .0276379
791.818 .0276291
792.525 .0276205
793.233 .0276121
793.940 .0276042
794.647 .0275968
795.353 .0275896
796.060 .0275825
796.766 .0275752
797.472 .0275675
798.177 .0275592
798.883 .0275500
799.588 .0275400
800.292 .0275290
800.997 .0275174
801.701 .0275053
802.405 .0274933
803.109 .0274814
803.812 .0274693
804.515 .0274573
805.218 .0274451
805.921 .0274323
806.623 .0274190
807.325 .0274051
808.027 .0273908
808.728 .0273760
809.429 .0273611
810.130 .0273465
810.831 .0273326
811.531 .0273193
812.231 .0273062
812.931 .0272930
813.630 .0272795
814.330 .0272651
815.029 .0272500
815.727 .0272346
816.426 .0272189
817.124 .0272035
817.821 .0271891
818.519 .0271754
819.216 .0271632
819.913 .0271523
820.609 .0271424
821.306 .0271330
822.002 .0271238
822.697 .0271143
823.393 .0271047
824.088 .0270955
824.783 .0270868
825.477 .0270787
826.171 .0270718
826.865 .0270663
827.559 .0270624
828.252 .0270596
828.945 .0270576
829.638 .0270558
830.330 .0270541
831.023 .0270515
831.714 .0270480
832.406 .0270436
833.097 .0270386
833.788 .0270330
834.479 .0270271
835.169 .0270215
835.859 .0270165
836.548 .0270119
837.238 .0270075
837.927 .0270025
838.615 .0269968
839.304 .0269899
839.992 .0269817
840.680 .0269721
841.367 .0269615
842.054 .0269502
842.741 .0269389
843.428 .0269279
844.114 .0269178
844.800 .0269080
845.485 .0268985
846.170 .0268886
846.855 .0268781
847.540 .0268664
848.224 .0268540
848.908 .0268411
849.592 .0268284
850.275 .0268158
850.958 .0268035
851.641 .0267914
852.323 .0267794
853.005 .0267669
853.687 .0267533
854.368 .0267384
855.049 .0267222
855.730 .0267044
856.410 .0266859
857.090 .0266670
857.769 .0266486
858.449 .0266305
859.128 .0266129
859.806 .0265957
860.485 .0265785
861.163 .0265612
861.840 .0265436
862.518 .0265258
863.195 .0265078
863.871 .0264897
864.548 .0264716
865.224 .0264536
865.899 .0264365
866.574 .0264198
867.249 .0264038
867.924 .0263883
868.598 .0263737
869.272 .0263596
869.946 .0263462
870.619 .0263333
871.292 .0263209
871.964 .0263089
872.636 .0262972
873.308 .0262854
873.979 .0262742
874.651 .0262634
875.321 .0262529
875.992 .0262429
876.662 .0262341
877.331 .0262255
878.001 .0262177
878.670 .0262102
879.338 .0262035
880.007 .0261972
880.675 .0261911
881.342 .0261853
882.009 .0261796
882.676 .0261738
883.343 .0261680
884.009 .0261622
884.675 .0261565
885.340 .0261505
886.005 .0261447
886.670 .0261388
887.334 .0261331
887.998 .0261274
888.662 .0261219
889.325 .0261168
889.988 .0261121
890.650 .0261074
891.312 .0261028
891.974 .0260986
892.636 .0260950
893.297 .0260919
893.957 .0260893
894.618 .0260872
895.278 .0260860
895.937 .0260852
896.596 .0260849
897.255 .0260850
897.914 .0260856
898.572 .0260866
899.230 .0260878
899.887 .0260890
900.544 .0260896
901.201 .0260896
901.857 .0260883
902.513 .0260853
903.168 .0260807
903.823 .0260740
904.478 .0260655
905.132 .0260558
905.786 .0260449
906.440 .0260329
907.093 .0260202
907.746 .0260069
908.399 .0259926
909.051 .0259772
909.703 .0259606
910.354 .0259424
911.005 .0259233
911.656 .0259033
912.306 .0258825
912.956 .0258619
913.605 .0258413
914.254 .0258212
914.903 .0258021
915.551 .0257844
916.199 .0257683
916.847 .0257540
917.494 .0257416
918.141 .0257307
918.788 .0257214
919.434 .0257135
920.079 .0257065
920.725 .0257006
921.370 .0256957
922.014 .0256913
922.658 .0256872
923.302 .0256833
923.946 .0256795
924.589 .0256754
925.231 .0256702
925.873 .0256635
926.515 .0256550
927.157 .0256441
927.798 .0256307
928.439 .0256148
929.079 .0255967
929.719 .0255768
930.359 .0255553
930.998 .0255329
931.637 .0255105
932.275 .0254882
932.913 .0254668
933.551 .0254462
934.188 .0254269
934.825 .0254087
935.462 .0253916
936.098 .0253764
936.733 .0253634
937.369 .0253524
938.004 .0253436
938.638 .0253375
939.273 .0253342
939.907 .0253327
940.540 .0253327
941.173 .0253340
941.806 .0253357
942.438 .0253369
943.070 .0253371
943.702 .0253359
944.333 .0253340
944.964 .0253311
945.594 .0253272
946.224 .0253234
946.854 .0253200
947.483 .0253168
948.112 .0253137
948.741 .0253104
949.369 .0253067
949.996 .0253018
950.624 .0252957
951.251 .0252883
951.878 .0252799
952.504 .0252709
953.130 .0252616
953.755 .0252524
954.380 .0252433
955.005 .0252342
955.629 .0252251
956.253 .0252162
956.877 .0252074
957.500 .0251980
958.123 .0251881
958.746 .0251774
959.368 .0251661
959.990 .0251538
960.611 .0251410
961.232 .0251279
961.853 .0251151
962.473 .0251030
963.093 .0250919
963.712 .0250822
964.331 .0250742
964.950 .0250677
965.569 .0250629
966.187 .0250589
966.804 .0250558
967.422 .0250530
968.039 .0250501
968.655 .0250466
969.272 .0250419
969.887 .0250362
970.503 .0250292
971.118 .0250212
971.733 .0250128
972.347 .0250037
972.961 .0249946
973.575 .0249854
974.188 .0249755
974.801 .0249649
975.414 .0249526
976.026 .0249385
976.638 .0249226
977.250 .0249051
977.861 .0248862
978.472 .0248667
979.083 .0248477
979.693 .0248291
980.303 .0248114
980.912 .0247953
981.521 .0247795
982.130 .0247644
982.738 .0247494
983.346 .0247337
983.954 .0247174
984.562 .0247006
985.169 .0246831
985.775 .0246655
986.382 .0246482
986.988 .0246315
987.594 .0246153
988.199 .0246002
988.804 .0245858
989.409 .0245720
990.013 .0245594
990.617 .0245478
991.221 .0245366
991.824 .0245269
992.427 .0245179
993.030 .0245104
993.632 .0245042
994.234 .0244990
994.836 .0244946
995.438 .0244910
996.039 .0244878
996.640 .0244841
997.240 .0244798
997.840 .0244750
998.440 .0244691
999.040 .0244625
999.639 .0244550
1000.238 .0244470
1000.836 .0244384
1001.435 .0244294
1002.033 .0244195
1002.630 .0244090
1003.228 .0243986
1003.825 .0243879
1004.422 .0243776
1005.018 .0243678
1005.614 .0243585
1006.210 .0243500
1006.806 .0243426
1007.401 .0243364
1007.996 .0243313
1008.591 .0243277
1009.186 .0243255
1009.780 .0243248
1010.374 .0243253
1010.967 .0243267
1011.561 .0243287
1012.154 .0243311
1012.746 .0243327
1013.339 .0243329
1013.931 .0243325
1014.523 .0243309
1015.115 .0243289
1015.706 .0243268
1016.298 .0243251
1016.888 .0243242
1017.479 .0243241
1018.069 .0243240
1018.660 .0243244
1019.250 .0243252
1019.839 .0243257
1020.429 .0243255
1021.018 .0243253
1021.607 .0243252
1022.195 .0243252
1022.784 .0243258
1023.372 .0243272
1023.960 .0243299
1024.547 .0243342
1025.135 .0243394
1025.722 .0243457
1026.309 .0243532
1026.896 .0243620
1027.483 .0243715
1028.069 .0243826
1028.655 .0243944
1029.241 .0244063
1029.827 .0244187
1030.412 .0244310
1030.997 .0244430
1031.582 .0244544
1032.167 .0244656
1032.752 .0244768
1033.336 .0244878
1033.921 .0244982
1034.505 .0245076
1035.089 .0245165
1035.672 .0245245
1036.256 .0245301
1036.839 .0245325
1037.422 .0245333
1038.005 .0245318
1038.588 .0245283
1039.171 .0245238
1039.753 .0245193
1040.335 .0245163
1040.918 .0245140
1041.500 .0245130
1042.081 .0245131
1042.663 .0245144
1043.244 .0245169
1043.826 .0245192
1044.407 .0245218
1044.988 .0245254
1045.569 .0245298
1046.150 .0245357
1046.730 .0245434
1047.311 .0245536
1047.891 .0245665
1048.471 .0245815
1049.052 .0245974
1049.632 .0246131
1050.211 .0246284
1050.791 .0246427
1051.371 .0246554
1051.950 .0246665
1052.530 .0246762
1053.109 .0246845
1053.688 .0246916
1054.268 .0246967
1054.847 .0246998
1055.426 .0247010
1056.005 .0247002
1056.583 .0246970
1057.162 .0246910
1057.741 .0246833
1058.319 .0246750
1058.898 .0246670
1059.476 .0246601
1060.055 .0246528
1060.633 .0246476
1061.211 .0246437
1061.790 .0246408
1062.368 .0246389
1062.946 .0246385
1063.524 .0246406
1064.102 .0246455
1064.680 .0246524
1065.258 .0246609
1065.836 .0246719
1066.414 .0246855
1066.992 .0246993
1067.570 .0247125
1068.148 .0247253
1068.726 .0247381
1069.304 .0247505
1069.882 .0247634
1070.460 .0247765
1071.038 .0247911
1071.616 .0248070
1072.194 .0248239
1072.772 .0248401
1073.350 .0248554
1073.928 .0248704
1074.506 .0248853
1075.084 .0249003
1075.662 .0249148
1076.240 .0249308
1076.819 .0249479
1077.397 .0249663
1077.976 .0249841
1078.554 .0250003
1079.133 .0250143
1079.711 .0250257
1080.290 .0250330
1080.869 .0250357
1081.448 .0250356
1082.027 .0250346
1082.606 .0250329
1083.185 .0250331
1083.764 .0250348
1084.343 .0250390
1084.923 .0250449
1085.502 .0250536
1086.082 .0250620
1086.662 .0250701
1087.242 .0250770
1087.822 .0250842
1088.402 .0250924
1088.983 .0251040
1089.563 .0251191
1090.144 .0251398
1090.725 .0251668
1091.306 .0251983
1091.887 .0252313
1092.469 .0252641
1093.050 .0252937
1093.632 .0253186
1094.214 .0253364
1094.796 .0253500
1095.379 .0253589
1095.961 .0253662
1096.544 .0253747
1097.127 .0253850
1097.710 .0253973
1098.294 .0254108
1098.877 .0254255
1099.461 .0254404
1100.046 .0254547
1100.630 .0254677
1101.215 .0254796
1101.800 .0254922
1102.385 .0255083
1102.970 .0255275
1103.556 .0255512
1104.142 .0255803
1104.728 .0256140
1105.315 .0256496
1105.902 .0256868
1106.489 .0257239
1107.077 .0257592
1107.664 .0257907
1108.253 .0258196
1108.841 .0258449
1109.430 .0258703
1110.019 .0258946
1110.609 .0259199
1111.198 .0259470
1111.789 .0259803
1112.379 .0260166
1112.970 .0260554
1113.561 .0260992
1114.153 .0261474
1114.745 .0261961
1115.338 .0262473
1115.931 .0262991
1116.524 .0263535
1117.117 .0264111
1117.712 .0264728
1118.306 .0265375
1118.901 .0266073
1119.496 .0266803
1120.092 .0267551
1120.689 .0268294
1121.285 .0269026
1121.882 .0269671
1122.480 .0270248
1123.078 .0270780
1123.677 .0271224
1124.276 .0271597
1124.875 .0271944
1125.476 .0272253
1126.076 .0272563
1126.677 .0272880
1127.279 .0273192
1127.881 .0273495
1128.484 .0273796
1129.087 .0274016
1129.691 .0274111
1130.295 .0274142
1130.900 .0274066
1131.505 .0273916
1132.111 .0273732
1132.718 .0273553
1133.325 .0273415
1133.933 .0273383
1134.541 .0273464
1135.150 .0273662
1135.760 .0274025
1136.370 .0274528
1136.981 .0275147
1137.592 .0275896
1138.204 .0276743
1138.817 .0277817
1139.431 .0279108
1140.045 .0280708
1140.660 .0282653
1141.275 .0285030
1141.891 .0287855
1142.508 .0289859
1143.126 .0294356
1143.744 .0297810
1144.363 .0302614
1144.983 .0307267
