Measurement Sequence started on: 15-12-46-377
Integration time: 28
Scans to Average: 2 
>>>>>Begin Spectral Data<<<<<
432.689 .0000100
433.621 .0000100
434.552 .0000100
435.482 .0000100
436.410 .0000100
437.337 .0000100
438.262 .0260443
439.187 .0551028
440.110 .0912880
441.031 .1320798
441.952 .1716504
442.871 .2027204
443.789 .2196249
444.705 .2204704
445.621 .2076493
446.535 .1863407
447.447 .1622713
448.359 .1255653
449.269 .1073894
450.178 .0958378
451.086 .0877115
451.993 .0815257
452.898 .0766638
453.803 .0727090
454.706 .0694259
455.608 .0666417
456.508 .0642870
457.408 .0622571
458.306 .0604915
459.204 .0589337
460.100 .0575506
460.995 .0563064
461.888 .0551989
462.781 .0541959
463.673 .0532831
464.563 .0524449
465.452 .0516762
466.340 .0509475
467.228 .0502616
468.114 .0496171
468.999 .0490123
469.882 .0484474
470.765 .0479281
471.647 .0474487
472.528 .0470102
473.407 .0466140
474.286 .0462637
475.163 .0459536
476.040 .0456884
476.915 .0454565
477.790 .0452577
478.663 .0450862
479.535 .0449364
480.407 .0448006
481.277 .0446822
482.147 .0445845
483.015 .0444981
483.883 .0444289
484.749 .0443750
485.615 .0443346
486.479 .0443119
487.343 .0443139
488.206 .0443365
489.067 .0443761
489.928 .0444271
490.788 .0444842
491.647 .0445481
492.505 .0446151
493.362 .0446828
494.218 .0447614
495.073 .0448535
495.928 .0449623
496.781 .0450846
497.634 .0452462
498.486 .0454451
499.337 .0456840
500.187 .0459590
501.036 .0462594
501.884 .0465849
502.731 .0469292
503.578 .0472826
504.424 .0476489
505.268 .0480329
506.113 .0484502
506.956 .0489028
507.798 .0494141
508.640 .0499905
509.480 .0506473
510.320 .0513970
511.160 .0522415
511.998 .0531536
512.836 .0541355
513.672 .0551842
514.508 .0562939
515.344 .0574699
516.178 .0587442
517.012 .0601544
517.845 .0617556
518.677 .0636017
519.508 .0657267
520.339 .0681718
521.169 .0710215
521.998 .0742858
522.826 .0780036
523.654 .0821768
524.481 .0867855
525.307 .0918510
526.133 .0973579
526.958 .1033073
527.782 .1096576
528.605 .1163574
529.428 .1233049
530.250 .1300050
531.072 .1362145
531.892 .1415380
532.712 .1456891
533.532 .1484141
534.350 .1494922
535.168 .1488214
535.986 .1464799
536.802 .1425999
537.618 .1374723
538.434 .1313704
539.249 .1247442
540.063 .1178101
540.876 .1108726
541.689 .1041562
542.501 .0978679
543.313 .0921438
544.124 .0870290
544.934 .0824252
545.744 .0782805
546.553 .0744845
547.361 .0710181
548.169 .0678867
548.976 .0650323
549.783 .0624517
550.589 .0601502
551.395 .0580732
552.200 .0562141
553.004 .0545726
553.808 .0531200
554.611 .0518481
555.414 .0507223
556.216 .0497262
557.018 .0488396
557.819 .0480363
558.619 .0473001
559.419 .0466072
560.218 .0459778
561.017 .0453935
561.815 .0448462
562.613 .0443347
563.410 .0438374
564.207 .0433494
565.003 .0428713
565.799 .0423922
566.594 .0419059
567.388 .0414216
568.182 .0409288
568.976 .0404379
569.769 .0399483
570.562 .0394595
571.354 .0389789
572.145 .0385117
572.936 .0380604
573.727 .0376179
574.517 .0371895
575.307 .0367750
576.096 .0363737
576.885 .0359946
577.673 .0356311
578.461 .0352848
579.248 .0349615
580.035 .0346588
580.821 .0343756
581.607 .0341128
582.392 .0338672
583.177 .0336381
583.962 .0334280
584.746 .0332356
585.529 .0330604
586.313 .0329038
587.095 .0327664
587.878 .0326431
588.660 .0325327
589.441 .0324327
590.222 .0323394
591.003 .0322548
591.783 .0321780
592.563 .0321060
593.342 .0320412
594.121 .0319811
594.899 .0319269
595.678 .0318781
596.455 .0318333
597.233 .0317908
598.009 .0317491
598.786 .0317083
599.562 .0316662
600.338 .0316217
601.113 .0315766
601.888 .0315307
602.663 .0314845
603.437 .0314400
604.211 .0313965
604.984 .0313566
605.757 .0313197
606.530 .0312856
607.302 .0312540
608.074 .0312252
608.845 .0311976
609.616 .0311714
610.387 .0311477
611.158 .0311266
611.928 .0311066
612.697 .0310887
613.467 .0310718
614.236 .0310563
615.004 .0310413
615.773 .0310271
616.541 .0310123
617.308 .0309981
618.076 .0309830
618.843 .0309676
619.609 .0309523
620.375 .0309374
621.141 .0309220
621.907 .0309065
622.672 .0308902
623.437 .0308724
624.202 .0308527
624.966 .0308322
625.730 .0308107
626.493 .0307897
627.257 .0307686
628.020 .0307485
628.782 .0307293
629.545 .0307110
630.307 .0306927
631.068 .0306738
631.830 .0306537
632.591 .0306310
633.352 .0306053
634.112 .0305771
634.872 .0305469
635.632 .0305162
636.392 .0304849
637.151 .0304545
637.910 .0304246
638.668 .0303957
639.427 .0303672
640.185 .0303388
640.943 .0303102
641.700 .0302811
642.457 .0302505
643.214 .0302182
643.971 .0301852
644.727 .0301522
645.483 .0301196
646.239 .0300887
646.994 .0300591
647.750 .0300318
648.505 .0300063
649.259 .0299824
650.014 .0299600
650.768 .0299384
651.521 .0299173
652.275 .0298958
653.028 .0298743
653.781 .0298528
654.534 .0298310
655.286 .0298096
656.039 .0297886
656.791 .0297674
657.542 .0297451
658.294 .0297223
659.045 .0296991
659.796 .0296751
660.546 .0296508
661.297 .0296265
662.047 .0296024
662.796 .0295784
663.546 .0295554
664.295 .0295331
665.044 .0295121
665.793 .0294921
666.542 .0294727
667.290 .0294543
668.038 .0294368
668.786 .0294201
669.533 .0294043
670.281 .0293897
671.028 .0293765
671.774 .0293638
672.521 .0293525
673.267 .0293420
674.013 .0293320
674.759 .0293222
675.505 .0293125
676.250 .0293024
676.995 .0292919
677.740 .0292814
678.484 .0292707
679.229 .0292604
679.973 .0292508
680.717 .0292420
681.460 .0292340
682.204 .0292270
682.947 .0292208
683.690 .0292146
684.433 .0292090
685.175 .0292032
685.917 .0291967
686.659 .0291900
687.401 .0291826
688.142 .0291744
688.884 .0291652
689.625 .0291552
690.365 .0291442
691.106 .0291317
691.846 .0291187
692.586 .0291046
693.326 .0290896
694.066 .0290742
694.805 .0290579
695.545 .0290408
696.284 .0290228
697.022 .0290036
697.761 .0289831
698.499 .0289616
699.237 .0289396
699.975 .0289171
700.713 .0288952
701.450 .0288746
702.187 .0288552
702.924 .0288373
703.661 .0288209
704.397 .0288054
705.133 .0287904
705.869 .0287762
706.605 .0287621
707.341 .0287482
708.076 .0287346
708.811 .0287211
709.546 .0287078
710.281 .0286943
711.015 .0286803
711.749 .0286650
712.483 .0286492
713.217 .0286322
713.950 .0286140
714.684 .0285949
715.417 .0285752
716.150 .0285551
716.882 .0285345
717.615 .0285137
718.347 .0284921
719.079 .0284697
719.811 .0284464
720.542 .0284222
721.273 .0283981
722.005 .0283738
722.735 .0283500
723.466 .0283268
724.196 .0283045
724.927 .0282823
725.656 .0282602
726.386 .0282382
727.116 .0282162
727.845 .0281940
728.574 .0281718
729.303 .0281498
730.031 .0281284
730.760 .0281082
731.488 .0280889
732.216 .0280706
732.944 .0280531
733.671 .0280361
734.398 .0280198
735.125 .0280040
735.852 .0279892
736.579 .0279756
737.305 .0279639
738.031 .0279540
738.757 .0279456
739.483 .0279386
740.208 .0279320
740.933 .0279257
741.658 .0279186
742.383 .0279106
743.108 .0279014
743.832 .0278920
744.556 .0278826
745.280 .0278741
746.004 .0278666
746.727 .0278598
747.450 .0278536
748.173 .0278474
748.896 .0278402
749.618 .0278319
750.340 .0278221
751.062 .0278114
751.784 .0277995
752.506 .0277873
753.227 .0277753
753.948 .0277639
754.669 .0277532
755.389 .0277428
756.110 .0277325
756.830 .0277223
757.550 .0277115
758.269 .0277003
758.989 .0276891
759.708 .0276779
760.427 .0276669
761.146 .0276563
761.864 .0276465
762.582 .0276375
763.300 .0276289
764.018 .0276205
764.736 .0276121
765.453 .0276034
766.170 .0275944
766.887 .0275850
767.603 .0275759
768.320 .0275669
769.036 .0275584
769.751 .0275502
770.467 .0275422
771.182 .0275345
771.897 .0275270
772.612 .0275195
773.327 .0275123
774.041 .0275053
774.755 .0274987
775.469 .0274927
776.183 .0274880
776.896 .0274842
777.609 .0274817
778.322 .0274804
779.035 .0274804
779.747 .0274811
780.459 .0274825
781.171 .0274845
781.882 .0274871
782.594 .0274903
783.305 .0274934
784.016 .0274966
784.726 .0274996
785.436 .0275018
786.147 .0275029
786.856 .0275023
787.566 .0275002
788.275 .0274965
788.984 .0274916
789.693 .0274855
790.401 .0274789
791.110 .0274719
791.818 .0274647
792.525 .0274571
793.233 .0274490
793.940 .0274401
794.647 .0274304
795.353 .0274199
796.060 .0274085
796.766 .0273964
797.472 .0273838
798.177 .0273711
798.883 .0273584
799.588 .0273450
800.292 .0273317
800.997 .0273177
801.701 .0273028
802.405 .0272866
803.109 .0272691
803.812 .0272503
804.515 .0272300
805.218 .0272085
805.921 .0271857
806.623 .0271621
807.325 .0271382
808.027 .0271141
808.728 .0270901
809.429 .0270662
810.130 .0270430
810.831 .0270201
811.531 .0269978
812.231 .0269757
812.931 .0269540
813.630 .0269325
814.330 .0269115
815.029 .0268907
815.727 .0268699
816.426 .0268498
817.124 .0268297
817.821 .0268096
818.519 .0267894
819.216 .0267691
819.913 .0267489
820.609 .0267284
821.306 .0267086
822.002 .0266890
822.697 .0266706
823.393 .0266532
824.088 .0266368
824.783 .0266216
825.477 .0266073
826.171 .0265938
826.865 .0265812
827.559 .0265691
828.252 .0265577
828.945 .0265470
829.638 .0265372
830.330 .0265280
831.023 .0265198
831.714 .0265126
832.406 .0265061
833.097 .0265001
833.788 .0264939
834.479 .0264873
835.169 .0264805
835.859 .0264733
836.548 .0264654
837.238 .0264573
837.927 .0264492
838.615 .0264407
839.304 .0264323
839.992 .0264239
840.680 .0264155
841.367 .0264071
842.054 .0263989
842.741 .0263906
843.428 .0263824
844.114 .0263745
844.800 .0263665
845.485 .0263589
846.170 .0263515
846.855 .0263438
847.540 .0263359
848.224 .0263278
848.908 .0263194
849.592 .0263107
850.275 .0263023
850.958 .0262944
851.641 .0262868
852.323 .0262799
853.005 .0262730
853.687 .0262660
854.368 .0262589
855.049 .0262509
855.730 .0262421
856.410 .0262326
857.090 .0262222
857.769 .0262111
858.449 .0262000
859.128 .0261893
859.806 .0261789
860.485 .0261688
861.163 .0261588
861.840 .0261487
862.518 .0261385
863.195 .0261279
863.871 .0261166
864.548 .0261056
865.224 .0260945
865.899 .0260834
866.574 .0260731
867.249 .0260633
867.924 .0260543
868.598 .0260461
869.272 .0260384
869.946 .0260315
870.619 .0260247
871.292 .0260183
871.964 .0260119
872.636 .0260056
873.308 .0259995
873.979 .0259935
874.651 .0259881
875.321 .0259837
875.992 .0259802
876.662 .0259780
877.331 .0259773
878.001 .0259785
878.670 .0259810
879.338 .0259849
880.007 .0259903
880.675 .0259967
881.342 .0260038
882.009 .0260118
882.676 .0260203
883.343 .0260294
884.009 .0260386
884.675 .0260475
885.340 .0260562
886.005 .0260645
886.670 .0260720
887.334 .0260790
887.998 .0260854
888.662 .0260913
889.325 .0260964
889.988 .0261015
890.650 .0261062
891.312 .0261104
891.974 .0261143
892.636 .0261177
893.297 .0261208
893.957 .0261234
894.618 .0261258
895.278 .0261283
895.937 .0261310
896.596 .0261339
897.255 .0261366
897.914 .0261391
898.572 .0261410
899.230 .0261418
899.887 .0261415
900.544 .0261394
901.201 .0261351
901.857 .0261290
902.513 .0261208
903.168 .0261104
903.823 .0260984
904.478 .0260845
905.132 .0260692
905.786 .0260528
906.440 .0260358
907.093 .0260181
907.746 .0260003
908.399 .0259823
909.051 .0259637
909.703 .0259449
910.354 .0259255
911.005 .0259056
911.656 .0258860
912.306 .0258671
912.956 .0258485
913.605 .0258312
914.254 .0258149
914.903 .0257994
915.551 .0257849
916.199 .0257706
916.847 .0257566
917.494 .0257422
918.141 .0257275
918.788 .0257121
919.434 .0256960
920.079 .0256794
920.725 .0256621
921.370 .0256446
922.014 .0256264
922.658 .0256075
923.302 .0255873
923.946 .0255659
924.589 .0255427
925.231 .0255177
925.873 .0254910
926.515 .0254628
927.157 .0254339
927.798 .0254042
928.439 .0253744
929.079 .0253449
929.719 .0253158
930.359 .0252875
930.998 .0252598
931.637 .0252328
932.275 .0252064
932.913 .0251808
933.551 .0251558
934.188 .0251316
934.825 .0251087
935.462 .0250876
936.098 .0250683
936.733 .0250509
937.369 .0250351
938.004 .0250208
938.638 .0250074
939.273 .0249943
939.907 .0249814
940.540 .0249688
941.173 .0249567
941.806 .0249453
942.438 .0249350
943.070 .0249261
943.702 .0249183
944.333 .0249116
944.964 .0249047
945.594 .0248979
946.224 .0248902
946.854 .0248815
947.483 .0248724
948.112 .0248627
948.741 .0248529
949.369 .0248429
949.996 .0248325
950.624 .0248219
951.251 .0248103
951.878 .0247977
952.504 .0247839
953.130 .0247689
953.755 .0247528
954.380 .0247356
955.005 .0247179
955.629 .0247002
956.253 .0246820
956.877 .0246639
957.500 .0246459
958.123 .0246278
958.746 .0246100
959.368 .0245924
959.990 .0245755
960.611 .0245597
961.232 .0245450
961.853 .0245315
962.473 .0245191
963.093 .0245079
963.712 .0244967
964.331 .0244857
964.950 .0244747
965.569 .0244634
966.187 .0244525
966.804 .0244424
967.422 .0244330
968.039 .0244245
968.655 .0244168
969.272 .0244095
969.887 .0244020
970.503 .0243944
971.118 .0243862
971.733 .0243775
972.347 .0243688
972.961 .0243602
973.575 .0243521
974.188 .0243453
974.801 .0243396
975.414 .0243343
976.026 .0243294
976.638 .0243241
977.250 .0243181
977.861 .0243112
978.472 .0243034
979.083 .0242949
979.693 .0242860
980.303 .0242767
980.912 .0242672
981.521 .0242572
982.130 .0242465
982.738 .0242352
983.346 .0242232
983.954 .0242101
984.562 .0241962
985.169 .0241817
985.775 .0241670
986.382 .0241524
986.988 .0241383
987.594 .0241249
988.199 .0241126
988.804 .0241011
989.409 .0240900
990.013 .0240797
990.617 .0240704
991.221 .0240622
991.824 .0240559
992.427 .0240517
993.030 .0240494
993.632 .0240493
994.234 .0240515
994.836 .0240553
995.438 .0240606
996.039 .0240675
996.640 .0240752
997.240 .0240843
997.840 .0240945
998.440 .0241059
999.040 .0241188
999.639 .0241335
1000.238 .0241485
1000.836 .0241635
1001.435 .0241781
1002.033 .0241914
1002.630 .0242032
1003.228 .0242141
1003.825 .0242242
1004.422 .0242341
1005.018 .0242439
1005.614 .0242537
1006.210 .0242636
1006.806 .0242734
1007.401 .0242820
1007.996 .0242893
1008.591 .0242953
1009.186 .0243002
1009.780 .0243043
1010.374 .0243086
1010.967 .0243133
1011.561 .0243185
1012.154 .0243242
1012.746 .0243305
1013.339 .0243363
1013.931 .0243414
1014.523 .0243457
1015.115 .0243500
1015.706 .0243549
1016.298 .0243606
1016.888 .0243679
1017.479 .0243769
1018.069 .0243879
1018.660 .0244003
1019.250 .0244133
1019.839 .0244272
1020.429 .0244416
1021.018 .0244568
1021.607 .0244728
1022.195 .0244899
1022.784 .0245082
1023.372 .0245274
1023.960 .0245479
1024.547 .0245681
1025.135 .0245880
1025.722 .0246066
1026.309 .0246242
1026.896 .0246410
1027.483 .0246577
1028.069 .0246745
1028.655 .0246917
1029.241 .0247100
1029.827 .0247286
1030.412 .0247469
1030.997 .0247654
1031.582 .0247825
1032.167 .0247993
1032.752 .0248148
1033.336 .0248295
1033.921 .0248425
1034.505 .0248554
1035.089 .0248670
1035.672 .0248773
1036.256 .0248866
1036.839 .0248946
1037.422 .0249014
1038.005 .0249082
1038.588 .0249143
1039.171 .0249204
1039.753 .0249266
1040.335 .0249334
1040.918 .0249392
1041.500 .0249453
1042.081 .0249501
1042.663 .0249543
1043.244 .0249580
1043.826 .0249623
1044.407 .0249670
1044.988 .0249729
1045.569 .0249800
1046.150 .0249873
1046.730 .0249947
1047.311 .0250015
1047.891 .0250062
1048.471 .0250099
1049.052 .0250114
1049.632 .0250108
1050.211 .0250090
1050.791 .0250080
1051.371 .0250075
1051.950 .0250084
1052.530 .0250119
1053.109 .0250166
1053.688 .0250221
1054.268 .0250275
1054.847 .0250317
1055.426 .0250351
1056.005 .0250373
1056.583 .0250382
1057.162 .0250383
1057.741 .0250391
1058.319 .0250401
1058.898 .0250414
1059.476 .0250436
1060.055 .0250458
1060.633 .0250454
1061.211 .0250422
1061.790 .0250359
1062.368 .0250266
1062.946 .0250154
1063.524 .0250043
1064.102 .0249945
1064.680 .0249876
1065.258 .0249828
1065.836 .0249810
1066.414 .0249810
1066.992 .0249823
1067.570 .0249838
1068.148 .0249847
1068.726 .0249856
1069.304 .0249871
1069.882 .0249891
1070.460 .0249936
1071.038 .0250007
1071.616 .0250106
1072.194 .0250215
1072.772 .0250325
1073.350 .0250421
1073.928 .0250483
1074.506 .0250507
1075.084 .0250487
1075.662 .0250424
1076.240 .0250333
1076.819 .0250225
1077.397 .0250109
1077.976 .0250007
1078.554 .0249924
1079.133 .0249864
1079.711 .0249817
1080.290 .0249784
1080.869 .0249753
1081.448 .0249724
1082.027 .0249700
1082.606 .0249680
1083.185 .0249664
1083.764 .0249677
1084.343 .0249711
1084.923 .0249787
1085.502 .0249902
1086.082 .0250054
1086.662 .0250214
1087.242 .0250368
1087.822 .0250484
1088.402 .0250546
1088.983 .0250549
1089.563 .0250484
1090.144 .0250339
1090.725 .0250161
1091.306 .0249949
1091.887 .0249725
1092.469 .0249518
1093.050 .0249342
1093.632 .0249193
1094.214 .0249085
1094.796 .0249004
1095.379 .0248953
1095.961 .0248929
1096.544 .0248943
1097.127 .0248975
1097.710 .0249055
1098.294 .0249170
1098.877 .0249316
1099.461 .0249506
1100.046 .0249756
1100.630 .0250032
1101.215 .0250345
1101.800 .0250684
1102.385 .0251027
1102.970 .0251352
1103.556 .0251654
1104.142 .0251915
1104.728 .0252144
1105.315 .0252327
1105.902 .0252463
1106.489 .0252561
1107.077 .0252657
1107.664 .0252726
1108.253 .0252793
1108.841 .0252893
1109.430 .0253017
1110.019 .0253161
1110.609 .0253348
1111.198 .0253566
1111.789 .0253829
1112.379 .0254130
1112.970 .0254448
1113.561 .0254777
1114.153 .0255140
1114.745 .0255528
1115.338 .0255926
1115.931 .0256367
1116.524 .0256820
1117.117 .0257297
1117.712 .0257803
1118.306 .0258310
1118.901 .0258788
1119.496 .0259266
1120.092 .0259737
1120.689 .0260161
1121.285 .0260562
1121.882 .0260957
1122.480 .0261356
1123.078 .0261823
1123.677 .0262333
1124.276 .0262883
1124.875 .0263472
1125.476 .0264110
1126.076 .0264745
1126.677 .0265358
1127.279 .0265918
1127.881 .0266411
1128.484 .0266857
1129.087 .0267275
1129.691 .0267687
1130.295 .0268087
1130.900 .0268546
1131.505 .0269052
1132.111 .0269565
1132.718 .0270076
1133.325 .0270561
1133.933 .0271020
1134.541 .0271443
1135.150 .0271846
1135.760 .0272246
1136.370 .0272716
1136.981 .0273354
1137.592 .0274123
1138.204 .0275096
1138.817 .0276238
1139.431 .0277617
1140.045 .0279168
1140.660 .0280963
1141.275 .0283060
1141.891 .0285358
1142.508 .0287096
1143.126 .0288702
1143.744 .0293078
1144.363 .0299129
1144.983 .0299823
