Measurement Sequence started on: 15-12-46-377
Integration time: 28
Scans to Average: 2 
>>>>>Begin Spectral Data<<<<<
432.689 .0000100
433.621 .0000100
434.552 .0000100
435.482 .0000100
436.410 .0000100
437.337 .0000100
438.262 .0298747
439.187 .0632685
440.110 .1047135
441.031 .1513709
441.952 .1965838
442.871 .2320303
443.789 .2512289
444.705 .2520054
445.621 .2371650
446.535 .2126985
447.447 .1851315
448.359 .1431353
449.269 .1223730
450.178 .1093192
451.086 .1001293
451.993 .0930680
452.898 .0874669
453.803 .0828793
454.706 .0790677
455.608 .0758256
456.508 .0730588
457.408 .0706895
458.306 .0686210
459.204 .0668025
460.100 .0651702
460.995 .0636971
461.888 .0623694
462.781 .0611440
463.673 .0600150
464.563 .0589790
465.452 .0580221
466.340 .0571351
467.228 .0563224
468.114 .0555644
468.999 .0548647
469.882 .0542167
470.765 .0536120
471.647 .0530463
472.528 .0525168
473.407 .0520355
474.286 .0516000
475.163 .0512106
476.040 .0508661
476.915 .0505568
477.790 .0502882
478.663 .0500524
479.535 .0498459
480.407 .0496703
481.277 .0495177
482.147 .0493894
483.015 .0492827
483.883 .0491954
484.749 .0491261
485.615 .0490832
486.479 .0490676
487.343 .0490821
488.206 .0491181
489.067 .0491736
489.928 .0492420
490.788 .0493207
491.647 .0494015
492.505 .0494803
493.362 .0495608
494.218 .0496500
495.073 .0497526
495.928 .0498764
496.781 .0500218
497.634 .0501979
498.486 .0504061
499.337 .0506409
500.187 .0508998
501.036 .0511758
501.884 .0514724
502.731 .0518001
503.578 .0521598
504.424 .0525513
505.268 .0529772
506.113 .0534319
506.956 .0539237
507.798 .0544493
508.640 .0550148
509.480 .0556089
510.320 .0562542
511.160 .0569643
511.998 .0577369
512.836 .0585763
513.672 .0595086
514.508 .0605339
515.344 .0616932
516.178 .0629801
517.012 .0644288
517.845 .0660824
518.677 .0680338
519.508 .0703009
520.339 .0729803
521.169 .0761462
521.998 .0798195
522.826 .0840690
523.654 .0889694
524.481 .0944997
525.307 .1006605
526.133 .1074631
526.958 .1148702
527.782 .1227377
528.605 .1308749
529.428 .1390510
530.250 .1467416
531.072 .1536697
531.892 .1593879
532.712 .1635629
533.532 .1661023
534.350 .1668098
535.168 .1655781
535.986 .1625860
536.802 .1580287
537.618 .1521906
538.434 .1452939
539.249 .1378358
540.063 .1300246
540.876 .1222286
541.689 .1147217
542.501 .1076883
543.313 .1013276
544.124 .0956982
544.934 .0906765
545.744 .0862012
546.553 .0822051
547.361 .0786290
548.169 .0754145
548.976 .0725152
549.783 .0698845
550.589 .0674935
551.395 .0653028
552.200 .0633336
553.004 .0615459
553.808 .0599210
554.611 .0584725
555.414 .0571659
556.216 .0559810
557.018 .0549023
557.819 .0539139
558.619 .0529919
559.419 .0521345
560.218 .0513194
561.017 .0505306
561.815 .0497631
562.613 .0490244
563.410 .0483045
564.207 .0476111
565.003 .0469466
565.799 .0463038
566.594 .0456895
567.388 .0451146
568.182 .0445591
568.976 .0440179
569.769 .0434975
570.562 .0429866
571.354 .0424831
572.145 .0419914
572.936 .0415081
573.727 .0410359
574.517 .0405744
575.307 .0401293
576.096 .0397002
576.885 .0392964
577.673 .0389137
578.461 .0385452
579.248 .0381972
580.035 .0378690
580.821 .0375599
581.607 .0372654
582.392 .0369892
583.177 .0367272
583.962 .0364811
584.746 .0362535
585.529 .0360402
586.313 .0358468
587.095 .0356716
587.878 .0355150
588.660 .0353754
589.441 .0352517
590.222 .0351423
591.003 .0350452
591.783 .0349589
592.563 .0348785
593.342 .0348009
594.121 .0347235
594.899 .0346482
595.678 .0345747
596.455 .0345036
597.233 .0344350
598.009 .0343689
598.786 .0343077
599.562 .0342479
600.338 .0341901
601.113 .0341336
601.888 .0340763
602.663 .0340182
603.437 .0339583
604.211 .0338968
604.984 .0338347
605.757 .0337739
606.530 .0337148
607.302 .0336579
608.074 .0336053
608.845 .0335551
609.616 .0335074
610.387 .0334626
611.158 .0334198
611.928 .0333769
612.697 .0333356
613.467 .0332944
614.236 .0332540
615.004 .0332156
615.773 .0331784
616.541 .0331427
617.308 .0331101
618.076 .0330807
618.843 .0330537
619.609 .0330300
620.375 .0330095
621.141 .0329901
621.907 .0329727
622.672 .0329552
623.437 .0329366
624.202 .0329169
624.966 .0328960
625.730 .0328731
626.493 .0328490
627.257 .0328244
628.020 .0327995
628.782 .0327756
629.545 .0327525
630.307 .0327297
631.068 .0327071
631.830 .0326842
632.591 .0326597
633.352 .0326339
634.112 .0326063
634.872 .0325762
635.632 .0325451
636.392 .0325138
637.151 .0324833
637.910 .0324544
638.668 .0324276
639.427 .0324029
640.185 .0323796
640.943 .0323570
641.700 .0323339
642.457 .0323104
643.214 .0322862
643.971 .0322603
644.727 .0322335
645.483 .0322068
646.239 .0321799
646.994 .0321536
647.750 .0321288
648.505 .0321053
649.259 .0320833
650.014 .0320617
650.768 .0320405
651.521 .0320191
652.275 .0319976
653.028 .0319748
653.781 .0319501
654.534 .0319249
655.286 .0318979
656.039 .0318694
656.791 .0318401
657.542 .0318103
658.294 .0317801
659.045 .0317494
659.796 .0317183
660.546 .0316864
661.297 .0316535
662.047 .0316194
662.796 .0315829
663.546 .0315453
664.295 .0315070
665.044 .0314676
665.793 .0314283
666.542 .0313901
667.290 .0313528
668.038 .0313171
668.786 .0312828
669.533 .0312503
670.281 .0312188
671.028 .0311882
671.774 .0311584
672.521 .0311297
673.267 .0311027
674.013 .0310772
674.759 .0310535
675.505 .0310321
676.250 .0310119
676.995 .0309923
677.740 .0309729
678.484 .0309539
679.229 .0309345
679.973 .0309145
680.717 .0308942
681.460 .0308738
682.204 .0308528
682.947 .0308317
683.690 .0308104
684.433 .0307893
685.175 .0307678
685.917 .0307463
686.659 .0307253
687.401 .0307042
688.142 .0306837
688.884 .0306632
689.625 .0306431
690.365 .0306234
691.106 .0306032
691.846 .0305826
692.586 .0305617
693.326 .0305407
694.066 .0305188
694.805 .0304959
695.545 .0304727
696.284 .0304487
697.022 .0304243
697.761 .0303995
698.499 .0303743
699.237 .0303491
699.975 .0303248
700.713 .0303012
701.450 .0302792
702.187 .0302588
702.924 .0302406
703.661 .0302245
704.397 .0302108
705.133 .0301988
705.869 .0301878
706.605 .0301780
707.341 .0301687
708.076 .0301591
708.811 .0301491
709.546 .0301390
710.281 .0301287
711.015 .0301185
711.749 .0301082
712.483 .0300973
713.217 .0300860
713.950 .0300737
714.684 .0300596
715.417 .0300434
716.150 .0300253
716.882 .0300051
717.615 .0299833
718.347 .0299608
719.079 .0299377
719.811 .0299148
720.542 .0298927
721.273 .0298715
722.005 .0298509
722.735 .0298307
723.466 .0298102
724.196 .0297892
724.927 .0297677
725.656 .0297457
726.386 .0297233
727.116 .0297018
727.845 .0296812
728.574 .0296616
729.303 .0296433
730.031 .0296265
730.760 .0296107
731.488 .0295957
732.216 .0295814
732.944 .0295676
733.671 .0295538
734.398 .0295401
735.125 .0295265
735.852 .0295129
736.579 .0294991
737.305 .0294854
738.031 .0294713
738.757 .0294568
739.483 .0294419
740.208 .0294266
740.933 .0294110
741.658 .0293953
742.383 .0293792
743.108 .0293625
743.832 .0293461
744.556 .0293295
745.280 .0293124
746.004 .0292952
746.727 .0292778
747.450 .0292597
748.173 .0292410
748.896 .0292222
749.618 .0292032
750.340 .0291844
751.062 .0291657
751.784 .0291470
752.506 .0291279
753.227 .0291083
753.948 .0290879
754.669 .0290667
755.389 .0290446
756.110 .0290216
756.830 .0289984
757.550 .0289754
758.269 .0289528
758.989 .0289307
759.708 .0289094
760.427 .0288891
761.146 .0288690
761.864 .0288490
762.582 .0288289
763.300 .0288091
764.018 .0287889
764.736 .0287685
765.453 .0287481
766.170 .0287281
766.887 .0287083
767.603 .0286891
768.320 .0286701
769.036 .0286512
769.751 .0286326
770.467 .0286137
771.182 .0285946
771.897 .0285756
772.612 .0285567
773.327 .0285383
774.041 .0285207
774.755 .0285042
775.469 .0284889
776.183 .0284757
776.896 .0284645
777.609 .0284550
778.322 .0284475
779.035 .0284419
779.747 .0284381
780.459 .0284360
781.171 .0284354
781.882 .0284361
782.594 .0284380
783.305 .0284415
784.016 .0284458
784.726 .0284511
785.436 .0284569
786.147 .0284627
786.856 .0284676
787.566 .0284715
788.275 .0284739
788.984 .0284747
789.693 .0284743
790.401 .0284730
791.110 .0284708
791.818 .0284682
792.525 .0284655
793.233 .0284628
793.940 .0284600
794.647 .0284573
795.353 .0284543
796.060 .0284511
796.766 .0284475
797.472 .0284434
798.177 .0284389
798.883 .0284344
799.588 .0284298
800.292 .0284255
800.997 .0284212
801.701 .0284173
802.405 .0284131
803.109 .0284091
803.812 .0284044
804.515 .0283991
805.218 .0283922
805.921 .0283842
806.623 .0283745
807.325 .0283636
808.027 .0283518
808.728 .0283396
809.429 .0283272
810.130 .0283150
810.831 .0283030
811.531 .0282916
812.231 .0282805
812.931 .0282700
813.630 .0282592
814.330 .0282484
815.029 .0282371
815.727 .0282254
816.426 .0282133
817.124 .0282017
817.821 .0281900
818.519 .0281787
819.216 .0281674
819.913 .0281562
820.609 .0281448
821.306 .0281334
822.002 .0281222
822.697 .0281114
823.393 .0281010
824.088 .0280909
824.783 .0280812
825.477 .0280721
826.171 .0280629
826.865 .0280539
827.559 .0280451
828.252 .0280361
828.945 .0280272
829.638 .0280181
830.330 .0280093
831.023 .0280008
831.714 .0279923
832.406 .0279836
833.097 .0279742
833.788 .0279639
834.479 .0279525
835.169 .0279401
835.859 .0279273
836.548 .0279140
837.238 .0279007
837.927 .0278874
838.615 .0278743
839.304 .0278609
839.992 .0278476
840.680 .0278339
841.367 .0278200
842.054 .0278057
842.741 .0277913
843.428 .0277774
844.114 .0277644
844.800 .0277521
845.485 .0277405
846.170 .0277289
846.855 .0277170
847.540 .0277037
848.224 .0276888
848.908 .0276721
849.592 .0276537
850.275 .0276342
850.958 .0276135
851.641 .0275923
852.323 .0275711
853.005 .0275496
853.687 .0275275
854.368 .0275051
855.049 .0274811
855.730 .0274556
856.410 .0274286
857.090 .0274003
857.769 .0273708
858.449 .0273409
859.128 .0273113
859.806 .0272820
860.485 .0272539
861.163 .0272271
861.840 .0272009
862.518 .0271757
863.195 .0271506
863.871 .0271246
864.548 .0270982
865.224 .0270714
865.899 .0270444
866.574 .0270176
867.249 .0269916
867.924 .0269665
868.598 .0269427
869.272 .0269203
869.946 .0268996
870.619 .0268799
871.292 .0268616
871.964 .0268436
872.636 .0268258
873.308 .0268085
873.979 .0267915
874.651 .0267749
875.321 .0267598
875.992 .0267455
876.662 .0267325
877.331 .0267210
878.001 .0267112
878.670 .0267029
879.338 .0266963
880.007 .0266905
880.675 .0266857
881.342 .0266812
882.009 .0266771
882.676 .0266728
883.343 .0266693
884.009 .0266664
884.675 .0266641
885.340 .0266625
886.005 .0266618
886.670 .0266616
887.334 .0266627
887.998 .0266645
888.662 .0266665
889.325 .0266689
889.988 .0266711
890.650 .0266737
891.312 .0266766
891.974 .0266801
892.636 .0266846
893.297 .0266906
893.957 .0266983
894.618 .0267070
895.278 .0267168
895.937 .0267275
896.596 .0267385
897.255 .0267495
897.914 .0267599
898.572 .0267694
899.230 .0267778
899.887 .0267853
900.544 .0267913
901.201 .0267960
901.857 .0267992
902.513 .0268007
903.168 .0268004
903.823 .0267981
904.478 .0267938
905.132 .0267874
905.786 .0267796
906.440 .0267702
907.093 .0267592
907.746 .0267477
908.399 .0267355
909.051 .0267231
909.703 .0267103
910.354 .0266977
911.005 .0266857
911.656 .0266746
912.306 .0266644
912.956 .0266553
913.605 .0266473
914.254 .0266406
914.903 .0266345
915.551 .0266293
916.199 .0266247
916.847 .0266205
917.494 .0266168
918.141 .0266135
918.788 .0266103
919.434 .0266078
920.079 .0266056
920.725 .0266038
921.370 .0266020
922.014 .0266000
922.658 .0265975
923.302 .0265942
923.946 .0265905
924.589 .0265857
925.231 .0265801
925.873 .0265740
926.515 .0265665
927.157 .0265581
927.798 .0265487
928.439 .0265376
929.079 .0265258
929.719 .0265128
930.359 .0264988
930.998 .0264841
931.637 .0264696
932.275 .0264554
932.913 .0264415
933.551 .0264284
934.188 .0264155
934.825 .0264028
935.462 .0263904
936.098 .0263773
936.733 .0263644
937.369 .0263518
938.004 .0263396
938.638 .0263278
939.273 .0263180
939.907 .0263098
940.540 .0263037
941.173 .0262991
941.806 .0262958
942.438 .0262928
943.070 .0262899
943.702 .0262861
944.333 .0262813
944.964 .0262754
945.594 .0262688
946.224 .0262613
946.854 .0262543
947.483 .0262473
948.112 .0262407
948.741 .0262345
949.369 .0262284
949.996 .0262213
950.624 .0262134
951.251 .0262038
951.878 .0261929
952.504 .0261809
953.130 .0261683
953.755 .0261546
954.380 .0261411
955.005 .0261280
955.629 .0261148
956.253 .0261019
956.877 .0260901
957.500 .0260781
958.123 .0260666
958.746 .0260547
959.368 .0260426
959.990 .0260298
960.611 .0260163
961.232 .0260018
961.853 .0259868
962.473 .0259711
963.093 .0259548
963.712 .0259379
964.331 .0259210
964.950 .0259037
965.569 .0258858
966.187 .0258676
966.804 .0258487
967.422 .0258293
968.039 .0258096
968.655 .0257891
969.272 .0257682
969.887 .0257465
970.503 .0257244
971.118 .0257024
971.733 .0256802
972.347 .0256578
972.961 .0256355
973.575 .0256136
974.188 .0255916
974.801 .0255694
975.414 .0255471
976.026 .0255246
976.638 .0255023
977.250 .0254799
977.861 .0254574
978.472 .0254352
979.083 .0254134
979.693 .0253917
980.303 .0253697
980.912 .0253474
981.521 .0253243
982.130 .0253005
982.738 .0252759
983.346 .0252510
983.954 .0252251
984.562 .0251990
985.169 .0251725
985.775 .0251455
986.382 .0251180
986.988 .0250902
987.594 .0250620
988.199 .0250335
988.804 .0250051
989.409 .0249768
990.013 .0249493
990.617 .0249229
991.221 .0248976
991.824 .0248736
992.427 .0248514
993.030 .0248308
993.632 .0248115
994.234 .0247939
994.836 .0247779
995.438 .0247632
996.039 .0247503
996.640 .0247385
997.240 .0247276
997.840 .0247181
998.440 .0247093
999.040 .0247009
999.639 .0246928
1000.238 .0246845
1000.836 .0246757
1001.435 .0246663
1002.033 .0246565
1002.630 .0246453
1003.228 .0246338
1003.825 .0246226
1004.422 .0246111
1005.018 .0246008
1005.614 .0245916
1006.210 .0245835
1006.806 .0245773
1007.401 .0245725
1007.996 .0245681
1008.591 .0245646
1009.186 .0245620
1009.780 .0245597
1010.374 .0245577
1010.967 .0245564
1011.561 .0245557
1012.154 .0245555
1012.746 .0245566
1013.339 .0245579
1013.931 .0245595
1014.523 .0245618
1015.115 .0245633
1015.706 .0245642
1016.298 .0245647
1016.888 .0245641
1017.479 .0245636
1018.069 .0245638
1018.660 .0245647
1019.250 .0245668
1019.839 .0245702
1020.429 .0245753
1021.018 .0245819
1021.607 .0245904
1022.195 .0245998
1022.784 .0246101
1023.372 .0246218
1023.960 .0246340
1024.547 .0246469
1025.135 .0246605
1025.722 .0246751
1026.309 .0246900
1026.896 .0247057
1027.483 .0247212
1028.069 .0247364
1028.655 .0247512
1029.241 .0247651
1029.827 .0247785
1030.412 .0247920
1030.997 .0248058
1031.582 .0248198
1032.167 .0248343
1032.752 .0248502
1033.336 .0248664
1033.921 .0248835
1034.505 .0249012
1035.089 .0249195
1035.672 .0249371
1036.256 .0249539
1036.839 .0249701
1037.422 .0249849
1038.005 .0249994
1038.588 .0250132
1039.171 .0250271
1039.753 .0250415
1040.335 .0250559
1040.918 .0250710
1041.500 .0250871
1042.081 .0251048
1042.663 .0251224
1043.244 .0251402
1043.826 .0251578
1044.407 .0251746
1044.988 .0251906
1045.569 .0252060
1046.150 .0252208
1046.730 .0252348
1047.311 .0252486
1047.891 .0252615
1048.471 .0252735
1049.052 .0252851
1049.632 .0252957
1050.211 .0253059
1050.791 .0253149
1051.371 .0253235
1051.950 .0253311
1052.530 .0253390
1053.109 .0253471
1053.688 .0253549
1054.268 .0253634
1054.847 .0253723
1055.426 .0253827
1056.005 .0253943
1056.583 .0254076
1057.162 .0254221
1057.741 .0254374
1058.319 .0254539
1058.898 .0254708
1059.476 .0254865
1060.055 .0255009
1060.633 .0255141
1061.211 .0255252
1061.790 .0255338
1062.368 .0255408
1062.946 .0255473
1063.524 .0255541
1064.102 .0255602
1064.680 .0255665
1065.258 .0255722
1065.836 .0255788
1066.414 .0255859
1066.992 .0255939
1067.570 .0256040
1068.148 .0256153
1068.726 .0256269
1069.304 .0256402
1069.882 .0256546
1070.460 .0256699
1071.038 .0256857
1071.616 .0257030
1072.194 .0257208
1072.772 .0257376
1073.350 .0257547
1073.928 .0257728
1074.506 .0257920
1075.084 .0258122
1075.662 .0258317
1076.240 .0258521
1076.819 .0258725
1077.397 .0258921
1077.976 .0259108
1078.554 .0259294
1079.133 .0259469
1079.711 .0259611
1080.290 .0259730
1080.869 .0259838
1081.448 .0259938
1082.027 .0260042
1082.606 .0260156
1083.185 .0260277
1083.764 .0260412
1084.343 .0260558
1084.923 .0260704
1085.502 .0260865
1086.082 .0261033
1086.662 .0261194
1087.242 .0261351
1087.822 .0261525
1088.402 .0261709
1088.983 .0261920
1089.563 .0262182
1090.144 .0262459
1090.725 .0262745
1091.306 .0263028
1091.887 .0263273
1092.469 .0263485
1093.050 .0263656
1093.632 .0263776
1094.214 .0263847
1094.796 .0263902
1095.379 .0263939
1095.961 .0263981
1096.544 .0264056
1097.127 .0264172
1097.710 .0264310
1098.294 .0264470
1098.877 .0264633
1099.461 .0264795
1100.046 .0264967
1100.630 .0265142
1101.215 .0265311
1101.800 .0265500
1102.385 .0265703
1102.970 .0265923
1103.556 .0266157
1104.142 .0266419
1104.728 .0266695
1105.315 .0266984
1105.902 .0267268
1106.489 .0267529
1107.077 .0267765
1107.664 .0267972
1108.253 .0268167
1108.841 .0268346
1109.430 .0268516
1110.019 .0268683
1110.609 .0268862
1111.198 .0269067
1111.789 .0269302
1112.379 .0269570
1112.970 .0269890
1113.561 .0270242
1114.153 .0270627
1114.745 .0271019
1115.338 .0271411
1115.931 .0271772
1116.524 .0272098
1117.117 .0272370
1117.712 .0272601
1118.306 .0272791
1118.901 .0272968
1119.496 .0273158
1120.092 .0273382
1120.689 .0273632
1121.285 .0273917
1121.882 .0274239
1122.480 .0274587
1123.078 .0274930
1123.677 .0275280
1124.276 .0275615
1124.875 .0275949
1125.476 .0276298
1126.076 .0276680
1126.677 .0277130
1127.279 .0277656
1127.881 .0278268
1128.484 .0278969
1129.087 .0279777
1129.691 .0280655
1130.295 .0281607
1130.900 .0282592
1131.505 .0283590
1132.111 .0284563
1132.718 .0285510
1133.325 .0286459
1133.933 .0287404
1134.541 .0288384
1135.150 .0289443
1135.760 .0290555
1136.370 .0291770
1136.981 .0293065
1137.592 .0294427
1138.204 .0295792
1138.817 .0297109
1139.431 .0298392
1140.045 .0299656
1140.660 .0300841
1141.275 .0302020
1141.891 .0303187
1142.508 .0304350
1143.126 .0307083
1143.744 .0305945
1144.363 .0308453
1144.983 .0309385
