Measurement Sequence started on: 15-12-46-377
Integration time: 28
Scans to Average: 2 
>>>>>Begin Spectral Data<<<<<
432.689 .0000100
433.621 .0000100
434.552 .0000100
435.482 .0000100
436.410 .0000100
437.337 .0000100
438.262 .0269763
439.187 .0570581
440.110 .0944576
441.031 .1366563
441.952 .1776548
442.871 .2099625
443.789 .2276965
444.705 .2288833
445.621 .2159975
446.535 .1943864
447.447 .1698563
448.359 .1321721
449.269 .1135820
450.178 .1017925
451.086 .0934004
451.993 .0869345
452.898 .0817980
453.803 .0776015
454.706 .0740986
455.608 .0710989
456.508 .0685039
457.408 .0662652
458.306 .0642816
459.204 .0625339
460.100 .0609815
460.995 .0596155
461.888 .0584062
462.781 .0573251
463.673 .0563542
464.563 .0554674
465.452 .0546396
466.340 .0538666
467.228 .0531427
468.114 .0524534
468.999 .0518066
469.882 .0512022
470.765 .0506455
471.647 .0501357
472.528 .0496668
473.407 .0492449
474.286 .0488619
475.163 .0485141
476.040 .0481985
476.915 .0479167
477.790 .0476672
478.663 .0474509
479.535 .0472755
480.407 .0471376
481.277 .0470321
482.147 .0469556
483.015 .0468964
483.883 .0468516
484.749 .0468147
485.615 .0467828
486.479 .0467570
487.343 .0467493
488.206 .0467496
489.067 .0467611
489.928 .0467822
490.788 .0468177
491.647 .0468591
492.505 .0469102
493.362 .0469678
494.218 .0470296
495.073 .0471041
495.928 .0471990
496.781 .0473095
497.634 .0474561
498.486 .0476344
499.337 .0478589
500.187 .0481199
501.036 .0484281
501.884 .0487802
502.731 .0491816
503.578 .0496326
504.424 .0501277
505.268 .0506401
506.113 .0511788
506.956 .0517325
507.798 .0523020
508.640 .0528949
509.480 .0535257
510.320 .0541996
511.160 .0549517
511.998 .0558012
512.836 .0567590
513.672 .0578330
514.508 .0590490
515.344 .0603958
516.178 .0618838
517.012 .0635378
517.845 .0653690
518.677 .0674364
519.508 .0697815
520.339 .0724333
521.169 .0754752
521.998 .0789372
522.826 .0828781
523.654 .0873320
524.481 .0923456
525.307 .0979193
526.133 .1040131
526.958 .1106130
527.782 .1175802
528.605 .1247440
529.428 .1319576
530.250 .1387187
531.072 .1447807
531.892 .1498017
532.712 .1535193
533.532 .1557996
534.350 .1564711
535.168 .1554599
535.986 .1528781
536.802 .1488465
537.618 .1436120
538.434 .1373525
539.249 .1305328
540.063 .1233421
540.876 .1160767
541.689 .1090000
542.501 .1023028
543.313 .0961932
544.124 .0907139
544.934 .0857801
545.744 .0813972
546.553 .0774744
547.361 .0739930
548.169 .0709164
548.976 .0682140
549.783 .0658262
550.589 .0637077
551.395 .0618049
552.200 .0600958
553.004 .0585544
553.808 .0571283
554.611 .0558211
555.414 .0546289
556.216 .0535401
557.018 .0525480
557.819 .0516562
558.619 .0508525
559.419 .0501151
560.218 .0494183
561.017 .0487465
561.815 .0480688
562.613 .0473760
563.410 .0466607
564.207 .0459352
565.003 .0452164
565.799 .0445116
566.594 .0438212
567.388 .0431783
568.182 .0425689
568.976 .0419915
569.769 .0414448
570.562 .0409264
571.354 .0404240
572.145 .0399355
572.936 .0394593
573.727 .0390029
574.517 .0385604
575.307 .0381449
576.096 .0377468
576.885 .0373758
577.673 .0370295
578.461 .0367015
579.248 .0363974
580.035 .0361184
580.821 .0358582
581.607 .0356153
582.392 .0353878
583.177 .0351778
583.962 .0349824
584.746 .0348008
585.529 .0346317
586.313 .0344739
587.095 .0343271
587.878 .0341903
588.660 .0340627
589.441 .0339456
590.222 .0338400
591.003 .0337465
591.783 .0336657
592.563 .0335933
593.342 .0335279
594.121 .0334665
594.899 .0334082
595.678 .0333500
596.455 .0332898
597.233 .0332285
598.009 .0331661
598.786 .0331045
599.562 .0330442
600.338 .0329854
601.113 .0329284
601.888 .0328730
602.663 .0328182
603.437 .0327633
604.211 .0327082
604.984 .0326528
605.757 .0325979
606.530 .0325442
607.302 .0324922
608.074 .0324426
608.845 .0323962
609.616 .0323541
610.387 .0323149
611.158 .0322789
611.928 .0322454
612.697 .0322148
613.467 .0321858
614.236 .0321585
615.004 .0321322
615.773 .0321072
616.541 .0320828
617.308 .0320585
618.076 .0320343
618.843 .0320102
619.609 .0319859
620.375 .0319618
621.141 .0319376
621.907 .0319141
622.672 .0318902
623.437 .0318665
624.202 .0318427
624.966 .0318189
625.730 .0317938
626.493 .0317684
627.257 .0317424
628.020 .0317161
628.782 .0316892
629.545 .0316622
630.307 .0316348
631.068 .0316067
631.830 .0315786
632.591 .0315501
633.352 .0315216
634.112 .0314934
634.872 .0314641
635.632 .0314351
636.392 .0314054
637.151 .0313758
637.910 .0313456
638.668 .0313162
639.427 .0312875
640.185 .0312592
640.943 .0312324
641.700 .0312073
642.457 .0311844
643.214 .0311637
643.971 .0311449
644.727 .0311269
645.483 .0311085
646.239 .0310894
646.994 .0310689
647.750 .0310477
648.505 .0310254
649.259 .0310029
650.014 .0309795
650.768 .0309567
651.521 .0309346
652.275 .0309124
653.028 .0308912
653.781 .0308695
654.534 .0308467
655.286 .0308220
656.039 .0307959
656.791 .0307687
657.542 .0307409
658.294 .0307137
659.045 .0306873
659.796 .0306623
660.546 .0306389
661.297 .0306164
662.047 .0305945
662.796 .0305726
663.546 .0305502
664.295 .0305262
665.044 .0305007
665.793 .0304737
666.542 .0304460
667.290 .0304178
668.038 .0303902
668.786 .0303636
669.533 .0303382
670.281 .0303145
671.028 .0302928
671.774 .0302725
672.521 .0302536
673.267 .0302358
674.013 .0302190
674.759 .0302026
675.505 .0301865
676.250 .0301702
676.995 .0301543
677.740 .0301394
678.484 .0301249
679.229 .0301114
679.973 .0300991
680.717 .0300875
681.460 .0300758
682.204 .0300635
682.947 .0300501
683.690 .0300351
684.433 .0300182
685.175 .0299996
685.917 .0299791
686.659 .0299573
687.401 .0299350
688.142 .0299132
688.884 .0298919
689.625 .0298712
690.365 .0298511
691.106 .0298318
691.846 .0298126
692.586 .0297942
693.326 .0297755
694.066 .0297573
694.805 .0297392
695.545 .0297203
696.284 .0297009
697.022 .0296817
697.761 .0296622
698.499 .0296426
699.237 .0296232
699.975 .0296044
700.713 .0295860
701.450 .0295691
702.187 .0295530
702.924 .0295378
703.661 .0295229
704.397 .0295081
705.133 .0294928
705.869 .0294773
706.605 .0294614
707.341 .0294455
708.076 .0294299
708.811 .0294142
709.546 .0293983
710.281 .0293828
711.015 .0293675
711.749 .0293518
712.483 .0293356
713.217 .0293184
713.950 .0292996
714.684 .0292791
715.417 .0292573
716.150 .0292348
716.882 .0292118
717.615 .0291887
718.347 .0291659
719.079 .0291436
719.811 .0291221
720.542 .0291016
721.273 .0290821
722.005 .0290632
722.735 .0290445
723.466 .0290260
724.196 .0290073
724.927 .0289881
725.656 .0289688
726.386 .0289491
727.116 .0289296
727.845 .0289095
728.574 .0288890
729.303 .0288687
730.031 .0288480
730.760 .0288273
731.488 .0288060
732.216 .0287849
732.944 .0287637
733.671 .0287431
734.398 .0287234
735.125 .0287052
735.852 .0286885
736.579 .0286733
737.305 .0286599
738.031 .0286479
738.757 .0286371
739.483 .0286271
740.208 .0286179
740.933 .0286091
741.658 .0286001
742.383 .0285912
743.108 .0285821
743.832 .0285731
744.556 .0285642
745.280 .0285553
746.004 .0285465
746.727 .0285377
747.450 .0285289
748.173 .0285194
748.896 .0285099
749.618 .0284997
750.340 .0284890
751.062 .0284784
751.784 .0284683
752.506 .0284584
753.227 .0284495
753.948 .0284409
754.669 .0284326
755.389 .0284243
756.110 .0284159
756.830 .0284066
757.550 .0283967
758.269 .0283859
758.989 .0283740
759.708 .0283609
760.427 .0283473
761.146 .0283330
761.864 .0283187
762.582 .0283038
763.300 .0282883
764.018 .0282725
764.736 .0282570
765.453 .0282411
766.170 .0282259
766.887 .0282115
767.603 .0281982
768.320 .0281857
769.036 .0281743
769.751 .0281635
770.467 .0281532
771.182 .0281427
771.897 .0281319
772.612 .0281207
773.327 .0281092
774.041 .0280971
774.755 .0280853
775.469 .0280743
776.183 .0280643
776.896 .0280551
777.609 .0280470
778.322 .0280394
779.035 .0280325
779.747 .0280261
780.459 .0280202
781.171 .0280152
781.882 .0280112
782.594 .0280080
783.305 .0280060
784.016 .0280051
784.726 .0280048
785.436 .0280047
786.147 .0280043
786.856 .0280032
787.566 .0280010
788.275 .0279976
788.984 .0279936
789.693 .0279889
790.401 .0279839
791.110 .0279785
791.818 .0279727
792.525 .0279664
793.233 .0279590
793.940 .0279504
794.647 .0279405
795.353 .0279296
796.060 .0279176
796.766 .0279053
797.472 .0278933
798.177 .0278821
798.883 .0278720
799.588 .0278624
800.292 .0278532
800.997 .0278442
801.701 .0278350
802.405 .0278251
803.109 .0278147
803.812 .0278037
804.515 .0277920
805.218 .0277800
805.921 .0277677
806.623 .0277554
807.325 .0277429
808.027 .0277301
808.728 .0277165
809.429 .0277020
810.130 .0276866
810.831 .0276701
811.531 .0276532
812.231 .0276355
812.931 .0276164
813.630 .0275967
814.330 .0275764
815.029 .0275555
815.727 .0275340
816.426 .0275126
817.124 .0274909
817.821 .0274692
818.519 .0274480
819.216 .0274276
819.913 .0274084
820.609 .0273909
821.306 .0273743
822.002 .0273590
822.697 .0273452
823.393 .0273323
824.088 .0273202
824.783 .0273089
825.477 .0272981
826.171 .0272874
826.865 .0272768
827.559 .0272669
828.252 .0272572
828.945 .0272480
829.638 .0272388
830.330 .0272292
831.023 .0272190
831.714 .0272084
832.406 .0271971
833.097 .0271854
833.788 .0271729
834.479 .0271605
835.169 .0271480
835.859 .0271364
836.548 .0271260
837.238 .0271162
837.927 .0271070
838.615 .0270979
839.304 .0270884
839.992 .0270785
840.680 .0270681
841.367 .0270578
842.054 .0270475
842.741 .0270375
843.428 .0270282
844.114 .0270198
844.800 .0270128
845.485 .0270062
846.170 .0269991
846.855 .0269916
847.540 .0269829
848.224 .0269727
848.908 .0269618
849.592 .0269506
850.275 .0269397
850.958 .0269285
851.641 .0269175
852.323 .0269066
853.005 .0268952
853.687 .0268828
854.368 .0268692
855.049 .0268538
855.730 .0268369
856.410 .0268180
857.090 .0267978
857.769 .0267771
858.449 .0267561
859.128 .0267353
859.806 .0267145
860.485 .0266947
861.163 .0266756
861.840 .0266572
862.518 .0266405
863.195 .0266249
863.871 .0266105
864.548 .0265971
865.224 .0265850
865.899 .0265742
866.574 .0265646
867.249 .0265564
867.924 .0265494
868.598 .0265443
869.272 .0265403
869.946 .0265372
870.619 .0265352
871.292 .0265342
871.964 .0265331
872.636 .0265314
873.308 .0265297
873.979 .0265273
874.651 .0265244
875.321 .0265210
875.992 .0265176
876.662 .0265147
877.331 .0265124
878.001 .0265102
878.670 .0265085
879.338 .0265078
880.007 .0265075
880.675 .0265074
881.342 .0265082
882.009 .0265096
882.676 .0265113
883.343 .0265132
884.009 .0265155
884.675 .0265178
885.340 .0265200
886.005 .0265216
886.670 .0265228
887.334 .0265242
887.998 .0265254
888.662 .0265267
889.325 .0265291
889.988 .0265327
890.650 .0265375
891.312 .0265435
891.974 .0265505
892.636 .0265582
893.297 .0265659
893.957 .0265734
894.618 .0265804
895.278 .0265871
895.937 .0265933
896.596 .0265993
897.255 .0266056
897.914 .0266124
898.572 .0266186
899.230 .0266247
899.887 .0266299
900.544 .0266335
901.201 .0266345
901.857 .0266326
902.513 .0266281
903.168 .0266213
903.823 .0266123
904.478 .0266019
905.132 .0265905
905.786 .0265791
906.440 .0265672
907.093 .0265547
907.746 .0265415
908.399 .0265276
909.051 .0265128
909.703 .0264975
910.354 .0264818
911.005 .0264661
911.656 .0264512
912.306 .0264372
912.956 .0264238
913.605 .0264105
914.254 .0263970
914.903 .0263832
915.551 .0263685
916.199 .0263532
916.847 .0263371
917.494 .0263208
918.141 .0263050
918.788 .0262894
919.434 .0262750
920.079 .0262608
920.725 .0262477
921.370 .0262345
922.014 .0262214
922.658 .0262076
923.302 .0261930
923.946 .0261776
924.589 .0261614
925.231 .0261441
925.873 .0261261
926.515 .0261073
927.157 .0260879
927.798 .0260677
928.439 .0260468
929.079 .0260246
929.719 .0260020
930.359 .0259781
930.998 .0259537
931.637 .0259285
932.275 .0259032
932.913 .0258777
933.551 .0258523
934.188 .0258271
934.825 .0258023
935.462 .0257781
936.098 .0257547
936.733 .0257323
937.369 .0257108
938.004 .0256904
938.638 .0256707
939.273 .0256519
939.907 .0256342
940.540 .0256173
941.173 .0256016
941.806 .0255872
942.438 .0255743
943.070 .0255624
943.702 .0255514
944.333 .0255414
944.964 .0255318
945.594 .0255224
946.224 .0255134
946.854 .0255045
947.483 .0254958
948.112 .0254879
948.741 .0254799
949.369 .0254723
949.996 .0254645
950.624 .0254558
951.251 .0254457
951.878 .0254333
952.504 .0254184
953.130 .0254007
953.755 .0253813
954.380 .0253604
955.005 .0253383
955.629 .0253163
956.253 .0252945
956.877 .0252732
957.500 .0252523
958.123 .0252312
958.746 .0252098
959.368 .0251882
959.990 .0251657
960.611 .0251430
961.232 .0251211
961.853 .0251003
962.473 .0250816
963.093 .0250652
963.712 .0250507
964.331 .0250377
964.950 .0250256
965.569 .0250140
966.187 .0250019
966.804 .0249895
967.422 .0249766
968.039 .0249635
968.655 .0249504
969.272 .0249374
969.887 .0249245
970.503 .0249125
971.118 .0249007
971.733 .0248885
972.347 .0248763
972.961 .0248634
973.575 .0248499
974.188 .0248354
974.801 .0248196
975.414 .0248026
976.026 .0247844
976.638 .0247652
977.250 .0247451
977.861 .0247247
978.472 .0247047
979.083 .0246847
979.693 .0246650
980.303 .0246455
980.912 .0246259
981.521 .0246065
982.130 .0245875
982.738 .0245688
983.346 .0245513
983.954 .0245350
984.562 .0245205
985.169 .0245077
985.775 .0244964
986.382 .0244865
986.988 .0244772
987.594 .0244684
988.199 .0244596
988.804 .0244511
989.409 .0244430
990.013 .0244360
990.617 .0244301
991.221 .0244253
991.824 .0244217
992.427 .0244188
993.030 .0244167
993.632 .0244148
994.234 .0244130
994.836 .0244116
995.438 .0244108
996.039 .0244112
996.640 .0244124
997.240 .0244151
997.840 .0244191
998.440 .0244245
999.040 .0244302
999.639 .0244364
1000.238 .0244423
1000.836 .0244483
1001.435 .0244540
1002.033 .0244589
1002.630 .0244636
1003.228 .0244684
1003.825 .0244733
1004.422 .0244788
1005.018 .0244848
1005.614 .0244919
1006.210 .0244994
1006.806 .0245082
1007.401 .0245176
1007.996 .0245276
1008.591 .0245384
1009.186 .0245498
1009.780 .0245618
1010.374 .0245736
1010.967 .0245850
1011.561 .0245963
1012.154 .0246073
1012.746 .0246176
1013.339 .0246267
1013.931 .0246344
1014.523 .0246413
1015.115 .0246471
1015.706 .0246520
1016.298 .0246566
1016.888 .0246615
1017.479 .0246669
1018.069 .0246728
1018.660 .0246791
1019.250 .0246860
1019.839 .0246937
1020.429 .0247027
1021.018 .0247119
1021.607 .0247223
1022.195 .0247340
1022.784 .0247470
1023.372 .0247621
1023.960 .0247796
1024.547 .0247987
1025.135 .0248194
1025.722 .0248414
1026.309 .0248639
1026.896 .0248867
1027.483 .0249097
1028.069 .0249319
1028.655 .0249540
1029.241 .0249758
1029.827 .0249967
1030.412 .0250165
1030.997 .0250369
1031.582 .0250576
1032.167 .0250784
1032.752 .0250998
1033.336 .0251209
1033.921 .0251414
1034.505 .0251611
1035.089 .0251788
1035.672 .0251940
1036.256 .0252075
1036.839 .0252189
1037.422 .0252279
1038.005 .0252365
1038.588 .0252443
1039.171 .0252520
1039.753 .0252604
1040.335 .0252696
1040.918 .0252796
1041.500 .0252909
1042.081 .0253035
1042.663 .0253169
1043.244 .0253320
1043.826 .0253478
1044.407 .0253639
1044.988 .0253807
1045.569 .0253975
1046.150 .0254137
1046.730 .0254297
1047.311 .0254454
1047.891 .0254606
1048.471 .0254755
1049.052 .0254904
1049.632 .0255046
1050.211 .0255193
1050.791 .0255329
1051.371 .0255447
1051.950 .0255553
1052.530 .0255644
1053.109 .0255711
1053.688 .0255760
1054.268 .0255800
1054.847 .0255835
1055.426 .0255870
1056.005 .0255905
1056.583 .0255946
1057.162 .0255991
1057.741 .0256033
1058.319 .0256072
1058.898 .0256101
1059.476 .0256126
1060.055 .0256139
1060.633 .0256143
1061.211 .0256143
1061.790 .0256145
1062.368 .0256149
1062.946 .0256153
1063.524 .0256174
1064.102 .0256208
1064.680 .0256250
1065.258 .0256300
1065.836 .0256351
1066.414 .0256399
1066.992 .0256450
1067.570 .0256506
1068.148 .0256547
1068.726 .0256588
1069.304 .0256627
1069.882 .0256661
1070.460 .0256695
1071.038 .0256721
1071.616 .0256740
1072.194 .0256752
1072.772 .0256757
1073.350 .0256740
1073.928 .0256702
1074.506 .0256660
1075.084 .0256600
1075.662 .0256536
1076.240 .0256473
1076.819 .0256400
1077.397 .0256329
1077.976 .0256276
1078.554 .0256225
1079.133 .0256179
1079.711 .0256139
1080.290 .0256106
1080.869 .0256078
1081.448 .0256058
1082.027 .0256037
1082.606 .0256031
1083.185 .0256038
1083.764 .0256060
1084.343 .0256075
1084.923 .0256101
1085.502 .0256133
1086.082 .0256174
1086.662 .0256233
1087.242 .0256314
1087.822 .0256417
1088.402 .0256536
1088.983 .0256670
1089.563 .0256813
1090.144 .0256945
1090.725 .0257064
1091.306 .0257155
1091.887 .0257239
1092.469 .0257321
1093.050 .0257422
1093.632 .0257534
1094.214 .0257676
1094.796 .0257846
1095.379 .0258009
1095.961 .0258162
1096.544 .0258286
1097.127 .0258375
1097.710 .0258429
1098.294 .0258457
1098.877 .0258493
1099.461 .0258533
1100.046 .0258606
1100.630 .0258715
1101.215 .0258856
1101.800 .0259014
1102.385 .0259170
1102.970 .0259307
1103.556 .0259437
1104.142 .0259551
1104.728 .0259634
1105.315 .0259707
1105.902 .0259769
1106.489 .0259838
1107.077 .0259905
1107.664 .0259957
1108.253 .0260024
1108.841 .0260071
1109.430 .0260112
1110.019 .0260120
1110.609 .0260104
1111.198 .0260081
1111.789 .0260047
1112.379 .0260027
1112.970 .0260012
1113.561 .0260008
1114.153 .0260051
1114.745 .0260140
1115.338 .0260286
1115.931 .0260494
1116.524 .0260739
1117.117 .0261019
1117.712 .0261344
1118.306 .0261694
1118.901 .0262089
1119.496 .0262527
1120.092 .0262996
1120.689 .0263494
1121.285 .0263994
1121.882 .0264492
1122.480 .0264947
1123.078 .0265377
1123.677 .0265762
1124.276 .0266084
1124.875 .0266390
1125.476 .0266668
1126.076 .0266932
1126.677 .0267264
1127.279 .0267642
1127.881 .0268109
1128.484 .0268651
1129.087 .0269256
1129.691 .0269920
1130.295 .0270653
1130.900 .0271406
1131.505 .0272180
1132.111 .0273003
1132.718 .0273886
1133.325 .0274787
1133.933 .0275730
1134.541 .0276737
1135.150 .0277791
1135.760 .0278902
1136.370 .0280042
1136.981 .0281180
1137.592 .0282321
1138.204 .0283394
1138.817 .0284395
1139.431 .0285391
1140.045 .0286317
1140.660 .0287247
1141.275 .0288223
1141.891 .0289358
1142.508 .0290782
1143.126 .0290801
1143.744 .0292494
1144.363 .0295225
1144.983 .0298412
