Measurement Sequence started on: 15-12-46-377
Integration time: 28
Scans to Average: 2 
>>>>>Begin Spectral Data<<<<<
432.689 .0000100
433.621 .0000100
434.552 .0000100
435.482 .0000100
436.410 .0000100
437.337 .0000100
438.262 .0261486
439.187 .0554211
440.110 .0918233
441.031 .1328926
441.952 .1727852
442.871 .2041898
443.789 .2213883
444.705 .2224186
445.621 .2096875
446.535 .1884194
447.447 .1643395
448.359 .1275565
449.269 .1093395
450.178 .0978946
451.086 .0899044
451.993 .0838942
452.898 .0792473
453.803 .0755299
454.706 .0724771
455.608 .0698818
456.508 .0676399
457.408 .0656672
458.306 .0639141
459.204 .0623195
460.100 .0608717
460.995 .0595509
461.888 .0583404
462.781 .0572152
463.673 .0561717
464.563 .0552056
465.452 .0542805
466.340 .0533939
467.228 .0525621
468.114 .0517576
468.999 .0510048
469.882 .0503114
470.765 .0496769
471.647 .0491013
472.528 .0485920
473.407 .0481462
474.286 .0477718
475.163 .0474582
476.040 .0472022
476.915 .0469952
477.790 .0468410
478.663 .0467242
479.535 .0466346
480.407 .0465882
481.277 .0465718
482.147 .0465721
483.015 .0465936
483.883 .0466310
484.749 .0466776
485.615 .0467337
486.479 .0467911
487.343 .0468542
488.206 .0469185
489.067 .0469773
489.928 .0470290
490.788 .0470793
491.647 .0471367
492.505 .0471983
493.362 .0472704
494.218 .0473556
495.073 .0474520
495.928 .0475638
496.781 .0476859
497.634 .0478269
498.486 .0479814
499.337 .0481563
500.187 .0483501
501.036 .0485733
501.884 .0488189
502.731 .0490916
503.578 .0494069
504.424 .0497635
505.268 .0501555
506.113 .0505775
506.956 .0510351
507.798 .0515380
508.640 .0520971
509.480 .0527124
510.320 .0534045
511.160 .0542020
511.998 .0551009
512.836 .0561232
513.672 .0572677
514.508 .0585488
515.344 .0599634
516.178 .0615335
517.012 .0632725
517.845 .0652190
518.677 .0674133
519.508 .0698669
520.339 .0726471
521.169 .0758251
521.998 .0794172
522.826 .0834582
523.654 .0880189
524.481 .0930772
525.307 .0986394
526.133 .1046906
526.958 .1111258
527.782 .1179499
528.605 .1249920
529.428 .1321697
530.250 .1389760
531.072 .1452073
531.892 .1504078
532.712 .1542787
533.532 .1566489
534.350 .1572566
535.168 .1560064
535.986 .1531148
536.802 .1487095
537.618 .1431401
538.434 .1366859
539.249 .1298429
540.063 .1227900
540.876 .1158413
541.689 .1090746
542.501 .1026604
543.313 .0967495
544.124 .0913994
544.934 .0864965
545.744 .0820571
546.553 .0780633
547.361 .0744663
548.169 .0712984
548.976 .0684743
549.783 .0659632
550.589 .0637407
551.395 .0617034
552.200 .0598453
553.004 .0581408
553.808 .0565745
554.611 .0551514
555.414 .0538636
556.216 .0527069
557.018 .0516705
557.819 .0507474
558.619 .0499165
559.419 .0491491
560.218 .0484534
561.017 .0478044
561.815 .0471812
562.613 .0465869
563.410 .0460068
564.207 .0454433
565.003 .0449002
565.799 .0443659
566.594 .0438349
567.388 .0433168
568.182 .0428024
568.976 .0422962
569.769 .0418031
570.562 .0413262
571.354 .0408594
572.145 .0404084
572.936 .0399652
573.727 .0395208
574.517 .0390810
575.307 .0386428
576.096 .0382057
576.885 .0377766
577.673 .0373586
578.461 .0369600
579.248 .0365846
580.035 .0362379
580.821 .0359156
581.607 .0356191
582.392 .0353434
583.177 .0350847
583.962 .0348439
584.746 .0346216
585.529 .0344168
586.313 .0342345
587.095 .0340748
587.878 .0339376
588.660 .0338204
589.441 .0337206
590.222 .0336329
591.003 .0335557
591.783 .0334841
592.563 .0334166
593.342 .0333523
594.121 .0332895
594.899 .0332287
595.678 .0331716
596.455 .0331184
597.233 .0330681
598.009 .0330193
598.786 .0329724
599.562 .0329251
600.338 .0328770
601.113 .0328279
601.888 .0327783
602.663 .0327290
603.437 .0326808
604.211 .0326337
604.984 .0325898
605.757 .0325486
606.530 .0325097
607.302 .0324725
608.074 .0324361
608.845 .0323996
609.616 .0323635
610.387 .0323274
611.158 .0322921
611.928 .0322569
612.697 .0322233
613.467 .0321910
614.236 .0321609
615.004 .0321327
615.773 .0321062
616.541 .0320822
617.308 .0320597
618.076 .0320373
618.843 .0320146
619.609 .0319919
620.375 .0319686
621.141 .0319461
621.907 .0319244
622.672 .0319028
623.437 .0318825
624.202 .0318629
624.966 .0318442
625.730 .0318254
626.493 .0318064
627.257 .0317862
628.020 .0317649
628.782 .0317418
629.545 .0317160
630.307 .0316880
631.068 .0316595
631.830 .0316308
632.591 .0316020
633.352 .0315734
634.112 .0315449
634.872 .0315169
635.632 .0314896
636.392 .0314621
637.151 .0314351
637.910 .0314080
638.668 .0313814
639.427 .0313555
640.185 .0313304
640.943 .0313061
641.700 .0312832
642.457 .0312618
643.214 .0312410
643.971 .0312193
644.727 .0311967
645.483 .0311730
646.239 .0311487
646.994 .0311233
647.750 .0310968
648.505 .0310711
649.259 .0310468
650.014 .0310238
650.768 .0310026
651.521 .0309829
652.275 .0309646
653.028 .0309458
653.781 .0309263
654.534 .0309051
655.286 .0308821
656.039 .0308580
656.791 .0308332
657.542 .0308085
658.294 .0307844
659.045 .0307610
659.796 .0307381
660.546 .0307153
661.297 .0306915
662.047 .0306654
662.796 .0306374
663.546 .0306072
664.295 .0305756
665.044 .0305427
665.793 .0305109
666.542 .0304803
667.290 .0304515
668.038 .0304249
668.786 .0304003
669.533 .0303772
670.281 .0303550
671.028 .0303336
671.774 .0303128
672.521 .0302933
673.267 .0302753
674.013 .0302584
674.759 .0302432
675.505 .0302292
676.250 .0302156
676.995 .0302021
677.740 .0301877
678.484 .0301717
679.229 .0301545
679.973 .0301360
680.717 .0301158
681.460 .0300948
682.204 .0300729
682.947 .0300506
683.690 .0300275
684.433 .0300035
685.175 .0299781
685.917 .0299519
686.659 .0299246
687.401 .0298965
688.142 .0298682
688.884 .0298406
689.625 .0298136
690.365 .0297880
691.106 .0297632
691.846 .0297395
692.586 .0297165
693.326 .0296945
694.066 .0296732
694.805 .0296527
695.545 .0296332
696.284 .0296147
697.022 .0295973
697.761 .0295803
698.499 .0295635
699.237 .0295465
699.975 .0295289
700.713 .0295106
701.450 .0294910
702.187 .0294709
702.924 .0294503
703.661 .0294294
704.397 .0294083
705.133 .0293881
705.869 .0293685
706.605 .0293493
707.341 .0293306
708.076 .0293123
708.811 .0292942
709.546 .0292762
710.281 .0292583
711.015 .0292402
711.749 .0292227
712.483 .0292058
713.217 .0291887
713.950 .0291729
714.684 .0291577
715.417 .0291429
716.150 .0291291
716.882 .0291156
717.615 .0291020
718.347 .0290877
719.079 .0290729
719.811 .0290567
720.542 .0290399
721.273 .0290223
722.005 .0290037
722.735 .0289851
723.466 .0289672
724.196 .0289491
724.927 .0289315
725.656 .0289148
726.386 .0288981
727.116 .0288816
727.845 .0288654
728.574 .0288493
729.303 .0288339
730.031 .0288194
730.760 .0288060
731.488 .0287933
732.216 .0287826
732.944 .0287727
733.671 .0287640
734.398 .0287564
735.125 .0287495
735.852 .0287433
736.579 .0287380
737.305 .0287334
738.031 .0287291
738.757 .0287247
739.483 .0287201
740.208 .0287148
740.933 .0287090
741.658 .0287022
742.383 .0286942
743.108 .0286855
743.832 .0286765
744.556 .0286671
745.280 .0286581
746.004 .0286491
746.727 .0286403
747.450 .0286315
748.173 .0286216
748.896 .0286107
749.618 .0285981
750.340 .0285843
751.062 .0285699
751.784 .0285546
752.506 .0285389
753.227 .0285231
753.948 .0285076
754.669 .0284926
755.389 .0284775
756.110 .0284626
756.830 .0284469
757.550 .0284303
758.269 .0284128
758.989 .0283943
759.708 .0283752
760.427 .0283559
761.146 .0283370
761.864 .0283188
762.582 .0283012
763.300 .0282844
764.018 .0282684
764.736 .0282530
765.453 .0282381
766.170 .0282230
766.887 .0282078
767.603 .0281927
768.320 .0281777
769.036 .0281627
769.751 .0281478
770.467 .0281331
771.182 .0281185
771.897 .0281036
772.612 .0280885
773.327 .0280726
774.041 .0280567
774.755 .0280405
775.469 .0280241
776.183 .0280077
776.896 .0279917
777.609 .0279757
778.322 .0279599
779.035 .0279444
779.747 .0279295
780.459 .0279148
781.171 .0279005
781.882 .0278865
782.594 .0278724
783.305 .0278583
784.016 .0278447
784.726 .0278316
785.436 .0278197
786.147 .0278083
786.856 .0277985
787.566 .0277901
788.275 .0277830
788.984 .0277768
789.693 .0277714
790.401 .0277663
791.110 .0277604
791.818 .0277532
792.525 .0277445
793.233 .0277347
793.940 .0277236
794.647 .0277115
795.353 .0276991
796.060 .0276865
796.766 .0276737
797.472 .0276603
798.177 .0276469
798.883 .0276328
799.588 .0276179
800.292 .0276023
800.997 .0275855
801.701 .0275681
802.405 .0275502
803.109 .0275323
803.812 .0275151
804.515 .0274989
805.218 .0274838
805.921 .0274696
806.623 .0274564
807.325 .0274439
808.027 .0274317
808.728 .0274194
809.429 .0274071
810.130 .0273937
810.831 .0273796
811.531 .0273648
812.231 .0273497
812.931 .0273343
813.630 .0273192
814.330 .0273044
815.029 .0272904
815.727 .0272772
816.426 .0272650
817.124 .0272532
817.821 .0272424
818.519 .0272324
819.216 .0272228
819.913 .0272136
820.609 .0272049
821.306 .0271963
822.002 .0271889
822.697 .0271821
823.393 .0271766
824.088 .0271722
824.783 .0271690
825.477 .0271661
826.171 .0271637
826.865 .0271618
827.559 .0271599
828.252 .0271579
828.945 .0271557
829.638 .0271531
830.330 .0271510
831.023 .0271488
831.714 .0271474
832.406 .0271472
833.097 .0271479
833.788 .0271489
834.479 .0271507
835.169 .0271527
835.859 .0271550
836.548 .0271573
837.238 .0271595
837.927 .0271614
838.615 .0271627
839.304 .0271636
839.992 .0271639
840.680 .0271645
841.367 .0271648
842.054 .0271650
842.741 .0271656
843.428 .0271664
844.114 .0271673
844.800 .0271682
845.485 .0271693
846.170 .0271702
846.855 .0271703
847.540 .0271693
848.224 .0271675
848.908 .0271654
849.592 .0271628
850.275 .0271600
850.958 .0271572
851.641 .0271541
852.323 .0271503
853.005 .0271457
853.687 .0271401
854.368 .0271332
855.049 .0271250
855.730 .0271156
856.410 .0271049
857.090 .0270932
857.769 .0270809
858.449 .0270681
859.128 .0270550
859.806 .0270414
860.485 .0270272
861.163 .0270124
861.840 .0269973
862.518 .0269817
863.195 .0269658
863.871 .0269502
864.548 .0269347
865.224 .0269194
865.899 .0269049
866.574 .0268909
867.249 .0268774
867.924 .0268643
868.598 .0268518
869.272 .0268391
869.946 .0268267
870.619 .0268141
871.292 .0268017
871.964 .0267893
872.636 .0267773
873.308 .0267651
873.979 .0267532
874.651 .0267414
875.321 .0267291
875.992 .0267165
876.662 .0267043
877.331 .0266918
878.001 .0266794
878.670 .0266675
879.338 .0266562
880.007 .0266452
880.675 .0266350
881.342 .0266248
882.009 .0266150
882.676 .0266050
883.343 .0265945
884.009 .0265828
884.675 .0265706
885.340 .0265579
886.005 .0265452
886.670 .0265330
887.334 .0265216
887.998 .0265105
888.662 .0265005
889.325 .0264904
889.988 .0264804
890.650 .0264699
891.312 .0264592
891.974 .0264480
892.636 .0264367
893.297 .0264255
893.957 .0264153
894.618 .0264066
895.278 .0263996
895.937 .0263945
896.596 .0263908
897.255 .0263877
897.914 .0263845
898.572 .0263806
899.230 .0263756
899.887 .0263685
900.544 .0263597
901.201 .0263489
901.857 .0263365
902.513 .0263225
903.168 .0263072
903.823 .0262908
904.478 .0262734
905.132 .0262545
905.786 .0262338
906.440 .0262113
907.093 .0261870
907.746 .0261610
908.399 .0261337
909.051 .0261059
909.703 .0260781
910.354 .0260505
911.005 .0260239
911.656 .0259978
912.306 .0259726
912.956 .0259482
913.605 .0259240
914.254 .0259001
914.903 .0258764
915.551 .0258532
916.199 .0258305
916.847 .0258090
917.494 .0257891
918.141 .0257699
918.788 .0257520
919.434 .0257351
920.079 .0257185
920.725 .0257022
921.370 .0256860
922.014 .0256693
922.658 .0256520
923.302 .0256342
923.946 .0256154
924.589 .0255957
925.231 .0255750
925.873 .0255537
926.515 .0255311
927.157 .0255081
927.798 .0254845
928.439 .0254601
929.079 .0254357
929.719 .0254107
930.359 .0253852
930.998 .0253594
931.637 .0253335
932.275 .0253079
932.913 .0252825
933.551 .0252583
934.188 .0252354
934.825 .0252141
935.462 .0251949
936.098 .0251780
936.733 .0251633
937.369 .0251503
938.004 .0251388
938.638 .0251277
939.273 .0251173
939.907 .0251069
940.540 .0250970
941.173 .0250875
941.806 .0250795
942.438 .0250722
943.070 .0250658
943.702 .0250606
944.333 .0250563
944.964 .0250531
945.594 .0250504
946.224 .0250485
946.854 .0250477
947.483 .0250474
948.112 .0250486
948.741 .0250503
949.369 .0250534
949.996 .0250566
950.624 .0250599
951.251 .0250631
951.878 .0250656
952.504 .0250672
953.130 .0250677
953.755 .0250673
954.380 .0250666
955.005 .0250647
955.629 .0250620
956.253 .0250585
956.877 .0250542
957.500 .0250487
958.123 .0250424
958.746 .0250354
959.368 .0250282
959.990 .0250207
960.611 .0250136
961.232 .0250075
961.853 .0250024
962.473 .0249987
963.093 .0249960
963.712 .0249941
964.331 .0249931
964.950 .0249924
965.569 .0249930
966.187 .0249947
966.804 .0249979
967.422 .0250025
968.039 .0250083
968.655 .0250150
969.272 .0250216
969.887 .0250279
970.503 .0250331
971.118 .0250372
971.733 .0250396
972.347 .0250402
972.961 .0250400
973.575 .0250388
974.188 .0250371
974.801 .0250352
975.414 .0250334
976.026 .0250310
976.638 .0250288
977.250 .0250269
977.861 .0250249
978.472 .0250239
979.083 .0250234
979.693 .0250229
980.303 .0250229
980.912 .0250230
981.521 .0250227
982.130 .0250229
982.738 .0250241
983.346 .0250257
983.954 .0250287
984.562 .0250337
985.169 .0250399
985.775 .0250471
986.382 .0250549
986.988 .0250618
987.594 .0250675
988.199 .0250716
988.804 .0250737
989.409 .0250745
990.013 .0250750
990.617 .0250759
991.221 .0250776
991.824 .0250809
992.427 .0250859
993.030 .0250916
993.632 .0250984
994.234 .0251055
994.836 .0251120
995.438 .0251179
996.039 .0251231
996.640 .0251278
997.240 .0251322
997.840 .0251365
998.440 .0251410
999.040 .0251453
999.639 .0251494
1000.238 .0251533
1000.836 .0251566
1001.435 .0251600
1002.033 .0251632
1002.630 .0251657
1003.228 .0251686
1003.825 .0251717
1004.422 .0251748
1005.018 .0251778
1005.614 .0251812
1006.210 .0251845
1006.806 .0251873
1007.401 .0251904
1007.996 .0251931
1008.591 .0251962
1009.186 .0252001
1009.780 .0252040
1010.374 .0252078
1010.967 .0252119
1011.561 .0252152
1012.154 .0252175
1012.746 .0252194
1013.339 .0252203
1013.931 .0252196
1014.523 .0252184
1015.115 .0252167
1015.706 .0252151
1016.298 .0252140
1016.888 .0252137
1017.479 .0252143
1018.069 .0252163
1018.660 .0252185
1019.250 .0252206
1019.839 .0252231
1020.429 .0252260
1021.018 .0252292
1021.607 .0252326
1022.195 .0252369
1022.784 .0252417
1023.372 .0252475
1023.960 .0252539
1024.547 .0252610
1025.135 .0252685
1025.722 .0252751
1026.309 .0252805
1026.896 .0252846
1027.483 .0252863
1028.069 .0252865
1028.655 .0252856
1029.241 .0252838
1029.827 .0252817
1030.412 .0252795
1030.997 .0252769
1031.582 .0252753
1032.167 .0252740
1032.752 .0252727
1033.336 .0252709
1033.921 .0252698
1034.505 .0252683
1035.089 .0252666
1035.672 .0252659
1036.256 .0252658
1036.839 .0252664
1037.422 .0252679
1038.005 .0252695
1038.588 .0252714
1039.171 .0252731
1039.753 .0252744
1040.335 .0252742
1040.918 .0252732
1041.500 .0252704
1042.081 .0252664
1042.663 .0252614
1043.244 .0252556
1043.826 .0252484
1044.407 .0252405
1044.988 .0252319
1045.569 .0252221
1046.150 .0252111
1046.730 .0251999
1047.311 .0251884
1047.891 .0251769
1048.471 .0251662
1049.052 .0251566
1049.632 .0251489
1050.211 .0251430
1050.791 .0251383
1051.371 .0251345
1051.950 .0251312
1052.530 .0251280
1053.109 .0251249
1053.688 .0251212
1054.268 .0251171
1054.847 .0251126
1055.426 .0251079
1056.005 .0251028
1056.583 .0250971
1057.162 .0250903
1057.741 .0250830
1058.319 .0250748
1058.898 .0250650
1059.476 .0250534
1060.055 .0250416
1060.633 .0250294
1061.211 .0250171
1061.790 .0250057
1062.368 .0249953
1062.946 .0249857
1063.524 .0249774
1064.102 .0249702
1064.680 .0249646
1065.258 .0249604
1065.836 .0249575
1066.414 .0249549
1066.992 .0249534
1067.570 .0249518
1068.148 .0249486
1068.726 .0249455
1069.304 .0249415
1069.882 .0249359
1070.460 .0249288
1071.038 .0249208
1071.616 .0249123
1072.194 .0249029
1072.772 .0248925
1073.350 .0248811
1073.928 .0248687
1074.506 .0248549
1075.084 .0248378
1075.662 .0248190
1076.240 .0247999
1076.819 .0247798
1077.397 .0247596
1077.976 .0247423
1078.554 .0247285
1079.133 .0247186
1079.711 .0247133
1080.290 .0247111
1080.869 .0247108
1081.448 .0247110
1082.027 .0247106
1082.606 .0247087
1083.185 .0247064
1083.764 .0247036
1084.343 .0247011
1084.923 .0247007
1085.502 .0247026
1086.082 .0247066
1086.662 .0247137
1087.242 .0247238
1087.822 .0247338
1088.402 .0247440
1088.983 .0247535
1089.563 .0247619
1090.144 .0247701
1090.725 .0247777
1091.306 .0247848
1091.887 .0247925
1092.469 .0248009
1093.050 .0248106
1093.632 .0248200
1094.214 .0248305
1094.796 .0248407
1095.379 .0248500
1095.961 .0248584
1096.544 .0248660
1097.127 .0248717
1097.710 .0248777
1098.294 .0248817
1098.877 .0248848
1099.461 .0248870
1100.046 .0248908
1100.630 .0248940
1101.215 .0248999
1101.800 .0249080
1102.385 .0249179
1102.970 .0249284
1103.556 .0249408
1104.142 .0249542
1104.728 .0249695
1105.315 .0249869
1105.902 .0250065
1106.489 .0250271
1107.077 .0250514
1107.664 .0250772
1108.253 .0251039
1108.841 .0251307
1109.430 .0251565
1110.019 .0251793
1110.609 .0252021
1111.198 .0252250
1111.789 .0252501
1112.379 .0252793
1112.970 .0253128
1113.561 .0253503
1114.153 .0253901
1114.745 .0254326
1115.338 .0254751
1115.931 .0255165
1116.524 .0255562
1117.117 .0255928
1117.712 .0256277
1118.306 .0256632
1118.901 .0257005
1119.496 .0257401
1120.092 .0257818
1120.689 .0258241
1121.285 .0258634
1121.882 .0258981
1122.480 .0259281
1123.078 .0259533
1123.677 .0259774
1124.276 .0260005
1124.875 .0260287
1125.476 .0260672
1126.076 .0261179
1126.677 .0261816
1127.279 .0262571
1127.881 .0263429
1128.484 .0264344
1129.087 .0265262
1129.691 .0266181
1130.295 .0267072
1130.900 .0267986
1131.505 .0268920
1132.111 .0269870
1132.718 .0270899
1133.325 .0272019
1133.933 .0273177
1134.541 .0274399
1135.150 .0275608
1135.760 .0276765
1136.370 .0277863
1136.981 .0278902
1137.592 .0279858
1138.204 .0280747
1138.817 .0281682
1139.431 .0282665
1140.045 .0283795
1140.660 .0285008
1141.275 .0286286
1141.891 .0287784
1142.508 .0289347
1143.126 .0292879
1143.744 .0291283
1144.363 .0292569
1144.983 .0297707
