Measurement Sequence started on: 15-12-46-377
Integration time: 28
Scans to Average: 2 
>>>>>Begin Spectral Data<<<<<
432.689 .0000100
433.621 .0000100
434.552 .0000100
435.482 .0000100
436.410 .0000100
437.337 .0000100
438.262 .0260330
439.187 .0552180
440.110 .0915618
441.031 .1325535
441.952 .1723929
442.871 .2037945
443.789 .2211177
444.705 .2223706
445.621 .2099608
446.535 .1890505
447.447 .1653249
448.359 .1289163
449.269 .1108835
450.178 .0994727
451.086 .0914240
451.993 .0852231
452.898 .0802601
453.803 .0761355
454.706 .0726930
455.608 .0697316
456.508 .0672077
457.408 .0650368
458.306 .0631522
459.204 .0615001
460.100 .0600528
460.995 .0587636
461.888 .0576107
462.781 .0565721
463.673 .0556126
464.563 .0547437
465.452 .0539472
466.340 .0532060
467.228 .0525394
468.114 .0519206
468.999 .0513472
469.882 .0508004
470.765 .0502884
471.647 .0497951
472.528 .0493215
473.407 .0488725
474.286 .0484562
475.163 .0480775
476.040 .0477431
476.915 .0474389
477.790 .0471675
478.663 .0469208
479.535 .0466894
480.407 .0464772
481.277 .0462805
482.147 .0460986
483.015 .0459435
483.883 .0458102
484.749 .0457071
485.615 .0456286
486.479 .0455770
487.343 .0455547
488.206 .0455593
489.067 .0455764
489.928 .0456057
490.788 .0456444
491.647 .0457021
492.505 .0457811
493.362 .0458935
494.218 .0460307
495.073 .0461984
495.928 .0463984
496.781 .0466200
497.634 .0468637
498.486 .0471280
499.337 .0474057
500.187 .0476958
501.036 .0479895
501.884 .0482912
502.731 .0485993
503.578 .0489319
504.424 .0492843
505.268 .0496556
506.113 .0500459
506.956 .0504543
507.798 .0508906
508.640 .0513678
509.480 .0518839
510.320 .0524578
511.160 .0530946
511.998 .0538189
512.836 .0546479
513.672 .0556000
514.508 .0566945
515.344 .0579579
516.178 .0594004
517.012 .0610437
517.845 .0628965
518.677 .0649887
519.508 .0673353
520.339 .0699811
521.169 .0729612
521.998 .0762988
522.826 .0800536
523.654 .0842679
524.481 .0889319
525.307 .0941388
526.133 .0998486
526.958 .1059918
527.782 .1125075
528.605 .1192240
529.428 .1259780
530.250 .1323443
531.072 .1380801
531.892 .1428735
532.712 .1464574
533.532 .1486587
534.350 .1492928
535.168 .1482915
535.986 .1457431
536.802 .1417418
537.618 .1365530
538.434 .1304012
539.249 .1236949
540.063 .1166622
540.876 .1096200
541.689 .1028372
542.501 .0965066
543.313 .0907336
544.124 .0855974
544.934 .0810374
545.744 .0769678
546.553 .0733175
547.361 .0700689
548.169 .0672011
548.976 .0646701
549.783 .0624184
550.589 .0604306
551.395 .0586605
552.200 .0571081
553.004 .0557335
553.808 .0544720
554.611 .0533352
555.414 .0522844
556.216 .0513080
557.018 .0504084
557.819 .0495846
558.619 .0488276
559.419 .0481338
560.218 .0474971
561.017 .0468884
561.815 .0462968
562.613 .0457153
563.410 .0451254
564.207 .0445333
565.003 .0439467
565.799 .0433634
566.594 .0427912
567.388 .0422597
568.182 .0417471
568.976 .0412577
569.769 .0407886
570.562 .0403347
571.354 .0398856
572.145 .0394421
572.936 .0389971
573.727 .0385530
574.517 .0381166
575.307 .0376939
576.096 .0372861
576.885 .0369020
577.673 .0365433
578.461 .0362056
579.248 .0358868
580.035 .0355858
580.821 .0352954
581.607 .0350222
582.392 .0347648
583.177 .0345257
583.962 .0343067
584.746 .0341096
585.529 .0339315
586.313 .0337709
587.095 .0336240
587.878 .0334922
588.660 .0333692
589.441 .0332562
590.222 .0331529
591.003 .0330590
591.783 .0329731
592.563 .0328935
593.342 .0328198
594.121 .0327499
594.899 .0326833
595.678 .0326180
596.455 .0325550
597.233 .0324961
598.009 .0324410
598.786 .0323908
599.562 .0323466
600.338 .0323082
601.113 .0322734
601.888 .0322420
602.663 .0322117
603.437 .0321813
604.211 .0321505
604.984 .0321196
605.757 .0320892
606.530 .0320600
607.302 .0320325
608.074 .0320063
608.845 .0319830
609.616 .0319621
610.387 .0319432
611.158 .0319259
611.928 .0319092
612.697 .0318927
613.467 .0318755
614.236 .0318577
615.004 .0318395
615.773 .0318220
616.541 .0318054
617.308 .0317906
618.076 .0317779
618.843 .0317671
619.609 .0317575
620.375 .0317486
621.141 .0317394
621.907 .0317284
622.672 .0317138
623.437 .0316956
624.202 .0316737
624.966 .0316492
625.730 .0316221
626.493 .0315940
627.257 .0315658
628.020 .0315376
628.782 .0315086
629.545 .0314792
630.307 .0314490
631.068 .0314186
631.830 .0313878
632.591 .0313577
633.352 .0313286
634.112 .0313007
634.872 .0312745
635.632 .0312504
636.392 .0312270
637.151 .0312044
637.910 .0311816
638.668 .0311591
639.427 .0311366
640.185 .0311138
640.943 .0310916
641.700 .0310708
642.457 .0310513
643.214 .0310318
643.971 .0310109
644.727 .0309888
645.483 .0309641
646.239 .0309370
646.994 .0309075
647.750 .0308762
648.505 .0308445
649.259 .0308128
650.014 .0307817
650.768 .0307519
651.521 .0307238
652.275 .0306972
653.028 .0306714
653.781 .0306460
654.534 .0306201
655.286 .0305940
656.039 .0305678
656.791 .0305417
657.542 .0305163
658.294 .0304919
659.045 .0304690
659.796 .0304482
660.546 .0304292
661.297 .0304118
662.047 .0303959
662.796 .0303810
663.546 .0303658
664.295 .0303504
665.044 .0303347
665.793 .0303196
666.542 .0303051
667.290 .0302921
668.038 .0302802
668.786 .0302696
669.533 .0302602
670.281 .0302510
671.028 .0302415
671.774 .0302314
672.521 .0302204
673.267 .0302085
674.013 .0301956
674.759 .0301829
675.505 .0301704
676.250 .0301588
676.995 .0301477
677.740 .0301368
678.484 .0301253
679.229 .0301133
679.973 .0301004
680.717 .0300861
681.460 .0300707
682.204 .0300548
682.947 .0300388
683.690 .0300234
684.433 .0300086
685.175 .0299949
685.917 .0299825
686.659 .0299714
687.401 .0299605
688.142 .0299497
688.884 .0299390
689.625 .0299274
690.365 .0299151
691.106 .0299020
691.846 .0298881
692.586 .0298736
693.326 .0298590
694.066 .0298442
694.805 .0298290
695.545 .0298134
696.284 .0297969
697.022 .0297796
697.761 .0297609
698.499 .0297406
699.237 .0297190
699.975 .0296963
700.713 .0296730
701.450 .0296490
702.187 .0296247
702.924 .0296003
703.661 .0295756
704.397 .0295504
705.133 .0295245
705.869 .0294982
706.605 .0294721
707.341 .0294463
708.076 .0294213
708.811 .0293971
709.546 .0293734
710.281 .0293499
711.015 .0293263
711.749 .0293015
712.483 .0292753
713.217 .0292474
713.950 .0292186
714.684 .0291892
715.417 .0291596
716.150 .0291310
716.882 .0291037
717.615 .0290777
718.347 .0290526
719.079 .0290278
719.811 .0290030
720.542 .0289782
721.273 .0289536
722.005 .0289293
722.735 .0289059
723.466 .0288841
724.196 .0288636
724.927 .0288445
725.656 .0288264
726.386 .0288088
727.116 .0287911
727.845 .0287740
728.574 .0287564
729.303 .0287387
730.031 .0287214
730.760 .0287044
731.488 .0286880
732.216 .0286725
732.944 .0286576
733.671 .0286433
734.398 .0286300
735.125 .0286175
735.852 .0286060
736.579 .0285961
737.305 .0285877
738.031 .0285811
738.757 .0285760
739.483 .0285719
740.208 .0285683
740.933 .0285648
741.658 .0285610
742.383 .0285567
743.108 .0285518
743.832 .0285465
744.556 .0285410
745.280 .0285356
746.004 .0285303
746.727 .0285252
747.450 .0285206
748.173 .0285159
748.896 .0285111
749.618 .0285065
750.340 .0285019
751.062 .0284977
751.784 .0284943
752.506 .0284919
753.227 .0284908
753.948 .0284910
754.669 .0284926
755.389 .0284949
756.110 .0284980
756.830 .0285009
757.550 .0285034
758.269 .0285051
758.989 .0285057
759.708 .0285044
760.427 .0285016
761.146 .0284968
761.864 .0284905
762.582 .0284825
763.300 .0284732
764.018 .0284626
764.736 .0284509
765.453 .0284380
766.170 .0284247
766.887 .0284109
767.603 .0283973
768.320 .0283834
769.036 .0283703
769.751 .0283577
770.467 .0283458
771.182 .0283346
771.897 .0283237
772.612 .0283132
773.327 .0283032
774.041 .0282927
774.755 .0282821
775.469 .0282714
776.183 .0282605
776.896 .0282485
777.609 .0282361
778.322 .0282231
779.035 .0282092
779.747 .0281945
780.459 .0281789
781.171 .0281619
781.882 .0281438
782.594 .0281244
783.305 .0281037
784.016 .0280822
784.726 .0280604
785.436 .0280384
786.147 .0280165
786.856 .0279950
787.566 .0279739
788.275 .0279531
788.984 .0279327
789.693 .0279118
790.401 .0278897
791.110 .0278665
791.818 .0278420
792.525 .0278163
793.233 .0277896
793.940 .0277621
794.647 .0277340
795.353 .0277057
796.060 .0276772
796.766 .0276486
797.472 .0276203
798.177 .0275924
798.883 .0275646
799.588 .0275370
800.292 .0275102
800.997 .0274841
801.701 .0274591
802.405 .0274356
803.109 .0274134
803.812 .0273929
804.515 .0273740
805.218 .0273563
805.921 .0273395
806.623 .0273239
807.325 .0273091
808.027 .0272950
808.728 .0272814
809.429 .0272678
810.130 .0272540
810.831 .0272398
811.531 .0272250
812.231 .0272090
812.931 .0271921
813.630 .0271743
814.330 .0271557
815.029 .0271371
815.727 .0271186
816.426 .0271007
817.124 .0270838
817.821 .0270678
818.519 .0270528
819.216 .0270386
819.913 .0270251
820.609 .0270125
821.306 .0270006
822.002 .0269901
822.697 .0269810
823.393 .0269738
824.088 .0269687
824.783 .0269651
825.477 .0269632
826.171 .0269625
826.865 .0269627
827.559 .0269633
828.252 .0269642
828.945 .0269651
829.638 .0269660
830.330 .0269669
831.023 .0269678
831.714 .0269684
832.406 .0269688
833.097 .0269685
833.788 .0269673
834.479 .0269654
835.169 .0269631
835.859 .0269607
836.548 .0269589
837.238 .0269581
837.927 .0269584
838.615 .0269598
839.304 .0269624
839.992 .0269660
840.680 .0269701
841.367 .0269745
842.054 .0269791
842.741 .0269839
843.428 .0269892
844.114 .0269953
844.800 .0270022
845.485 .0270102
846.170 .0270189
846.855 .0270279
847.540 .0270363
848.224 .0270443
848.908 .0270514
849.592 .0270572
850.275 .0270620
850.958 .0270658
851.641 .0270687
852.323 .0270713
853.005 .0270736
853.687 .0270758
854.368 .0270782
855.049 .0270804
855.730 .0270819
856.410 .0270828
857.090 .0270832
857.769 .0270827
858.449 .0270810
859.128 .0270787
859.806 .0270753
860.485 .0270714
861.163 .0270671
861.840 .0270628
862.518 .0270587
863.195 .0270547
863.871 .0270506
864.548 .0270462
865.224 .0270416
865.899 .0270367
866.574 .0270312
867.249 .0270253
867.924 .0270189
868.598 .0270121
869.272 .0270050
869.946 .0269982
870.619 .0269911
871.292 .0269837
871.964 .0269754
872.636 .0269661
873.308 .0269555
873.979 .0269432
874.651 .0269296
875.321 .0269141
875.992 .0268976
876.662 .0268794
877.331 .0268601
878.001 .0268396
878.670 .0268183
879.338 .0267960
880.007 .0267721
880.675 .0267474
881.342 .0267221
882.009 .0266964
882.676 .0266710
883.343 .0266456
884.009 .0266204
884.675 .0265954
885.340 .0265705
886.005 .0265451
886.670 .0265197
887.334 .0264941
887.998 .0264684
888.662 .0264427
889.325 .0264172
889.988 .0263921
890.650 .0263679
891.312 .0263446
891.974 .0263213
892.636 .0262981
893.297 .0262747
893.957 .0262507
894.618 .0262266
895.278 .0262021
895.937 .0261774
896.596 .0261530
897.255 .0261290
897.914 .0261050
898.572 .0260814
899.230 .0260580
899.887 .0260342
900.544 .0260107
901.201 .0259864
901.857 .0259613
902.513 .0259357
903.168 .0259097
903.823 .0258831
904.478 .0258559
905.132 .0258284
905.786 .0258005
906.440 .0257722
907.093 .0257434
907.746 .0257136
908.399 .0256835
909.051 .0256533
909.703 .0256230
910.354 .0255929
911.005 .0255633
911.656 .0255344
912.306 .0255067
912.956 .0254799
913.605 .0254540
914.254 .0254290
914.903 .0254048
915.551 .0253816
916.199 .0253594
916.847 .0253385
917.494 .0253195
918.141 .0253024
918.788 .0252873
919.434 .0252742
920.079 .0252624
920.725 .0252519
921.370 .0252418
922.014 .0252321
922.658 .0252219
923.302 .0252110
923.946 .0251995
924.589 .0251872
925.231 .0251740
925.873 .0251604
926.515 .0251461
927.157 .0251313
927.798 .0251158
928.439 .0250995
929.079 .0250826
929.719 .0250650
930.359 .0250469
930.998 .0250288
931.637 .0250109
932.275 .0249940
932.913 .0249777
933.551 .0249626
934.188 .0249490
934.825 .0249369
935.462 .0249264
936.098 .0249173
936.733 .0249100
937.369 .0249043
938.004 .0249002
938.638 .0248972
939.273 .0248954
939.907 .0248947
940.540 .0248951
941.173 .0248963
941.806 .0248986
942.438 .0249015
943.070 .0249046
943.702 .0249084
944.333 .0249118
944.964 .0249147
945.594 .0249171
946.224 .0249191
946.854 .0249211
947.483 .0249228
948.112 .0249248
948.741 .0249272
949.369 .0249301
949.996 .0249331
950.624 .0249359
951.251 .0249382
951.878 .0249399
952.504 .0249409
953.130 .0249412
953.755 .0249412
954.380 .0249413
955.005 .0249421
955.629 .0249440
956.253 .0249471
956.877 .0249517
957.500 .0249571
958.123 .0249637
958.746 .0249705
959.368 .0249773
959.990 .0249847
960.611 .0249925
961.232 .0250009
961.853 .0250112
962.473 .0250236
963.093 .0250380
963.712 .0250542
964.331 .0250717
964.950 .0250893
965.569 .0251071
966.187 .0251236
966.804 .0251392
967.422 .0251543
968.039 .0251694
968.655 .0251848
969.272 .0252006
969.887 .0252174
970.503 .0252343
971.118 .0252513
971.733 .0252672
972.347 .0252806
972.961 .0252920
973.575 .0253006
974.188 .0253066
974.801 .0253104
975.414 .0253126
976.026 .0253139
976.638 .0253151
977.250 .0253158
977.861 .0253164
978.472 .0253167
979.083 .0253166
979.693 .0253159
980.303 .0253138
980.912 .0253104
981.521 .0253060
982.130 .0253009
982.738 .0252954
983.346 .0252901
983.954 .0252856
984.562 .0252821
985.169 .0252799
985.775 .0252783
986.382 .0252769
986.988 .0252759
987.594 .0252749
988.199 .0252731
988.804 .0252707
989.409 .0252674
990.013 .0252634
990.617 .0252594
991.221 .0252551
991.824 .0252509
992.427 .0252472
993.030 .0252443
993.632 .0252411
994.234 .0252382
994.836 .0252352
995.438 .0252320
996.039 .0252285
996.640 .0252245
997.240 .0252200
997.840 .0252157
998.440 .0252122
999.040 .0252092
999.639 .0252070
1000.238 .0252056
1000.836 .0252043
1001.435 .0252029
1002.033 .0252007
1002.630 .0251971
1003.228 .0251924
1003.825 .0251869
1004.422 .0251805
1005.018 .0251737
1005.614 .0251670
1006.210 .0251605
1006.806 .0251544
1007.401 .0251474
1007.996 .0251394
1008.591 .0251298
1009.186 .0251188
1009.780 .0251058
1010.374 .0250912
1010.967 .0250763
1011.561 .0250606
1012.154 .0250449
1012.746 .0250293
1013.339 .0250133
1013.931 .0249961
1014.523 .0249771
1015.115 .0249556
1015.706 .0249318
1016.298 .0249060
1016.888 .0248787
1017.479 .0248514
1018.069 .0248251
1018.660 .0247999
1019.250 .0247760
1019.839 .0247539
1020.429 .0247332
1021.018 .0247129
1021.607 .0246939
1022.195 .0246751
1022.784 .0246571
1023.372 .0246400
1023.960 .0246241
1024.547 .0246100
1025.135 .0245978
1025.722 .0245875
1026.309 .0245786
1026.896 .0245713
1027.483 .0245650
1028.069 .0245586
1028.655 .0245520
1029.241 .0245448
1029.827 .0245370
1030.412 .0245278
1030.997 .0245174
1031.582 .0245054
1032.167 .0244925
1032.752 .0244789
1033.336 .0244647
1033.921 .0244508
1034.505 .0244373
1035.089 .0244245
1035.672 .0244122
1036.256 .0244003
1036.839 .0243886
1037.422 .0243766
1038.005 .0243645
1038.588 .0243516
1039.171 .0243384
1039.753 .0243246
1040.335 .0243104
1040.918 .0242959
1041.500 .0242815
1042.081 .0242658
1042.663 .0242488
1043.244 .0242299
1043.826 .0242094
1044.407 .0241874
1044.988 .0241651
1045.569 .0241427
1046.150 .0241213
1046.730 .0241008
1047.311 .0240814
1047.891 .0240624
1048.471 .0240441
1049.052 .0240254
1049.632 .0240063
1050.211 .0239867
1050.791 .0239674
1051.371 .0239492
1051.950 .0239343
1052.530 .0239229
1053.109 .0239155
1053.688 .0239108
1054.268 .0239084
1054.847 .0239062
1055.426 .0239039
1056.005 .0239005
1056.583 .0238962
1057.162 .0238911
1057.741 .0238865
1058.319 .0238829
1058.898 .0238811
1059.476 .0238812
1060.055 .0238839
1060.633 .0238876
1061.211 .0238916
1061.790 .0238945
1062.368 .0238960
1062.946 .0238964
1063.524 .0238959
1064.102 .0238941
1064.680 .0238926
1065.258 .0238911
1065.836 .0238906
1066.414 .0238906
1066.992 .0238912
1067.570 .0238917
1068.148 .0238916
1068.726 .0238904
1069.304 .0238892
1069.882 .0238884
1070.460 .0238888
1071.038 .0238906
1071.616 .0238952
1072.194 .0239025
1072.772 .0239118
1073.350 .0239241
1073.928 .0239385
1074.506 .0239539
1075.084 .0239702
1075.662 .0239853
1076.240 .0240004
1076.819 .0240155
1077.397 .0240306
1077.976 .0240463
1078.554 .0240630
1079.133 .0240813
1079.711 .0240997
1080.290 .0241208
1080.869 .0241426
1081.448 .0241633
1082.027 .0241816
1082.606 .0241967
1083.185 .0242092
1083.764 .0242178
1084.343 .0242242
1084.923 .0242301
1085.502 .0242367
1086.082 .0242456
1086.662 .0242555
1087.242 .0242687
1087.822 .0242862
1088.402 .0243064
1088.983 .0243269
1089.563 .0243465
1090.144 .0243630
1090.725 .0243771
1091.306 .0243887
1091.887 .0243993
1092.469 .0244089
1093.050 .0244177
1093.632 .0244285
1094.214 .0244401
1094.796 .0244534
1095.379 .0244690
1095.961 .0244853
1096.544 .0245033
1097.127 .0245197
1097.710 .0245344
1098.294 .0245480
1098.877 .0245628
1099.461 .0245798
1100.046 .0245985
1100.630 .0246190
1101.215 .0246434
1101.800 .0246714
1102.385 .0247036
1102.970 .0247394
1103.556 .0247763
1104.142 .0248153
1104.728 .0248564
1105.315 .0248967
1105.902 .0249372
1106.489 .0249772
1107.077 .0250188
1107.664 .0250588
1108.253 .0250959
1108.841 .0251310
1109.430 .0251637
1110.019 .0251959
1110.609 .0252268
1111.198 .0252574
1111.789 .0252907
1112.379 .0253263
1112.970 .0253655
1113.561 .0254094
1114.153 .0254572
1114.745 .0255077
1115.338 .0255610
1115.931 .0256155
1116.524 .0256693
1117.117 .0257264
1117.712 .0257867
1118.306 .0258536
1118.901 .0259277
1119.496 .0260101
1120.092 .0260985
1120.689 .0261939
1121.285 .0262926
1121.882 .0263910
1122.480 .0264913
1123.078 .0265900
1123.677 .0266837
1124.276 .0267728
1124.875 .0268570
1125.476 .0269370
1126.076 .0270110
1126.677 .0270837
1127.279 .0271504
1127.881 .0272176
1128.484 .0272829
1129.087 .0273454
1129.691 .0274087
1130.295 .0274729
1130.900 .0275405
1131.505 .0276111
1132.111 .0276836
1132.718 .0277587
1133.325 .0278382
1133.933 .0279276
1134.541 .0280244
1135.150 .0281306
1135.760 .0282436
1136.370 .0283636
1136.981 .0284887
1137.592 .0286147
1138.204 .0287411
1138.817 .0288687
1139.431 .0289919
1140.045 .0291083
1140.660 .0292177
1141.275 .0293139
1141.891 .0293994
1142.508 .0295327
1143.126 .0296326
1143.744 .0296871
1144.363 .0295783
1144.983 .0295963
