Measurement Sequence started on: 15-12-46-377
Integration time: 28
Scans to Average: 2 
>>>>>Begin Spectral Data<<<<<
432.689 .0000100
433.621 .0000100
434.552 .0000100
435.482 .0000100
436.410 .0000100
437.337 .0000100
438.262 .0263970
439.187 .0559087
440.110 .0926542
441.031 .1340914
441.952 .1743529
442.871 .2060899
443.789 .2235309
444.705 .2246917
445.621 .2120084
446.535 .1907260
447.447 .1665696
448.359 .1295395
449.269 .1111858
450.178 .0995351
451.086 .0913031
451.993 .0849891
452.898 .0799809
453.803 .0759046
454.706 .0725222
455.608 .0696250
456.508 .0671410
457.408 .0650146
458.306 .0631562
459.204 .0615200
460.100 .0600762
460.995 .0588180
461.888 .0577027
462.781 .0567002
463.673 .0557794
464.563 .0549363
465.452 .0541410
466.340 .0533817
467.228 .0526690
468.114 .0519943
468.999 .0513687
469.882 .0507871
470.765 .0502518
471.647 .0497535
472.528 .0492887
473.407 .0488565
474.286 .0484608
475.163 .0480913
476.040 .0477450
476.915 .0474261
477.790 .0471439
478.663 .0468925
479.535 .0466718
480.407 .0464776
481.277 .0463146
482.147 .0461737
483.015 .0460565
483.883 .0459521
484.749 .0458673
485.615 .0457996
486.479 .0457533
487.343 .0457258
488.206 .0457169
489.067 .0457219
489.928 .0457494
490.788 .0457941
491.647 .0458587
492.505 .0459338
493.362 .0460356
494.218 .0461559
495.073 .0463006
495.928 .0464675
496.781 .0466509
497.634 .0468575
498.486 .0470876
499.337 .0473335
500.187 .0476035
501.036 .0478902
501.884 .0482060
502.731 .0485480
503.578 .0489198
504.424 .0493133
505.268 .0497290
506.113 .0501724
506.956 .0506508
507.798 .0511687
508.640 .0517421
509.480 .0523787
510.320 .0530930
511.160 .0539072
511.998 .0548129
512.836 .0558334
513.672 .0569657
514.508 .0582078
515.344 .0595664
516.178 .0610548
517.012 .0626889
517.845 .0645108
518.677 .0665633
519.508 .0688758
520.339 .0714915
521.169 .0744876
521.998 .0778339
522.826 .0816089
523.654 .0858332
524.481 .0905223
525.307 .0957059
526.133 .1014200
526.958 .1075930
527.782 .1142294
528.605 .1212170
529.428 .1284328
530.250 .1353845
531.072 .1418621
531.892 .1474357
532.712 .1517990
533.532 .1546889
534.350 .1558877
535.168 .1552654
535.986 .1529941
536.802 .1491184
537.618 .1439573
538.434 .1377416
539.249 .1309554
540.063 .1237794
540.876 .1165074
541.689 .1093838
542.501 .1026108
543.313 .0963259
544.124 .0906133
544.934 .0854072
545.744 .0807501
546.553 .0765530
547.361 .0728349
548.169 .0695525
548.976 .0666387
549.783 .0640635
550.589 .0617858
551.395 .0597445
552.200 .0579364
553.004 .0563276
553.808 .0548753
554.611 .0535836
555.414 .0524386
556.216 .0514008
557.018 .0504780
557.819 .0496545
558.619 .0489011
559.419 .0481945
560.218 .0475445
561.017 .0469083
561.815 .0462846
562.613 .0456784
563.410 .0450654
564.207 .0444566
565.003 .0438704
565.799 .0432979
566.594 .0427473
567.388 .0422333
568.182 .0417391
568.976 .0412608
569.769 .0407978
570.562 .0403392
571.354 .0398759
572.145 .0394262
572.936 .0389851
573.727 .0385539
574.517 .0381458
575.307 .0377605
576.096 .0373943
576.885 .0370554
577.673 .0367325
578.461 .0364211
579.248 .0361194
580.035 .0358264
580.821 .0355381
581.607 .0352641
582.392 .0350039
583.177 .0347598
583.962 .0345353
584.746 .0343317
585.529 .0341445
586.313 .0339749
587.095 .0338191
587.878 .0336755
588.660 .0335427
589.441 .0334199
590.222 .0333057
591.003 .0332029
591.783 .0331119
592.563 .0330320
593.342 .0329631
594.121 .0329040
594.899 .0328526
595.678 .0328056
596.455 .0327610
597.233 .0327171
598.009 .0326721
598.786 .0326274
599.562 .0325825
600.338 .0325384
601.113 .0324951
601.888 .0324528
602.663 .0324118
603.437 .0323707
604.211 .0323292
604.984 .0322858
605.757 .0322413
606.530 .0321954
607.302 .0321479
608.074 .0321000
608.845 .0320533
609.616 .0320086
610.387 .0319665
611.158 .0319275
611.928 .0318907
612.697 .0318557
613.467 .0318227
614.236 .0317911
615.004 .0317616
615.773 .0317348
616.541 .0317112
617.308 .0316902
618.076 .0316732
618.843 .0316592
619.609 .0316475
620.375 .0316378
621.141 .0316289
621.907 .0316195
622.672 .0316096
623.437 .0315983
624.202 .0315853
624.966 .0315710
625.730 .0315555
626.493 .0315376
627.257 .0315181
628.020 .0314968
628.782 .0314724
629.545 .0314456
630.307 .0314168
631.068 .0313851
631.830 .0313513
632.591 .0313152
633.352 .0312776
634.112 .0312384
634.872 .0311984
635.632 .0311575
636.392 .0311172
637.151 .0310784
637.910 .0310407
638.668 .0310043
639.427 .0309702
640.185 .0309365
640.943 .0309038
641.700 .0308717
642.457 .0308402
643.214 .0308089
643.971 .0307783
644.727 .0307481
645.483 .0307197
646.239 .0306927
646.994 .0306677
647.750 .0306445
648.505 .0306241
649.259 .0306049
650.014 .0305877
650.768 .0305722
651.521 .0305591
652.275 .0305466
653.028 .0305353
653.781 .0305233
654.534 .0305115
655.286 .0304988
656.039 .0304856
656.791 .0304715
657.542 .0304568
658.294 .0304404
659.045 .0304235
659.796 .0304051
660.546 .0303861
661.297 .0303651
662.047 .0303433
662.796 .0303194
663.546 .0302943
664.295 .0302683
665.044 .0302427
665.793 .0302180
666.542 .0301951
667.290 .0301735
668.038 .0301537
668.786 .0301352
669.533 .0301179
670.281 .0301013
671.028 .0300863
671.774 .0300719
672.521 .0300588
673.267 .0300471
674.013 .0300371
674.759 .0300281
675.505 .0300202
676.250 .0300128
676.995 .0300051
677.740 .0299968
678.484 .0299875
679.229 .0299773
679.973 .0299668
680.717 .0299559
681.460 .0299448
682.204 .0299333
682.947 .0299217
683.690 .0299095
684.433 .0298962
685.175 .0298820
685.917 .0298663
686.659 .0298498
687.401 .0298326
688.142 .0298147
688.884 .0297969
689.625 .0297791
690.365 .0297611
691.106 .0297423
691.846 .0297230
692.586 .0297031
693.326 .0296825
694.066 .0296616
694.805 .0296409
695.545 .0296204
696.284 .0296008
697.022 .0295817
697.761 .0295632
698.499 .0295448
699.237 .0295259
699.975 .0295062
700.713 .0294857
701.450 .0294643
702.187 .0294426
702.924 .0294208
703.661 .0293998
704.397 .0293793
705.133 .0293593
705.869 .0293399
706.605 .0293212
707.341 .0293029
708.076 .0292841
708.811 .0292646
709.546 .0292445
710.281 .0292232
711.015 .0292010
711.749 .0291781
712.483 .0291548
713.217 .0291313
713.950 .0291076
714.684 .0290838
715.417 .0290604
716.150 .0290373
716.882 .0290143
717.615 .0289914
718.347 .0289682
719.079 .0289444
719.811 .0289205
720.542 .0288968
721.273 .0288732
722.005 .0288504
722.735 .0288287
723.466 .0288083
724.196 .0287891
724.927 .0287710
725.656 .0287531
726.386 .0287354
727.116 .0287178
727.845 .0286992
728.574 .0286803
729.303 .0286615
730.031 .0286425
730.760 .0286238
731.488 .0286055
732.216 .0285878
732.944 .0285703
733.671 .0285533
734.398 .0285365
735.125 .0285200
735.852 .0285042
736.579 .0284887
737.305 .0284741
738.031 .0284613
738.757 .0284498
739.483 .0284389
740.208 .0284290
740.933 .0284195
741.658 .0284099
742.383 .0284004
743.108 .0283909
743.832 .0283813
744.556 .0283721
745.280 .0283637
746.004 .0283555
746.727 .0283483
747.450 .0283419
748.173 .0283354
748.896 .0283286
749.618 .0283216
750.340 .0283134
751.062 .0283044
751.784 .0282953
752.506 .0282859
753.227 .0282765
753.948 .0282673
754.669 .0282586
755.389 .0282499
756.110 .0282413
756.830 .0282324
757.550 .0282225
758.269 .0282124
758.989 .0282012
759.708 .0281886
760.427 .0281759
761.146 .0281631
761.864 .0281506
762.582 .0281385
763.300 .0281272
764.018 .0281167
764.736 .0281066
765.453 .0280972
766.170 .0280879
766.887 .0280787
767.603 .0280697
768.320 .0280608
769.036 .0280519
769.751 .0280435
770.467 .0280356
771.182 .0280285
771.897 .0280224
772.612 .0280169
773.327 .0280120
774.041 .0280075
774.755 .0280034
775.469 .0279992
776.183 .0279952
776.896 .0279919
777.609 .0279892
778.322 .0279870
779.035 .0279855
779.747 .0279850
780.459 .0279851
781.171 .0279858
781.882 .0279868
782.594 .0279878
783.305 .0279887
784.016 .0279893
784.726 .0279897
785.436 .0279897
786.147 .0279891
786.856 .0279875
787.566 .0279848
788.275 .0279811
788.984 .0279765
789.693 .0279711
790.401 .0279652
791.110 .0279586
791.818 .0279513
792.525 .0279435
793.233 .0279348
793.940 .0279254
794.647 .0279149
795.353 .0279034
796.060 .0278913
796.766 .0278779
797.472 .0278636
798.177 .0278488
798.883 .0278339
799.588 .0278189
800.292 .0278039
800.997 .0277888
801.701 .0277734
802.405 .0277579
803.109 .0277420
803.812 .0277251
804.515 .0277074
805.218 .0276883
805.921 .0276682
806.623 .0276469
807.325 .0276250
808.027 .0276030
808.728 .0275814
809.429 .0275605
810.130 .0275401
810.831 .0275202
811.531 .0275010
812.231 .0274818
812.931 .0274619
813.630 .0274407
814.330 .0274180
815.029 .0273939
815.727 .0273682
816.426 .0273417
817.124 .0273154
817.821 .0272888
818.519 .0272631
819.216 .0272385
819.913 .0272149
820.609 .0271926
821.306 .0271713
822.002 .0271511
822.697 .0271316
823.393 .0271129
824.088 .0270946
824.783 .0270765
825.477 .0270591
826.171 .0270419
826.865 .0270252
827.559 .0270100
828.252 .0269958
828.945 .0269826
829.638 .0269706
830.330 .0269594
831.023 .0269482
831.714 .0269367
832.406 .0269242
833.097 .0269104
833.788 .0268952
834.479 .0268785
835.169 .0268607
835.859 .0268429
836.548 .0268256
837.238 .0268089
837.927 .0267933
838.615 .0267785
839.304 .0267642
839.992 .0267504
840.680 .0267368
841.367 .0267230
842.054 .0267091
842.741 .0266952
843.428 .0266818
844.114 .0266688
844.800 .0266565
845.485 .0266443
846.170 .0266320
846.855 .0266195
847.540 .0266063
848.224 .0265920
848.908 .0265772
849.592 .0265624
850.275 .0265476
850.958 .0265329
851.641 .0265184
852.323 .0265045
853.005 .0264907
853.687 .0264766
854.368 .0264619
855.049 .0264463
855.730 .0264303
856.410 .0264135
857.090 .0263966
857.769 .0263801
858.449 .0263641
859.128 .0263490
859.806 .0263344
860.485 .0263207
861.163 .0263074
861.840 .0262946
862.518 .0262823
863.195 .0262704
863.871 .0262588
864.548 .0262481
865.224 .0262382
865.899 .0262294
866.574 .0262214
867.249 .0262137
867.924 .0262064
868.598 .0261995
869.272 .0261929
869.946 .0261867
870.619 .0261813
871.292 .0261773
871.964 .0261738
872.636 .0261712
873.308 .0261691
873.979 .0261672
874.651 .0261652
875.321 .0261632
875.992 .0261609
876.662 .0261588
877.331 .0261572
878.001 .0261563
878.670 .0261563
879.338 .0261579
880.007 .0261606
880.675 .0261643
881.342 .0261689
882.009 .0261740
882.676 .0261794
883.343 .0261853
884.009 .0261918
884.675 .0261988
885.340 .0262060
886.005 .0262137
886.670 .0262217
887.334 .0262302
887.998 .0262390
888.662 .0262481
889.325 .0262574
889.988 .0262670
890.650 .0262767
891.312 .0262864
891.974 .0262968
892.636 .0263076
893.297 .0263184
893.957 .0263293
894.618 .0263401
895.278 .0263505
895.937 .0263602
896.596 .0263694
897.255 .0263778
897.914 .0263855
898.572 .0263924
899.230 .0263988
899.887 .0264046
900.544 .0264102
901.201 .0264152
901.857 .0264196
902.513 .0264230
903.168 .0264246
903.823 .0264240
904.478 .0264211
905.132 .0264159
905.786 .0264086
906.440 .0263999
907.093 .0263905
907.746 .0263808
908.399 .0263712
909.051 .0263617
909.703 .0263525
910.354 .0263432
911.005 .0263336
911.656 .0263231
912.306 .0263116
912.956 .0262994
913.605 .0262869
914.254 .0262745
914.903 .0262633
915.551 .0262537
916.199 .0262456
916.847 .0262392
917.494 .0262341
918.141 .0262296
918.788 .0262256
919.434 .0262210
920.079 .0262154
920.725 .0262081
921.370 .0261992
922.014 .0261883
922.658 .0261760
923.302 .0261626
923.946 .0261478
924.589 .0261318
925.231 .0261150
925.873 .0260967
926.515 .0260771
927.157 .0260564
927.798 .0260347
928.439 .0260118
929.079 .0259885
929.719 .0259646
930.359 .0259406
930.998 .0259170
931.637 .0258939
932.275 .0258714
932.913 .0258498
933.551 .0258291
934.188 .0258088
934.825 .0257897
935.462 .0257715
936.098 .0257545
936.733 .0257388
937.369 .0257243
938.004 .0257108
938.638 .0256974
939.273 .0256842
939.907 .0256710
940.540 .0256577
941.173 .0256447
941.806 .0256322
942.438 .0256208
943.070 .0256104
943.702 .0256013
944.333 .0255931
944.964 .0255851
945.594 .0255771
946.224 .0255682
946.854 .0255582
947.483 .0255469
948.112 .0255346
948.741 .0255214
949.369 .0255081
949.996 .0254944
950.624 .0254805
951.251 .0254668
951.878 .0254529
952.504 .0254381
953.130 .0254221
953.755 .0254052
954.380 .0253870
955.005 .0253675
955.629 .0253476
956.253 .0253271
956.877 .0253066
957.500 .0252863
958.123 .0252662
958.746 .0252463
959.368 .0252264
959.990 .0252069
960.611 .0251873
961.232 .0251680
961.853 .0251491
962.473 .0251307
963.093 .0251128
963.712 .0250950
964.331 .0250769
964.950 .0250582
965.569 .0250389
966.187 .0250193
966.804 .0249992
967.422 .0249793
968.039 .0249597
968.655 .0249411
969.272 .0249230
969.887 .0249056
970.503 .0248884
971.118 .0248711
971.733 .0248533
972.347 .0248343
972.961 .0248141
973.575 .0247932
974.188 .0247721
974.801 .0247508
975.414 .0247294
976.026 .0247088
976.638 .0246891
977.250 .0246699
977.861 .0246511
978.472 .0246322
979.083 .0246124
979.693 .0245914
980.303 .0245687
980.912 .0245443
981.521 .0245185
982.130 .0244918
982.738 .0244645
983.346 .0244376
983.954 .0244113
984.562 .0243855
985.169 .0243602
985.775 .0243358
986.382 .0243111
986.988 .0242861
987.594 .0242609
988.199 .0242354
988.804 .0242105
989.409 .0241865
990.013 .0241635
990.617 .0241428
991.221 .0241240
991.824 .0241073
992.427 .0240923
993.030 .0240788
993.632 .0240665
994.234 .0240554
994.836 .0240454
995.438 .0240365
996.039 .0240283
996.640 .0240208
997.240 .0240138
997.840 .0240081
998.440 .0240029
999.040 .0239981
999.639 .0239938
1000.238 .0239899
1000.836 .0239858
1001.435 .0239820
1002.033 .0239777
1002.630 .0239732
1003.228 .0239686
1003.825 .0239637
1004.422 .0239586
1005.018 .0239537
1005.614 .0239489
1006.210 .0239445
1006.806 .0239403
1007.401 .0239360
1007.996 .0239309
1008.591 .0239257
1009.186 .0239206
1009.780 .0239154
1010.374 .0239106
1010.967 .0239062
1011.561 .0239029
1012.154 .0239006
1012.746 .0238993
1013.339 .0238988
1013.931 .0238994
1014.523 .0239009
1015.115 .0239036
1015.706 .0239075
1016.298 .0239126
1016.888 .0239196
1017.479 .0239277
1018.069 .0239371
1018.660 .0239469
1019.250 .0239564
1019.839 .0239653
1020.429 .0239730
1021.018 .0239801
1021.607 .0239862
1022.195 .0239921
1022.784 .0239986
1023.372 .0240058
1023.960 .0240144
1024.547 .0240237
1025.135 .0240341
1025.722 .0240453
1026.309 .0240569
1026.896 .0240687
1027.483 .0240809
1028.069 .0240941
1028.655 .0241087
1029.241 .0241246
1029.827 .0241423
1030.412 .0241618
1030.997 .0241827
1031.582 .0242046
1032.167 .0242270
1032.752 .0242491
1033.336 .0242703
1033.921 .0242897
1034.505 .0243068
1035.089 .0243212
1035.672 .0243333
1036.256 .0243435
1036.839 .0243527
1037.422 .0243611
1038.005 .0243691
1038.588 .0243770
1039.171 .0243856
1039.753 .0243945
1040.335 .0244035
1040.918 .0244125
1041.500 .0244215
1042.081 .0244300
1042.663 .0244379
1043.244 .0244457
1043.826 .0244536
1044.407 .0244620
1044.988 .0244713
1045.569 .0244811
1046.150 .0244928
1046.730 .0245058
1047.311 .0245208
1047.891 .0245373
1048.471 .0245553
1049.052 .0245740
1049.632 .0245929
1050.211 .0246118
1050.791 .0246298
1051.371 .0246470
1051.950 .0246643
1052.530 .0246811
1053.109 .0246976
1053.688 .0247136
1054.268 .0247289
1054.847 .0247436
1055.426 .0247574
1056.005 .0247696
1056.583 .0247799
1057.162 .0247887
1057.741 .0247957
1058.319 .0248006
1058.898 .0248050
1059.476 .0248087
1060.055 .0248123
1060.633 .0248164
1061.211 .0248202
1061.790 .0248244
1062.368 .0248304
1062.946 .0248385
1063.524 .0248485
1064.102 .0248622
1064.680 .0248789
1065.258 .0248976
1065.836 .0249183
1066.414 .0249402
1066.992 .0249625
1067.570 .0249852
1068.148 .0250079
1068.726 .0250298
1069.304 .0250529
1069.882 .0250771
1070.460 .0251015
1071.038 .0251263
1071.616 .0251507
1072.194 .0251727
1072.772 .0251915
1073.350 .0252073
1073.928 .0252199
1074.506 .0252292
1075.084 .0252372
1075.662 .0252436
1076.240 .0252505
1076.819 .0252574
1077.397 .0252653
1077.976 .0252731
1078.554 .0252803
1079.133 .0252861
1079.711 .0252915
1080.290 .0252962
1080.869 .0253016
1081.448 .0253078
1082.027 .0253156
1082.606 .0253248
1083.185 .0253362
1083.764 .0253482
1084.343 .0253617
1084.923 .0253773
1085.502 .0253933
1086.082 .0254090
1086.662 .0254255
1087.242 .0254412
1087.822 .0254567
1088.402 .0254720
1088.983 .0254867
1089.563 .0254985
1090.144 .0255092
1090.725 .0255185
1091.306 .0255253
1091.887 .0255322
1092.469 .0255412
1093.050 .0255522
1093.632 .0255654
1094.214 .0255812
1094.796 .0255979
1095.379 .0256171
1095.961 .0256383
1096.544 .0256592
1097.127 .0256803
1097.710 .0257030
1098.294 .0257255
1098.877 .0257481
1099.461 .0257728
1100.046 .0258015
1100.630 .0258336
1101.215 .0258691
1101.800 .0259067
1102.385 .0259455
1102.970 .0259845
1103.556 .0260228
1104.142 .0260590
1104.728 .0260946
1105.315 .0261273
1105.902 .0261568
1106.489 .0261835
1107.077 .0262093
1107.664 .0262357
1108.253 .0262628
1108.841 .0262918
1109.430 .0263211
1110.019 .0263500
1110.609 .0263791
1111.198 .0264075
1111.789 .0264345
1112.379 .0264611
1112.970 .0264861
1113.561 .0265116
1114.153 .0265389
1114.745 .0265699
1115.338 .0266064
1115.931 .0266494
1116.524 .0266964
1117.117 .0267474
1117.712 .0267984
1118.306 .0268492
1118.901 .0268971
1119.496 .0269443
1120.092 .0269884
1120.689 .0270325
1121.285 .0270771
1121.882 .0271241
1122.480 .0271721
1123.078 .0272247
1123.677 .0272772
1124.276 .0273300
1124.875 .0273819
1125.476 .0274341
1126.076 .0274874
1126.677 .0275469
1127.279 .0276073
1127.881 .0276734
1128.484 .0277450
1129.087 .0278215
1129.691 .0278987
1130.295 .0279792
1130.900 .0280583
1131.505 .0281368
1132.111 .0282125
1132.718 .0282879
1133.325 .0283604
1133.933 .0284338
1134.541 .0285052
1135.150 .0285760
1135.760 .0286459
1136.370 .0287146
1136.981 .0287837
1137.592 .0288580
1138.204 .0289344
1138.817 .0290179
1139.431 .0291067
1140.045 .0292120
1140.660 .0293297
1141.275 .0294701
1141.891 .0296239
1142.508 .0296502
1143.126 .0299892
1143.744 .0300946
1144.363 .0305645
1144.983 .0305649
