Measurement Sequence started on: 15-12-46-377
Integration time: 28
Scans to Average: 2 
>>>>>Begin Spectral Data<<<<<
432.689 .0000100
433.621 .0000100
434.552 .0000100
435.482 .0000100
436.410 .0000100
437.337 .0000100
438.262 .0261074
439.187 .0553503
440.110 .0915452
441.031 .1322853
441.952 .1717556
442.871 .2026944
443.789 .2194689
444.705 .2201771
445.621 .2072761
446.535 .1860292
447.447 .1621394
448.359 .1256774
449.269 .1077525
450.178 .0966515
451.086 .0888876
451.993 .0829680
452.898 .0783142
453.803 .0745334
454.706 .0714357
455.608 .0688264
456.508 .0665954
457.408 .0646604
458.306 .0629489
459.204 .0614073
460.100 .0599976
460.995 .0587113
461.888 .0575324
462.781 .0564330
463.673 .0554105
464.563 .0544673
465.452 .0535799
466.340 .0527299
467.228 .0519340
468.114 .0511711
468.999 .0504637
469.882 .0497941
470.765 .0491750
471.647 .0486117
472.528 .0481069
473.407 .0476640
474.286 .0472770
475.163 .0469397
476.040 .0466473
476.915 .0463853
477.790 .0461572
478.663 .0459466
479.535 .0457584
480.407 .0455902
481.277 .0454503
482.147 .0453346
483.015 .0452479
483.883 .0451776
484.749 .0451356
485.615 .0451167
486.479 .0451227
487.343 .0451531
488.206 .0452044
489.067 .0452705
489.928 .0453577
490.788 .0454588
491.647 .0455708
492.505 .0456907
493.362 .0458284
494.218 .0459701
495.073 .0461258
495.928 .0462974
496.781 .0464884
497.634 .0466949
498.486 .0469299
499.337 .0471732
500.187 .0474392
501.036 .0477185
501.884 .0480105
502.731 .0483126
503.578 .0486395
504.424 .0489850
505.268 .0493504
506.113 .0497483
506.956 .0501887
507.798 .0506685
508.640 .0512152
509.480 .0518160
510.320 .0524895
511.160 .0532420
511.998 .0540919
512.836 .0550349
513.672 .0560893
514.508 .0572434
515.344 .0585202
516.178 .0599452
517.012 .0615494
517.845 .0633570
518.677 .0653975
519.508 .0677115
520.339 .0703449
521.169 .0733387
521.998 .0767079
522.826 .0804898
523.654 .0847639
524.481 .0895376
525.307 .0948498
526.133 .1006658
526.958 .1069661
527.782 .1137074
528.605 .1206956
529.428 .1277482
530.250 .1343617
531.072 .1403216
531.892 .1452733
532.712 .1489491
533.532 .1511721
534.350 .1517972
535.168 .1508155
535.986 .1483091
536.802 .1443998
537.618 .1393359
538.434 .1333211
539.249 .1267488
540.063 .1197977
540.876 .1127660
541.689 .1058670
542.501 .0993460
543.313 .0933422
544.124 .0879336
544.934 .0830841
545.744 .0787642
546.553 .0749236
547.361 .0715409
548.169 .0685770
548.976 .0659150
549.783 .0635401
550.589 .0614315
551.395 .0595042
552.200 .0577645
553.004 .0561751
553.808 .0547315
554.611 .0534343
555.414 .0522856
556.216 .0512604
557.018 .0503637
557.819 .0495693
558.619 .0488305
559.419 .0481418
560.218 .0475032
561.017 .0468871
561.815 .0462874
562.613 .0457114
563.410 .0451590
564.207 .0446289
565.003 .0441265
565.799 .0436402
566.594 .0431714
567.388 .0427201
568.182 .0422643
568.976 .0418022
569.769 .0413384
570.562 .0408687
571.354 .0403915
572.145 .0399185
572.936 .0394454
573.727 .0389755
574.517 .0385097
575.307 .0380519
576.096 .0376046
576.885 .0371726
577.673 .0367595
578.461 .0363670
579.248 .0359998
580.035 .0356581
580.821 .0353387
581.607 .0350417
582.392 .0347637
583.177 .0345073
583.962 .0342694
584.746 .0340538
585.529 .0338596
586.313 .0336862
587.095 .0335326
587.878 .0333980
588.660 .0332801
589.441 .0331751
590.222 .0330798
591.003 .0329919
591.783 .0329088
592.563 .0328306
593.342 .0327558
594.121 .0326839
594.899 .0326170
595.678 .0325536
596.455 .0324931
597.233 .0324357
598.009 .0323795
598.786 .0323251
599.562 .0322717
600.338 .0322195
601.113 .0321683
601.888 .0321179
602.663 .0320690
603.437 .0320215
604.211 .0319753
604.984 .0319314
605.757 .0318890
606.530 .0318491
607.302 .0318107
608.074 .0317751
608.845 .0317417
609.616 .0317107
610.387 .0316828
611.158 .0316580
611.928 .0316355
612.697 .0316155
613.467 .0315974
614.236 .0315816
615.004 .0315674
615.773 .0315549
616.541 .0315436
617.308 .0315341
618.076 .0315262
618.843 .0315194
619.609 .0315139
620.375 .0315097
621.141 .0315053
621.907 .0315001
622.672 .0314943
623.437 .0314867
624.202 .0314772
624.966 .0314659
625.730 .0314529
626.493 .0314383
627.257 .0314224
628.020 .0314055
628.782 .0313866
629.545 .0313665
630.307 .0313447
631.068 .0313200
631.830 .0312934
632.591 .0312643
633.352 .0312333
634.112 .0312014
634.872 .0311693
635.632 .0311372
636.392 .0311053
637.151 .0310747
637.910 .0310446
638.668 .0310155
639.427 .0309866
640.185 .0309573
640.943 .0309279
641.700 .0308989
642.457 .0308699
643.214 .0308409
643.971 .0308129
644.727 .0307858
645.483 .0307595
646.239 .0307335
646.994 .0307074
647.750 .0306817
648.505 .0306560
649.259 .0306300
650.014 .0306032
650.768 .0305764
651.521 .0305489
652.275 .0305211
653.028 .0304930
653.781 .0304644
654.534 .0304349
655.286 .0304043
656.039 .0303737
656.791 .0303428
657.542 .0303117
658.294 .0302820
659.045 .0302538
659.796 .0302274
660.546 .0302026
661.297 .0301789
662.047 .0301564
662.796 .0301350
663.546 .0301136
664.295 .0300916
665.044 .0300700
665.793 .0300490
666.542 .0300283
667.290 .0300092
668.038 .0299920
668.786 .0299753
669.533 .0299593
670.281 .0299437
671.028 .0299272
671.774 .0299103
672.521 .0298929
673.267 .0298753
674.013 .0298586
674.759 .0298428
675.505 .0298286
676.250 .0298161
676.995 .0298060
677.740 .0297965
678.484 .0297866
679.229 .0297763
679.973 .0297647
680.717 .0297518
681.460 .0297384
682.204 .0297245
682.947 .0297109
683.690 .0296981
684.433 .0296859
685.175 .0296741
685.917 .0296624
686.659 .0296506
687.401 .0296385
688.142 .0296255
688.884 .0296123
689.625 .0295983
690.365 .0295849
691.106 .0295723
691.846 .0295602
692.586 .0295490
693.326 .0295381
694.066 .0295274
694.805 .0295162
695.545 .0295043
696.284 .0294915
697.022 .0294774
697.761 .0294627
698.499 .0294470
699.237 .0294307
699.975 .0294140
700.713 .0293967
701.450 .0293789
702.187 .0293609
702.924 .0293421
703.661 .0293225
704.397 .0293028
705.133 .0292829
705.869 .0292635
706.605 .0292446
707.341 .0292262
708.076 .0292085
708.811 .0291913
709.546 .0291734
710.281 .0291548
711.015 .0291353
711.749 .0291137
712.483 .0290905
713.217 .0290656
713.950 .0290390
714.684 .0290112
715.417 .0289831
716.150 .0289549
716.882 .0289263
717.615 .0288978
718.347 .0288685
719.079 .0288388
719.811 .0288092
720.542 .0287791
721.273 .0287488
722.005 .0287191
722.735 .0286902
723.466 .0286627
724.196 .0286363
724.927 .0286108
725.656 .0285861
726.386 .0285618
727.116 .0285376
727.845 .0285129
728.574 .0284880
729.303 .0284638
730.031 .0284402
730.760 .0284179
731.488 .0283964
732.216 .0283763
732.944 .0283576
733.671 .0283398
734.398 .0283225
735.125 .0283054
735.852 .0282886
736.579 .0282722
737.305 .0282563
738.031 .0282415
738.757 .0282278
739.483 .0282155
740.208 .0282047
740.933 .0281947
741.658 .0281852
742.383 .0281757
743.108 .0281658
743.832 .0281560
744.556 .0281462
745.280 .0281363
746.004 .0281270
746.727 .0281190
747.450 .0281120
748.173 .0281052
748.896 .0280986
749.618 .0280920
750.340 .0280850
751.062 .0280777
751.784 .0280698
752.506 .0280616
753.227 .0280542
753.948 .0280471
754.669 .0280408
755.389 .0280354
756.110 .0280307
756.830 .0280259
757.550 .0280209
758.269 .0280151
758.989 .0280083
759.708 .0280007
760.427 .0279929
761.146 .0279851
761.864 .0279776
762.582 .0279706
763.300 .0279641
764.018 .0279581
764.736 .0279528
765.453 .0279474
766.170 .0279422
766.887 .0279366
767.603 .0279309
768.320 .0279247
769.036 .0279187
769.751 .0279128
770.467 .0279071
771.182 .0279017
771.897 .0278964
772.612 .0278913
773.327 .0278866
774.041 .0278822
774.755 .0278780
775.469 .0278739
776.183 .0278700
776.896 .0278655
777.609 .0278608
778.322 .0278554
779.035 .0278498
779.747 .0278441
780.459 .0278383
781.171 .0278326
781.882 .0278273
782.594 .0278225
783.305 .0278179
784.016 .0278137
784.726 .0278095
785.436 .0278050
786.147 .0277999
786.856 .0277941
787.566 .0277872
788.275 .0277793
788.984 .0277706
789.693 .0277608
790.401 .0277501
791.110 .0277384
791.818 .0277257
792.525 .0277120
793.233 .0276972
793.940 .0276815
794.647 .0276649
795.353 .0276477
796.060 .0276298
796.766 .0276115
797.472 .0275929
798.177 .0275738
798.883 .0275544
799.588 .0275344
800.292 .0275142
800.997 .0274937
801.701 .0274728
802.405 .0274517
803.109 .0274305
803.812 .0274087
804.515 .0273863
805.218 .0273626
805.921 .0273371
806.623 .0273096
807.325 .0272805
808.027 .0272500
808.728 .0272181
809.429 .0271858
810.130 .0271539
810.831 .0271224
811.531 .0270922
812.231 .0270622
812.931 .0270323
813.630 .0270025
814.330 .0269722
815.029 .0269411
815.727 .0269099
816.426 .0268795
817.124 .0268501
817.821 .0268226
818.519 .0267974
819.216 .0267744
819.913 .0267535
820.609 .0267346
821.306 .0267166
822.002 .0266993
822.697 .0266825
823.393 .0266658
824.088 .0266495
824.783 .0266344
825.477 .0266202
826.171 .0266076
826.865 .0265970
827.559 .0265884
828.252 .0265810
828.945 .0265753
829.638 .0265704
830.330 .0265657
831.023 .0265607
831.714 .0265549
832.406 .0265484
833.097 .0265412
833.788 .0265332
834.479 .0265250
835.169 .0265173
835.859 .0265107
836.548 .0265051
837.238 .0265007
837.927 .0264970
838.615 .0264936
839.304 .0264904
839.992 .0264871
840.680 .0264833
841.367 .0264793
842.054 .0264756
842.741 .0264724
843.428 .0264702
844.114 .0264688
844.800 .0264687
845.485 .0264695
846.170 .0264704
846.855 .0264708
847.540 .0264706
848.224 .0264701
848.908 .0264693
849.592 .0264684
850.275 .0264677
850.958 .0264671
851.641 .0264668
852.323 .0264663
853.005 .0264655
853.687 .0264640
854.368 .0264618
855.049 .0264588
855.730 .0264556
856.410 .0264521
857.090 .0264485
857.769 .0264453
858.449 .0264428
859.128 .0264406
859.806 .0264381
860.485 .0264357
861.163 .0264332
861.840 .0264306
862.518 .0264280
863.195 .0264256
863.871 .0264239
864.548 .0264230
865.224 .0264234
865.899 .0264242
866.574 .0264258
867.249 .0264281
867.924 .0264302
868.598 .0264324
869.272 .0264344
869.946 .0264362
870.619 .0264375
871.292 .0264385
871.964 .0264388
872.636 .0264386
873.308 .0264382
873.979 .0264375
874.651 .0264364
875.321 .0264354
875.992 .0264343
876.662 .0264333
877.331 .0264327
878.001 .0264324
878.670 .0264322
879.338 .0264321
880.007 .0264318
880.675 .0264316
881.342 .0264313
882.009 .0264309
882.676 .0264303
883.343 .0264296
884.009 .0264286
884.675 .0264272
885.340 .0264251
886.005 .0264228
886.670 .0264199
887.334 .0264166
887.998 .0264124
888.662 .0264075
889.325 .0264018
889.988 .0263955
890.650 .0263887
891.312 .0263817
891.974 .0263745
892.636 .0263672
893.297 .0263596
893.957 .0263521
894.618 .0263441
895.278 .0263361
895.937 .0263278
896.596 .0263187
897.255 .0263085
897.914 .0262967
898.572 .0262831
899.230 .0262681
899.887 .0262521
900.544 .0262348
901.201 .0262165
901.857 .0261978
902.513 .0261781
903.168 .0261578
903.823 .0261368
904.478 .0261151
905.132 .0260922
905.786 .0260682
906.440 .0260428
907.093 .0260162
907.746 .0259892
908.399 .0259616
909.051 .0259338
909.703 .0259061
910.354 .0258782
911.005 .0258502
911.656 .0258223
912.306 .0257940
912.956 .0257648
913.605 .0257350
914.254 .0257041
914.903 .0256723
915.551 .0256400
916.199 .0256078
916.847 .0255755
917.494 .0255436
918.141 .0255118
918.788 .0254798
919.434 .0254479
920.079 .0254158
920.725 .0253833
921.370 .0253506
922.014 .0253175
922.658 .0252842
923.302 .0252507
923.946 .0252175
924.589 .0251846
925.231 .0251520
925.873 .0251199
926.515 .0250879
927.157 .0250558
927.798 .0250238
928.439 .0249916
929.079 .0249591
929.719 .0249264
930.359 .0248936
930.998 .0248611
931.637 .0248296
932.275 .0247993
932.913 .0247703
933.551 .0247427
934.188 .0247161
934.825 .0246903
935.462 .0246653
936.098 .0246413
936.733 .0246185
937.369 .0245976
938.004 .0245785
938.638 .0245609
939.273 .0245454
939.907 .0245320
940.540 .0245204
941.173 .0245103
941.806 .0245012
942.438 .0244925
943.070 .0244838
943.702 .0244749
944.333 .0244654
944.964 .0244560
945.594 .0244465
946.224 .0244368
946.854 .0244273
947.483 .0244179
948.112 .0244086
948.741 .0243996
949.369 .0243912
949.996 .0243830
950.624 .0243748
951.251 .0243671
951.878 .0243598
952.504 .0243531
953.130 .0243472
953.755 .0243419
954.380 .0243377
955.005 .0243348
955.629 .0243328
956.253 .0243317
956.877 .0243319
957.500 .0243330
958.123 .0243342
958.746 .0243356
959.368 .0243368
959.990 .0243378
960.611 .0243385
961.232 .0243392
961.853 .0243403
962.473 .0243423
963.093 .0243450
963.712 .0243482
964.331 .0243523
964.950 .0243571
965.569 .0243622
966.187 .0243678
966.804 .0243743
967.422 .0243819
968.039 .0243903
968.655 .0243996
969.272 .0244096
969.887 .0244202
970.503 .0244308
971.118 .0244411
971.733 .0244509
972.347 .0244599
972.961 .0244678
973.575 .0244744
974.188 .0244804
974.801 .0244855
975.414 .0244900
976.026 .0244936
976.638 .0244972
977.250 .0245004
977.861 .0245034
978.472 .0245067
979.083 .0245108
979.693 .0245153
980.303 .0245202
980.912 .0245257
981.521 .0245320
982.130 .0245393
982.738 .0245472
983.346 .0245556
983.954 .0245652
984.562 .0245751
985.169 .0245851
985.775 .0245948
986.382 .0246046
986.988 .0246132
987.594 .0246209
988.199 .0246274
988.804 .0246330
989.409 .0246378
990.013 .0246421
990.617 .0246463
991.221 .0246503
991.824 .0246544
992.427 .0246589
993.030 .0246636
993.632 .0246692
994.234 .0246752
994.836 .0246819
995.438 .0246899
996.039 .0246992
996.640 .0247095
997.240 .0247214
997.840 .0247341
998.440 .0247471
999.040 .0247602
999.639 .0247725
1000.238 .0247839
1000.836 .0247943
1001.435 .0248042
1002.033 .0248130
1002.630 .0248219
1003.228 .0248311
1003.825 .0248401
1004.422 .0248497
1005.018 .0248598
1005.614 .0248689
1006.210 .0248775
1006.806 .0248849
1007.401 .0248907
1007.996 .0248954
1008.591 .0248998
1009.186 .0249033
1009.780 .0249073
1010.374 .0249117
1010.967 .0249160
1011.561 .0249201
1012.154 .0249240
1012.746 .0249264
1013.339 .0249267
1013.931 .0249258
1014.523 .0249235
1015.115 .0249204
1015.706 .0249177
1016.298 .0249151
1016.888 .0249135
1017.479 .0249130
1018.069 .0249123
1018.660 .0249114
1019.250 .0249103
1019.839 .0249082
1020.429 .0249052
1021.018 .0249019
1021.607 .0248987
1022.195 .0248957
1022.784 .0248934
1023.372 .0248918
1023.960 .0248909
1024.547 .0248909
1025.135 .0248915
1025.722 .0248926
1026.309 .0248942
1026.896 .0248963
1027.483 .0248989
1028.069 .0249021
1028.655 .0249050
1029.241 .0249073
1029.827 .0249088
1030.412 .0249098
1030.997 .0249101
1031.582 .0249091
1032.167 .0249073
1032.752 .0249051
1033.336 .0249024
1033.921 .0248983
1034.505 .0248922
1035.089 .0248841
1035.672 .0248733
1036.256 .0248599
1036.839 .0248448
1037.422 .0248280
1038.005 .0248118
1038.588 .0247965
1039.171 .0247833
1039.753 .0247717
1040.335 .0247617
1040.918 .0247525
1041.500 .0247438
1042.081 .0247351
1042.663 .0247255
1043.244 .0247156
1043.826 .0247061
1044.407 .0246962
1044.988 .0246860
1045.569 .0246746
1046.150 .0246622
1046.730 .0246474
1047.311 .0246301
1047.891 .0246091
1048.471 .0245858
1049.052 .0245601
1049.632 .0245331
1050.211 .0245062
1050.791 .0244799
1051.371 .0244548
1051.950 .0244316
1052.530 .0244103
1053.109 .0243907
1053.688 .0243717
1054.268 .0243540
1054.847 .0243367
1055.426 .0243204
1056.005 .0243040
1056.583 .0242882
1057.162 .0242731
1057.741 .0242583
1058.319 .0242442
1058.898 .0242299
1059.476 .0242151
1060.055 .0241991
1060.633 .0241820
1061.211 .0241632
1061.790 .0241436
1062.368 .0241225
1062.946 .0241000
1063.524 .0240775
1064.102 .0240555
1064.680 .0240345
1065.258 .0240156
1065.836 .0239998
1066.414 .0239860
1066.992 .0239748
1067.570 .0239673
1068.148 .0239611
1068.726 .0239574
1069.304 .0239557
1069.882 .0239544
1070.460 .0239524
1071.038 .0239495
1071.616 .0239453
1072.194 .0239405
1072.772 .0239355
1073.350 .0239304
1073.928 .0239250
1074.506 .0239212
1075.084 .0239187
1075.662 .0239174
1076.240 .0239180
1076.819 .0239193
1077.397 .0239193
1077.976 .0239180
1078.554 .0239136
1079.133 .0239063
1079.711 .0238970
1080.290 .0238881
1080.869 .0238798
1081.448 .0238721
1082.027 .0238652
1082.606 .0238606
1083.185 .0238575
1083.764 .0238557
1084.343 .0238538
1084.923 .0238496
1085.502 .0238430
1086.082 .0238339
1086.662 .0238233
1087.242 .0238125
1087.822 .0238025
1088.402 .0237961
1088.983 .0237932
1089.563 .0237946
1090.144 .0237985
1090.725 .0238067
1091.306 .0238178
1091.887 .0238312
1092.469 .0238446
1093.050 .0238585
1093.632 .0238724
1094.214 .0238865
1094.796 .0239022
1095.379 .0239196
1095.961 .0239377
1096.544 .0239567
1097.127 .0239745
1097.710 .0239930
1098.294 .0240093
1098.877 .0240259
1099.461 .0240431
1100.046 .0240637
1100.630 .0240862
1101.215 .0241097
1101.800 .0241352
1102.385 .0241626
1102.970 .0241886
1103.556 .0242115
1104.142 .0242299
1104.728 .0242458
1105.315 .0242580
1105.902 .0242706
1106.489 .0242835
1107.077 .0243006
1107.664 .0243235
1108.253 .0243512
1108.841 .0243829
1109.430 .0244165
1110.019 .0244504
1110.609 .0244824
1111.198 .0245121
1111.789 .0245395
1112.379 .0245649
1112.970 .0245911
1113.561 .0246203
1114.153 .0246536
1114.745 .0246909
1115.338 .0247344
1115.931 .0247811
1116.524 .0248316
1117.117 .0248839
1117.712 .0249348
1118.306 .0249879
1118.901 .0250395
1119.496 .0250916
1120.092 .0251422
1120.689 .0251922
1121.285 .0252451
1121.882 .0252983
1122.480 .0253571
1123.078 .0254218
1123.677 .0254933
1124.276 .0255700
1124.875 .0256506
1125.476 .0257334
1126.076 .0258198
1126.677 .0259083
1127.279 .0259972
1127.881 .0260865
1128.484 .0261773
1129.087 .0262697
1129.691 .0263657
1130.295 .0264677
1130.900 .0265758
1131.505 .0266864
1132.111 .0268017
1132.718 .0269123
1133.325 .0270190
1133.933 .0271217
1134.541 .0272226
1135.150 .0273245
1135.760 .0274286
1136.370 .0275370
1136.981 .0276535
1137.592 .0277795
1138.204 .0279145
1138.817 .0280521
1139.431 .0281894
1140.045 .0283320
1140.660 .0284792
1141.275 .0286376
1141.891 .0288108
1142.508 .0287722
1143.126 .0291538
1143.744 .0294148
1144.363 .0297557
1144.983 .0299864
