Measurement Sequence started on: 15-12-46-377
Integration time: 28
Scans to Average: 2 
>>>>>Begin Spectral Data<<<<<
432.689 .0000100
433.621 .0000100
434.552 .0000100
435.482 .0000100
436.410 .0000100
437.337 .0000100
438.262 .0254770
439.187 .0541571
440.110 .0898242
441.031 .1300740
441.952 .1692290
442.871 .2001776
443.789 .2173131
444.705 .2187157
445.621 .2066962
446.535 .1863370
447.447 .1632046
448.359 .1276509
449.269 .1099990
450.178 .0989340
451.086 .0911731
451.993 .0852366
452.898 .0805363
453.803 .0767163
454.706 .0735456
455.608 .0708510
456.508 .0685263
457.408 .0664929
458.306 .0646550
459.204 .0629769
460.100 .0613944
460.995 .0599201
461.888 .0585436
462.781 .0572426
463.673 .0560218
464.563 .0548932
465.452 .0538391
466.340 .0528478
467.228 .0519359
468.114 .0510988
468.999 .0503317
469.882 .0496338
470.765 .0489937
471.647 .0484154
472.528 .0478980
473.407 .0474417
474.286 .0470417
475.163 .0467063
476.040 .0464282
476.915 .0461931
477.790 .0460109
478.663 .0458679
479.535 .0457571
480.407 .0456782
481.277 .0456265
482.147 .0455843
483.015 .0455493
483.883 .0455205
484.749 .0454889
485.615 .0454647
486.479 .0454489
487.343 .0454455
488.206 .0454596
489.067 .0454921
489.928 .0455345
490.788 .0455894
491.647 .0456629
492.505 .0457433
493.362 .0458318
494.218 .0459290
495.073 .0460405
495.928 .0461741
496.781 .0463282
497.634 .0465124
498.486 .0467261
499.337 .0469719
500.187 .0472387
501.036 .0475201
501.884 .0478140
502.731 .0481172
503.578 .0484400
504.424 .0487708
505.268 .0491132
506.113 .0494803
506.956 .0498729
507.798 .0503008
508.640 .0507830
509.480 .0513159
510.320 .0519114
511.160 .0525797
511.998 .0533373
512.836 .0541933
513.672 .0551652
514.508 .0562705
515.344 .0575273
516.178 .0589547
517.012 .0605930
517.845 .0624344
518.677 .0645620
519.508 .0669718
520.339 .0697039
521.169 .0728255
521.998 .0763931
522.826 .0804224
523.654 .0849612
524.481 .0899846
525.307 .0956011
526.133 .1017034
526.958 .1082346
527.782 .1151037
528.605 .1222149
529.428 .1294305
530.250 .1362351
531.072 .1423693
531.892 .1474885
532.712 .1512762
533.532 .1535726
534.350 .1541119
535.168 .1528985
535.986 .1500340
536.802 .1456567
537.618 .1400439
538.434 .1334662
539.249 .1264263
540.063 .1191106
540.876 .1118366
541.689 .1048083
542.501 .0982063
543.313 .0921843
544.124 .0868090
544.934 .0820165
545.744 .0777416
546.553 .0739180
547.361 .0705273
548.169 .0675340
548.976 .0648890
549.783 .0625268
550.589 .0604252
551.395 .0585153
552.200 .0567957
553.004 .0552291
553.808 .0538068
554.611 .0525449
555.414 .0514372
556.216 .0504635
557.018 .0496192
557.819 .0488846
558.619 .0482313
559.419 .0476256
560.218 .0470685
561.017 .0465295
561.815 .0460093
562.613 .0454918
563.410 .0449740
564.207 .0444645
565.003 .0439659
565.799 .0434719
566.594 .0429740
567.388 .0424773
568.182 .0419692
568.976 .0414547
569.769 .0409374
570.562 .0404179
571.354 .0399059
572.145 .0394097
572.936 .0389317
573.727 .0384705
574.517 .0380334
575.307 .0376210
576.096 .0372278
576.885 .0368536
577.673 .0364912
578.461 .0361463
579.248 .0358181
580.035 .0355066
580.821 .0352113
581.607 .0349350
582.392 .0346732
583.177 .0344238
583.962 .0341891
584.746 .0339722
585.529 .0337699
586.313 .0335853
587.095 .0334175
587.878 .0332659
588.660 .0331272
589.441 .0330025
590.222 .0328889
591.003 .0327884
591.783 .0326977
592.563 .0326150
593.342 .0325402
594.121 .0324726
594.899 .0324116
595.678 .0323565
596.455 .0323076
597.233 .0322644
598.009 .0322239
598.786 .0321871
599.562 .0321519
600.338 .0321175
601.113 .0320831
601.888 .0320470
602.663 .0320093
603.437 .0319699
604.211 .0319281
604.984 .0318859
605.757 .0318435
606.530 .0318020
607.302 .0317616
608.074 .0317228
608.845 .0316856
609.616 .0316489
610.387 .0316127
611.158 .0315768
611.928 .0315411
612.697 .0315061
613.467 .0314712
614.236 .0314376
615.004 .0314062
615.773 .0313770
616.541 .0313497
617.308 .0313252
618.076 .0313031
618.843 .0312826
619.609 .0312635
620.375 .0312457
621.141 .0312285
621.907 .0312118
622.672 .0311961
623.437 .0311805
624.202 .0311653
624.966 .0311505
625.730 .0311354
626.493 .0311197
627.257 .0311031
628.020 .0310848
628.782 .0310646
629.545 .0310426
630.307 .0310181
631.068 .0309906
631.830 .0309618
632.591 .0309309
633.352 .0308990
634.112 .0308660
634.872 .0308327
635.632 .0307989
636.392 .0307644
637.151 .0307297
637.910 .0306941
638.668 .0306584
639.427 .0306236
640.185 .0305896
640.943 .0305582
641.700 .0305296
642.457 .0305050
643.214 .0304838
643.971 .0304657
644.727 .0304499
645.483 .0304356
646.239 .0304217
646.994 .0304068
647.750 .0303909
648.505 .0303744
649.259 .0303578
650.014 .0303411
650.768 .0303244
651.521 .0303080
652.275 .0302914
653.028 .0302747
653.781 .0302562
654.534 .0302363
655.286 .0302143
656.039 .0301903
656.791 .0301643
657.542 .0301365
658.294 .0301078
659.045 .0300792
659.796 .0300511
660.546 .0300224
661.297 .0299938
662.047 .0299652
662.796 .0299360
663.546 .0299068
664.295 .0298773
665.044 .0298487
665.793 .0298215
666.542 .0297957
667.290 .0297709
668.038 .0297478
668.786 .0297262
669.533 .0297055
670.281 .0296857
671.028 .0296665
671.774 .0296476
672.521 .0296301
673.267 .0296144
674.013 .0296005
674.759 .0295890
675.505 .0295797
676.250 .0295716
676.995 .0295647
677.740 .0295572
678.484 .0295485
679.229 .0295389
679.973 .0295282
680.717 .0295158
681.460 .0295025
682.204 .0294889
682.947 .0294753
683.690 .0294622
684.433 .0294496
685.175 .0294370
685.917 .0294245
686.659 .0294118
687.401 .0293981
688.142 .0293839
688.884 .0293691
689.625 .0293537
690.365 .0293380
691.106 .0293222
691.846 .0293068
692.586 .0292919
693.326 .0292777
694.066 .0292639
694.805 .0292502
695.545 .0292360
696.284 .0292209
697.022 .0292046
697.761 .0291871
698.499 .0291684
699.237 .0291484
699.975 .0291272
700.713 .0291055
701.450 .0290843
702.187 .0290632
702.924 .0290428
703.661 .0290233
704.397 .0290038
705.133 .0289844
705.869 .0289647
706.605 .0289447
707.341 .0289241
708.076 .0289032
708.811 .0288817
709.546 .0288595
710.281 .0288373
711.015 .0288148
711.749 .0287921
712.483 .0287691
713.217 .0287453
713.950 .0287205
714.684 .0286948
715.417 .0286683
716.150 .0286414
716.882 .0286146
717.615 .0285880
718.347 .0285619
719.079 .0285361
719.811 .0285110
720.542 .0284866
721.273 .0284630
722.005 .0284393
722.735 .0284160
723.466 .0283926
724.196 .0283692
724.927 .0283458
725.656 .0283221
726.386 .0282981
727.116 .0282738
727.845 .0282491
728.574 .0282242
729.303 .0281989
730.031 .0281740
730.760 .0281490
731.488 .0281250
732.216 .0281020
732.944 .0280803
733.671 .0280604
734.398 .0280433
735.125 .0280286
735.852 .0280162
736.579 .0280063
737.305 .0279988
738.031 .0279936
738.757 .0279900
739.483 .0279875
740.208 .0279863
740.933 .0279856
741.658 .0279858
742.383 .0279861
743.108 .0279871
743.832 .0279885
744.556 .0279897
745.280 .0279903
746.004 .0279895
746.727 .0279872
747.450 .0279829
748.173 .0279773
748.896 .0279708
749.618 .0279635
750.340 .0279560
751.062 .0279488
751.784 .0279421
752.506 .0279356
753.227 .0279293
753.948 .0279226
754.669 .0279148
755.389 .0279063
756.110 .0278967
756.830 .0278866
757.550 .0278768
758.269 .0278677
758.989 .0278591
759.708 .0278512
760.427 .0278433
761.146 .0278345
761.864 .0278250
762.582 .0278147
763.300 .0278031
764.018 .0277912
764.736 .0277791
765.453 .0277677
766.170 .0277576
766.887 .0277492
767.603 .0277424
768.320 .0277369
769.036 .0277324
769.751 .0277277
770.467 .0277226
771.182 .0277170
771.897 .0277104
772.612 .0277031
773.327 .0276953
774.041 .0276868
774.755 .0276774
775.469 .0276680
776.183 .0276584
776.896 .0276481
777.609 .0276375
778.322 .0276264
779.035 .0276148
779.747 .0276026
780.459 .0275902
781.171 .0275772
781.882 .0275641
782.594 .0275514
783.305 .0275384
784.016 .0275258
784.726 .0275139
785.436 .0275026
786.147 .0274919
786.856 .0274821
787.566 .0274726
788.275 .0274633
788.984 .0274542
789.693 .0274445
790.401 .0274334
791.110 .0274212
791.818 .0274075
792.525 .0273921
793.233 .0273758
793.940 .0273587
794.647 .0273406
795.353 .0273223
796.060 .0273034
796.766 .0272838
797.472 .0272631
798.177 .0272415
798.883 .0272187
799.588 .0271950
800.292 .0271704
800.997 .0271449
801.701 .0271191
802.405 .0270937
803.109 .0270684
803.812 .0270436
804.515 .0270196
805.218 .0269963
805.921 .0269727
806.623 .0269494
807.325 .0269263
808.027 .0269033
808.728 .0268802
809.429 .0268575
810.130 .0268347
810.831 .0268125
811.531 .0267906
812.231 .0267692
812.931 .0267486
813.630 .0267287
814.330 .0267090
815.029 .0266898
815.727 .0266715
816.426 .0266536
817.124 .0266356
817.821 .0266181
818.519 .0266010
819.216 .0265839
819.913 .0265676
820.609 .0265520
821.306 .0265379
822.002 .0265253
822.697 .0265141
823.393 .0265049
824.088 .0264972
824.783 .0264903
825.477 .0264843
826.171 .0264787
826.865 .0264741
827.559 .0264699
828.252 .0264665
828.945 .0264642
829.638 .0264633
830.330 .0264637
831.023 .0264653
831.714 .0264681
832.406 .0264720
833.097 .0264762
833.788 .0264807
834.479 .0264853
835.169 .0264898
835.859 .0264947
836.548 .0265002
837.238 .0265063
837.927 .0265133
838.615 .0265210
839.304 .0265294
839.992 .0265382
840.680 .0265470
841.367 .0265552
842.054 .0265628
842.741 .0265699
843.428 .0265764
844.114 .0265822
844.800 .0265881
845.485 .0265937
846.170 .0265992
846.855 .0266047
847.540 .0266096
848.224 .0266142
848.908 .0266183
849.592 .0266213
850.275 .0266231
850.958 .0266236
851.641 .0266228
852.323 .0266209
853.005 .0266184
853.687 .0266151
854.368 .0266108
855.049 .0266062
855.730 .0266010
856.410 .0265948
857.090 .0265879
857.769 .0265801
858.449 .0265712
859.128 .0265618
859.806 .0265516
860.485 .0265417
861.163 .0265327
861.840 .0265248
862.518 .0265177
863.195 .0265111
863.871 .0265053
864.548 .0264999
865.224 .0264945
865.899 .0264895
866.574 .0264843
867.249 .0264790
867.924 .0264735
868.598 .0264681
869.272 .0264626
869.946 .0264573
870.619 .0264519
871.292 .0264461
871.964 .0264394
872.636 .0264317
873.308 .0264226
873.979 .0264125
874.651 .0264017
875.321 .0263899
875.992 .0263772
876.662 .0263648
877.331 .0263526
878.001 .0263408
878.670 .0263297
879.338 .0263189
880.007 .0263083
880.675 .0262978
881.342 .0262869
882.009 .0262756
882.676 .0262642
883.343 .0262527
884.009 .0262409
884.675 .0262292
885.340 .0262181
886.005 .0262069
886.670 .0261963
887.334 .0261863
887.998 .0261762
888.662 .0261663
889.325 .0261562
889.988 .0261464
890.650 .0261369
891.312 .0261279
891.974 .0261188
892.636 .0261102
893.297 .0261017
893.957 .0260932
894.618 .0260840
895.278 .0260743
895.937 .0260636
896.596 .0260517
897.255 .0260388
897.914 .0260251
898.572 .0260106
899.230 .0259954
899.887 .0259788
900.544 .0259611
901.201 .0259416
901.857 .0259204
902.513 .0258969
903.168 .0258719
903.823 .0258446
904.478 .0258155
905.132 .0257844
905.786 .0257520
906.440 .0257184
907.093 .0256839
907.746 .0256487
908.399 .0256127
909.051 .0255766
909.703 .0255402
910.354 .0255034
911.005 .0254671
911.656 .0254311
912.306 .0253955
912.956 .0253605
913.605 .0253262
914.254 .0252925
914.903 .0252599
915.551 .0252288
916.199 .0251995
916.847 .0251721
917.494 .0251466
918.141 .0251226
918.788 .0251005
919.434 .0250799
920.079 .0250601
920.725 .0250414
921.370 .0250239
922.014 .0250065
922.658 .0249889
923.302 .0249711
923.946 .0249528
924.589 .0249338
925.231 .0249138
925.873 .0248923
926.515 .0248697
927.157 .0248461
927.798 .0248215
928.439 .0247959
929.079 .0247700
929.719 .0247437
930.359 .0247173
930.998 .0246904
931.637 .0246636
932.275 .0246369
932.913 .0246114
933.551 .0245875
934.188 .0245655
934.825 .0245458
935.462 .0245291
936.098 .0245155
936.733 .0245048
937.369 .0244968
938.004 .0244916
938.638 .0244882
939.273 .0244867
939.907 .0244866
940.540 .0244874
941.173 .0244899
941.806 .0244935
942.438 .0244981
943.070 .0245031
943.702 .0245085
944.333 .0245135
944.964 .0245182
945.594 .0245223
946.224 .0245255
946.854 .0245283
947.483 .0245314
948.112 .0245349
948.741 .0245388
949.369 .0245438
949.996 .0245496
950.624 .0245560
951.251 .0245629
951.878 .0245694
952.504 .0245757
953.130 .0245817
953.755 .0245875
954.380 .0245931
955.005 .0245991
955.629 .0246060
956.253 .0246136
956.877 .0246224
957.500 .0246320
958.123 .0246422
958.746 .0246523
959.368 .0246620
959.990 .0246711
960.611 .0246796
961.232 .0246877
961.853 .0246959
962.473 .0247043
963.093 .0247133
963.712 .0247227
964.331 .0247321
964.950 .0247415
965.569 .0247512
966.187 .0247609
966.804 .0247706
967.422 .0247809
968.039 .0247919
968.655 .0248035
969.272 .0248156
969.887 .0248278
970.503 .0248391
971.118 .0248499
971.733 .0248596
972.347 .0248680
972.961 .0248758
973.575 .0248833
974.188 .0248905
974.801 .0248978
975.414 .0249051
976.026 .0249115
976.638 .0249169
977.250 .0249212
977.861 .0249242
978.472 .0249258
979.083 .0249267
979.693 .0249269
980.303 .0249273
980.912 .0249277
981.521 .0249274
982.130 .0249267
982.738 .0249262
983.346 .0249254
983.954 .0249241
984.562 .0249228
985.169 .0249220
985.775 .0249215
986.382 .0249213
986.988 .0249214
987.594 .0249218
988.199 .0249220
988.804 .0249218
989.409 .0249203
990.013 .0249185
990.617 .0249166
991.221 .0249148
991.824 .0249141
992.427 .0249154
993.030 .0249177
993.632 .0249213
994.234 .0249261
994.836 .0249318
995.438 .0249368
996.039 .0249416
996.640 .0249452
997.240 .0249477
997.840 .0249496
998.440 .0249512
999.040 .0249525
999.639 .0249547
1000.238 .0249568
1000.836 .0249586
1001.435 .0249604
1002.033 .0249615
1002.630 .0249613
1003.228 .0249602
1003.825 .0249574
1004.422 .0249532
1005.018 .0249477
1005.614 .0249418
1006.210 .0249355
1006.806 .0249294
1007.401 .0249234
1007.996 .0249164
1008.591 .0249096
1009.186 .0249026
1009.780 .0248949
1010.374 .0248866
1010.967 .0248775
1011.561 .0248676
1012.154 .0248570
1012.746 .0248453
1013.339 .0248323
1013.931 .0248187
1014.523 .0248051
1015.115 .0247903
1015.706 .0247753
1016.298 .0247607
1016.888 .0247471
1017.479 .0247343
1018.069 .0247227
1018.660 .0247115
1019.250 .0247007
1019.839 .0246904
1020.429 .0246805
1021.018 .0246713
1021.607 .0246633
1022.195 .0246563
1022.784 .0246506
1023.372 .0246461
1023.960 .0246428
1024.547 .0246398
1025.135 .0246379
1025.722 .0246362
1026.309 .0246341
1026.896 .0246313
1027.483 .0246289
1028.069 .0246267
1028.655 .0246245
1029.241 .0246223
1029.827 .0246190
1030.412 .0246148
1030.997 .0246098
1031.582 .0246038
1032.167 .0245971
1032.752 .0245898
1033.336 .0245823
1033.921 .0245747
1034.505 .0245678
1035.089 .0245607
1035.672 .0245535
1036.256 .0245465
1036.839 .0245387
1037.422 .0245290
1038.005 .0245176
1038.588 .0245054
1039.171 .0244926
1039.753 .0244794
1040.335 .0244655
1040.918 .0244507
1041.500 .0244345
1042.081 .0244167
1042.663 .0243970
1043.244 .0243755
1043.826 .0243531
1044.407 .0243293
1044.988 .0243054
1045.569 .0242814
1046.150 .0242576
1046.730 .0242343
1047.311 .0242117
1047.891 .0241902
1048.471 .0241690
1049.052 .0241477
1049.632 .0241272
1050.211 .0241082
1050.791 .0240905
1051.371 .0240740
1051.950 .0240599
1052.530 .0240469
1053.109 .0240359
1053.688 .0240257
1054.268 .0240167
1054.847 .0240088
1055.426 .0240028
1056.005 .0239971
1056.583 .0239914
1057.162 .0239855
1057.741 .0239774
1058.319 .0239672
1058.898 .0239566
1059.476 .0239439
1060.055 .0239301
1060.633 .0239162
1061.211 .0239039
1061.790 .0238928
1062.368 .0238854
1062.946 .0238796
1063.524 .0238758
1064.102 .0238723
1064.680 .0238680
1065.258 .0238608
1065.836 .0238522
1066.414 .0238428
1066.992 .0238323
1067.570 .0238232
1068.148 .0238151
1068.726 .0238074
1069.304 .0238015
1069.882 .0237970
1070.460 .0237934
1071.038 .0237888
1071.616 .0237840
1072.194 .0237785
1072.772 .0237719
1073.350 .0237655
1073.928 .0237595
1074.506 .0237557
1075.084 .0237549
1075.662 .0237556
1076.240 .0237591
1076.819 .0237671
1077.397 .0237777
1077.976 .0237917
1078.554 .0238074
1079.133 .0238248
1079.711 .0238414
1080.290 .0238565
1080.869 .0238706
1081.448 .0238825
1082.027 .0238921
1082.606 .0238984
1083.185 .0239022
1083.764 .0239051
1084.343 .0239063
1084.923 .0239067
1085.502 .0239073
1086.082 .0239086
1086.662 .0239105
1087.242 .0239140
1087.822 .0239195
1088.402 .0239282
1088.983 .0239393
1089.563 .0239531
1090.144 .0239690
1090.725 .0239863
1091.306 .0240047
1091.887 .0240227
1092.469 .0240430
1093.050 .0240635
1093.632 .0240842
1094.214 .0241061
1094.796 .0241279
1095.379 .0241500
1095.961 .0241708
1096.544 .0241888
1097.127 .0242039
1097.710 .0242168
1098.294 .0242284
1098.877 .0242389
1099.461 .0242514
1100.046 .0242675
1100.630 .0242867
1101.215 .0243109
1101.800 .0243391
1102.385 .0243700
1102.970 .0244046
1103.556 .0244406
1104.142 .0244777
1104.728 .0245165
1105.315 .0245582
1105.902 .0246026
1106.489 .0246514
1107.077 .0247042
1107.664 .0247583
1108.253 .0248166
1108.841 .0248775
1109.430 .0249384
1110.019 .0249970
1110.609 .0250528
1111.198 .0251022
1111.789 .0251476
1112.379 .0251900
1112.970 .0252296
1113.561 .0252701
1114.153 .0253135
1114.745 .0253582
1115.338 .0254059
1115.931 .0254572
1116.524 .0255094
1117.117 .0255611
1117.712 .0256117
1118.306 .0256561
1118.901 .0256972
1119.496 .0257370
1120.092 .0257782
1120.689 .0258222
1121.285 .0258708
1121.882 .0259222
1122.480 .0259761
1123.078 .0260312
1123.677 .0260853
1124.276 .0261386
1124.875 .0261913
1125.476 .0262415
1126.076 .0262913
1126.677 .0263458
1127.279 .0264068
1127.881 .0264782
1128.484 .0265608
1129.087 .0266463
1129.691 .0267357
1130.295 .0268238
1130.900 .0269084
1131.505 .0269927
1132.111 .0270807
1132.718 .0271719
1133.325 .0272696
1133.933 .0273782
1134.541 .0274931
1135.150 .0276166
1135.760 .0277451
1136.370 .0278715
1136.981 .0279901
1137.592 .0280968
1138.204 .0281902
1138.817 .0282754
1139.431 .0283620
1140.045 .0284366
1140.660 .0285129
1141.275 .0285911
1141.891 .0286715
1142.508 .0289474
1143.126 .0286955
1143.744 .0289204
1144.363 .0289946
1144.983 .0291496
