Measurement Sequence started on: 15-12-46-377
Integration time: 28
Scans to Average: 2 
>>>>>Begin Spectral Data<<<<<
432.689 .0000100
433.621 .0000100
434.552 .0000100
435.482 .0000100
436.410 .0000100
437.337 .0000100
438.262 .0248871
439.187 .0527062
440.110 .0872792
441.031 .1262842
441.952 .1641009
442.871 .1938430
443.789 .2101061
444.705 .2110350
445.621 .1989316
446.535 .1787792
447.447 .1559975
448.359 .1211440
449.269 .1039170
450.178 .0930572
451.086 .0853569
451.993 .0794689
452.898 .0747669
453.803 .0708978
454.706 .0676928
455.608 .0649746
456.508 .0626450
457.408 .0606572
458.306 .0589193
459.204 .0573908
460.100 .0560059
460.995 .0547602
461.888 .0536234
462.781 .0525692
463.673 .0515963
464.563 .0507099
465.452 .0498950
466.340 .0491469
467.228 .0484514
468.114 .0478069
468.999 .0472086
469.882 .0466392
470.765 .0461020
471.647 .0455958
472.528 .0451212
473.407 .0446830
474.286 .0442873
475.163 .0439357
476.040 .0436328
476.915 .0433727
477.790 .0431557
478.663 .0429679
479.535 .0428074
480.407 .0426722
481.277 .0425543
482.147 .0424552
483.015 .0423750
483.883 .0423085
484.749 .0422651
485.615 .0422447
486.479 .0422512
487.343 .0422814
488.206 .0423380
489.067 .0424127
489.928 .0425043
490.788 .0426111
491.647 .0427220
492.505 .0428405
493.362 .0429676
494.218 .0430978
495.073 .0432370
495.928 .0433990
496.781 .0435823
497.634 .0437969
498.486 .0440468
499.337 .0443250
500.187 .0446316
501.036 .0449678
501.884 .0453226
502.731 .0457010
503.578 .0461019
504.424 .0465258
505.268 .0469690
506.113 .0474473
506.956 .0479554
507.798 .0485204
508.640 .0491491
509.480 .0498366
510.320 .0505890
511.160 .0514282
511.998 .0523457
512.836 .0533550
513.672 .0544674
514.508 .0556888
515.344 .0570308
516.178 .0585222
517.012 .0601709
517.845 .0620127
518.677 .0640811
519.508 .0663888
520.339 .0689735
521.169 .0718695
521.998 .0750802
522.826 .0786534
523.654 .0826396
524.481 .0870724
525.307 .0919484
526.133 .0972382
526.958 .1029487
527.782 .1090226
528.605 .1152880
529.428 .1216053
530.250 .1276349
531.072 .1330848
531.892 .1376762
532.712 .1411179
533.532 .1432477
534.350 .1439029
535.168 .1430317
535.986 .1406455
536.802 .1369060
537.618 .1320646
538.434 .1263154
539.249 .1200590
540.063 .1135622
540.876 .1070315
541.689 .1007152
542.501 .0947761
543.313 .0893492
544.124 .0844327
544.934 .0800069
545.744 .0760086
546.553 .0724070
547.361 .0691846
548.169 .0663095
548.976 .0637557
549.783 .0615075
550.589 .0595197
551.395 .0577345
552.200 .0561404
553.004 .0547028
553.808 .0533834
554.611 .0521785
555.414 .0510844
556.216 .0500790
557.018 .0491720
557.819 .0483570
558.619 .0476177
559.419 .0469376
560.218 .0463026
561.017 .0456974
561.815 .0451218
562.613 .0445516
563.410 .0439832
564.207 .0434174
565.003 .0428573
565.799 .0422898
566.594 .0417222
567.388 .0411645
568.182 .0406206
568.976 .0400808
569.769 .0395580
570.562 .0390472
571.354 .0385451
572.145 .0380585
572.936 .0375847
573.727 .0371188
574.517 .0366616
575.307 .0362168
576.096 .0357874
576.885 .0353805
577.673 .0350002
578.461 .0346446
579.248 .0343161
580.035 .0340206
580.821 .0337445
581.607 .0334873
582.392 .0332526
583.177 .0330333
583.962 .0328275
584.746 .0326383
585.529 .0324621
586.313 .0323022
587.095 .0321586
587.878 .0320303
588.660 .0319151
589.441 .0318145
590.222 .0317235
591.003 .0316422
591.783 .0315691
592.563 .0315032
593.342 .0314397
594.121 .0313810
594.899 .0313256
595.678 .0312740
596.455 .0312251
597.233 .0311792
598.009 .0311361
598.786 .0310965
599.562 .0310579
600.338 .0310209
601.113 .0309844
601.888 .0309472
602.663 .0309078
603.437 .0308688
604.211 .0308290
604.984 .0307907
605.757 .0307543
606.530 .0307213
607.302 .0306930
608.074 .0306695
608.845 .0306482
609.616 .0306289
610.387 .0306111
611.158 .0305932
611.928 .0305737
612.697 .0305536
613.467 .0305330
614.236 .0305133
615.004 .0304953
615.773 .0304789
616.541 .0304648
617.308 .0304528
618.076 .0304420
618.843 .0304306
619.609 .0304183
620.375 .0304035
621.141 .0303860
621.907 .0303671
622.672 .0303471
623.437 .0303270
624.202 .0303082
624.966 .0302901
625.730 .0302732
626.493 .0302567
627.257 .0302402
628.020 .0302226
628.782 .0302043
629.545 .0301836
630.307 .0301612
631.068 .0301372
631.830 .0301132
632.591 .0300885
633.352 .0300646
634.112 .0300406
634.872 .0300155
635.632 .0299894
636.392 .0299617
637.151 .0299312
637.910 .0298994
638.668 .0298653
639.427 .0298301
640.185 .0297942
640.943 .0297593
641.700 .0297262
642.457 .0296960
643.214 .0296680
643.971 .0296417
644.727 .0296160
645.483 .0295908
646.239 .0295649
646.994 .0295391
647.750 .0295146
648.505 .0294914
649.259 .0294704
650.014 .0294522
650.768 .0294369
651.521 .0294249
652.275 .0294148
653.028 .0294058
653.781 .0293966
654.534 .0293863
655.286 .0293743
656.039 .0293608
656.791 .0293462
657.542 .0293311
658.294 .0293159
659.045 .0293014
659.796 .0292873
660.546 .0292740
661.297 .0292607
662.047 .0292467
662.796 .0292311
663.546 .0292138
664.295 .0291944
665.044 .0291744
665.793 .0291536
666.542 .0291329
667.290 .0291129
668.038 .0290939
668.786 .0290760
669.533 .0290591
670.281 .0290432
671.028 .0290281
671.774 .0290131
672.521 .0289987
673.267 .0289846
674.013 .0289721
674.759 .0289608
675.505 .0289508
676.250 .0289416
676.995 .0289328
677.740 .0289243
678.484 .0289157
679.229 .0289067
679.973 .0288978
680.717 .0288886
681.460 .0288792
682.204 .0288696
682.947 .0288598
683.690 .0288499
684.433 .0288399
685.175 .0288290
685.917 .0288165
686.659 .0288025
687.401 .0287872
688.142 .0287711
688.884 .0287546
689.625 .0287384
690.365 .0287223
691.106 .0287063
691.846 .0286904
692.586 .0286739
693.326 .0286569
694.066 .0286391
694.805 .0286203
695.545 .0285999
696.284 .0285779
697.022 .0285549
697.761 .0285314
698.499 .0285077
699.237 .0284847
699.975 .0284626
700.713 .0284418
701.450 .0284227
702.187 .0284050
702.924 .0283880
703.661 .0283722
704.397 .0283568
705.133 .0283412
705.869 .0283254
706.605 .0283102
707.341 .0282952
708.076 .0282811
708.811 .0282680
709.546 .0282555
710.281 .0282434
711.015 .0282312
711.749 .0282175
712.483 .0282024
713.217 .0281855
713.950 .0281666
714.684 .0281460
715.417 .0281248
716.150 .0281031
716.882 .0280820
717.615 .0280613
718.347 .0280417
719.079 .0280224
719.811 .0280039
720.542 .0279860
721.273 .0279683
722.005 .0279508
722.735 .0279337
723.466 .0279169
724.196 .0279004
724.927 .0278833
725.656 .0278659
726.386 .0278474
727.116 .0278287
727.845 .0278094
728.574 .0277896
729.303 .0277703
730.031 .0277519
730.760 .0277344
731.488 .0277176
732.216 .0277018
732.944 .0276863
733.671 .0276712
734.398 .0276567
735.125 .0276424
735.852 .0276291
736.579 .0276172
737.305 .0276069
738.031 .0275985
738.757 .0275919
739.483 .0275864
740.208 .0275809
740.933 .0275757
741.658 .0275695
742.383 .0275619
743.108 .0275534
743.832 .0275438
744.556 .0275336
745.280 .0275236
746.004 .0275136
746.727 .0275038
747.450 .0274944
748.173 .0274848
748.896 .0274748
749.618 .0274646
750.340 .0274542
751.062 .0274439
751.784 .0274339
752.506 .0274246
753.227 .0274154
753.948 .0274072
754.669 .0274001
755.389 .0273931
756.110 .0273862
756.830 .0273789
757.550 .0273709
758.269 .0273623
758.989 .0273529
759.708 .0273428
760.427 .0273321
761.146 .0273213
761.864 .0273096
762.582 .0272980
763.300 .0272865
764.018 .0272753
764.736 .0272642
765.453 .0272534
766.170 .0272421
766.887 .0272301
767.603 .0272177
768.320 .0272048
769.036 .0271914
769.751 .0271781
770.467 .0271645
771.182 .0271512
771.897 .0271386
772.612 .0271269
773.327 .0271162
774.041 .0271067
774.755 .0270979
775.469 .0270894
776.183 .0270813
776.896 .0270738
777.609 .0270672
778.322 .0270614
779.035 .0270569
779.747 .0270531
780.459 .0270505
781.171 .0270486
781.882 .0270468
782.594 .0270452
783.305 .0270433
784.016 .0270405
784.726 .0270371
785.436 .0270323
786.147 .0270266
786.856 .0270193
787.566 .0270109
788.275 .0270013
788.984 .0269901
789.693 .0269775
790.401 .0269634
791.110 .0269480
791.818 .0269319
792.525 .0269152
793.233 .0268988
793.940 .0268830
794.647 .0268681
795.353 .0268538
796.060 .0268404
796.766 .0268275
797.472 .0268149
798.177 .0268021
798.883 .0267892
799.588 .0267759
800.292 .0267623
800.997 .0267487
801.701 .0267352
802.405 .0267219
803.109 .0267088
803.812 .0266955
804.515 .0266815
805.218 .0266662
805.921 .0266493
806.623 .0266308
807.325 .0266105
808.027 .0265889
808.728 .0265662
809.429 .0265425
810.130 .0265188
810.831 .0264955
811.531 .0264724
812.231 .0264498
812.931 .0264276
813.630 .0264053
814.330 .0263828
815.029 .0263600
815.727 .0263373
816.426 .0263147
817.124 .0262929
817.821 .0262718
818.519 .0262518
819.216 .0262337
819.913 .0262170
820.609 .0262010
821.306 .0261865
822.002 .0261726
822.697 .0261593
823.393 .0261466
824.088 .0261346
824.783 .0261228
825.477 .0261116
826.171 .0261006
826.865 .0260900
827.559 .0260795
828.252 .0260696
828.945 .0260594
829.638 .0260495
830.330 .0260398
831.023 .0260303
831.714 .0260215
832.406 .0260140
833.097 .0260074
833.788 .0260018
834.479 .0259966
835.169 .0259923
835.859 .0259880
836.548 .0259839
837.238 .0259796
837.927 .0259753
838.615 .0259710
839.304 .0259672
839.992 .0259637
840.680 .0259611
841.367 .0259593
842.054 .0259580
842.741 .0259567
843.428 .0259552
844.114 .0259534
844.800 .0259509
845.485 .0259479
846.170 .0259443
846.855 .0259398
847.540 .0259346
848.224 .0259289
848.908 .0259232
849.592 .0259174
850.275 .0259117
850.958 .0259059
851.641 .0258998
852.323 .0258933
853.005 .0258859
853.687 .0258775
854.368 .0258679
855.049 .0258571
855.730 .0258448
856.410 .0258312
857.090 .0258169
857.769 .0258022
858.449 .0257876
859.128 .0257730
859.806 .0257588
860.485 .0257449
861.163 .0257317
861.840 .0257189
862.518 .0257059
863.195 .0256931
863.871 .0256799
864.548 .0256664
865.224 .0256526
865.899 .0256390
866.574 .0256261
867.249 .0256145
867.924 .0256043
868.598 .0255956
869.272 .0255885
869.946 .0255830
870.619 .0255790
871.292 .0255755
871.964 .0255727
872.636 .0255695
873.308 .0255657
873.979 .0255617
874.651 .0255571
875.321 .0255524
875.992 .0255483
876.662 .0255451
877.331 .0255427
878.001 .0255414
878.670 .0255412
879.338 .0255416
880.007 .0255425
880.675 .0255432
881.342 .0255436
882.009 .0255432
882.676 .0255427
883.343 .0255415
884.009 .0255403
884.675 .0255397
885.340 .0255396
886.005 .0255403
886.670 .0255419
887.334 .0255443
887.998 .0255477
888.662 .0255514
889.325 .0255552
889.988 .0255585
890.650 .0255609
891.312 .0255623
891.974 .0255630
892.636 .0255629
893.297 .0255625
893.957 .0255620
894.618 .0255616
895.278 .0255610
895.937 .0255603
896.596 .0255593
897.255 .0255578
897.914 .0255558
898.572 .0255528
899.230 .0255486
899.887 .0255437
900.544 .0255378
901.201 .0255308
901.857 .0255229
902.513 .0255137
903.168 .0255036
903.823 .0254919
904.478 .0254787
905.132 .0254640
905.786 .0254482
906.440 .0254313
907.093 .0254134
907.746 .0253949
908.399 .0253758
909.051 .0253562
909.703 .0253360
910.354 .0253152
911.005 .0252940
911.656 .0252724
912.306 .0252505
912.956 .0252292
913.605 .0252087
914.254 .0251893
914.903 .0251709
915.551 .0251538
916.199 .0251375
916.847 .0251220
917.494 .0251069
918.141 .0250918
918.788 .0250762
919.434 .0250604
920.079 .0250437
920.725 .0250263
921.370 .0250083
922.014 .0249897
922.658 .0249704
923.302 .0249508
923.946 .0249303
924.589 .0249087
925.231 .0248863
925.873 .0248633
926.515 .0248393
927.157 .0248142
927.798 .0247885
928.439 .0247627
929.079 .0247364
929.719 .0247104
930.359 .0246841
930.998 .0246584
931.637 .0246332
932.275 .0246080
932.913 .0245829
933.551 .0245583
934.188 .0245345
934.825 .0245110
935.462 .0244886
936.098 .0244678
936.733 .0244481
937.369 .0244305
938.004 .0244149
938.638 .0244009
939.273 .0243887
939.907 .0243779
940.540 .0243684
941.173 .0243599
941.806 .0243524
942.438 .0243457
943.070 .0243400
943.702 .0243351
944.333 .0243303
944.964 .0243249
945.594 .0243192
946.224 .0243122
946.854 .0243035
947.483 .0242930
948.112 .0242805
948.741 .0242666
949.369 .0242513
949.996 .0242346
950.624 .0242170
951.251 .0241989
951.878 .0241808
952.504 .0241623
953.130 .0241441
953.755 .0241261
954.380 .0241089
955.005 .0240924
955.629 .0240765
956.253 .0240617
956.877 .0240482
957.500 .0240359
958.123 .0240248
958.746 .0240146
959.368 .0240053
959.990 .0239970
960.611 .0239896
961.232 .0239827
961.853 .0239766
962.473 .0239712
963.093 .0239666
963.712 .0239623
964.331 .0239577
964.950 .0239524
965.569 .0239465
966.187 .0239403
966.804 .0239338
967.422 .0239269
968.039 .0239206
968.655 .0239151
969.272 .0239102
969.887 .0239053
970.503 .0239008
971.118 .0238965
971.733 .0238924
972.347 .0238878
972.961 .0238831
973.575 .0238778
974.188 .0238722
974.801 .0238667
975.414 .0238608
976.026 .0238547
976.638 .0238485
977.250 .0238419
977.861 .0238357
978.472 .0238296
979.083 .0238244
979.693 .0238195
980.303 .0238153
980.912 .0238111
981.521 .0238061
982.130 .0238005
982.738 .0237939
983.346 .0237863
983.954 .0237781
984.562 .0237691
985.169 .0237603
985.775 .0237518
986.382 .0237438
986.988 .0237365
987.594 .0237298
988.199 .0237232
988.804 .0237169
989.409 .0237102
990.013 .0237034
990.617 .0236971
991.221 .0236912
991.824 .0236863
992.427 .0236828
993.030 .0236811
993.632 .0236811
994.234 .0236824
994.836 .0236856
995.438 .0236900
996.039 .0236959
996.640 .0237028
997.240 .0237109
997.840 .0237201
998.440 .0237303
999.040 .0237399
999.639 .0237496
1000.238 .0237589
1000.836 .0237675
1001.435 .0237755
1002.033 .0237831
1002.630 .0237905
1003.228 .0237982
1003.825 .0238065
1004.422 .0238156
1005.018 .0238252
1005.614 .0238354
1006.210 .0238448
1006.806 .0238532
1007.401 .0238602
1007.996 .0238658
1008.591 .0238706
1009.186 .0238757
1009.780 .0238801
1010.374 .0238848
1010.967 .0238897
1011.561 .0238948
1012.154 .0238995
1012.746 .0239034
1013.339 .0239066
1013.931 .0239087
1014.523 .0239102
1015.115 .0239113
1015.706 .0239117
1016.298 .0239133
1016.888 .0239160
1017.479 .0239196
1018.069 .0239240
1018.660 .0239294
1019.250 .0239351
1019.839 .0239418
1020.429 .0239494
1021.018 .0239575
1021.607 .0239667
1022.195 .0239774
1022.784 .0239887
1023.372 .0240003
1023.960 .0240128
1024.547 .0240255
1025.135 .0240382
1025.722 .0240513
1026.309 .0240640
1026.896 .0240767
1027.483 .0240900
1028.069 .0241033
1028.655 .0241169
1029.241 .0241309
1029.827 .0241451
1030.412 .0241591
1030.997 .0241731
1031.582 .0241862
1032.167 .0241983
1032.752 .0242096
1033.336 .0242200
1033.921 .0242286
1034.505 .0242366
1035.089 .0242438
1035.672 .0242500
1036.256 .0242559
1036.839 .0242612
1037.422 .0242659
1038.005 .0242705
1038.588 .0242741
1039.171 .0242768
1039.753 .0242790
1040.335 .0242811
1040.918 .0242826
1041.500 .0242839
1042.081 .0242858
1042.663 .0242880
1043.244 .0242904
1043.826 .0242936
1044.407 .0242964
1044.988 .0242992
1045.569 .0243017
1046.150 .0243034
1046.730 .0243042
1047.311 .0243044
1047.891 .0243039
1048.471 .0243026
1049.052 .0243004
1049.632 .0242977
1050.211 .0242945
1050.791 .0242920
1051.371 .0242902
1051.950 .0242892
1052.530 .0242900
1053.109 .0242924
1053.688 .0242955
1054.268 .0242996
1054.847 .0243042
1055.426 .0243083
1056.005 .0243122
1056.583 .0243158
1057.162 .0243183
1057.741 .0243206
1058.319 .0243234
1058.898 .0243259
1059.476 .0243283
1060.055 .0243306
1060.633 .0243315
1061.211 .0243318
1061.790 .0243320
1062.368 .0243320
1062.946 .0243336
1063.524 .0243369
1064.102 .0243414
1064.680 .0243473
1065.258 .0243539
1065.836 .0243597
1066.414 .0243647
1066.992 .0243692
1067.570 .0243720
1068.148 .0243730
1068.726 .0243740
1069.304 .0243747
1069.882 .0243765
1070.460 .0243791
1071.038 .0243812
1071.616 .0243822
1072.194 .0243821
1072.772 .0243786
1073.350 .0243721
1073.928 .0243643
1074.506 .0243553
1075.084 .0243451
1075.662 .0243364
1076.240 .0243293
1076.819 .0243242
1077.397 .0243219
1077.976 .0243223
1078.554 .0243239
1079.133 .0243275
1079.711 .0243311
1080.290 .0243344
1080.869 .0243361
1081.448 .0243361
1082.027 .0243325
1082.606 .0243261
1083.185 .0243185
1083.764 .0243095
1084.343 .0243015
1084.923 .0242971
1085.502 .0242943
1086.082 .0242950
1086.662 .0242971
1087.242 .0243002
1087.822 .0243019
1088.402 .0243025
1088.983 .0243010
1089.563 .0242965
1090.144 .0242922
1090.725 .0242900
1091.306 .0242899
1091.887 .0242952
1092.469 .0243049
1093.050 .0243180
1093.632 .0243344
1094.214 .0243512
1094.796 .0243673
1095.379 .0243840
1095.961 .0243999
1096.544 .0244151
1097.127 .0244295
1097.710 .0244437
1098.294 .0244576
1098.877 .0244703
1099.461 .0244836
1100.046 .0244933
1100.630 .0245022
1101.215 .0245129
1101.800 .0245236
1102.385 .0245370
1102.970 .0245535
1103.556 .0245731
1104.142 .0245941
1104.728 .0246153
1105.315 .0246337
1105.902 .0246479
1106.489 .0246591
1107.077 .0246662
1107.664 .0246704
1108.253 .0246758
1108.841 .0246816
1109.430 .0246895
1110.019 .0247007
1110.609 .0247149
1111.198 .0247270
1111.789 .0247403
1112.379 .0247505
1112.970 .0247585
1113.561 .0247630
1114.153 .0247664
1114.745 .0247703
1115.338 .0247775
1115.931 .0247868
1116.524 .0247979
1117.117 .0248122
1117.712 .0248300
1118.306 .0248473
1118.901 .0248692
1119.496 .0248936
1120.092 .0249234
1120.689 .0249568
1121.285 .0249986
1121.882 .0250439
1122.480 .0250947
1123.078 .0251478
1123.677 .0252006
1124.276 .0252531
1124.875 .0253039
1125.476 .0253521
1126.076 .0253991
1126.677 .0254485
1127.279 .0255015
1127.881 .0255545
1128.484 .0256107
1129.087 .0256665
1129.691 .0257244
1130.295 .0257823
1130.900 .0258410
1131.505 .0258977
1132.111 .0259577
1132.718 .0260215
1133.325 .0260877
1133.933 .0261584
1134.541 .0262354
1135.150 .0263177
1135.760 .0264052
1136.370 .0265003
1136.981 .0266030
1137.592 .0267104
1138.204 .0268349
1138.817 .0269650
1139.431 .0271034
1140.045 .0272447
1140.660 .0273891
1141.275 .0275317
1141.891 .0276662
1142.508 .0278442
1143.126 .0278935
1143.744 .0280622
1144.363 .0281736
1144.983 .0281781
