Measurement Sequence started on: 15-12-46-377
Integration time: 28
Scans to Average: 2 
>>>>>Begin Spectral Data<<<<<
432.689 .0000100
433.621 .0000100
434.552 .0000100
435.482 .0000100
436.410 .0000100
437.337 .0000100
438.262 .0251806
439.187 .0533780
440.110 .0884700
441.031 .1280700
441.952 .1665407
442.871 .1968356
443.789 .2134693
444.705 .2145388
445.621 .2023528
446.535 .1819549
447.447 .1588244
448.359 .1234220
449.269 .1058420
450.178 .0947040
451.086 .0868411
451.993 .0808266
452.898 .0760857
453.803 .0722248
454.706 .0690359
455.608 .0663407
456.508 .0640515
457.408 .0621135
458.306 .0604423
459.204 .0589575
460.100 .0576301
460.995 .0564309
461.888 .0553386
462.781 .0543267
463.673 .0533796
464.563 .0525110
465.452 .0516888
466.340 .0508889
467.228 .0501283
468.114 .0493980
468.999 .0487029
469.882 .0480376
470.765 .0474017
471.647 .0467999
472.528 .0462348
473.407 .0457141
474.286 .0452435
475.163 .0448286
476.040 .0444693
476.915 .0441598
477.790 .0438998
478.663 .0436907
479.535 .0435242
480.407 .0434022
481.277 .0433186
482.147 .0432615
483.015 .0432279
483.883 .0432090
484.749 .0432090
485.615 .0432252
486.479 .0432546
487.343 .0432918
488.206 .0433355
489.067 .0433807
489.928 .0434143
490.788 .0434425
491.647 .0434661
492.505 .0434849
493.362 .0434977
494.218 .0435121
495.073 .0435390
495.928 .0435878
496.781 .0436603
497.634 .0437678
498.486 .0439172
499.337 .0440993
500.187 .0443110
501.036 .0445497
501.884 .0448171
502.731 .0451122
503.578 .0454372
504.424 .0458008
505.268 .0461923
506.113 .0466253
506.956 .0470914
507.798 .0476085
508.640 .0481755
509.480 .0487837
510.320 .0494425
511.160 .0501584
511.998 .0509254
512.836 .0517373
513.672 .0526248
514.508 .0536043
515.344 .0546890
516.178 .0559174
517.012 .0573228
517.845 .0589327
518.677 .0608036
519.508 .0629671
520.339 .0654208
521.169 .0682285
521.998 .0713783
522.826 .0748812
523.654 .0787765
524.481 .0830633
525.307 .0878294
526.133 .0930240
526.958 .0986649
527.782 .1046539
528.605 .1108821
529.428 .1171973
530.250 .1231360
531.072 .1284306
531.892 .1327950
532.712 .1359653
533.532 .1377953
534.350 .1382024
535.168 .1372291
535.986 .1349691
536.802 .1315768
537.618 .1272463
538.434 .1221774
539.249 .1166714
540.063 .1109010
540.876 .1050291
541.689 .0992768
542.501 .0938034
543.313 .0887202
544.124 .0841452
544.934 .0800457
545.744 .0763726
546.553 .0730667
547.361 .0701018
548.169 .0674457
548.976 .0650187
549.783 .0627964
550.589 .0607579
551.395 .0588732
552.200 .0571220
553.004 .0555076
553.808 .0540257
554.611 .0526931
555.414 .0514951
556.216 .0504140
557.018 .0494430
557.819 .0485699
558.619 .0477785
559.419 .0470536
560.218 .0463925
561.017 .0457745
561.815 .0451872
562.613 .0446270
563.410 .0440842
564.207 .0435509
565.003 .0430261
565.799 .0425125
566.594 .0420028
567.388 .0415071
568.182 .0410144
568.976 .0405272
569.769 .0400444
570.562 .0395661
571.354 .0390853
572.145 .0386012
572.936 .0381169
573.727 .0376317
574.517 .0371537
575.307 .0366889
576.096 .0362375
576.885 .0358079
577.673 .0354049
578.461 .0350327
579.248 .0346858
580.035 .0343666
580.821 .0340687
581.607 .0337882
582.392 .0335224
583.177 .0332688
583.962 .0330294
584.746 .0328097
585.529 .0326101
586.313 .0324313
587.095 .0322736
587.878 .0321361
588.660 .0320174
589.441 .0319150
590.222 .0318247
591.003 .0317458
591.783 .0316748
592.563 .0316093
593.342 .0315474
594.121 .0314882
594.899 .0314327
595.678 .0313799
596.455 .0313303
597.233 .0312833
598.009 .0312387
598.786 .0311971
599.562 .0311572
600.338 .0311189
601.113 .0310822
601.888 .0310456
602.663 .0310086
603.437 .0309726
604.211 .0309369
604.984 .0309033
605.757 .0308727
606.530 .0308452
607.302 .0308214
608.074 .0308013
608.845 .0307843
609.616 .0307695
610.387 .0307567
611.158 .0307444
611.928 .0307306
612.697 .0307153
613.467 .0306976
614.236 .0306777
615.004 .0306557
615.773 .0306324
616.541 .0306079
617.308 .0305838
618.076 .0305596
618.843 .0305355
619.609 .0305127
620.375 .0304902
621.141 .0304675
621.907 .0304447
622.672 .0304217
623.437 .0303979
624.202 .0303745
624.966 .0303514
625.730 .0303292
626.493 .0303087
627.257 .0302893
628.020 .0302718
628.782 .0302554
629.545 .0302400
630.307 .0302233
631.068 .0302056
631.830 .0301867
632.591 .0301652
633.352 .0301427
634.112 .0301190
634.872 .0300950
635.632 .0300715
636.392 .0300478
637.151 .0300247
637.910 .0300021
638.668 .0299801
639.427 .0299584
640.185 .0299370
640.943 .0299163
641.700 .0298968
642.457 .0298786
643.214 .0298620
643.971 .0298463
644.727 .0298315
645.483 .0298174
646.239 .0298026
646.994 .0297876
647.750 .0297720
648.505 .0297566
649.259 .0297417
650.014 .0297266
650.768 .0297124
651.521 .0296989
652.275 .0296857
653.028 .0296728
653.781 .0296589
654.534 .0296441
655.286 .0296285
656.039 .0296120
656.791 .0295955
657.542 .0295786
658.294 .0295619
659.045 .0295462
659.796 .0295304
660.546 .0295151
661.297 .0294993
662.047 .0294836
662.796 .0294669
663.546 .0294493
664.295 .0294310
665.044 .0294122
665.793 .0293932
666.542 .0293748
667.290 .0293572
668.038 .0293402
668.786 .0293233
669.533 .0293065
670.281 .0292899
671.028 .0292740
671.774 .0292575
672.521 .0292412
673.267 .0292252
674.013 .0292098
674.759 .0291943
675.505 .0291792
676.250 .0291648
676.995 .0291508
677.740 .0291368
678.484 .0291228
679.229 .0291091
679.973 .0290954
680.717 .0290816
681.460 .0290676
682.204 .0290531
682.947 .0290381
683.690 .0290220
684.433 .0290054
685.175 .0289888
685.917 .0289714
686.659 .0289539
687.401 .0289368
688.142 .0289207
688.884 .0289049
689.625 .0288897
690.365 .0288751
691.106 .0288614
691.846 .0288483
692.586 .0288352
693.326 .0288224
694.066 .0288106
694.805 .0287993
695.545 .0287882
696.284 .0287777
697.022 .0287676
697.761 .0287573
698.499 .0287472
699.237 .0287368
699.975 .0287263
700.713 .0287153
701.450 .0287043
702.187 .0286926
702.924 .0286803
703.661 .0286671
704.397 .0286525
705.133 .0286371
705.869 .0286206
706.605 .0286030
707.341 .0285847
708.076 .0285669
708.811 .0285494
709.546 .0285325
710.281 .0285166
711.015 .0285013
711.749 .0284864
712.483 .0284714
713.217 .0284561
713.950 .0284399
714.684 .0284230
715.417 .0284051
716.150 .0283859
716.882 .0283661
717.615 .0283456
718.347 .0283251
719.079 .0283051
719.811 .0282857
720.542 .0282667
721.273 .0282482
722.005 .0282303
722.735 .0282124
723.466 .0281949
724.196 .0281773
724.927 .0281595
725.656 .0281416
726.386 .0281240
727.116 .0281067
727.845 .0280900
728.574 .0280743
729.303 .0280586
730.031 .0280435
730.760 .0280280
731.488 .0280123
732.216 .0279962
732.944 .0279798
733.671 .0279631
734.398 .0279459
735.125 .0279285
735.852 .0279109
736.579 .0278931
737.305 .0278757
738.031 .0278590
738.757 .0278432
739.483 .0278285
740.208 .0278150
740.933 .0278028
741.658 .0277921
742.383 .0277821
743.108 .0277731
743.832 .0277639
744.556 .0277543
745.280 .0277436
746.004 .0277312
746.727 .0277175
747.450 .0277024
748.173 .0276860
748.896 .0276688
749.618 .0276509
750.340 .0276324
751.062 .0276135
751.784 .0275949
752.506 .0275762
753.227 .0275581
753.948 .0275410
754.669 .0275249
755.389 .0275104
756.110 .0274981
756.830 .0274874
757.550 .0274788
758.269 .0274718
758.989 .0274656
759.708 .0274601
760.427 .0274553
761.146 .0274507
761.864 .0274463
762.582 .0274421
763.300 .0274374
764.018 .0274318
764.736 .0274252
765.453 .0274172
766.170 .0274074
766.887 .0273965
767.603 .0273840
768.320 .0273702
769.036 .0273558
769.751 .0273417
770.467 .0273278
771.182 .0273152
771.897 .0273039
772.612 .0272936
773.327 .0272846
774.041 .0272767
774.755 .0272689
775.469 .0272615
776.183 .0272542
776.896 .0272466
777.609 .0272382
778.322 .0272294
779.035 .0272196
779.747 .0272091
780.459 .0271980
781.171 .0271860
781.882 .0271728
782.594 .0271590
783.305 .0271439
784.016 .0271283
784.726 .0271123
785.436 .0270961
786.147 .0270799
786.856 .0270643
787.566 .0270492
788.275 .0270351
788.984 .0270223
789.693 .0270110
790.401 .0270011
791.110 .0269925
791.818 .0269845
792.525 .0269772
793.233 .0269701
793.940 .0269634
794.647 .0269566
795.353 .0269499
796.060 .0269425
796.766 .0269337
797.472 .0269228
798.177 .0269093
798.883 .0268927
799.588 .0268727
800.292 .0268496
800.997 .0268242
801.701 .0267969
802.405 .0267689
803.109 .0267409
803.812 .0267139
804.515 .0266880
805.218 .0266631
805.921 .0266387
806.623 .0266149
807.325 .0265918
808.027 .0265693
808.728 .0265478
809.429 .0265278
810.130 .0265094
810.831 .0264934
811.531 .0264797
812.231 .0264677
812.931 .0264569
813.630 .0264468
814.330 .0264360
815.029 .0264237
815.727 .0264095
816.426 .0263928
817.124 .0263741
817.821 .0263532
818.519 .0263303
819.216 .0263061
819.913 .0262810
820.609 .0262554
821.306 .0262296
822.002 .0262044
822.697 .0261803
823.393 .0261578
824.088 .0261374
824.783 .0261190
825.477 .0261026
826.171 .0260883
826.865 .0260755
827.559 .0260641
828.252 .0260542
828.945 .0260452
829.638 .0260371
830.330 .0260298
831.023 .0260228
831.714 .0260161
832.406 .0260098
833.097 .0260033
833.788 .0259957
834.479 .0259869
835.169 .0259768
835.859 .0259651
836.548 .0259521
837.238 .0259379
837.927 .0259231
838.615 .0259083
839.304 .0258940
839.992 .0258801
840.680 .0258670
841.367 .0258550
842.054 .0258436
842.741 .0258330
843.428 .0258232
844.114 .0258140
844.800 .0258058
845.485 .0257984
846.170 .0257920
846.855 .0257861
847.540 .0257812
848.224 .0257773
848.908 .0257745
849.592 .0257728
850.275 .0257717
850.958 .0257715
851.641 .0257725
852.323 .0257739
853.005 .0257758
853.687 .0257779
854.368 .0257801
855.049 .0257822
855.730 .0257840
856.410 .0257853
857.090 .0257864
857.769 .0257875
858.449 .0257881
859.128 .0257883
859.806 .0257880
860.485 .0257873
861.163 .0257858
861.840 .0257840
862.518 .0257810
863.195 .0257770
863.871 .0257726
864.548 .0257677
865.224 .0257626
865.899 .0257576
866.574 .0257530
867.249 .0257489
867.924 .0257451
868.598 .0257419
869.272 .0257384
869.946 .0257358
870.619 .0257332
871.292 .0257305
871.964 .0257272
872.636 .0257236
873.308 .0257192
873.979 .0257143
874.651 .0257087
875.321 .0257027
875.992 .0256967
876.662 .0256913
877.331 .0256859
878.001 .0256811
878.670 .0256767
879.338 .0256729
880.007 .0256691
880.675 .0256657
881.342 .0256615
882.009 .0256571
882.676 .0256521
883.343 .0256465
884.009 .0256403
884.675 .0256340
885.340 .0256271
886.005 .0256193
886.670 .0256103
887.334 .0256001
887.998 .0255881
888.662 .0255752
889.325 .0255612
889.988 .0255464
890.650 .0255313
891.312 .0255160
891.974 .0255004
892.636 .0254851
893.297 .0254697
893.957 .0254545
894.618 .0254390
895.278 .0254241
895.937 .0254095
896.596 .0253960
897.255 .0253836
897.914 .0253725
898.572 .0253625
899.230 .0253531
899.887 .0253436
900.544 .0253334
901.201 .0253224
901.857 .0253103
902.513 .0252968
903.168 .0252819
903.823 .0252655
904.478 .0252477
905.132 .0252284
905.786 .0252077
906.440 .0251855
907.093 .0251615
907.746 .0251356
908.399 .0251077
909.051 .0250785
909.703 .0250475
910.354 .0250160
911.005 .0249839
911.656 .0249517
912.306 .0249188
912.956 .0248859
913.605 .0248531
914.254 .0248207
914.903 .0247892
915.551 .0247586
916.199 .0247295
916.847 .0247021
917.494 .0246759
918.141 .0246514
918.788 .0246285
919.434 .0246071
920.079 .0245865
920.725 .0245671
921.370 .0245489
922.014 .0245317
922.658 .0245156
923.302 .0245004
923.946 .0244862
924.589 .0244727
925.231 .0244590
925.873 .0244451
926.515 .0244315
927.157 .0244172
927.798 .0244021
928.439 .0243860
929.079 .0243685
929.719 .0243498
930.359 .0243300
930.998 .0243089
931.637 .0242870
932.275 .0242647
932.913 .0242420
933.551 .0242187
934.188 .0241959
934.825 .0241728
935.462 .0241494
936.098 .0241262
936.733 .0241029
937.369 .0240793
938.004 .0240557
938.638 .0240322
939.273 .0240096
939.907 .0239881
940.540 .0239675
941.173 .0239481
941.806 .0239308
942.438 .0239147
943.070 .0238990
943.702 .0238840
944.333 .0238692
944.964 .0238543
945.594 .0238394
946.224 .0238247
946.854 .0238105
947.483 .0237974
948.112 .0237853
948.741 .0237745
949.369 .0237649
949.996 .0237563
950.624 .0237480
951.251 .0237404
951.878 .0237329
952.504 .0237251
953.130 .0237170
953.755 .0237090
954.380 .0237012
955.005 .0236937
955.629 .0236866
956.253 .0236800
956.877 .0236739
957.500 .0236687
958.123 .0236638
958.746 .0236594
959.368 .0236553
959.990 .0236522
960.611 .0236492
961.232 .0236471
961.853 .0236456
962.473 .0236449
963.093 .0236453
963.712 .0236465
964.331 .0236479
964.950 .0236498
965.569 .0236527
966.187 .0236560
966.804 .0236596
967.422 .0236637
968.039 .0236677
968.655 .0236714
969.272 .0236751
969.887 .0236785
970.503 .0236816
971.118 .0236848
971.733 .0236881
972.347 .0236915
972.961 .0236956
973.575 .0236997
974.188 .0237043
974.801 .0237088
975.414 .0237131
976.026 .0237164
976.638 .0237189
977.250 .0237217
977.861 .0237247
978.472 .0237284
979.083 .0237326
979.693 .0237373
980.303 .0237422
980.912 .0237469
981.521 .0237514
982.130 .0237551
982.738 .0237587
983.346 .0237620
983.954 .0237656
984.562 .0237704
985.169 .0237766
985.775 .0237849
986.382 .0237950
986.988 .0238065
987.594 .0238184
988.199 .0238300
988.804 .0238412
989.409 .0238521
990.013 .0238625
990.617 .0238728
991.221 .0238830
991.824 .0238944
992.427 .0239067
993.030 .0239199
993.632 .0239335
994.234 .0239476
994.836 .0239611
995.438 .0239737
996.039 .0239836
996.640 .0239916
997.240 .0239977
997.840 .0240026
998.440 .0240066
999.040 .0240106
999.639 .0240151
1000.238 .0240204
1000.836 .0240257
1001.435 .0240312
1002.033 .0240360
1002.630 .0240397
1003.228 .0240416
1003.825 .0240420
1004.422 .0240409
1005.018 .0240391
1005.614 .0240379
1006.210 .0240385
1006.806 .0240405
1007.401 .0240447
1007.996 .0240503
1008.591 .0240571
1009.186 .0240640
1009.780 .0240702
1010.374 .0240753
1010.967 .0240790
1011.561 .0240816
1012.154 .0240822
1012.746 .0240824
1013.339 .0240822
1013.931 .0240811
1014.523 .0240797
1015.115 .0240775
1015.706 .0240747
1016.298 .0240706
1016.888 .0240654
1017.479 .0240589
1018.069 .0240513
1018.660 .0240425
1019.250 .0240328
1019.839 .0240227
1020.429 .0240128
1021.018 .0240034
1021.607 .0239952
1022.195 .0239882
1022.784 .0239824
1023.372 .0239781
1023.960 .0239753
1024.547 .0239728
1025.135 .0239708
1025.722 .0239677
1026.309 .0239641
1026.896 .0239602
1027.483 .0239552
1028.069 .0239502
1028.655 .0239458
1029.241 .0239414
1029.827 .0239378
1030.412 .0239346
1030.997 .0239317
1031.582 .0239278
1032.167 .0239230
1032.752 .0239168
1033.336 .0239081
1033.921 .0238989
1034.505 .0238891
1035.089 .0238786
1035.672 .0238692
1036.256 .0238595
1036.839 .0238503
1037.422 .0238414
1038.005 .0238327
1038.588 .0238235
1039.171 .0238142
1039.753 .0238039
1040.335 .0237922
1040.918 .0237799
1041.500 .0237668
1042.081 .0237526
1042.663 .0237379
1043.244 .0237229
1043.826 .0237068
1044.407 .0236901
1044.988 .0236734
1045.569 .0236557
1046.150 .0236382
1046.730 .0236194
1047.311 .0235994
1047.891 .0235783
1048.471 .0235566
1049.052 .0235346
1049.632 .0235130
1050.211 .0234931
1050.791 .0234735
1051.371 .0234555
1051.950 .0234397
1052.530 .0234243
1053.109 .0234106
1053.688 .0233978
1054.268 .0233860
1054.847 .0233751
1055.426 .0233653
1056.005 .0233565
1056.583 .0233503
1057.162 .0233469
1057.741 .0233445
1058.319 .0233438
1058.898 .0233445
1059.476 .0233445
1060.055 .0233440
1060.633 .0233434
1061.211 .0233420
1061.790 .0233399
1062.368 .0233384
1062.946 .0233368
1063.524 .0233362
1064.102 .0233372
1064.680 .0233392
1065.258 .0233418
1065.836 .0233448
1066.414 .0233469
1066.992 .0233468
1067.570 .0233458
1068.148 .0233426
1068.726 .0233372
1069.304 .0233309
1069.882 .0233241
1070.460 .0233167
1071.038 .0233090
1071.616 .0233020
1072.194 .0232960
1072.772 .0232896
1073.350 .0232836
1073.928 .0232760
1074.506 .0232675
1075.084 .0232581
1075.662 .0232485
1076.240 .0232393
1076.819 .0232315
1077.397 .0232255
1077.976 .0232205
1078.554 .0232162
1079.133 .0232127
1079.711 .0232087
1080.290 .0232047
1080.869 .0232010
1081.448 .0231964
1082.027 .0231914
1082.606 .0231876
1083.185 .0231845
1083.764 .0231830
1084.343 .0231817
1084.923 .0231809
1085.502 .0231799
1086.082 .0231786
1086.662 .0231777
1087.242 .0231770
1087.822 .0231790
1088.402 .0231843
1088.983 .0231926
1089.563 .0232027
1090.144 .0232143
1090.725 .0232273
1091.306 .0232390
1091.887 .0232506
1092.469 .0232617
1093.050 .0232721
1093.632 .0232831
1094.214 .0232964
1094.796 .0233107
1095.379 .0233274
1095.961 .0233466
1096.544 .0233659
1097.127 .0233842
1097.710 .0234014
1098.294 .0234169
1098.877 .0234324
1099.461 .0234512
1100.046 .0234725
1100.630 .0234964
1101.215 .0235250
1101.800 .0235539
1102.385 .0235826
1102.970 .0236092
1103.556 .0236318
1104.142 .0236511
1104.728 .0236667
1105.315 .0236789
1105.902 .0236881
1106.489 .0236988
1107.077 .0237101
1107.664 .0237232
1108.253 .0237387
1108.841 .0237552
1109.430 .0237746
1110.019 .0237959
1110.609 .0238184
1111.198 .0238449
1111.789 .0238757
1112.379 .0239102
1112.970 .0239486
1113.561 .0239937
1114.153 .0240412
1114.745 .0240945
1115.338 .0241532
1115.931 .0242148
1116.524 .0242771
1117.117 .0243409
1117.712 .0244029
1118.306 .0244619
1118.901 .0245187
1119.496 .0245671
1120.092 .0246118
1120.689 .0246544
1121.285 .0246924
1121.882 .0247277
1122.480 .0247631
1123.078 .0248000
1123.677 .0248325
1124.276 .0248642
1124.875 .0248966
1125.476 .0249257
1126.076 .0249600
1126.677 .0249974
1127.279 .0250396
1127.881 .0250921
1128.484 .0251523
1129.087 .0252165
1129.691 .0252875
1130.295 .0253609
1130.900 .0254343
1131.505 .0255053
1132.111 .0255806
1132.718 .0256562
1133.325 .0257344
1133.933 .0258217
1134.541 .0259161
1135.150 .0260159
1135.760 .0261216
1136.370 .0262267
1136.981 .0263347
1137.592 .0264411
1138.204 .0265467
1138.817 .0266502
1139.431 .0267547
1140.045 .0268595
1140.660 .0269679
1141.275 .0270750
1141.891 .0272120
1142.508 .0273241
1143.126 .0273831
1143.744 .0275934
1144.363 .0275879
1144.983 .0284401
