Measurement Sequence started on: 15-12-46-377
Integration time: 28
Scans to Average: 2 
>>>>>Begin Spectral Data<<<<<
432.689 .0000100
433.621 .0000100
434.552 .0000100
435.482 .0000100
436.410 .0000100
437.337 .0000100
438.262 .0261434
439.187 .0555228
440.110 .0921894
441.031 .1335347
441.952 .1737603
442.871 .2055805
443.789 .2231932
444.705 .2245688
445.621 .2120679
446.535 .1909396
447.447 .1668927
448.359 .1300583
449.269 .1116647
450.178 .0999929
451.086 .0918575
451.993 .0856701
452.898 .0807790
453.803 .0768046
454.706 .0735041
455.608 .0706425
456.508 .0681170
457.408 .0659097
458.306 .0639495
459.204 .0621823
460.100 .0606061
460.995 .0592235
461.888 .0579926
462.781 .0568747
463.673 .0558510
464.563 .0549025
465.452 .0540001
466.340 .0531129
467.228 .0522549
468.114 .0514474
468.999 .0506993
469.882 .0500060
470.765 .0493815
471.647 .0488364
472.528 .0483623
473.407 .0479573
474.286 .0476067
475.163 .0473023
476.040 .0470286
476.915 .0467771
477.790 .0465452
478.663 .0463400
479.535 .0461533
480.407 .0460004
481.277 .0458833
482.147 .0458084
483.015 .0457564
483.883 .0457358
484.749 .0457347
485.615 .0457477
486.479 .0457625
487.343 .0457761
488.206 .0457825
489.067 .0457908
489.928 .0457951
490.788 .0458046
491.647 .0458230
492.505 .0458722
493.362 .0459394
494.218 .0460420
495.073 .0461703
495.928 .0463372
496.781 .0465260
497.634 .0467530
498.486 .0469978
499.337 .0472682
500.187 .0475623
501.036 .0478802
501.884 .0482114
502.731 .0485712
503.578 .0489523
504.424 .0493670
505.268 .0498107
506.113 .0502920
506.956 .0507889
507.798 .0513318
508.640 .0518999
509.480 .0525038
510.320 .0531416
511.160 .0538304
511.998 .0545523
512.836 .0553459
513.672 .0562131
514.508 .0571662
515.344 .0582261
516.178 .0594496
517.012 .0608330
517.845 .0624382
518.677 .0642962
519.508 .0664200
520.339 .0688631
521.169 .0717344
521.998 .0749866
522.826 .0787160
523.654 .0829151
524.481 .0875786
525.307 .0927117
526.133 .0983172
526.958 .1042732
527.782 .1104623
528.605 .1168057
529.428 .1232050
530.250 .1291420
531.072 .1345159
531.892 .1389354
532.712 .1422068
533.532 .1441694
534.350 .1446179
535.168 .1434491
535.986 .1408604
536.802 .1369923
537.618 .1320613
538.434 .1262802
539.249 .1201735
540.063 .1138900
540.876 .1077108
541.689 .1018142
542.501 .0963108
543.313 .0912956
544.124 .0868049
544.934 .0827249
545.744 .0790299
546.553 .0756506
547.361 .0725977
548.169 .0698418
548.976 .0673381
549.783 .0650746
550.589 .0630084
551.395 .0611080
552.200 .0593781
553.004 .0577817
553.808 .0562823
554.611 .0549051
555.414 .0536658
556.216 .0525374
557.018 .0515208
557.819 .0506067
558.619 .0497690
559.419 .0489882
560.218 .0482683
561.017 .0475828
561.815 .0469237
562.613 .0462874
563.410 .0456630
564.207 .0450386
565.003 .0444362
565.799 .0438448
566.594 .0432670
567.388 .0427164
568.182 .0421795
568.976 .0416483
569.769 .0411311
570.562 .0406256
571.354 .0401289
572.145 .0396445
572.936 .0391784
573.727 .0387212
574.517 .0382797
575.307 .0378518
576.096 .0374409
576.885 .0370516
577.673 .0366862
578.461 .0363385
579.248 .0360112
580.035 .0357030
580.821 .0354152
581.607 .0351464
582.392 .0348935
583.177 .0346572
583.962 .0344398
584.746 .0342430
585.529 .0340621
586.313 .0338958
587.095 .0337477
587.878 .0336134
588.660 .0334925
589.441 .0333821
590.222 .0332789
591.003 .0331862
591.783 .0331012
592.563 .0330209
593.342 .0329452
594.121 .0328738
594.899 .0328065
595.678 .0327424
596.455 .0326810
597.233 .0326216
598.009 .0325642
598.786 .0325087
599.562 .0324559
600.338 .0324043
601.113 .0323551
601.888 .0323073
602.663 .0322616
603.437 .0322179
604.211 .0321739
604.984 .0321304
605.757 .0320878
606.530 .0320449
607.302 .0320017
608.074 .0319583
608.845 .0319163
609.616 .0318759
610.387 .0318374
611.158 .0318001
611.928 .0317647
612.697 .0317302
613.467 .0316962
614.236 .0316617
615.004 .0316280
615.773 .0315951
616.541 .0315626
617.308 .0315321
618.076 .0315041
618.843 .0314788
619.609 .0314566
620.375 .0314372
621.141 .0314204
621.907 .0314042
622.672 .0313891
623.437 .0313735
624.202 .0313578
624.966 .0313413
625.730 .0313245
626.493 .0313066
627.257 .0312875
628.020 .0312669
628.782 .0312444
629.545 .0312204
630.307 .0311947
631.068 .0311672
631.830 .0311383
632.591 .0311078
633.352 .0310765
634.112 .0310444
634.872 .0310127
635.632 .0309814
636.392 .0309502
637.151 .0309192
637.910 .0308891
638.668 .0308596
639.427 .0308309
640.185 .0308037
640.943 .0307779
641.700 .0307538
642.457 .0307315
643.214 .0307115
643.971 .0306926
644.727 .0306758
645.483 .0306599
646.239 .0306433
646.994 .0306256
647.750 .0306071
648.505 .0305874
649.259 .0305677
650.014 .0305485
650.768 .0305298
651.521 .0305120
652.275 .0304962
653.028 .0304807
653.781 .0304656
654.534 .0304503
655.286 .0304339
656.039 .0304153
656.791 .0303950
657.542 .0303720
658.294 .0303476
659.045 .0303230
659.796 .0302983
660.546 .0302730
661.297 .0302481
662.047 .0302236
662.796 .0301987
663.546 .0301736
664.295 .0301486
665.044 .0301229
665.793 .0300978
666.542 .0300733
667.290 .0300491
668.038 .0300263
668.786 .0300043
669.533 .0299832
670.281 .0299620
671.028 .0299415
671.774 .0299213
672.521 .0299017
673.267 .0298830
674.013 .0298650
674.759 .0298471
675.505 .0298300
676.250 .0298129
676.995 .0297960
677.740 .0297788
678.484 .0297616
679.229 .0297443
679.973 .0297268
680.717 .0297091
681.460 .0296920
682.204 .0296742
682.947 .0296566
683.690 .0296380
684.433 .0296188
685.175 .0295985
685.917 .0295783
686.659 .0295580
687.401 .0295381
688.142 .0295189
688.884 .0295001
689.625 .0294813
690.365 .0294628
691.106 .0294438
691.846 .0294240
692.586 .0294034
693.326 .0293824
694.066 .0293608
694.805 .0293401
695.545 .0293204
696.284 .0293022
697.022 .0292853
697.761 .0292701
698.499 .0292554
699.237 .0292411
699.975 .0292270
700.713 .0292122
701.450 .0291971
702.187 .0291818
702.924 .0291661
703.661 .0291508
704.397 .0291360
705.133 .0291220
705.869 .0291086
706.605 .0290961
707.341 .0290842
708.076 .0290722
708.811 .0290603
709.546 .0290483
710.281 .0290355
711.015 .0290218
711.749 .0290074
712.483 .0289923
713.217 .0289764
713.950 .0289601
714.684 .0289433
715.417 .0289261
716.150 .0289086
716.882 .0288906
717.615 .0288719
718.347 .0288528
719.079 .0288328
719.811 .0288120
720.542 .0287909
721.273 .0287700
722.005 .0287492
722.735 .0287292
723.466 .0287102
724.196 .0286918
724.927 .0286740
725.656 .0286566
726.386 .0286394
727.116 .0286223
727.845 .0286046
728.574 .0285863
729.303 .0285679
730.031 .0285498
730.760 .0285320
731.488 .0285150
732.216 .0284995
732.944 .0284858
733.671 .0284734
734.398 .0284625
735.125 .0284527
735.852 .0284433
736.579 .0284341
737.305 .0284248
738.031 .0284152
738.757 .0284056
739.483 .0283959
740.208 .0283867
740.933 .0283779
741.658 .0283696
742.383 .0283612
743.108 .0283524
743.832 .0283431
744.556 .0283325
745.280 .0283200
746.004 .0283065
746.727 .0282916
747.450 .0282759
748.173 .0282592
748.896 .0282421
749.618 .0282240
750.340 .0282052
751.062 .0281857
751.784 .0281654
752.506 .0281446
753.227 .0281241
753.948 .0281040
754.669 .0280850
755.389 .0280673
756.110 .0280509
756.830 .0280349
757.550 .0280197
758.269 .0280036
758.989 .0279863
759.708 .0279679
760.427 .0279489
761.146 .0279294
761.864 .0279102
762.582 .0278916
763.300 .0278739
764.018 .0278574
764.736 .0278418
765.453 .0278263
766.170 .0278112
766.887 .0277961
767.603 .0277806
768.320 .0277650
769.036 .0277501
769.751 .0277357
770.467 .0277227
771.182 .0277110
771.897 .0277004
772.612 .0276909
773.327 .0276827
774.041 .0276755
774.755 .0276691
775.469 .0276637
776.183 .0276591
776.896 .0276546
777.609 .0276506
778.322 .0276464
779.035 .0276419
779.747 .0276377
780.459 .0276338
781.171 .0276298
781.882 .0276260
782.594 .0276227
783.305 .0276198
784.016 .0276176
784.726 .0276156
785.436 .0276135
786.147 .0276112
786.856 .0276090
787.566 .0276063
788.275 .0276035
788.984 .0276006
789.693 .0275976
790.401 .0275944
791.110 .0275910
791.818 .0275868
792.525 .0275819
793.233 .0275765
793.940 .0275703
794.647 .0275630
795.353 .0275555
796.060 .0275472
796.766 .0275388
797.472 .0275300
798.177 .0275209
798.883 .0275111
799.588 .0275008
800.292 .0274901
800.997 .0274789
801.701 .0274675
802.405 .0274563
803.109 .0274450
803.812 .0274345
804.515 .0274244
805.218 .0274145
805.921 .0274046
806.623 .0273947
807.325 .0273843
808.027 .0273737
808.728 .0273626
809.429 .0273513
810.130 .0273399
810.831 .0273285
811.531 .0273171
812.231 .0273053
812.931 .0272932
813.630 .0272806
814.330 .0272677
815.029 .0272546
815.727 .0272411
816.426 .0272276
817.124 .0272145
817.821 .0272016
818.519 .0271894
819.216 .0271778
819.913 .0271668
820.609 .0271560
821.306 .0271458
822.002 .0271357
822.697 .0271262
823.393 .0271176
824.088 .0271104
824.783 .0271046
825.477 .0271007
826.171 .0270980
826.865 .0270961
827.559 .0270950
828.252 .0270941
828.945 .0270924
829.638 .0270906
830.330 .0270878
831.023 .0270844
831.714 .0270801
832.406 .0270759
833.097 .0270712
833.788 .0270661
834.479 .0270606
835.169 .0270542
835.859 .0270468
836.548 .0270388
837.238 .0270296
837.927 .0270197
838.615 .0270092
839.304 .0269982
839.992 .0269869
840.680 .0269757
841.367 .0269643
842.054 .0269528
842.741 .0269411
843.428 .0269299
844.114 .0269183
844.800 .0269069
845.485 .0268956
846.170 .0268837
846.855 .0268714
847.540 .0268583
848.224 .0268445
848.908 .0268304
849.592 .0268157
850.275 .0268008
850.958 .0267853
851.641 .0267697
852.323 .0267532
853.005 .0267359
853.687 .0267176
854.368 .0266982
855.049 .0266772
855.730 .0266550
856.410 .0266317
857.090 .0266079
857.769 .0265838
858.449 .0265596
859.128 .0265356
859.806 .0265118
860.485 .0264878
861.163 .0264642
861.840 .0264407
862.518 .0264177
863.195 .0263951
863.871 .0263730
864.548 .0263519
865.224 .0263315
865.899 .0263124
866.574 .0262945
867.249 .0262781
867.924 .0262635
868.598 .0262500
869.272 .0262379
869.946 .0262272
870.619 .0262169
871.292 .0262067
871.964 .0261960
872.636 .0261847
873.308 .0261726
873.979 .0261594
874.651 .0261453
875.321 .0261308
875.992 .0261165
876.662 .0261029
877.331 .0260897
878.001 .0260773
878.670 .0260654
879.338 .0260536
880.007 .0260419
880.675 .0260302
881.342 .0260183
882.009 .0260069
882.676 .0259957
883.343 .0259854
884.009 .0259756
884.675 .0259668
885.340 .0259590
886.005 .0259522
886.670 .0259467
887.334 .0259419
887.998 .0259378
888.662 .0259346
889.325 .0259320
889.988 .0259299
890.650 .0259282
891.312 .0259270
891.974 .0259264
892.636 .0259267
893.297 .0259277
893.957 .0259297
894.618 .0259329
895.278 .0259369
895.937 .0259411
896.596 .0259458
897.255 .0259503
897.914 .0259540
898.572 .0259572
899.230 .0259597
899.887 .0259610
900.544 .0259613
901.201 .0259607
901.857 .0259591
902.513 .0259567
903.168 .0259531
903.823 .0259481
904.478 .0259415
905.132 .0259334
905.786 .0259235
906.440 .0259119
907.093 .0258992
907.746 .0258856
908.399 .0258711
909.051 .0258562
909.703 .0258407
910.354 .0258251
911.005 .0258096
911.656 .0257943
912.306 .0257788
912.956 .0257633
913.605 .0257476
914.254 .0257321
914.903 .0257166
915.551 .0257022
916.199 .0256885
916.847 .0256765
917.494 .0256661
918.141 .0256575
918.788 .0256504
919.434 .0256453
920.079 .0256410
920.725 .0256373
921.370 .0256329
922.014 .0256276
922.658 .0256208
923.302 .0256131
923.946 .0256045
924.589 .0255954
925.231 .0255861
925.873 .0255770
926.515 .0255676
927.157 .0255580
927.798 .0255480
928.439 .0255371
929.079 .0255248
929.719 .0255109
930.359 .0254954
930.998 .0254786
931.637 .0254616
932.275 .0254451
932.913 .0254297
933.551 .0254157
934.188 .0254037
934.825 .0253932
935.462 .0253848
936.098 .0253777
936.733 .0253720
937.369 .0253674
938.004 .0253638
938.638 .0253605
939.273 .0253576
939.907 .0253551
940.540 .0253532
941.173 .0253519
941.806 .0253519
942.438 .0253523
943.070 .0253539
943.702 .0253561
944.333 .0253589
944.964 .0253617
945.594 .0253643
946.224 .0253661
946.854 .0253673
947.483 .0253676
948.112 .0253673
948.741 .0253660
949.369 .0253650
949.996 .0253637
950.624 .0253625
951.251 .0253612
951.878 .0253598
952.504 .0253581
953.130 .0253563
953.755 .0253539
954.380 .0253509
955.005 .0253474
955.629 .0253437
956.253 .0253396
956.877 .0253354
957.500 .0253313
958.123 .0253273
958.746 .0253234
959.368 .0253196
959.990 .0253154
960.611 .0253107
961.232 .0253056
961.853 .0252999
962.473 .0252938
963.093 .0252869
963.712 .0252796
964.331 .0252720
964.950 .0252639
965.569 .0252553
966.187 .0252467
966.804 .0252383
967.422 .0252302
968.039 .0252224
968.655 .0252145
969.272 .0252064
969.887 .0251983
970.503 .0251900
971.118 .0251818
971.733 .0251737
972.347 .0251658
972.961 .0251583
973.575 .0251517
974.188 .0251448
974.801 .0251380
975.414 .0251314
976.026 .0251242
976.638 .0251153
977.250 .0251047
977.861 .0250923
978.472 .0250785
979.083 .0250633
979.693 .0250463
980.303 .0250278
980.912 .0250085
981.521 .0249878
982.130 .0249661
982.738 .0249443
983.346 .0249221
983.954 .0248992
984.562 .0248760
985.169 .0248521
985.775 .0248273
986.382 .0248021
986.988 .0247770
987.594 .0247526
988.199 .0247293
988.804 .0247079
989.409 .0246891
990.013 .0246738
990.617 .0246618
991.221 .0246517
991.824 .0246439
992.427 .0246376
993.030 .0246315
993.632 .0246251
994.234 .0246187
994.836 .0246130
995.438 .0246080
996.039 .0246040
996.640 .0246009
997.240 .0245988
997.840 .0245973
998.440 .0245956
999.040 .0245931
999.639 .0245890
1000.238 .0245826
1000.836 .0245741
1001.435 .0245642
1002.033 .0245535
1002.630 .0245421
1003.228 .0245313
1003.825 .0245210
1004.422 .0245119
1005.018 .0245035
1005.614 .0244956
1006.210 .0244885
1006.806 .0244824
1007.401 .0244760
1007.996 .0244694
1008.591 .0244626
1009.186 .0244554
1009.780 .0244476
1010.374 .0244399
1010.967 .0244321
1011.561 .0244246
1012.154 .0244176
1012.746 .0244114
1013.339 .0244054
1013.931 .0243997
1014.523 .0243938
1015.115 .0243869
1015.706 .0243796
1016.298 .0243716
1016.888 .0243632
1017.479 .0243557
1018.069 .0243493
1018.660 .0243444
1019.250 .0243415
1019.839 .0243402
1020.429 .0243400
1021.018 .0243402
1021.607 .0243405
1022.195 .0243396
1022.784 .0243377
1023.372 .0243354
1023.960 .0243338
1024.547 .0243337
1025.135 .0243362
1025.722 .0243408
1026.309 .0243476
1026.896 .0243558
1027.483 .0243639
1028.069 .0243711
1028.655 .0243767
1029.241 .0243800
1029.827 .0243816
1030.412 .0243825
1030.997 .0243844
1031.582 .0243877
1032.167 .0243933
1032.752 .0244016
1033.336 .0244111
1033.921 .0244207
1034.505 .0244292
1035.089 .0244356
1035.672 .0244388
1036.256 .0244393
1036.839 .0244368
1037.422 .0244323
1038.005 .0244272
1038.588 .0244223
1039.171 .0244171
1039.753 .0244131
1040.335 .0244093
1040.918 .0244054
1041.500 .0244011
1042.081 .0243963
1042.663 .0243909
1043.244 .0243860
1043.826 .0243815
1044.407 .0243775
1044.988 .0243745
1045.569 .0243730
1046.150 .0243717
1046.730 .0243708
1047.311 .0243700
1047.891 .0243694
1048.471 .0243690
1049.052 .0243695
1049.632 .0243703
1050.211 .0243723
1050.791 .0243746
1051.371 .0243768
1051.950 .0243785
1052.530 .0243790
1053.109 .0243772
1053.688 .0243732
1054.268 .0243682
1054.847 .0243624
1055.426 .0243564
1056.005 .0243520
1056.583 .0243488
1057.162 .0243473
1057.741 .0243462
1058.319 .0243447
1058.898 .0243434
1059.476 .0243412
1060.055 .0243378
1060.633 .0243331
1061.211 .0243284
1061.790 .0243245
1062.368 .0243217
1062.946 .0243209
1063.524 .0243225
1064.102 .0243251
1064.680 .0243285
1065.258 .0243316
1065.836 .0243342
1066.414 .0243371
1066.992 .0243401
1067.570 .0243443
1068.148 .0243500
1068.726 .0243570
1069.304 .0243664
1069.882 .0243778
1070.460 .0243903
1071.038 .0244036
1071.616 .0244171
1072.194 .0244310
1072.772 .0244437
1073.350 .0244564
1073.928 .0244694
1074.506 .0244831
1075.084 .0244979
1075.662 .0245127
1076.240 .0245273
1076.819 .0245427
1077.397 .0245564
1077.976 .0245682
1078.554 .0245777
1079.133 .0245846
1079.711 .0245876
1080.290 .0245897
1080.869 .0245890
1081.448 .0245862
1082.027 .0245825
1082.606 .0245795
1083.185 .0245776
1083.764 .0245775
1084.343 .0245789
1084.923 .0245824
1085.502 .0245887
1086.082 .0245978
1086.662 .0246081
1087.242 .0246225
1087.822 .0246406
1088.402 .0246609
1088.983 .0246829
1089.563 .0247059
1090.144 .0247290
1090.725 .0247547
1091.306 .0247810
1091.887 .0248062
1092.469 .0248318
1093.050 .0248571
1093.632 .0248816
1094.214 .0249071
1094.796 .0249337
1095.379 .0249608
1095.961 .0249888
1096.544 .0250176
1097.127 .0250437
1097.710 .0250679
1098.294 .0250916
1098.877 .0251138
1099.461 .0251363
1100.046 .0251597
1100.630 .0251831
1101.215 .0252098
1101.800 .0252405
1102.385 .0252726
1102.970 .0253044
1103.556 .0253368
1104.142 .0253675
1104.728 .0253946
1105.315 .0254172
1105.902 .0254364
1106.489 .0254543
1107.077 .0254731
1107.664 .0254927
1108.253 .0255167
1108.841 .0255467
1109.430 .0255847
1110.019 .0256286
1110.609 .0256785
1111.198 .0257319
1111.789 .0257884
1112.379 .0258451
1112.970 .0258967
1113.561 .0259437
1114.153 .0259856
1114.745 .0260231
1115.338 .0260602
1115.931 .0260966
1116.524 .0261331
1117.117 .0261710
1117.712 .0262113
1118.306 .0262492
1118.901 .0262847
1119.496 .0263166
1120.092 .0263429
1120.689 .0263638
1121.285 .0263799
1121.882 .0263927
1122.480 .0264059
1123.078 .0264291
1123.677 .0264623
1124.276 .0265046
1124.875 .0265595
1125.476 .0266218
1126.076 .0266907
1126.677 .0267621
1127.279 .0268342
1127.881 .0269070
1128.484 .0269798
1129.087 .0270540
1129.691 .0271267
1130.295 .0271993
1130.900 .0272746
1131.505 .0273508
1132.111 .0274292
1132.718 .0275123
1133.325 .0275980
1133.933 .0276815
1134.541 .0277713
1135.150 .0278661
1135.760 .0279677
1136.370 .0280769
1136.981 .0281943
1137.592 .0283186
1138.204 .0284498
1138.817 .0285895
1139.431 .0287413
1140.045 .0289043
1140.660 .0290732
1141.275 .0292511
1141.891 .0294115
1142.508 .0297189
1143.126 .0298906
1143.744 .0298384
1144.363 .0303032
1144.983 .0297726
