Measurement Sequence started on: 15-12-46-377
Integration time: 28
Scans to Average: 2 
>>>>>Begin Spectral Data<<<<<
432.689 .0000100
433.621 .0000100
434.552 .0000100
435.482 .0000100
436.410 .0000100
437.337 .0000100
438.262 .0289584
439.187 .0614878
440.110 .1019942
441.031 .1477533
441.952 .1922936
442.871 .2274277
443.789 .2468325
444.705 .2482719
445.621 .2343597
446.535 .2108546
447.447 .1840700
448.359 .1430829
449.269 .1224747
450.178 .1093040
451.086 .0999273
451.993 .0927245
452.898 .0870712
453.803 .0824528
454.706 .0786360
455.608 .0753972
456.508 .0726252
457.408 .0702400
458.306 .0681392
459.204 .0662581
460.100 .0645696
460.995 .0630570
461.888 .0617052
462.781 .0604917
463.673 .0593943
464.563 .0583999
465.452 .0574748
466.340 .0565975
467.228 .0557690
468.114 .0549737
468.999 .0542282
469.882 .0535258
470.765 .0528823
471.647 .0522944
472.528 .0517616
473.407 .0512880
474.286 .0508655
475.163 .0504827
476.040 .0501271
476.915 .0497938
477.790 .0494826
478.663 .0491956
479.535 .0489425
480.407 .0487336
481.277 .0485737
482.147 .0484623
483.015 .0483949
483.883 .0483638
484.749 .0483583
485.615 .0483660
486.479 .0483794
487.343 .0483988
488.206 .0484218
489.067 .0484448
489.928 .0484782
490.788 .0485356
491.647 .0486171
492.505 .0487250
493.362 .0488603
494.218 .0490153
495.073 .0491809
495.928 .0493501
496.781 .0495130
497.634 .0496760
498.486 .0498458
499.337 .0500227
500.187 .0502203
501.036 .0504496
501.884 .0507199
502.731 .0510298
503.578 .0513874
504.424 .0517873
505.268 .0522201
506.113 .0526827
506.956 .0531698
507.798 .0536827
508.640 .0542294
509.480 .0548162
510.320 .0554745
511.160 .0562238
511.998 .0570783
512.836 .0580515
513.672 .0591626
514.508 .0604162
515.344 .0618127
516.178 .0633671
517.012 .0651106
517.845 .0670888
518.677 .0693098
519.508 .0718002
520.339 .0746218
521.169 .0778200
521.998 .0814187
522.826 .0854523
523.654 .0899513
524.481 .0948863
525.307 .1002635
526.133 .1060276
526.958 .1121145
527.782 .1185168
528.605 .1250217
529.428 .1315699
530.250 .1377322
531.072 .1433008
531.892 .1479188
532.712 .1513449
533.532 .1534525
534.350 .1539825
535.168 .1528764
535.986 .1502472
536.802 .1461981
537.618 .1410495
538.434 .1349808
539.249 .1284308
540.063 .1215829
540.876 .1147365
541.689 .1080667
542.501 .1017206
543.313 .0958979
544.124 .0906162
544.934 .0858363
545.744 .0815271
546.553 .0776477
547.361 .0741383
548.169 .0710183
548.976 .0682249
549.783 .0657216
550.589 .0634947
551.395 .0615068
552.200 .0597377
553.004 .0581860
553.808 .0568011
554.611 .0555910
555.414 .0545080
556.216 .0535514
557.018 .0526774
557.819 .0518770
558.619 .0511215
559.419 .0503999
560.218 .0497216
561.017 .0490806
561.815 .0484538
562.613 .0478538
563.410 .0472703
564.207 .0467090
565.003 .0461658
565.799 .0456418
566.594 .0451237
567.388 .0446289
568.182 .0441346
568.976 .0436406
569.769 .0431503
570.562 .0426679
571.354 .0421815
572.145 .0417049
572.936 .0412372
573.727 .0407753
574.517 .0403243
575.307 .0398941
576.096 .0394808
576.885 .0390913
577.673 .0387217
578.461 .0383701
579.248 .0380363
580.035 .0377201
580.821 .0374144
581.607 .0371165
582.392 .0368318
583.177 .0365594
583.962 .0363002
584.746 .0360615
585.529 .0358418
586.313 .0356452
587.095 .0354705
587.878 .0353162
588.660 .0351806
589.441 .0350632
590.222 .0349572
591.003 .0348619
591.783 .0347738
592.563 .0346901
593.342 .0346092
594.121 .0345299
594.899 .0344533
595.678 .0343791
596.455 .0343088
597.233 .0342442
598.009 .0341828
598.786 .0341262
599.562 .0340713
600.338 .0340180
601.113 .0339651
601.888 .0339110
602.663 .0338550
603.437 .0337985
604.211 .0337421
604.984 .0336870
605.757 .0336350
606.530 .0335880
607.302 .0335456
608.074 .0335071
608.845 .0334728
609.616 .0334402
610.387 .0334081
611.158 .0333763
611.928 .0333433
612.697 .0333097
613.467 .0332755
614.236 .0332411
615.004 .0332079
615.773 .0331769
616.541 .0331479
617.308 .0331203
618.076 .0330940
618.843 .0330680
619.609 .0330406
620.375 .0330121
621.141 .0329832
621.907 .0329531
622.672 .0329230
623.437 .0328933
624.202 .0328652
624.966 .0328391
625.730 .0328151
626.493 .0327932
627.257 .0327723
628.020 .0327518
628.782 .0327299
629.545 .0327061
630.307 .0326813
631.068 .0326557
631.830 .0326296
632.591 .0326036
633.352 .0325788
634.112 .0325541
634.872 .0325295
635.632 .0325051
636.392 .0324799
637.151 .0324531
637.910 .0324243
638.668 .0323935
639.427 .0323610
640.185 .0323283
640.943 .0322960
641.700 .0322647
642.457 .0322350
643.214 .0322060
643.971 .0321765
644.727 .0321471
645.483 .0321178
646.239 .0320878
646.994 .0320579
647.750 .0320290
648.505 .0320011
649.259 .0319751
650.014 .0319515
650.768 .0319302
651.521 .0319106
652.275 .0318917
653.028 .0318724
653.781 .0318517
654.534 .0318293
655.286 .0318049
656.039 .0317793
656.791 .0317528
657.542 .0317252
658.294 .0316970
659.045 .0316686
659.796 .0316398
660.546 .0316110
661.297 .0315818
662.047 .0315525
662.796 .0315228
663.546 .0314927
664.295 .0314626
665.044 .0314332
665.793 .0314047
666.542 .0313770
667.290 .0313505
668.038 .0313255
668.786 .0313012
669.533 .0312786
670.281 .0312572
671.028 .0312371
671.774 .0312182
672.521 .0312000
673.267 .0311817
674.013 .0311636
674.759 .0311451
675.505 .0311258
676.250 .0311058
676.995 .0310858
677.740 .0310658
678.484 .0310463
679.229 .0310277
679.973 .0310101
680.717 .0309932
681.460 .0309775
682.204 .0309618
682.947 .0309467
683.690 .0309315
684.433 .0309161
685.175 .0309004
685.917 .0308849
686.659 .0308691
687.401 .0308530
688.142 .0308366
688.884 .0308202
689.625 .0308026
690.365 .0307837
691.106 .0307634
691.846 .0307418
692.586 .0307196
693.326 .0306964
694.066 .0306725
694.805 .0306485
695.545 .0306235
696.284 .0305985
697.022 .0305733
697.761 .0305481
698.499 .0305227
699.237 .0304975
699.975 .0304726
700.713 .0304479
701.450 .0304240
702.187 .0304010
702.924 .0303796
703.661 .0303596
704.397 .0303405
705.133 .0303225
705.869 .0303059
706.605 .0302906
707.341 .0302755
708.076 .0302612
708.811 .0302467
709.546 .0302321
710.281 .0302172
711.015 .0302016
711.749 .0301859
712.483 .0301699
713.217 .0301540
713.950 .0301376
714.684 .0301212
715.417 .0301047
716.150 .0300880
716.882 .0300711
717.615 .0300535
718.347 .0300351
719.079 .0300160
719.811 .0299964
720.542 .0299765
721.273 .0299563
722.005 .0299357
722.735 .0299148
723.466 .0298937
724.196 .0298719
724.927 .0298491
725.656 .0298252
726.386 .0298006
727.116 .0297754
727.845 .0297499
728.574 .0297247
729.303 .0297006
730.031 .0296785
730.760 .0296582
731.488 .0296397
732.216 .0296235
732.944 .0296092
733.671 .0295963
734.398 .0295846
735.125 .0295739
735.852 .0295645
736.579 .0295565
737.305 .0295499
738.031 .0295452
738.757 .0295416
739.483 .0295390
740.208 .0295359
740.933 .0295323
741.658 .0295267
742.383 .0295184
743.108 .0295078
743.832 .0294945
744.556 .0294791
745.280 .0294623
746.004 .0294449
746.727 .0294273
747.450 .0294102
748.173 .0293936
748.896 .0293773
749.618 .0293617
750.340 .0293468
751.062 .0293326
751.784 .0293191
752.506 .0293066
753.227 .0292944
753.948 .0292828
754.669 .0292719
755.389 .0292603
756.110 .0292489
756.830 .0292368
757.550 .0292248
758.269 .0292125
758.989 .0292001
759.708 .0291873
760.427 .0291743
761.146 .0291608
761.864 .0291460
762.582 .0291299
763.300 .0291126
764.018 .0290940
764.736 .0290749
765.453 .0290559
766.170 .0290378
766.887 .0290207
767.603 .0290054
768.320 .0289912
769.036 .0289783
769.751 .0289659
770.467 .0289535
771.182 .0289414
771.897 .0289295
772.612 .0289172
773.327 .0289052
774.041 .0288944
774.755 .0288843
775.469 .0288753
776.183 .0288672
776.896 .0288590
777.609 .0288507
778.322 .0288416
779.035 .0288319
779.747 .0288214
780.459 .0288109
781.171 .0288003
781.882 .0287899
782.594 .0287803
783.305 .0287711
784.016 .0287621
784.726 .0287534
785.436 .0287444
786.147 .0287349
786.856 .0287248
787.566 .0287143
788.275 .0287038
788.984 .0286936
789.693 .0286839
790.401 .0286748
791.110 .0286659
791.818 .0286575
792.525 .0286490
793.233 .0286400
793.940 .0286305
794.647 .0286202
795.353 .0286092
796.060 .0285976
796.766 .0285858
797.472 .0285738
798.177 .0285616
798.883 .0285496
799.588 .0285376
800.292 .0285253
800.997 .0285129
801.701 .0285000
802.405 .0284867
803.109 .0284733
803.812 .0284601
804.515 .0284466
805.218 .0284332
805.921 .0284198
806.623 .0284058
807.325 .0283917
808.027 .0283775
808.728 .0283631
809.429 .0283483
810.130 .0283331
810.831 .0283176
811.531 .0283014
812.231 .0282846
812.931 .0282672
813.630 .0282491
814.330 .0282306
815.029 .0282115
815.727 .0281925
816.426 .0281741
817.124 .0281562
817.821 .0281391
818.519 .0281229
819.216 .0281077
819.913 .0280935
820.609 .0280802
821.306 .0280680
822.002 .0280568
822.697 .0280466
823.393 .0280375
824.088 .0280296
824.783 .0280222
825.477 .0280154
826.171 .0280091
826.865 .0280032
827.559 .0279973
828.252 .0279916
828.945 .0279859
829.638 .0279807
830.330 .0279757
831.023 .0279710
831.714 .0279660
832.406 .0279614
833.097 .0279561
833.788 .0279505
834.479 .0279444
835.169 .0279383
835.859 .0279325
836.548 .0279273
837.238 .0279228
837.927 .0279188
838.615 .0279155
839.304 .0279124
839.992 .0279087
840.680 .0279045
841.367 .0278984
842.054 .0278910
842.741 .0278820
843.428 .0278722
844.114 .0278618
844.800 .0278518
845.485 .0278420
846.170 .0278323
846.855 .0278227
847.540 .0278129
848.224 .0278021
848.908 .0277906
849.592 .0277782
850.275 .0277647
850.958 .0277505
851.641 .0277362
852.323 .0277218
853.005 .0277083
853.687 .0276954
854.368 .0276830
855.049 .0276709
855.730 .0276589
856.410 .0276466
857.090 .0276343
857.769 .0276220
858.449 .0276095
859.128 .0275968
859.806 .0275847
860.485 .0275731
861.163 .0275620
861.840 .0275515
862.518 .0275416
863.195 .0275322
863.871 .0275233
864.548 .0275149
865.224 .0275071
865.899 .0275003
866.574 .0274941
867.249 .0274886
867.924 .0274830
868.598 .0274775
869.272 .0274718
869.946 .0274657
870.619 .0274591
871.292 .0274525
871.964 .0274457
872.636 .0274388
873.308 .0274317
873.979 .0274243
874.651 .0274158
875.321 .0274067
875.992 .0273965
876.662 .0273856
877.331 .0273747
878.001 .0273640
878.670 .0273537
879.338 .0273447
880.007 .0273365
880.675 .0273289
881.342 .0273214
882.009 .0273141
882.676 .0273064
883.343 .0272986
884.009 .0272909
884.675 .0272833
885.340 .0272766
886.005 .0272713
886.670 .0272671
887.334 .0272644
887.998 .0272623
888.662 .0272604
889.325 .0272583
889.988 .0272556
890.650 .0272518
891.312 .0272470
891.974 .0272416
892.636 .0272357
893.297 .0272291
893.957 .0272224
894.618 .0272154
895.278 .0272082
895.937 .0272010
896.596 .0271934
897.255 .0271853
897.914 .0271769
898.572 .0271682
899.230 .0271590
899.887 .0271495
900.544 .0271396
901.201 .0271292
901.857 .0271186
902.513 .0271078
903.168 .0270968
903.823 .0270855
904.478 .0270742
905.132 .0270621
905.786 .0270491
906.440 .0270351
907.093 .0270195
907.746 .0270027
908.399 .0269847
909.051 .0269657
909.703 .0269459
910.354 .0269258
911.005 .0269061
911.656 .0268865
912.306 .0268672
912.956 .0268482
913.605 .0268292
914.254 .0268102
914.903 .0267915
915.551 .0267728
916.199 .0267551
916.847 .0267382
917.494 .0267220
918.141 .0267069
918.788 .0266924
919.434 .0266780
920.079 .0266631
920.725 .0266474
921.370 .0266305
922.014 .0266118
922.658 .0265921
923.302 .0265712
923.946 .0265498
924.589 .0265280
925.231 .0265054
925.873 .0264825
926.515 .0264594
927.157 .0264354
927.798 .0264104
928.439 .0263844
929.079 .0263575
929.719 .0263298
930.359 .0263020
930.998 .0262746
931.637 .0262483
932.275 .0262234
932.913 .0261997
933.551 .0261769
934.188 .0261553
934.825 .0261346
935.462 .0261150
936.098 .0260966
936.733 .0260792
937.369 .0260630
938.004 .0260482
938.638 .0260347
939.273 .0260222
939.907 .0260110
940.540 .0260006
941.173 .0259909
941.806 .0259820
942.438 .0259737
943.070 .0259658
943.702 .0259586
944.333 .0259517
944.964 .0259442
945.594 .0259359
946.224 .0259265
946.854 .0259162
947.483 .0259055
948.112 .0258941
948.741 .0258824
949.369 .0258710
949.996 .0258603
950.624 .0258499
951.251 .0258398
951.878 .0258300
952.504 .0258196
953.130 .0258083
953.755 .0257960
954.380 .0257827
955.005 .0257687
955.629 .0257542
956.253 .0257393
956.877 .0257246
957.500 .0257103
958.123 .0256967
958.746 .0256837
959.368 .0256712
959.990 .0256594
960.611 .0256474
961.232 .0256359
961.853 .0256245
962.473 .0256136
963.093 .0256031
963.712 .0255929
964.331 .0255831
964.950 .0255735
965.569 .0255644
966.187 .0255565
966.804 .0255496
967.422 .0255440
968.039 .0255393
968.655 .0255355
969.272 .0255321
969.887 .0255288
970.503 .0255253
971.118 .0255218
971.733 .0255178
972.347 .0255137
972.961 .0255095
973.575 .0255055
974.188 .0255018
974.801 .0254982
975.414 .0254947
976.026 .0254910
976.638 .0254865
977.250 .0254815
977.861 .0254758
978.472 .0254705
979.083 .0254651
979.693 .0254599
980.303 .0254551
980.912 .0254502
981.521 .0254450
982.130 .0254394
982.738 .0254336
983.346 .0254271
983.954 .0254202
984.562 .0254132
985.169 .0254060
985.775 .0253991
986.382 .0253926
986.988 .0253865
987.594 .0253808
988.199 .0253748
988.804 .0253678
989.409 .0253602
990.013 .0253525
990.617 .0253446
991.221 .0253374
991.824 .0253312
992.427 .0253264
993.030 .0253236
993.632 .0253229
994.234 .0253244
994.836 .0253277
995.438 .0253325
996.039 .0253376
996.640 .0253428
997.240 .0253479
997.840 .0253529
998.440 .0253582
999.040 .0253636
999.639 .0253689
1000.238 .0253745
1000.836 .0253798
1001.435 .0253848
1002.033 .0253893
1002.630 .0253936
1003.228 .0253969
1003.825 .0253992
1004.422 .0254009
1005.018 .0254028
1005.614 .0254050
1006.210 .0254084
1006.806 .0254130
1007.401 .0254186
1007.996 .0254252
1008.591 .0254328
1009.186 .0254409
1009.780 .0254500
1010.374 .0254589
1010.967 .0254677
1011.561 .0254763
1012.154 .0254842
1012.746 .0254910
1013.339 .0254973
1013.931 .0255033
1014.523 .0255084
1015.115 .0255124
1015.706 .0255159
1016.298 .0255181
1016.888 .0255201
1017.479 .0255217
1018.069 .0255227
1018.660 .0255236
1019.250 .0255249
1019.839 .0255268
1020.429 .0255299
1021.018 .0255346
1021.607 .0255412
1022.195 .0255499
1022.784 .0255608
1023.372 .0255730
1023.960 .0255861
1024.547 .0256004
1025.135 .0256153
1025.722 .0256301
1026.309 .0256458
1026.896 .0256621
1027.483 .0256790
1028.069 .0256966
1028.655 .0257141
1029.241 .0257316
1029.827 .0257486
1030.412 .0257648
1030.997 .0257795
1031.582 .0257927
1032.167 .0258047
1032.752 .0258155
1033.336 .0258252
1033.921 .0258348
1034.505 .0258433
1035.089 .0258510
1035.672 .0258580
1036.256 .0258641
1036.839 .0258693
1037.422 .0258737
1038.005 .0258778
1038.588 .0258814
1039.171 .0258836
1039.753 .0258852
1040.335 .0258851
1040.918 .0258847
1041.500 .0258835
1042.081 .0258818
1042.663 .0258788
1043.244 .0258759
1043.826 .0258722
1044.407 .0258678
1044.988 .0258631
1045.569 .0258578
1046.150 .0258508
1046.730 .0258430
1047.311 .0258343
1047.891 .0258253
1048.471 .0258173
1049.052 .0258114
1049.632 .0258062
1050.211 .0258033
1050.791 .0258015
1051.371 .0258013
1051.950 .0258025
1052.530 .0258052
1053.109 .0258087
1053.688 .0258130
1054.268 .0258176
1054.847 .0258214
1055.426 .0258254
1056.005 .0258300
1056.583 .0258330
1057.162 .0258349
1057.741 .0258357
1058.319 .0258355
1058.898 .0258344
1059.476 .0258324
1060.055 .0258295
1060.633 .0258261
1061.211 .0258206
1061.790 .0258130
1062.368 .0258031
1062.946 .0257921
1063.524 .0257805
1064.102 .0257689
1064.680 .0257582
1065.258 .0257485
1065.836 .0257394
1066.414 .0257319
1066.992 .0257261
1067.570 .0257215
1068.148 .0257166
1068.726 .0257115
1069.304 .0257068
1069.882 .0257008
1070.460 .0256936
1071.038 .0256869
1071.616 .0256799
1072.194 .0256741
1072.772 .0256673
1073.350 .0256603
1073.928 .0256542
1074.506 .0256488
1075.084 .0256435
1075.662 .0256381
1076.240 .0256336
1076.819 .0256290
1077.397 .0256234
1077.976 .0256193
1078.554 .0256155
1079.133 .0256126
1079.711 .0256108
1080.290 .0256084
1080.869 .0256047
1081.448 .0255996
1082.027 .0255913
1082.606 .0255807
1083.185 .0255688
1083.764 .0255557
1084.343 .0255414
1084.923 .0255280
1085.502 .0255171
1086.082 .0255068
1086.662 .0254987
1087.242 .0254910
1087.822 .0254814
1088.402 .0254717
1088.983 .0254608
1089.563 .0254501
1090.144 .0254430
1090.725 .0254413
1091.306 .0254454
1091.887 .0254569
1092.469 .0254774
1093.050 .0255037
1093.632 .0255348
1094.214 .0255695
1094.796 .0256038
1095.379 .0256371
1095.961 .0256705
1096.544 .0257017
1097.127 .0257323
1097.710 .0257638
1098.294 .0257960
1098.877 .0258271
1099.461 .0258571
1100.046 .0258838
1100.630 .0259062
1101.215 .0259243
1101.800 .0259365
1102.385 .0259427
1102.970 .0259456
1103.556 .0259456
1104.142 .0259440
1104.728 .0259425
1105.315 .0259427
1105.902 .0259449
1106.489 .0259489
1107.077 .0259552
1107.664 .0259648
1108.253 .0259767
1108.841 .0259913
1109.430 .0260095
1110.019 .0260292
1110.609 .0260505
1111.198 .0260734
1111.789 .0260983
1112.379 .0261247
1112.970 .0261519
1113.561 .0261805
1114.153 .0262116
1114.745 .0262464
1115.338 .0262810
1115.931 .0263129
1116.524 .0263460
1117.117 .0263794
1117.712 .0264084
1118.306 .0264379
1118.901 .0264709
1119.496 .0265058
1120.092 .0265454
1120.689 .0265889
1121.285 .0266362
1121.882 .0266852
1122.480 .0267366
1123.078 .0267880
1123.677 .0268388
1124.276 .0268905
1124.875 .0269398
1125.476 .0269901
1126.076 .0270470
1126.677 .0271072
1127.279 .0271685
1127.881 .0272369
1128.484 .0273096
1129.087 .0273844
1129.691 .0274633
1130.295 .0275451
1130.900 .0276288
1131.505 .0277112
1132.111 .0277956
1132.718 .0278792
1133.325 .0279620
1133.933 .0280448
1134.541 .0281267
1135.150 .0282113
1135.760 .0282997
1136.370 .0283895
1136.981 .0284851
1137.592 .0285871
1138.204 .0286925
1138.817 .0287933
1139.431 .0289037
1140.045 .0290205
1140.660 .0291437
1141.275 .0292825
1141.891 .0294325
1142.508 .0296095
1143.126 .0297496
1143.744 .0298747
1144.363 .0303314
1144.983 .0303635
