Measurement Sequence started on: 15-12-46-377
Integration time: 28
Scans to Average: 2 
>>>>>Begin Spectral Data<<<<<
432.689 .0000100
433.621 .0000100
434.552 .0000100
435.482 .0000100
436.410 .0000100
437.337 .0000100
438.262 .0251325
439.187 .0532950
440.110 .0882995
441.031 .1278276
441.952 .1662085
442.871 .1964803
443.789 .2131354
444.705 .2143061
445.621 .2022862
446.535 .1820776
447.447 .1591773
448.359 .1240617
449.269 .1067277
450.178 .0958584
451.086 .0882187
451.993 .0824456
452.898 .0778841
453.803 .0741906
454.706 .0711287
455.608 .0685273
456.508 .0662862
457.408 .0643363
458.306 .0626126
459.204 .0610796
460.100 .0597023
460.995 .0584768
461.888 .0573714
462.781 .0563711
463.673 .0554484
464.563 .0546059
465.452 .0538136
466.340 .0530601
467.228 .0523295
468.114 .0516167
468.999 .0509217
469.882 .0502466
470.765 .0495873
471.647 .0489707
472.528 .0483932
473.407 .0478665
474.286 .0473940
475.163 .0469779
476.040 .0466106
476.915 .0462860
477.790 .0460014
478.663 .0457492
479.535 .0455245
480.407 .0453327
481.277 .0451737
482.147 .0450530
483.015 .0449699
483.883 .0449204
484.749 .0449001
485.615 .0449029
486.479 .0449190
487.343 .0449500
488.206 .0449908
489.067 .0450372
489.928 .0450934
490.788 .0451651
491.647 .0452661
492.505 .0453894
493.362 .0455419
494.218 .0457198
495.073 .0459183
495.928 .0461343
496.781 .0463548
497.634 .0465866
498.486 .0468288
499.337 .0470826
500.187 .0473586
501.036 .0476542
501.884 .0479776
502.731 .0483288
503.578 .0487093
504.424 .0491136
505.268 .0495253
506.113 .0499462
506.956 .0503712
507.798 .0508122
508.640 .0512750
509.480 .0517712
510.320 .0523330
511.160 .0529928
511.998 .0537599
512.836 .0546601
513.672 .0557056
514.508 .0568985
515.344 .0582285
516.178 .0597030
517.012 .0613170
517.845 .0631144
518.677 .0651203
519.508 .0673892
520.339 .0699356
521.169 .0728795
521.998 .0762264
522.826 .0800673
523.654 .0844359
524.481 .0892932
525.307 .0946462
526.133 .1004579
526.958 .1066295
527.782 .1130891
528.605 .1197076
529.428 .1264315
530.250 .1328059
531.072 .1387264
531.892 .1437908
532.712 .1477668
533.532 .1504470
534.350 .1516008
535.168 .1510274
535.986 .1488000
536.802 .1450039
537.618 .1398850
538.434 .1337153
539.249 .1269668
540.063 .1198636
540.876 .1128055
541.689 .1059962
542.501 .0996203
543.313 .0937613
544.124 .0885346
544.934 .0838210
545.744 .0795906
546.553 .0757495
547.361 .0722989
548.169 .0692366
548.976 .0665055
549.783 .0640622
550.589 .0618750
551.395 .0598973
552.200 .0581202
553.004 .0564936
553.808 .0550008
554.611 .0536344
555.414 .0524082
556.216 .0512928
557.018 .0502981
557.819 .0494080
558.619 .0486064
559.419 .0478829
560.218 .0472359
561.017 .0466223
561.815 .0460400
562.613 .0454856
563.410 .0449595
564.207 .0444447
565.003 .0439419
565.799 .0434474
566.594 .0429678
567.388 .0425079
568.182 .0420549
568.976 .0415992
569.769 .0411561
570.562 .0407131
571.354 .0402666
572.145 .0398135
572.936 .0393636
573.727 .0389141
574.517 .0384745
575.307 .0380430
576.096 .0376255
576.885 .0372241
577.673 .0368462
578.461 .0364923
579.248 .0361579
580.035 .0358448
580.821 .0355493
581.607 .0352703
582.392 .0350107
583.177 .0347669
583.962 .0345427
584.746 .0343374
585.529 .0341503
586.313 .0339777
587.095 .0338192
587.878 .0336717
588.660 .0335344
589.441 .0334057
590.222 .0332849
591.003 .0331704
591.783 .0330647
592.563 .0329668
593.342 .0328790
594.121 .0327983
594.899 .0327238
595.678 .0326522
596.455 .0325829
597.233 .0325122
598.009 .0324413
598.786 .0323697
599.562 .0322994
600.338 .0322301
601.113 .0321653
601.888 .0321044
602.663 .0320488
603.437 .0319978
604.211 .0319511
604.984 .0319069
605.757 .0318648
606.530 .0318220
607.302 .0317795
608.074 .0317389
608.845 .0317007
609.616 .0316655
610.387 .0316358
611.158 .0316107
611.928 .0315902
612.697 .0315724
613.467 .0315565
614.236 .0315406
615.004 .0315241
615.773 .0315062
616.541 .0314870
617.308 .0314676
618.076 .0314491
618.843 .0314318
619.609 .0314169
620.375 .0314039
621.141 .0313912
621.907 .0313784
622.672 .0313647
623.437 .0313489
624.202 .0313314
624.966 .0313125
625.730 .0312937
626.493 .0312754
627.257 .0312586
628.020 .0312441
628.782 .0312309
629.545 .0312188
630.307 .0312061
631.068 .0311914
631.830 .0311751
632.591 .0311560
633.352 .0311344
634.112 .0311112
634.872 .0310866
635.632 .0310609
636.392 .0310344
637.151 .0310078
637.910 .0309801
638.668 .0309501
639.427 .0309193
640.185 .0308866
640.943 .0308523
641.700 .0308175
642.457 .0307823
643.214 .0307475
643.971 .0307135
644.727 .0306798
645.483 .0306468
646.239 .0306152
646.994 .0305852
647.750 .0305562
648.505 .0305289
649.259 .0305042
650.014 .0304805
650.768 .0304582
651.521 .0304379
652.275 .0304183
653.028 .0303989
653.781 .0303792
654.534 .0303581
655.286 .0303354
656.039 .0303117
656.791 .0302868
657.542 .0302602
658.294 .0302334
659.045 .0302066
659.796 .0301792
660.546 .0301522
661.297 .0301256
662.047 .0300985
662.796 .0300716
663.546 .0300446
664.295 .0300171
665.044 .0299898
665.793 .0299633
666.542 .0299376
667.290 .0299135
668.038 .0298917
668.786 .0298713
669.533 .0298528
670.281 .0298367
671.028 .0298219
671.774 .0298077
672.521 .0297943
673.267 .0297817
674.013 .0297692
674.759 .0297567
675.505 .0297442
676.250 .0297322
676.995 .0297206
677.740 .0297093
678.484 .0296979
679.229 .0296866
679.973 .0296748
680.717 .0296616
681.460 .0296473
682.204 .0296318
682.947 .0296150
683.690 .0295975
684.433 .0295794
685.175 .0295612
685.917 .0295421
686.659 .0295233
687.401 .0295043
688.142 .0294852
688.884 .0294661
689.625 .0294472
690.365 .0294284
691.106 .0294096
691.846 .0293911
692.586 .0293738
693.326 .0293574
694.066 .0293423
694.805 .0293276
695.545 .0293138
696.284 .0293004
697.022 .0292873
697.761 .0292740
698.499 .0292609
699.237 .0292476
699.975 .0292338
700.713 .0292198
701.450 .0292056
702.187 .0291911
702.924 .0291763
703.661 .0291613
704.397 .0291463
705.133 .0291311
705.869 .0291163
706.605 .0291019
707.341 .0290883
708.076 .0290753
708.811 .0290622
709.546 .0290487
710.281 .0290346
711.015 .0290196
711.749 .0290028
712.483 .0289848
713.217 .0289653
713.950 .0289445
714.684 .0289226
715.417 .0288999
716.150 .0288769
716.882 .0288541
717.615 .0288315
718.347 .0288087
719.079 .0287857
719.811 .0287625
720.542 .0287382
721.273 .0287132
722.005 .0286877
722.735 .0286619
723.466 .0286363
724.196 .0286116
724.927 .0285881
725.656 .0285662
726.386 .0285458
727.116 .0285266
727.845 .0285082
728.574 .0284902
729.303 .0284721
730.031 .0284537
730.760 .0284355
731.488 .0284175
732.216 .0283999
732.944 .0283836
733.671 .0283688
734.398 .0283551
735.125 .0283430
735.852 .0283319
736.579 .0283217
737.305 .0283125
738.031 .0283038
738.757 .0282955
739.483 .0282876
740.208 .0282799
740.933 .0282724
741.658 .0282650
742.383 .0282583
743.108 .0282510
743.832 .0282438
744.556 .0282365
745.280 .0282288
746.004 .0282207
746.727 .0282121
747.450 .0282026
748.173 .0281924
748.896 .0281812
749.618 .0281694
750.340 .0281568
751.062 .0281443
751.784 .0281317
752.506 .0281191
753.227 .0281071
753.948 .0280954
754.669 .0280834
755.389 .0280714
756.110 .0280590
756.830 .0280460
757.550 .0280322
758.269 .0280176
758.989 .0280027
759.708 .0279875
760.427 .0279726
761.146 .0279580
761.864 .0279439
762.582 .0279304
763.300 .0279173
764.018 .0279044
764.736 .0278914
765.453 .0278778
766.170 .0278641
766.887 .0278500
767.603 .0278356
768.320 .0278212
769.036 .0278071
769.751 .0277937
770.467 .0277815
771.182 .0277705
771.897 .0277606
772.612 .0277521
773.327 .0277445
774.041 .0277371
774.755 .0277297
775.469 .0277220
776.183 .0277136
776.896 .0277050
777.609 .0276961
778.322 .0276867
779.035 .0276773
779.747 .0276683
780.459 .0276600
781.171 .0276524
781.882 .0276457
782.594 .0276391
783.305 .0276326
784.016 .0276263
784.726 .0276196
785.436 .0276123
786.147 .0276049
786.856 .0275973
787.566 .0275895
788.275 .0275818
788.984 .0275745
789.693 .0275672
790.401 .0275602
791.110 .0275532
791.818 .0275451
792.525 .0275358
793.233 .0275254
793.940 .0275138
794.647 .0275010
795.353 .0274879
796.060 .0274742
796.766 .0274603
797.472 .0274468
798.177 .0274334
798.883 .0274198
799.588 .0274064
800.292 .0273932
800.997 .0273801
801.701 .0273669
802.405 .0273538
803.109 .0273413
803.812 .0273294
804.515 .0273182
805.218 .0273067
805.921 .0272949
806.623 .0272829
807.325 .0272698
808.027 .0272558
808.728 .0272410
809.429 .0272252
810.130 .0272083
810.831 .0271912
811.531 .0271738
812.231 .0271561
812.931 .0271380
813.630 .0271202
814.330 .0271017
815.029 .0270829
815.727 .0270638
816.426 .0270442
817.124 .0270249
817.821 .0270056
818.519 .0269866
819.216 .0269687
819.913 .0269521
820.609 .0269371
821.306 .0269237
822.002 .0269126
822.697 .0269031
823.393 .0268955
824.088 .0268896
824.783 .0268851
825.477 .0268814
826.171 .0268784
826.865 .0268760
827.559 .0268746
828.252 .0268735
828.945 .0268727
829.638 .0268725
830.330 .0268725
831.023 .0268727
831.714 .0268728
832.406 .0268725
833.097 .0268718
833.788 .0268701
834.479 .0268674
835.169 .0268637
835.859 .0268596
836.548 .0268551
837.238 .0268502
837.927 .0268456
838.615 .0268408
839.304 .0268363
839.992 .0268322
840.680 .0268288
841.367 .0268255
842.054 .0268226
842.741 .0268194
843.428 .0268162
844.114 .0268135
844.800 .0268107
845.485 .0268077
846.170 .0268046
846.855 .0268010
847.540 .0267967
848.224 .0267911
848.908 .0267850
849.592 .0267779
850.275 .0267699
850.958 .0267605
851.641 .0267506
852.323 .0267401
853.005 .0267296
853.687 .0267187
854.368 .0267075
855.049 .0266959
855.730 .0266837
856.410 .0266703
857.090 .0266567
857.769 .0266428
858.449 .0266288
859.128 .0266147
859.806 .0266014
860.485 .0265885
861.163 .0265764
861.840 .0265650
862.518 .0265542
863.195 .0265436
863.871 .0265329
864.548 .0265222
865.224 .0265118
865.899 .0265018
866.574 .0264920
867.249 .0264824
867.924 .0264731
868.598 .0264638
869.272 .0264542
869.946 .0264440
870.619 .0264334
871.292 .0264224
871.964 .0264105
872.636 .0263980
873.308 .0263854
873.979 .0263734
874.651 .0263614
875.321 .0263497
875.992 .0263382
876.662 .0263267
877.331 .0263151
878.001 .0263035
878.670 .0262915
879.338 .0262793
880.007 .0262675
880.675 .0262556
881.342 .0262439
882.009 .0262327
882.676 .0262215
883.343 .0262103
884.009 .0261988
884.675 .0261870
885.340 .0261744
886.005 .0261619
886.670 .0261500
887.334 .0261386
887.998 .0261286
888.662 .0261200
889.325 .0261126
889.988 .0261065
890.650 .0261013
891.312 .0260963
891.974 .0260914
892.636 .0260871
893.297 .0260826
893.957 .0260787
894.618 .0260756
895.278 .0260733
895.937 .0260719
896.596 .0260715
897.255 .0260710
897.914 .0260701
898.572 .0260680
899.230 .0260640
899.887 .0260577
900.544 .0260493
901.201 .0260384
901.857 .0260257
902.513 .0260117
903.168 .0259965
903.823 .0259802
904.478 .0259634
905.132 .0259457
905.786 .0259269
906.440 .0259069
907.093 .0258854
907.746 .0258622
908.399 .0258376
909.051 .0258121
909.703 .0257858
910.354 .0257594
911.005 .0257333
911.656 .0257076
912.306 .0256826
912.956 .0256579
913.605 .0256332
914.254 .0256087
914.903 .0255843
915.551 .0255601
916.199 .0255364
916.847 .0255141
917.494 .0254936
918.141 .0254750
918.788 .0254584
919.434 .0254440
920.079 .0254309
920.725 .0254189
921.370 .0254071
922.014 .0253957
922.658 .0253842
923.302 .0253722
923.946 .0253601
924.589 .0253479
925.231 .0253351
925.873 .0253214
926.515 .0253066
927.157 .0252905
927.798 .0252727
928.439 .0252533
929.079 .0252328
929.719 .0252115
930.359 .0251900
930.998 .0251688
931.637 .0251482
932.275 .0251289
932.913 .0251106
933.551 .0250930
934.188 .0250769
934.825 .0250621
935.462 .0250484
936.098 .0250365
936.733 .0250270
937.369 .0250200
938.004 .0250155
938.638 .0250132
939.273 .0250123
939.907 .0250123
940.540 .0250126
941.173 .0250124
941.806 .0250118
942.438 .0250108
943.070 .0250096
943.702 .0250080
944.333 .0250067
944.964 .0250058
945.594 .0250051
946.224 .0250047
946.854 .0250043
947.483 .0250033
948.112 .0250015
948.741 .0249990
949.369 .0249961
949.996 .0249930
950.624 .0249901
951.251 .0249874
951.878 .0249849
952.504 .0249829
953.130 .0249811
953.755 .0249793
954.380 .0249778
955.005 .0249764
955.629 .0249750
956.253 .0249737
956.877 .0249730
957.500 .0249730
958.123 .0249735
958.746 .0249745
959.368 .0249755
959.990 .0249760
960.611 .0249760
961.232 .0249750
961.853 .0249739
962.473 .0249728
963.093 .0249712
963.712 .0249695
964.331 .0249678
964.950 .0249659
965.569 .0249641
966.187 .0249620
966.804 .0249601
967.422 .0249580
968.039 .0249563
968.655 .0249547
969.272 .0249536
969.887 .0249529
970.503 .0249527
971.118 .0249525
971.733 .0249527
972.347 .0249522
972.961 .0249516
973.575 .0249509
974.188 .0249495
974.801 .0249473
975.414 .0249447
976.026 .0249410
976.638 .0249371
977.250 .0249323
977.861 .0249270
978.472 .0249214
979.083 .0249161
979.693 .0249102
980.303 .0249044
980.912 .0248987
981.521 .0248928
982.130 .0248868
982.738 .0248811
983.346 .0248750
983.954 .0248688
984.562 .0248628
985.169 .0248565
985.775 .0248498
986.382 .0248436
986.988 .0248372
987.594 .0248311
988.199 .0248257
988.804 .0248210
989.409 .0248166
990.013 .0248127
990.617 .0248093
991.221 .0248058
991.824 .0248024
992.427 .0247992
993.030 .0247957
993.632 .0247930
994.234 .0247910
994.836 .0247900
995.438 .0247900
996.039 .0247909
996.640 .0247921
997.240 .0247929
997.840 .0247932
998.440 .0247925
999.040 .0247905
999.639 .0247876
1000.238 .0247836
1000.836 .0247786
1001.435 .0247730
1002.033 .0247674
1002.630 .0247614
1003.228 .0247550
1003.825 .0247484
1004.422 .0247416
1005.018 .0247346
1005.614 .0247284
1006.210 .0247228
1006.806 .0247177
1007.401 .0247135
1007.996 .0247094
1008.591 .0247045
1009.186 .0246995
1009.780 .0246934
1010.374 .0246864
1010.967 .0246782
1011.561 .0246692
1012.154 .0246590
1012.746 .0246488
1013.339 .0246384
1013.931 .0246277
1014.523 .0246166
1015.115 .0246057
1015.706 .0245941
1016.298 .0245826
1016.888 .0245716
1017.479 .0245615
1018.069 .0245526
1018.660 .0245456
1019.250 .0245401
1019.839 .0245362
1020.429 .0245343
1021.018 .0245341
1021.607 .0245349
1022.195 .0245368
1022.784 .0245387
1023.372 .0245413
1023.960 .0245438
1024.547 .0245460
1025.135 .0245476
1025.722 .0245481
1026.309 .0245473
1026.896 .0245447
1027.483 .0245409
1028.069 .0245362
1028.655 .0245313
1029.241 .0245266
1029.827 .0245220
1030.412 .0245179
1030.997 .0245143
1031.582 .0245110
1032.167 .0245076
1032.752 .0245044
1033.336 .0245005
1033.921 .0244964
1034.505 .0244927
1035.089 .0244895
1035.672 .0244874
1036.256 .0244862
1036.839 .0244852
1037.422 .0244842
1038.005 .0244826
1038.588 .0244801
1039.171 .0244759
1039.753 .0244715
1040.335 .0244664
1040.918 .0244611
1041.500 .0244564
1042.081 .0244528
1042.663 .0244506
1043.244 .0244494
1043.826 .0244483
1044.407 .0244471
1044.988 .0244452
1045.569 .0244430
1046.150 .0244399
1046.730 .0244370
1047.311 .0244337
1047.891 .0244298
1048.471 .0244252
1049.052 .0244198
1049.632 .0244132
1050.211 .0244058
1050.791 .0243971
1051.371 .0243881
1051.950 .0243791
1052.530 .0243708
1053.109 .0243638
1053.688 .0243585
1054.268 .0243548
1054.847 .0243522
1055.426 .0243487
1056.005 .0243453
1056.583 .0243417
1057.162 .0243387
1057.741 .0243363
1058.319 .0243348
1058.898 .0243354
1059.476 .0243376
1060.055 .0243408
1060.633 .0243452
1061.211 .0243495
1061.790 .0243534
1062.368 .0243557
1062.946 .0243557
1063.524 .0243557
1064.102 .0243548
1064.680 .0243543
1065.258 .0243557
1065.836 .0243585
1066.414 .0243624
1066.992 .0243673
1067.570 .0243735
1068.148 .0243805
1068.726 .0243871
1069.304 .0243930
1069.882 .0243974
1070.460 .0244011
1071.038 .0244035
1071.616 .0244039
1072.194 .0244037
1072.772 .0244039
1073.350 .0244025
1073.928 .0244020
1074.506 .0244015
1075.084 .0244012
1075.662 .0244019
1076.240 .0244039
1076.819 .0244064
1077.397 .0244094
1077.976 .0244146
1078.554 .0244200
1079.133 .0244268
1079.711 .0244345
1080.290 .0244418
1080.869 .0244493
1081.448 .0244562
1082.027 .0244620
1082.606 .0244660
1083.185 .0244700
1083.764 .0244736
1084.343 .0244776
1084.923 .0244822
1085.502 .0244864
1086.082 .0244913
1086.662 .0244954
1087.242 .0244980
1087.822 .0244973
1088.402 .0244948
1088.983 .0244894
1089.563 .0244826
1090.144 .0244756
1090.725 .0244693
1091.306 .0244665
1091.887 .0244673
1092.469 .0244714
1093.050 .0244817
1093.632 .0244951
1094.214 .0245117
1094.796 .0245305
1095.379 .0245505
1095.961 .0245698
1096.544 .0245882
1097.127 .0246069
1097.710 .0246258
1098.294 .0246454
1098.877 .0246689
1099.461 .0246949
1100.046 .0247268
1100.630 .0247633
1101.215 .0248017
1101.800 .0248421
1102.385 .0248836
1102.970 .0249226
1103.556 .0249592
1104.142 .0249941
1104.728 .0250287
1105.315 .0250648
1105.902 .0251044
1106.489 .0251503
1107.077 .0252026
1107.664 .0252623
1108.253 .0253284
1108.841 .0253973
1109.430 .0254672
1110.019 .0255348
1110.609 .0256005
1111.198 .0256620
1111.789 .0257192
1112.379 .0257731
1112.970 .0258230
1113.561 .0258723
1114.153 .0259210
1114.745 .0259685
1115.338 .0260146
1115.931 .0260598
1116.524 .0261015
1117.117 .0261383
1117.712 .0261731
1118.306 .0262052
1118.901 .0262380
1119.496 .0262729
1120.092 .0263112
1120.689 .0263541
1121.285 .0264031
1121.882 .0264576
1122.480 .0265158
1123.078 .0265756
1123.677 .0266349
1124.276 .0266927
1124.875 .0267494
1125.476 .0268051
1126.076 .0268608
1126.677 .0269180
1127.279 .0269772
1127.881 .0270377
1128.484 .0271012
1129.087 .0271652
1129.691 .0272319
1130.295 .0272988
1130.900 .0273657
1131.505 .0274343
1132.111 .0275052
1132.718 .0275799
1133.325 .0276613
1133.933 .0277492
1134.541 .0278423
1135.150 .0279395
1135.760 .0280439
1136.370 .0281534
1136.981 .0282702
1137.592 .0283920
1138.204 .0285164
1138.817 .0286459
1139.431 .0287795
1140.045 .0289162
1140.660 .0290586
1141.275 .0292160
1141.891 .0293968
1142.508 .0294645
1143.126 .0296685
1143.744 .0298524
1144.363 .0302887
1144.983 .0308161
