Measurement Sequence started on: 15-12-46-377
Integration time: 28
Scans to Average: 2 
>>>>>Begin Spectral Data<<<<<
432.689 .0000100
433.621 .0000100
434.552 .0000100
435.482 .0000100
436.410 .0000100
437.337 .0000100
438.262 .0284128
439.187 .0600363
440.110 .0992609
441.031 .1434342
441.952 .1861579
442.871 .2196043
443.789 .2376483
444.705 .2382289
445.621 .2240202
446.535 .2007267
447.447 .1745201
448.359 .1345948
449.269 .1149617
450.178 .1026141
451.086 .0939029
451.993 .0872959
452.898 .0820692
453.803 .0778132
454.706 .0742996
455.608 .0712997
456.508 .0687029
457.408 .0664504
458.306 .0644630
459.204 .0626880
460.100 .0611163
460.995 .0597373
461.888 .0585108
462.781 .0574126
463.673 .0564014
464.563 .0554603
465.452 .0545700
466.340 .0537069
467.228 .0528850
468.114 .0521073
468.999 .0513812
469.882 .0507047
470.765 .0500804
471.647 .0495098
472.528 .0489836
473.407 .0485056
474.286 .0480674
475.163 .0476564
476.040 .0472772
476.915 .0469243
477.790 .0465956
478.663 .0462964
479.535 .0460233
480.407 .0457820
481.277 .0455741
482.147 .0453969
483.015 .0452522
483.883 .0451389
484.749 .0450584
485.615 .0450110
486.479 .0449917
487.343 .0450016
488.206 .0450367
489.067 .0450930
489.928 .0451696
490.788 .0452661
491.647 .0453841
492.505 .0455226
493.362 .0456825
494.218 .0458572
495.073 .0460384
495.928 .0462332
496.781 .0464303
497.634 .0466359
498.486 .0468557
499.337 .0470902
500.187 .0473449
501.036 .0476220
501.884 .0479232
502.731 .0482474
503.578 .0485956
504.424 .0489692
505.268 .0493552
506.113 .0497738
506.956 .0502290
507.798 .0507354
508.640 .0513159
509.480 .0519856
510.320 .0527494
511.160 .0536242
511.998 .0545944
512.836 .0556674
513.672 .0568450
514.508 .0581290
515.344 .0595247
516.178 .0610732
517.012 .0627928
517.845 .0647301
518.677 .0669446
519.508 .0694639
520.339 .0723162
521.169 .0755879
521.998 .0792844
522.826 .0834397
523.654 .0880863
524.481 .0932261
525.307 .0988624
526.133 .1050413
526.958 .1116364
527.782 .1185805
528.605 .1257532
529.428 .1330537
530.250 .1398937
531.072 .1461381
531.892 .1513785
532.712 .1552928
533.532 .1577030
534.350 .1583827
535.168 .1572187
535.986 .1543697
536.802 .1499827
537.618 .1443136
538.434 .1376546
539.249 .1305557
540.063 .1231342
540.876 .1157960
541.689 .1087763
542.501 .1021890
543.313 .0961744
544.124 .0907773
544.934 .0858984
545.744 .0814721
546.553 .0774718
547.361 .0738410
548.169 .0705951
548.976 .0676901
549.783 .0650875
550.589 .0627656
551.395 .0607000
552.200 .0588539
553.004 .0571968
553.808 .0557097
554.611 .0543773
555.414 .0531686
556.216 .0520725
557.018 .0510836
557.819 .0501937
558.619 .0493814
559.419 .0486468
560.218 .0479724
561.017 .0473550
561.815 .0467616
562.613 .0461896
563.410 .0456181
564.207 .0450575
565.003 .0445043
565.799 .0439548
566.594 .0434014
567.388 .0428707
568.182 .0423487
568.976 .0418441
569.769 .0413514
570.562 .0408624
571.354 .0403766
572.145 .0398962
572.936 .0394138
573.727 .0389366
574.517 .0384665
575.307 .0380190
576.096 .0375834
576.885 .0371709
577.673 .0367785
578.461 .0364047
579.248 .0360543
580.035 .0357275
580.821 .0354181
581.607 .0351289
582.392 .0348618
583.177 .0346163
583.962 .0343899
584.746 .0341857
585.529 .0340021
586.313 .0338369
587.095 .0336871
587.878 .0335518
588.660 .0334290
589.441 .0333183
590.222 .0332188
591.003 .0331285
591.783 .0330468
592.563 .0329725
593.342 .0329040
594.121 .0328385
594.899 .0327789
595.678 .0327221
596.455 .0326679
597.233 .0326177
598.009 .0325693
598.786 .0325239
599.562 .0324806
600.338 .0324405
601.113 .0324021
601.888 .0323641
602.663 .0323265
603.437 .0322872
604.211 .0322476
604.984 .0322083
605.757 .0321697
606.530 .0321339
607.302 .0321010
608.074 .0320705
608.845 .0320429
609.616 .0320175
610.387 .0319944
611.158 .0319728
611.928 .0319505
612.697 .0319279
613.467 .0319039
614.236 .0318794
615.004 .0318543
615.773 .0318301
616.541 .0318085
617.308 .0317877
618.076 .0317685
618.843 .0317501
619.609 .0317325
620.375 .0317151
621.141 .0316970
621.907 .0316781
622.672 .0316580
623.437 .0316359
624.202 .0316129
624.966 .0315895
625.730 .0315669
626.493 .0315444
627.257 .0315227
628.020 .0315020
628.782 .0314824
629.545 .0314624
630.307 .0314428
631.068 .0314226
631.830 .0314014
632.591 .0313774
633.352 .0313515
634.112 .0313235
634.872 .0312938
635.632 .0312630
636.392 .0312322
637.151 .0312015
637.910 .0311718
638.668 .0311425
639.427 .0311140
640.185 .0310855
640.943 .0310561
641.700 .0310249
642.457 .0309929
643.214 .0309596
643.971 .0309251
644.727 .0308901
645.483 .0308567
646.239 .0308247
646.994 .0307949
647.750 .0307675
648.505 .0307425
649.259 .0307189
650.014 .0306960
650.768 .0306722
651.521 .0306474
652.275 .0306215
653.028 .0305951
653.781 .0305678
654.534 .0305412
655.286 .0305152
656.039 .0304902
656.791 .0304664
657.542 .0304426
658.294 .0304175
659.045 .0303913
659.796 .0303632
660.546 .0303333
661.297 .0303013
662.047 .0302684
662.796 .0302349
663.546 .0302023
664.295 .0301705
665.044 .0301400
665.793 .0301113
666.542 .0300840
667.290 .0300573
668.038 .0300313
668.786 .0300051
669.533 .0299790
670.281 .0299537
671.028 .0299293
671.774 .0299059
672.521 .0298844
673.267 .0298644
674.013 .0298467
674.759 .0298309
675.505 .0298169
676.250 .0298037
676.995 .0297919
677.740 .0297810
678.484 .0297700
679.229 .0297603
679.973 .0297512
680.717 .0297427
681.460 .0297347
682.204 .0297269
682.947 .0297192
683.690 .0297112
684.433 .0297032
685.175 .0296938
685.917 .0296837
686.659 .0296728
687.401 .0296606
688.142 .0296477
688.884 .0296342
689.625 .0296199
690.365 .0296048
691.106 .0295889
691.846 .0295720
692.586 .0295543
693.326 .0295359
694.066 .0295176
694.805 .0294995
695.545 .0294814
696.284 .0294638
697.022 .0294465
697.761 .0294298
698.499 .0294134
699.237 .0293975
699.975 .0293822
700.713 .0293674
701.450 .0293534
702.187 .0293398
702.924 .0293268
703.661 .0293148
704.397 .0293032
705.133 .0292919
705.869 .0292807
706.605 .0292691
707.341 .0292574
708.076 .0292456
708.811 .0292340
709.546 .0292221
710.281 .0292104
711.015 .0291988
711.749 .0291867
712.483 .0291743
713.217 .0291611
713.950 .0291468
714.684 .0291315
715.417 .0291149
716.150 .0290969
716.882 .0290779
717.615 .0290581
718.347 .0290378
719.079 .0290177
719.811 .0289975
720.542 .0289774
721.273 .0289577
722.005 .0289380
722.735 .0289184
723.466 .0288985
724.196 .0288789
724.927 .0288584
725.656 .0288383
726.386 .0288179
727.116 .0287976
727.845 .0287785
728.574 .0287598
729.303 .0287420
730.031 .0287248
730.760 .0287077
731.488 .0286903
732.216 .0286728
732.944 .0286553
733.671 .0286373
734.398 .0286196
735.125 .0286020
735.852 .0285845
736.579 .0285677
737.305 .0285513
738.031 .0285352
738.757 .0285196
739.483 .0285041
740.208 .0284883
740.933 .0284731
741.658 .0284578
742.383 .0284426
743.108 .0284278
743.832 .0284133
744.556 .0283991
745.280 .0283850
746.004 .0283707
746.727 .0283563
747.450 .0283420
748.173 .0283271
748.896 .0283116
749.618 .0282961
750.340 .0282799
751.062 .0282634
751.784 .0282470
752.506 .0282300
753.227 .0282127
753.948 .0281953
754.669 .0281772
755.389 .0281584
756.110 .0281392
756.830 .0281194
757.550 .0280990
758.269 .0280786
758.989 .0280578
759.708 .0280358
760.427 .0280137
761.146 .0279909
761.864 .0279677
762.582 .0279444
763.300 .0279209
764.018 .0278979
764.736 .0278757
765.453 .0278546
766.170 .0278345
766.887 .0278158
767.603 .0277984
768.320 .0277812
769.036 .0277646
769.751 .0277482
770.467 .0277318
771.182 .0277160
771.897 .0277009
772.612 .0276864
773.327 .0276731
774.041 .0276610
774.755 .0276501
775.469 .0276407
776.183 .0276328
776.896 .0276254
777.609 .0276186
778.322 .0276123
779.035 .0276063
779.747 .0276009
780.459 .0275963
781.171 .0275925
781.882 .0275894
782.594 .0275872
783.305 .0275856
784.016 .0275845
784.726 .0275841
785.436 .0275834
786.147 .0275822
786.856 .0275806
787.566 .0275781
788.275 .0275753
788.984 .0275722
789.693 .0275690
790.401 .0275654
791.110 .0275613
791.818 .0275565
792.525 .0275511
793.233 .0275450
793.940 .0275381
794.647 .0275303
795.353 .0275226
796.060 .0275148
796.766 .0275069
797.472 .0274995
798.177 .0274926
798.883 .0274857
799.588 .0274788
800.292 .0274719
800.997 .0274653
801.701 .0274584
802.405 .0274520
803.109 .0274465
803.812 .0274425
804.515 .0274397
805.218 .0274378
805.921 .0274364
806.623 .0274354
807.325 .0274337
808.027 .0274314
808.728 .0274284
809.429 .0274245
810.130 .0274197
810.831 .0274145
811.531 .0274089
812.231 .0274026
812.931 .0273953
813.630 .0273872
814.330 .0273779
815.029 .0273675
815.727 .0273558
816.426 .0273437
817.124 .0273318
817.821 .0273203
818.519 .0273095
819.216 .0272999
819.913 .0272916
820.609 .0272846
821.306 .0272790
822.002 .0272748
822.697 .0272720
823.393 .0272711
824.088 .0272720
824.783 .0272746
825.477 .0272789
826.171 .0272847
826.865 .0272920
827.559 .0273004
828.252 .0273093
828.945 .0273180
829.638 .0273267
830.330 .0273344
831.023 .0273408
831.714 .0273460
832.406 .0273498
833.097 .0273519
833.788 .0273522
834.479 .0273505
835.169 .0273469
835.859 .0273416
836.548 .0273350
837.238 .0273272
837.927 .0273188
838.615 .0273097
839.304 .0273006
839.992 .0272918
840.680 .0272835
841.367 .0272755
842.054 .0272683
842.741 .0272617
843.428 .0272559
844.114 .0272509
844.800 .0272473
845.485 .0272449
846.170 .0272433
846.855 .0272422
847.540 .0272409
848.224 .0272390
848.908 .0272359
849.592 .0272308
850.275 .0272237
850.958 .0272139
851.641 .0272018
852.323 .0271875
853.005 .0271719
853.687 .0271551
854.368 .0271375
855.049 .0271194
855.730 .0271003
856.410 .0270802
857.090 .0270589
857.769 .0270363
858.449 .0270122
859.128 .0269868
859.806 .0269603
860.485 .0269330
861.163 .0269056
861.840 .0268786
862.518 .0268526
863.195 .0268276
863.871 .0268033
864.548 .0267798
865.224 .0267570
865.899 .0267348
866.574 .0267130
867.249 .0266917
867.924 .0266708
868.598 .0266504
869.272 .0266305
869.946 .0266113
870.619 .0265931
871.292 .0265761
871.964 .0265600
872.636 .0265447
873.308 .0265300
873.979 .0265149
874.651 .0264998
875.321 .0264842
875.992 .0264680
876.662 .0264511
877.331 .0264335
878.001 .0264156
878.670 .0263977
879.338 .0263799
880.007 .0263627
880.675 .0263464
881.342 .0263308
882.009 .0263158
882.676 .0263011
883.343 .0262865
884.009 .0262722
884.675 .0262578
885.340 .0262433
886.005 .0262288
886.670 .0262148
887.334 .0262012
887.998 .0261884
888.662 .0261765
889.325 .0261651
889.988 .0261543
890.650 .0261437
891.312 .0261328
891.974 .0261219
892.636 .0261114
893.297 .0261007
893.957 .0260906
894.618 .0260808
895.278 .0260716
895.937 .0260625
896.596 .0260540
897.255 .0260452
897.914 .0260360
898.572 .0260264
899.230 .0260163
899.887 .0260056
900.544 .0259945
901.201 .0259832
901.857 .0259717
902.513 .0259599
903.168 .0259474
903.823 .0259334
904.478 .0259184
905.132 .0259015
905.786 .0258828
906.440 .0258624
907.093 .0258404
907.746 .0258176
908.399 .0257939
909.051 .0257698
909.703 .0257453
910.354 .0257208
911.005 .0256960
911.656 .0256713
912.306 .0256461
912.956 .0256209
913.605 .0255961
914.254 .0255722
914.903 .0255494
915.551 .0255283
916.199 .0255095
916.847 .0254932
917.494 .0254793
918.141 .0254677
918.788 .0254575
919.434 .0254492
920.079 .0254415
920.725 .0254343
921.370 .0254276
922.014 .0254208
922.658 .0254137
923.302 .0254064
923.946 .0253989
924.589 .0253908
925.231 .0253817
925.873 .0253715
926.515 .0253594
927.157 .0253457
927.798 .0253304
928.439 .0253134
929.079 .0252954
929.719 .0252764
930.359 .0252563
930.998 .0252359
931.637 .0252152
932.275 .0251940
932.913 .0251727
933.551 .0251517
934.188 .0251311
934.825 .0251110
935.462 .0250924
936.098 .0250756
936.733 .0250609
937.369 .0250488
938.004 .0250387
938.638 .0250302
939.273 .0250233
939.907 .0250175
940.540 .0250126
941.173 .0250090
941.806 .0250066
942.438 .0250059
943.070 .0250067
943.702 .0250093
944.333 .0250126
944.964 .0250166
945.594 .0250214
946.224 .0250253
946.854 .0250282
947.483 .0250303
948.112 .0250315
948.741 .0250322
949.369 .0250322
949.996 .0250322
950.624 .0250324
951.251 .0250333
951.878 .0250344
952.504 .0250352
953.130 .0250360
953.755 .0250370
954.380 .0250380
955.005 .0250395
955.629 .0250417
956.253 .0250444
956.877 .0250484
957.500 .0250536
958.123 .0250595
958.746 .0250658
959.368 .0250719
959.990 .0250778
960.611 .0250826
961.232 .0250863
961.853 .0250892
962.473 .0250922
963.093 .0250952
963.712 .0250979
964.331 .0251005
964.950 .0251026
965.569 .0251044
966.187 .0251054
966.804 .0251060
967.422 .0251064
968.039 .0251072
968.655 .0251090
969.272 .0251118
969.887 .0251160
970.503 .0251216
971.118 .0251285
971.733 .0251363
972.347 .0251438
972.961 .0251513
973.575 .0251586
974.188 .0251654
974.801 .0251712
975.414 .0251762
976.026 .0251802
976.638 .0251834
977.250 .0251852
977.861 .0251863
978.472 .0251869
979.083 .0251867
979.693 .0251857
980.303 .0251840
980.912 .0251819
981.521 .0251794
982.130 .0251764
982.738 .0251738
983.346 .0251713
983.954 .0251699
984.562 .0251691
985.169 .0251698
985.775 .0251713
986.382 .0251730
986.988 .0251745
987.594 .0251761
988.199 .0251771
988.804 .0251773
989.409 .0251770
990.013 .0251771
990.617 .0251776
991.221 .0251789
991.824 .0251816
992.427 .0251860
993.030 .0251917
993.632 .0251981
994.234 .0252045
994.836 .0252113
995.438 .0252179
996.039 .0252241
996.640 .0252302
997.240 .0252363
997.840 .0252426
998.440 .0252489
999.040 .0252552
999.639 .0252616
1000.238 .0252677
1000.836 .0252730
1001.435 .0252771
1002.033 .0252799
1002.630 .0252819
1003.228 .0252826
1003.825 .0252827
1004.422 .0252821
1005.018 .0252814
1005.614 .0252811
1006.210 .0252813
1006.806 .0252824
1007.401 .0252843
1007.996 .0252863
1008.591 .0252886
1009.186 .0252910
1009.780 .0252933
1010.374 .0252952
1010.967 .0252973
1011.561 .0252998
1012.154 .0253025
1012.746 .0253054
1013.339 .0253087
1013.931 .0253120
1014.523 .0253157
1015.115 .0253189
1015.706 .0253217
1016.298 .0253250
1016.888 .0253285
1017.479 .0253322
1018.069 .0253363
1018.660 .0253412
1019.250 .0253466
1019.839 .0253523
1020.429 .0253585
1021.018 .0253650
1021.607 .0253714
1022.195 .0253776
1022.784 .0253831
1023.372 .0253882
1023.960 .0253934
1024.547 .0253984
1025.135 .0254036
1025.722 .0254091
1026.309 .0254146
1026.896 .0254209
1027.483 .0254281
1028.069 .0254365
1028.655 .0254446
1029.241 .0254532
1029.827 .0254609
1030.412 .0254673
1030.997 .0254720
1031.582 .0254747
1032.167 .0254755
1032.752 .0254753
1033.336 .0254737
1033.921 .0254718
1034.505 .0254694
1035.089 .0254674
1035.672 .0254647
1036.256 .0254618
1036.839 .0254575
1037.422 .0254513
1038.005 .0254444
1038.588 .0254374
1039.171 .0254293
1039.753 .0254218
1040.335 .0254149
1040.918 .0254085
1041.500 .0254024
1042.081 .0253965
1042.663 .0253902
1043.244 .0253840
1043.826 .0253772
1044.407 .0253692
1044.988 .0253602
1045.569 .0253506
1046.150 .0253390
1046.730 .0253256
1047.311 .0253114
1047.891 .0252949
1048.471 .0252766
1049.052 .0252584
1049.632 .0252391
1050.211 .0252209
1050.791 .0252039
1051.371 .0251886
1051.950 .0251749
1052.530 .0251629
1053.109 .0251508
1053.688 .0251379
1054.268 .0251251
1054.847 .0251114
1055.426 .0250969
1056.005 .0250839
1056.583 .0250720
1057.162 .0250619
1057.741 .0250542
1058.319 .0250489
1058.898 .0250440
1059.476 .0250401
1060.055 .0250343
1060.633 .0250267
1061.211 .0250178
1061.790 .0250078
1062.368 .0249967
1062.946 .0249868
1063.524 .0249795
1064.102 .0249747
1064.680 .0249731
1065.258 .0249743
1065.836 .0249766
1066.414 .0249791
1066.992 .0249804
1067.570 .0249789
1068.148 .0249751
1068.726 .0249691
1069.304 .0249613
1069.882 .0249533
1070.460 .0249447
1071.038 .0249361
1071.616 .0249280
1072.194 .0249199
1072.772 .0249115
1073.350 .0249002
1073.928 .0248881
1074.506 .0248734
1075.084 .0248573
1075.662 .0248400
1076.240 .0248230
1076.819 .0248069
1077.397 .0247917
1077.976 .0247777
1078.554 .0247666
1079.133 .0247584
1079.711 .0247528
1080.290 .0247495
1080.869 .0247480
1081.448 .0247466
1082.027 .0247442
1082.606 .0247407
1083.185 .0247378
1083.764 .0247329
1084.343 .0247285
1084.923 .0247225
1085.502 .0247164
1086.082 .0247106
1086.662 .0247045
1087.242 .0246983
1087.822 .0246917
1088.402 .0246837
1088.983 .0246737
1089.563 .0246623
1090.144 .0246509
1090.725 .0246394
1091.306 .0246298
1091.887 .0246231
1092.469 .0246196
1093.050 .0246189
1093.632 .0246231
1094.214 .0246310
1094.796 .0246429
1095.379 .0246576
1095.961 .0246731
1096.544 .0246892
1097.127 .0247046
1097.710 .0247184
1098.294 .0247322
1098.877 .0247466
1099.461 .0247620
1100.046 .0247784
1100.630 .0247957
1101.215 .0248136
1101.800 .0248318
1102.385 .0248496
1102.970 .0248647
1103.556 .0248750
1104.142 .0248819
1104.728 .0248851
1105.315 .0248862
1105.902 .0248890
1106.489 .0248961
1107.077 .0249094
1107.664 .0249305
1108.253 .0249569
1108.841 .0249881
1109.430 .0250220
1110.019 .0250564
1110.609 .0250885
1111.198 .0251185
1111.789 .0251472
1112.379 .0251758
1112.970 .0252055
1113.561 .0252410
1114.153 .0252812
1114.745 .0253273
1115.338 .0253786
1115.931 .0254319
1116.524 .0254834
1117.117 .0255331
1117.712 .0255787
1118.306 .0256202
1118.901 .0256577
1119.496 .0256905
1120.092 .0257206
1120.689 .0257490
1121.285 .0257768
1121.882 .0258030
1122.480 .0258302
1123.078 .0258600
1123.677 .0258877
1124.276 .0259143
1124.875 .0259424
1125.476 .0259674
1126.076 .0259956
1126.677 .0260257
1127.279 .0260596
1127.881 .0260946
1128.484 .0261359
1129.087 .0261796
1129.691 .0262285
1130.295 .0262820
1130.900 .0263424
1131.505 .0264095
1132.111 .0264866
1132.718 .0265675
1133.325 .0266537
1133.933 .0267469
1134.541 .0268440
1135.150 .0269389
1135.760 .0270353
1136.370 .0271263
1136.981 .0272159
1137.592 .0272996
1138.204 .0273818
1138.817 .0274673
1139.431 .0275571
1140.045 .0276446
1140.660 .0277354
1141.275 .0278393
1141.891 .0279264
1142.508 .0281127
1143.126 .0280431
1143.744 .0282108
1144.363 .0285680
1144.983 .0279871
