Measurement Sequence started on: 15-12-46-377
Integration time: 28
Scans to Average: 2 
>>>>>Begin Spectral Data<<<<<
432.689 .0000100
433.621 .0000100
434.552 .0000100
435.482 .0000100
436.410 .0000100
437.337 .0000100
438.262 .0275311
439.187 .0583861
440.110 .0966092
441.031 .1397790
441.952 .1816300
442.871 .2144610
443.789 .2323855
444.705 .2333249
445.621 .2198343
446.535 .1974388
447.447 .1721614
448.359 .1335701
449.269 .1144845
450.178 .1025762
451.086 .0941234
451.993 .0877061
452.898 .0826524
453.803 .0784624
454.706 .0749804
455.608 .0720148
456.508 .0694571
457.408 .0672399
458.306 .0652859
459.204 .0635494
460.100 .0619917
460.995 .0605896
461.888 .0593128
462.781 .0581377
463.673 .0570525
464.563 .0560643
465.452 .0551371
466.340 .0542604
467.228 .0534452
468.114 .0526860
468.999 .0519904
469.882 .0513343
470.765 .0507262
471.647 .0501592
472.528 .0496289
473.407 .0491347
474.286 .0486911
475.163 .0482868
476.040 .0479298
476.915 .0476110
477.790 .0473357
478.663 .0470999
479.535 .0468929
480.407 .0467179
481.277 .0465741
482.147 .0464515
483.015 .0463462
483.883 .0462585
484.749 .0462134
485.615 .0462009
486.479 .0462188
487.343 .0462708
488.206 .0463511
489.067 .0464438
489.928 .0465431
490.788 .0466362
491.647 .0467233
492.505 .0468020
493.362 .0468745
494.218 .0469503
495.073 .0470481
495.928 .0471819
496.781 .0473496
497.634 .0475664
498.486 .0478258
499.337 .0481058
500.187 .0484118
501.036 .0487341
501.884 .0490751
502.731 .0494400
503.578 .0498298
504.424 .0502585
505.268 .0507256
506.113 .0512404
506.956 .0517995
507.798 .0524073
508.640 .0530597
509.480 .0537344
510.320 .0544478
511.160 .0551984
511.998 .0559886
512.836 .0568364
513.672 .0577567
514.508 .0587635
515.344 .0598880
516.178 .0611485
517.012 .0625837
517.845 .0642540
518.677 .0661858
519.508 .0684312
520.339 .0710661
521.169 .0741600
521.998 .0777437
522.826 .0818718
523.654 .0865944
524.481 .0918502
525.307 .0977069
526.133 .1041225
526.958 .1110392
527.782 .1184074
528.605 .1260526
529.428 .1338604
530.250 .1412941
531.072 .1480565
531.892 .1537194
532.712 .1579616
533.532 .1606241
534.350 .1614020
535.168 .1602502
535.986 .1572651
536.802 .1526923
537.618 .1467723
538.434 .1397764
539.249 .1322482
540.063 .1244264
540.876 .1166560
541.689 .1091923
542.501 .1022361
543.313 .0959752
544.124 .0904642
544.934 .0856101
545.744 .0812735
546.553 .0774466
547.361 .0740478
548.169 .0710579
548.976 .0684164
549.783 .0661030
550.589 .0640619
551.395 .0622582
552.200 .0606767
553.004 .0592489
553.808 .0579474
554.611 .0567639
555.414 .0556578
556.216 .0546251
557.018 .0536515
557.819 .0527299
558.619 .0518378
559.419 .0510024
560.218 .0502057
561.017 .0494412
561.815 .0486957
562.613 .0479744
563.410 .0472562
564.207 .0465534
565.003 .0458605
565.799 .0451794
566.594 .0445169
567.388 .0438872
568.182 .0432749
568.976 .0426804
569.769 .0421091
570.562 .0415597
571.354 .0410176
572.145 .0404956
572.936 .0399835
573.727 .0394856
574.517 .0390060
575.307 .0385468
576.096 .0381063
576.885 .0376939
577.673 .0373069
578.461 .0369410
579.248 .0365971
580.035 .0362771
580.821 .0359737
581.607 .0356893
582.392 .0354234
583.177 .0351746
583.962 .0349481
584.746 .0347426
585.529 .0345529
586.313 .0343835
587.095 .0342339
587.878 .0340997
588.660 .0339774
589.441 .0338643
590.222 .0337590
591.003 .0336612
591.783 .0335691
592.563 .0334808
593.342 .0333968
594.121 .0333194
594.899 .0332460
595.678 .0331760
596.455 .0331108
597.233 .0330487
598.009 .0329896
598.786 .0329336
599.562 .0328798
600.338 .0328274
601.113 .0327770
601.888 .0327287
602.663 .0326808
603.437 .0326349
604.211 .0325893
604.984 .0325449
605.757 .0325025
606.530 .0324619
607.302 .0324219
608.074 .0323832
608.845 .0323459
609.616 .0323084
610.387 .0322702
611.158 .0322320
611.928 .0321935
612.697 .0321561
613.467 .0321199
614.236 .0320854
615.004 .0320531
615.773 .0320239
616.541 .0319962
617.308 .0319705
618.076 .0319468
618.843 .0319247
619.609 .0319044
620.375 .0318858
621.141 .0318684
621.907 .0318522
622.672 .0318369
623.437 .0318216
624.202 .0318053
624.966 .0317880
625.730 .0317685
626.493 .0317474
627.257 .0317248
628.020 .0317009
628.782 .0316764
629.545 .0316520
630.307 .0316261
631.068 .0315991
631.830 .0315702
632.591 .0315392
633.352 .0315063
634.112 .0314724
634.872 .0314379
635.632 .0314042
636.392 .0313715
637.151 .0313415
637.910 .0313129
638.668 .0312862
639.427 .0312591
640.185 .0312321
640.943 .0312050
641.700 .0311770
642.457 .0311484
643.214 .0311204
643.971 .0310935
644.727 .0310684
645.483 .0310439
646.239 .0310199
646.994 .0309959
647.750 .0309725
648.505 .0309484
649.259 .0309248
650.014 .0309018
650.768 .0308803
651.521 .0308606
652.275 .0308432
653.028 .0308268
653.781 .0308109
654.534 .0307952
655.286 .0307786
656.039 .0307602
656.791 .0307398
657.542 .0307165
658.294 .0306918
659.045 .0306668
659.796 .0306415
660.546 .0306161
661.297 .0305914
662.047 .0305672
662.796 .0305425
663.546 .0305171
664.295 .0304905
665.044 .0304635
665.793 .0304363
666.542 .0304089
667.290 .0303815
668.038 .0303557
668.786 .0303318
669.533 .0303094
670.281 .0302877
671.028 .0302665
671.774 .0302449
672.521 .0302230
673.267 .0302004
674.013 .0301770
674.759 .0301531
675.505 .0301294
676.250 .0301061
676.995 .0300833
677.740 .0300609
678.484 .0300389
679.229 .0300178
679.973 .0299976
680.717 .0299778
681.460 .0299583
682.204 .0299404
682.947 .0299242
683.690 .0299093
684.433 .0298957
685.175 .0298827
685.917 .0298705
686.659 .0298584
687.401 .0298460
688.142 .0298328
688.884 .0298193
689.625 .0298058
690.365 .0297916
691.106 .0297769
691.846 .0297617
692.586 .0297458
693.326 .0297293
694.066 .0297118
694.805 .0296930
695.545 .0296735
696.284 .0296542
697.022 .0296353
697.761 .0296173
698.499 .0296003
699.237 .0295847
699.975 .0295699
700.713 .0295558
701.450 .0295418
702.187 .0295277
702.924 .0295135
703.661 .0294989
704.397 .0294840
705.133 .0294687
705.869 .0294535
706.605 .0294388
707.341 .0294243
708.076 .0294106
708.811 .0293967
709.546 .0293827
710.281 .0293685
711.015 .0293538
711.749 .0293382
712.483 .0293223
713.217 .0293060
713.950 .0292894
714.684 .0292728
715.417 .0292567
716.150 .0292412
716.882 .0292264
717.615 .0292121
718.347 .0291979
719.079 .0291835
719.811 .0291689
720.542 .0291532
721.273 .0291368
722.005 .0291198
722.735 .0291025
723.466 .0290845
724.196 .0290667
724.927 .0290489
725.656 .0290312
726.386 .0290133
727.116 .0289953
727.845 .0289766
728.574 .0289574
729.303 .0289375
730.031 .0289174
730.760 .0288974
731.488 .0288780
732.216 .0288594
732.944 .0288422
733.671 .0288268
734.398 .0288126
735.125 .0287995
735.852 .0287879
736.579 .0287766
737.305 .0287656
738.031 .0287548
738.757 .0287440
739.483 .0287326
740.208 .0287207
740.933 .0287084
741.658 .0286958
742.383 .0286826
743.108 .0286688
743.832 .0286539
744.556 .0286387
745.280 .0286226
746.004 .0286052
746.727 .0285873
747.450 .0285694
748.173 .0285505
748.896 .0285319
749.618 .0285130
750.340 .0284943
751.062 .0284760
751.784 .0284579
752.506 .0284400
753.227 .0284225
753.948 .0284053
754.669 .0283885
755.389 .0283721
756.110 .0283565
756.830 .0283409
757.550 .0283257
758.269 .0283107
758.989 .0282951
759.708 .0282789
760.427 .0282622
761.146 .0282445
761.864 .0282260
762.582 .0282069
763.300 .0281874
764.018 .0281681
764.736 .0281493
765.453 .0281309
766.170 .0281132
766.887 .0280957
767.603 .0280787
768.320 .0280613
769.036 .0280439
769.751 .0280261
770.467 .0280077
771.182 .0279891
771.897 .0279702
772.612 .0279518
773.327 .0279342
774.041 .0279175
774.755 .0279016
775.469 .0278867
776.183 .0278731
776.896 .0278608
777.609 .0278499
778.322 .0278400
779.035 .0278316
779.747 .0278240
780.459 .0278174
781.171 .0278119
781.882 .0278072
782.594 .0278036
783.305 .0278013
784.016 .0277999
784.726 .0277995
785.436 .0278002
786.147 .0278015
786.856 .0278034
787.566 .0278058
788.275 .0278076
788.984 .0278083
789.693 .0278079
790.401 .0278061
791.110 .0278028
791.818 .0277985
792.525 .0277932
793.233 .0277867
793.940 .0277797
794.647 .0277724
795.353 .0277647
796.060 .0277573
796.766 .0277498
797.472 .0277423
798.177 .0277348
798.883 .0277272
799.588 .0277193
800.292 .0277115
800.997 .0277042
801.701 .0276969
802.405 .0276897
803.109 .0276834
803.812 .0276777
804.515 .0276729
805.218 .0276687
805.921 .0276649
806.623 .0276607
807.325 .0276561
808.027 .0276506
808.728 .0276441
809.429 .0276364
810.130 .0276277
810.831 .0276179
811.531 .0276075
812.231 .0275967
812.931 .0275848
813.630 .0275726
814.330 .0275604
815.029 .0275480
815.727 .0275355
816.426 .0275236
817.124 .0275128
817.821 .0275028
818.519 .0274943
819.216 .0274873
819.913 .0274811
820.609 .0274757
821.306 .0274710
822.002 .0274669
822.697 .0274631
823.393 .0274601
824.088 .0274575
824.783 .0274558
825.477 .0274549
826.171 .0274545
826.865 .0274542
827.559 .0274542
828.252 .0274546
828.945 .0274543
829.638 .0274535
830.330 .0274526
831.023 .0274508
831.714 .0274487
832.406 .0274463
833.097 .0274430
833.788 .0274383
834.479 .0274330
835.169 .0274274
835.859 .0274214
836.548 .0274159
837.238 .0274110
837.927 .0274067
838.615 .0274030
839.304 .0273995
839.992 .0273953
840.680 .0273909
841.367 .0273854
842.054 .0273783
842.741 .0273697
843.428 .0273605
844.114 .0273504
844.800 .0273402
845.485 .0273302
846.170 .0273200
846.855 .0273089
847.540 .0272972
848.224 .0272842
848.908 .0272700
849.592 .0272539
850.275 .0272363
850.958 .0272171
851.641 .0271967
852.323 .0271749
853.005 .0271524
853.687 .0271292
854.368 .0271055
855.049 .0270808
855.730 .0270558
856.410 .0270306
857.090 .0270060
857.769 .0269818
858.449 .0269584
859.128 .0269358
859.806 .0269140
860.485 .0268928
861.163 .0268718
861.840 .0268511
862.518 .0268303
863.195 .0268091
863.871 .0267877
864.548 .0267659
865.224 .0267442
865.899 .0267229
866.574 .0267021
867.249 .0266814
867.924 .0266610
868.598 .0266411
869.272 .0266215
869.946 .0266018
870.619 .0265821
871.292 .0265619
871.964 .0265409
872.636 .0265195
873.308 .0264975
873.979 .0264753
874.651 .0264534
875.321 .0264323
875.992 .0264121
876.662 .0263929
877.331 .0263753
878.001 .0263591
878.670 .0263439
879.338 .0263295
880.007 .0263150
880.675 .0263010
881.342 .0262871
882.009 .0262734
882.676 .0262599
883.343 .0262470
884.009 .0262351
884.675 .0262238
885.340 .0262132
886.005 .0262035
886.670 .0261943
887.334 .0261860
887.998 .0261787
888.662 .0261722
889.325 .0261666
889.988 .0261619
890.650 .0261579
891.312 .0261545
891.974 .0261512
892.636 .0261483
893.297 .0261456
893.957 .0261436
894.618 .0261416
895.278 .0261399
895.937 .0261393
896.596 .0261395
897.255 .0261399
897.914 .0261404
898.572 .0261403
899.230 .0261397
899.887 .0261374
900.544 .0261335
901.201 .0261284
901.857 .0261222
902.513 .0261146
903.168 .0261061
903.823 .0260964
904.478 .0260860
905.132 .0260743
905.786 .0260613
906.440 .0260470
907.093 .0260317
907.746 .0260150
908.399 .0259972
909.051 .0259792
909.703 .0259616
910.354 .0259436
911.005 .0259261
911.656 .0259090
912.306 .0258917
912.956 .0258744
913.605 .0258575
914.254 .0258408
914.903 .0258248
915.551 .0258098
916.199 .0257964
916.847 .0257849
917.494 .0257756
918.141 .0257681
918.788 .0257623
919.434 .0257586
920.079 .0257554
920.725 .0257522
921.370 .0257496
922.014 .0257477
922.658 .0257462
923.302 .0257453
923.946 .0257456
924.589 .0257465
925.231 .0257475
925.873 .0257479
926.515 .0257469
927.157 .0257442
927.798 .0257393
928.439 .0257317
929.079 .0257218
929.719 .0257105
930.359 .0256980
930.998 .0256851
931.637 .0256731
932.275 .0256620
932.913 .0256517
933.551 .0256426
934.188 .0256346
934.825 .0256273
935.462 .0256210
936.098 .0256157
936.733 .0256114
937.369 .0256085
938.004 .0256070
938.638 .0256069
939.273 .0256084
939.907 .0256115
940.540 .0256156
941.173 .0256206
941.806 .0256263
942.438 .0256316
943.070 .0256369
943.702 .0256416
944.333 .0256457
944.964 .0256489
945.594 .0256513
946.224 .0256530
946.854 .0256543
947.483 .0256556
948.112 .0256572
948.741 .0256592
949.369 .0256618
949.996 .0256649
950.624 .0256686
951.251 .0256722
951.878 .0256758
952.504 .0256790
953.130 .0256816
953.755 .0256831
954.380 .0256838
955.005 .0256836
955.629 .0256827
956.253 .0256817
956.877 .0256802
957.500 .0256789
958.123 .0256780
958.746 .0256767
959.368 .0256748
959.990 .0256726
960.611 .0256695
961.232 .0256651
961.853 .0256601
962.473 .0256543
963.093 .0256482
963.712 .0256424
964.331 .0256372
964.950 .0256325
965.569 .0256287
966.187 .0256259
966.804 .0256232
967.422 .0256213
968.039 .0256200
968.655 .0256183
969.272 .0256166
969.887 .0256151
970.503 .0256129
971.118 .0256106
971.733 .0256079
972.347 .0256042
972.961 .0255995
973.575 .0255933
974.188 .0255853
974.801 .0255754
975.414 .0255640
976.026 .0255509
976.638 .0255360
977.250 .0255202
977.861 .0255032
978.472 .0254856
979.083 .0254678
979.693 .0254496
980.303 .0254316
980.912 .0254142
981.521 .0253970
982.130 .0253808
982.738 .0253658
983.346 .0253519
983.954 .0253392
984.562 .0253274
985.169 .0253157
985.775 .0253043
986.382 .0252931
986.988 .0252825
987.594 .0252719
988.199 .0252616
988.804 .0252517
989.409 .0252421
990.013 .0252327
990.617 .0252232
991.221 .0252132
991.824 .0252029
992.427 .0251919
993.030 .0251805
993.632 .0251692
994.234 .0251592
994.836 .0251503
995.438 .0251429
996.039 .0251369
996.640 .0251309
997.240 .0251246
997.840 .0251179
998.440 .0251100
999.040 .0251003
999.639 .0250891
1000.238 .0250769
1000.836 .0250639
1001.435 .0250510
1002.033 .0250382
1002.630 .0250257
1003.228 .0250139
1003.825 .0250020
1004.422 .0249902
1005.018 .0249786
1005.614 .0249677
1006.210 .0249572
1006.806 .0249475
1007.401 .0249387
1007.996 .0249303
1008.591 .0249227
1009.186 .0249166
1009.780 .0249119
1010.374 .0249080
1010.967 .0249041
1011.561 .0249005
1012.154 .0248967
1012.746 .0248927
1013.339 .0248879
1013.931 .0248826
1014.523 .0248763
1015.115 .0248688
1015.706 .0248598
1016.298 .0248498
1016.888 .0248398
1017.479 .0248290
1018.069 .0248178
1018.660 .0248059
1019.250 .0247936
1019.839 .0247809
1020.429 .0247681
1021.018 .0247560
1021.607 .0247444
1022.195 .0247329
1022.784 .0247223
1023.372 .0247126
1023.960 .0247048
1024.547 .0246980
1025.135 .0246921
1025.722 .0246868
1026.309 .0246821
1026.896 .0246775
1027.483 .0246731
1028.069 .0246689
1028.655 .0246656
1029.241 .0246619
1029.827 .0246576
1030.412 .0246531
1030.997 .0246483
1031.582 .0246436
1032.167 .0246388
1032.752 .0246341
1033.336 .0246295
1033.921 .0246249
1034.505 .0246209
1035.089 .0246169
1035.672 .0246131
1036.256 .0246096
1036.839 .0246052
1037.422 .0246011
1038.005 .0245978
1038.588 .0245955
1039.171 .0245944
1039.753 .0245951
1040.335 .0245972
1040.918 .0246002
1041.500 .0246031
1042.081 .0246062
1042.663 .0246084
1043.244 .0246097
1043.826 .0246095
1044.407 .0246071
1044.988 .0246039
1045.569 .0245999
1046.150 .0245940
1046.730 .0245866
1047.311 .0245778
1047.891 .0245680
1048.471 .0245573
1049.052 .0245468
1049.632 .0245368
1050.211 .0245283
1050.791 .0245221
1051.371 .0245167
1051.950 .0245126
1052.530 .0245086
1053.109 .0245039
1053.688 .0244975
1054.268 .0244903
1054.847 .0244816
1055.426 .0244724
1056.005 .0244643
1056.583 .0244576
1057.162 .0244527
1057.741 .0244492
1058.319 .0244463
1058.898 .0244444
1059.476 .0244417
1060.055 .0244380
1060.633 .0244316
1061.211 .0244239
1061.790 .0244152
1062.368 .0244065
1062.946 .0243992
1063.524 .0243947
1064.102 .0243928
1064.680 .0243951
1065.258 .0244005
1065.836 .0244077
1066.414 .0244166
1066.992 .0244272
1067.570 .0244372
1068.148 .0244460
1068.726 .0244534
1069.304 .0244604
1069.882 .0244664
1070.460 .0244723
1071.038 .0244784
1071.616 .0244850
1072.194 .0244929
1072.772 .0245006
1073.350 .0245084
1073.928 .0245174
1074.506 .0245260
1075.084 .0245330
1075.662 .0245400
1076.240 .0245457
1076.819 .0245486
1077.397 .0245509
1077.976 .0245537
1078.554 .0245563
1079.133 .0245597
1079.711 .0245640
1080.290 .0245701
1080.869 .0245780
1081.448 .0245870
1082.027 .0245956
1082.606 .0246049
1083.185 .0246149
1083.764 .0246243
1084.343 .0246338
1084.923 .0246455
1085.502 .0246582
1086.082 .0246734
1086.662 .0246920
1087.242 .0247128
1087.822 .0247352
1088.402 .0247588
1088.983 .0247827
1089.563 .0248065
1090.144 .0248278
1090.725 .0248496
1091.306 .0248702
1091.887 .0248919
1092.469 .0249140
1093.050 .0249351
1093.632 .0249559
1094.214 .0249760
1094.796 .0249946
1095.379 .0250112
1095.961 .0250248
1096.544 .0250363
1097.127 .0250461
1097.710 .0250553
1098.294 .0250649
1098.877 .0250751
1099.461 .0250880
1100.046 .0251056
1100.630 .0251243
1101.215 .0251473
1101.800 .0251737
1102.385 .0252036
1102.970 .0252358
1103.556 .0252694
1104.142 .0253044
1104.728 .0253378
1105.315 .0253728
1105.902 .0254098
1106.489 .0254502
1107.077 .0254956
1107.664 .0255432
1108.253 .0255937
1108.841 .0256471
1109.430 .0256988
1110.019 .0257445
1110.609 .0257869
1111.198 .0258250
1111.789 .0258573
1112.379 .0258860
1112.970 .0259156
1113.561 .0259483
1114.153 .0259867
1114.745 .0260335
1115.338 .0260843
1115.931 .0261417
1116.524 .0262008
1117.117 .0262578
1117.712 .0263136
1118.306 .0263670
1118.901 .0264168
1119.496 .0264662
1120.092 .0265219
1120.689 .0265815
1121.285 .0266457
1121.882 .0267178
1122.480 .0267942
1123.078 .0268727
1123.677 .0269507
1124.276 .0270253
1124.875 .0270957
1125.476 .0271637
1126.076 .0272284
1126.677 .0272923
1127.279 .0273599
1127.881 .0274288
1128.484 .0274985
1129.087 .0275685
1129.691 .0276423
1130.295 .0277170
1130.900 .0277930
1131.505 .0278732
1132.111 .0279548
1132.718 .0280421
1133.325 .0281334
1133.933 .0282245
1134.541 .0283208
1135.150 .0284173
1135.760 .0285165
1136.370 .0286161
1136.981 .0287176
1137.592 .0288199
1138.204 .0289297
1138.817 .0290442
1139.431 .0291605
1140.045 .0292854
1140.660 .0294141
1141.275 .0295460
1141.891 .0296860
1142.508 .0297816
1143.126 .0300312
1143.744 .0300137
1144.363 .0302531
1144.983 .0305060
