BestFit value for E:\RC_data\Compressed_For_Future_Analysis_Lite\test_shlomo\aqueous_test\GoodSpectraLarge_Full\0012_2025-06-24_09-45-30\Interpretation_History\2025-07-21_16-23-34\ResultsGraphs\BestFit\(Run)spectra_09-46-21-148_BestFit.txt
600.203 0.0438679
600.975 0.0438106
601.747 0.0437533
602.518 0.0436959
603.289 0.0436384
604.059 0.0435808
604.829 0.0435230
605.599 0.0434652
606.369 0.0434071
607.138 0.0433490
607.906 0.0432909
608.675 0.0432326
609.443 0.0431744
610.210 0.0431161
610.977 0.0430579
611.744 0.0429997
612.511 0.0429415
613.277 0.0428836
614.043 0.0428257
614.809 0.0427681
615.574 0.0427107
616.339 0.0426536
617.104 0.0425968
617.868 0.0425404
618.632 0.0424844
619.395 0.0424288
620.159 0.0423737
620.922 0.0423191
621.684 0.0422650
622.447 0.0422115
623.209 0.0421585
623.970 0.0421062
624.732 0.0420544
625.493 0.0420033
626.254 0.0419527
627.014 0.0419028
627.774 0.0418535
628.534 0.0418048
629.294 0.0417567
630.053 0.0417091
630.812 0.0416621
631.571 0.0416156
632.329 0.0415696
633.087 0.0415241
633.845 0.0414789
634.602 0.0414342
635.359 0.0413898
636.116 0.0413457
636.873 0.0413018
637.629 0.0412581
638.385 0.0412146
639.141 0.0411712
639.897 0.0411278
640.652 0.0410845
641.407 0.0410411
642.161 0.0409977
642.916 0.0409541
643.670 0.0409104
644.424 0.0408665
645.177 0.0408224
645.931 0.0407779
646.684 0.0407333
647.436 0.0406883
648.189 0.0406430
648.941 0.0405974
649.693 0.0405514
650.445 0.0405050
651.196 0.0404584
651.947 0.0404114
652.698 0.0403640
653.449 0.0403163
654.199 0.0402683
654.949 0.0402201
655.699 0.0401715
656.449 0.0401228
657.198 0.0400738
657.947 0.0400247
658.696 0.0399755
659.445 0.0399262
660.193 0.0398769
660.941 0.0398276
661.689 0.0397783
662.436 0.0397292
663.184 0.0396802
663.931 0.0396314
664.678 0.0395829
665.424 0.0395348
666.171 0.0394869
666.917 0.0394395
667.663 0.0393925
668.408 0.0393460
669.154 0.0393000
669.899 0.0392547
670.644 0.0392099
671.388 0.0391658
672.133 0.0391222
672.877 0.0390794
673.621 0.0390373
674.365 0.0389959
675.108 0.0389553
675.851 0.0389154
676.594 0.0388762
677.337 0.0388377
678.080 0.0388000
678.822 0.0387630
679.564 0.0387267
680.306 0.0386910
681.047 0.0386561
681.789 0.0386217
682.530 0.0385879
683.271 0.0385547
684.012 0.0385220
684.752 0.0384898
685.492 0.0384580
686.232 0.0384266
686.972 0.0383955
687.712 0.0383647
688.451 0.0383341
689.190 0.0383037
689.929 0.0382735
690.667 0.0382433
691.406 0.0382131
692.144 0.0381829
692.882 0.0381525
693.620 0.0381220
694.357 0.0380914
695.095 0.0380605
695.832 0.0380293
696.569 0.0379977
697.305 0.0379659
698.042 0.0379335
698.778 0.0379008
699.514 0.0378676
700.249 0.0378339
700.985 0.0377996
701.720 0.0377648
702.455 0.0377294
703.190 0.0376935
703.925 0.0376570
704.659 0.0376199
705.393 0.0375822
706.127 0.0375440
706.861 0.0375052
707.595 0.0374658
708.328 0.0374260
709.061 0.0373856
709.794 0.0373447
710.527 0.0373034
711.259 0.0372617
711.991 0.0372196
712.723 0.0371772
713.455 0.0371345
714.186 0.0370916
714.918 0.0370484
715.649 0.0370051
716.380 0.0369617
717.110 0.0369183
717.841 0.0368748
718.571 0.0368315
719.301 0.0367882
720.031 0.0367451
720.760 0.0367023
721.490 0.0366597
722.219 0.0366175
722.948 0.0365757
723.676 0.0365343
724.405 0.0364934
725.133 0.0364531
725.861 0.0364133
726.589 0.0363741
727.317 0.0363356
728.044 0.0362979
728.771 0.0362608
729.498 0.0362246
730.225 0.0361891
730.951 0.0361544
731.677 0.0361206
732.403 0.0360876
733.129 0.0360555
733.855 0.0360243
734.580 0.0359939
735.305 0.0359644
736.030 0.0359358
736.755 0.0359080
737.479 0.0358812
738.203 0.0358551
738.927 0.0358299
739.651 0.0358054
740.375 0.0357817
741.098 0.0357587
741.821 0.0357365
742.544 0.0357149
743.267 0.0356939
743.989 0.0356735
744.711 0.0356537
745.433 0.0356343
746.155 0.0356154
746.877 0.0355968
747.598 0.0355786
748.319 0.0355607
749.040 0.0355430
749.760 0.0355255
750.481 0.0355081
751.201 0.0354907
751.921 0.0354734
752.640 0.0354560
753.360 0.0354385
754.079 0.0354208
754.798 0.0354029
755.517 0.0353848
756.235 0.0353663
756.953 0.0353475
757.671 0.0353282
758.389 0.0353085
759.107 0.0352883
759.824 0.0352675
760.541 0.0352462
761.258 0.0352243
761.974 0.0352017
762.691 0.0351784
763.407 0.0351544
764.123 0.0351297
764.838 0.0351043
765.554 0.0350782
766.269 0.0350512
766.984 0.0350235
767.699 0.0349950
768.413 0.0349658
769.127 0.0349357
769.841 0.0349049
770.555 0.0348734
771.268 0.0348411
771.982 0.0348080
772.694 0.0347744
773.407 0.0347399
774.120 0.0347049
774.832 0.0346692
775.544 0.0346329
776.256 0.0345961
776.967 0.0345588
777.678 0.0345209
778.389 0.0344827
779.100 0.0344440
779.810 0.0344051
780.521 0.0343657
781.231 0.0343262
781.940 0.0342865
782.650 0.0342466
783.359 0.0342066
784.068 0.0341666
784.776 0.0341267
785.485 0.0340867
786.193 0.0340469
786.901 0.0340073
787.609 0.0339679
788.316 0.0339288
789.023 0.0338900
789.730 0.0338516
790.436 0.0338137
791.143 0.0337762
791.849 0.0337393
792.555 0.0337030
793.260 0.0336673
793.965 0.0336322
794.670 0.0335979
795.375 0.0335643
796.080 0.0335314
796.784 0.0334994
797.488 0.0334682
798.191 0.0334379
798.895 0.0334084
799.598 0.0333799
800.301 0.0333523
801.003 0.0333257
801.705 0.0333000
802.408 0.0332753
803.109 0.0332516
803.811 0.0332288
804.512 0.0332070
805.213 0.0331862
805.913 0.0331664
806.614 0.0331475
807.314 0.0331295
808.014 0.0331125
808.713 0.0330964
809.412 0.0330813
810.111 0.0330669
810.810 0.0330535
811.508 0.0330408
812.206 0.0330289
812.904 0.0330178
813.602 0.0330074
814.299 0.0329977
814.996 0.0329887
815.692 0.0329802
816.389 0.0329723
817.085 0.0329649
817.781 0.0329580
818.476 0.0329515
819.171 0.0329454
819.866 0.0329396
820.561 0.0329341
821.255 0.0329288
821.949 0.0329237
822.643 0.0329187
823.336 0.0329138
824.029 0.0329089
824.722 0.0329040
825.415 0.0328990
826.107 0.0328939
826.799 0.0328887
827.490 0.0328832
828.182 0.0328774
828.873 0.0328713
829.563 0.0328649
830.254 0.0328580
830.944 0.0328507
831.634 0.0328429
832.323 0.0328346
833.012 0.0328257
833.701 0.0328162
834.390 0.0328061
835.078 0.0327952
835.766 0.0327837
836.453 0.0327715
837.141 0.0327585
837.828 0.0327448
838.514 0.0327302
839.201 0.0327148
839.887 0.0326986
840.572 0.0326816
841.258 0.0326636
841.943 0.0326449
842.628 0.0326252
843.312 0.0326047
843.996 0.0325833
844.680 0.0325610
845.363 0.0325378
846.046 0.0325138
846.729 0.0324889
847.412 0.0324632
848.094 0.0324366
848.776 0.0324092
849.457 0.0323810
850.139 0.0323520
850.819 0.0323223
851.500 0.0322918
852.180 0.0322606
852.860 0.0322287
853.540 0.0321961
854.219 0.0321629
854.898 0.0321292
855.576 0.0320949
856.254 0.0320600
856.932 0.0320247
857.610 0.0319889
858.287 0.0319527
858.964 0.0319161
859.640 0.0318793
860.317 0.0318420
860.993 0.0318046
861.668 0.0317670
862.343 0.0317293
863.018 0.0316914
863.693 0.0316534
864.367 0.0316154
865.041 0.0315774
865.714 0.0315396
866.387 0.0315018
867.060 0.0314642
867.732 0.0314268
868.404 0.0313896
869.076 0.0313527
869.748 0.0313161
870.419 0.0312799
871.089 0.0312441
871.760 0.0312087
872.430 0.0311739
873.099 0.0311396
873.769 0.0311058
874.438 0.0310726
875.106 0.0310401
875.774 0.0310083
876.442 0.0309771
877.110 0.0309466
877.777 0.0309170
878.444 0.0308880
879.110 0.0308600
879.776 0.0308327
880.442 0.0308063
881.108 0.0307807
881.773 0.0307560
882.437 0.0307323
883.102 0.0307094
883.766 0.0306875
884.429 0.0306666
885.093 0.0306465
885.755 0.0306275
886.418 0.0306094
887.080 0.0305922
887.742 0.0305761
888.403 0.0305609
889.064 0.0305466
889.725 0.0305334
890.385 0.0305210
891.045 0.0305097
891.705 0.0304992
892.364 0.0304897
893.023 0.0304811
893.682 0.0304733
894.340 0.0304665
894.998 0.0304605
895.655 0.0304554
896.312 0.0304510
896.969 0.0304475
897.625 0.0304448
898.281 0.0304427
898.937 0.0304415
899.592 0.0304409
900.247 0.0304410
900.901 0.0304417
901.555 0.0304430
902.209 0.0304449
902.862 0.0304473
903.515 0.0304502
904.168 0.0304537
904.820 0.0304575
905.472 0.0304618
906.123 0.0304664
906.774 0.0304713
907.425 0.0304766
908.076 0.0304821
908.726 0.0304878
909.375 0.0304937
910.024 0.0304997
910.673 0.0305059
911.322 0.0305121
911.970 0.0305184
912.618 0.0305246
913.265 0.0305308
913.912 0.0305369
914.558 0.0305429
915.205 0.0305488
915.850 0.0305544
916.496 0.0305599
917.141 0.0305651
917.786 0.0305700
918.430 0.0305745
919.074 0.0305787
919.718 0.0305825
920.361 0.0305859
921.004 0.0305889
921.646 0.0305913
922.288 0.0305933
922.930 0.0305947
923.571 0.0305956
924.212 0.0305959
924.853 0.0305955
925.493 0.0305945
926.133 0.0305929
926.772 0.0305906
927.411 0.0305876
928.050 0.0305839
928.688 0.0305795
929.326 0.0305743
929.963 0.0305684
930.600 0.0305616
931.237 0.0305541
931.874 0.0305458
932.510 0.0305367
933.145 0.0305268
933.780 0.0305161
934.415 0.0305046
935.050 0.0304922
935.684 0.0304790
936.318 0.0304649
936.951 0.0304501
937.584 0.0304344
938.217 0.0304179
938.849 0.0304005
939.481 0.0303824
940.112 0.0303634
940.743 0.0303436
941.374 0.0303231
942.004 0.0303017
942.634 0.0302796
943.264 0.0302567
943.893 0.0302331
944.522 0.0302087
945.150 0.0301836
945.778 0.0301579
946.406 0.0301314
947.033 0.0301043
947.660 0.0300765
948.287 0.0300480
948.913 0.0300190
949.539 0.0299894
950.165 0.0299592
950.790 0.0299285
951.414 0.0298974
952.039 0.0298656
952.663 0.0298334
953.286 0.0298009
953.910 0.0297678
954.533 0.0297344
955.155 0.0297006
955.777 0.0296665
956.399 0.0296321
957.020 0.0295974
957.641 0.0295625
958.262 0.0295273
958.882 0.0294920
959.502 0.0294564
960.122 0.0294216
960.741 0.0293900
961.360 0.0293583
961.979 0.0293265
962.597 0.0292948
963.214 0.0292630
963.832 0.0292312
964.449 0.0291995
965.066 0.0291679
965.682 0.0291364
966.298 0.0291050
966.914 0.0290738
967.529 0.0290428
968.144 0.0290121
968.758 0.0289816
969.373 0.0289513
969.986 0.0289214
970.600 0.0288917
971.213 0.0288625
971.826 0.0288336
972.438 0.0288051
973.050 0.0287771
973.662 0.0287495
974.274 0.0287223
974.885 0.0286957
975.495 0.0286696
976.106 0.0286440
976.716 0.0286190
977.325 0.0285945
977.935 0.0285707
978.544 0.0285474
979.152 0.0285248
979.761 0.0285028
980.369 0.0284815
980.976 0.0284609
981.584 0.0284409
982.191 0.0284217
982.797 0.0284031
983.404 0.0283853
984.010 0.0283682
984.615 0.0283519
985.221 0.0283363
985.826 0.0283215
986.430 0.0283075
987.035 0.0282942
987.639 0.0282817
988.243 0.0282700
988.846 0.0282591
989.449 0.0282489
990.052 0.0282396
990.654 0.0282311
991.256 0.0282233
991.858 0.0282164
992.460 0.0282102
993.061 0.0282048
993.662 0.0282002
994.262 0.0281965
994.863 0.0281934
995.463 0.0281912
996.062 0.0281897
996.662 0.0281890
997.261 0.0281890
997.860 0.0281898
998.458 0.0281913
999.056 0.0281936
999.654 0.0281966
1000.252 0.0281988
1000.849 0.0281997
1001.446 0.0282013
1002.043 0.0282036
1002.639 0.0282065
1003.235 0.0282101
1003.831 0.0282143
1004.427 0.0282192
1005.022 0.0282247
1005.617 0.0282307
1006.212 0.0282373
1006.806 0.0282445
1007.401 0.0282522
1007.995 0.0282604
1008.588 0.0282691
1009.182 0.0282784
1009.775 0.0282880
1010.368 0.0282981
1010.96 0.0283086
1011.553 0.0283195
1012.145 0.0283308
1012.737 0.0283425
1013.328 0.0283545
1013.92 0.0283668
1014.511 0.0283794
1015.102 0.0283922
1015.692 0.0284053
1016.283 0.0284186
1016.873 0.0284322
1017.463 0.0284459
1018.052 0.0284597
1018.642 0.0284738
1019.231 0.0284879
1019.82 0.0285021
1020.409 0.0285163
1020.997 0.0285307
1021.585 0.0285450
1022.173 0.0285593
1022.761 0.0285736
1023.349 0.0285879
1023.936 0.0286021
1024.524 0.0286163
1025.111 0.0286303
1025.697 0.0286441
1026.284 0.0286579
1026.87 0.0286714
1027.457 0.0286848
1028.043 0.0286980
1028.628 0.0287109
1029.214 0.0287235
1029.80 0.0287359
1030.385 0.0287480
1030.97 0.0287598
1031.555 0.0287712
1032.139 0.0287823
1032.724 0.0287931
1033.308 0.0288034
1033.893 0.0288134
1034.477 0.0288229
1035.06 0.0288320
1035.644 0.0288406
1036.228 0.0288488
1036.811 0.0288565
1037.394 0.0288636
1037.977 0.0288703
1038.56 0.0288765
1039.143 0.0288821
1039.726 0.0288872
1040.308 0.0288917
1040.891 0.0288956
1041.473 0.0288990
1042.055 0.0289017
1042.637 0.0289039
1043.219 0.0289054
1043.801 0.0289063
1044.382 0.0289066
1044.964 0.0289063
1045.545 0.0289052
1046.127 0.0289036
1046.708 0.0289013
1047.289 0.0288983
1047.87 0.0288946
1048.451 0.0288903
1049.032 0.0288852
1049.612 0.0288795
1050.193 0.0288731
1050.774 0.0288660
1051.354 0.0288583
1051.935 0.0288498
1052.515 0.0288406
1053.095 0.0288308
1053.675 0.0288202
1054.256 0.0288089
1054.836 0.0287970
1055.416 0.0287844
1055.996 0.0287710
1056.576 0.0287570
1057.156 0.0287423
1057.735 0.0287270
1058.315 0.0287109
1058.895 0.0286942
1059.475 0.0286768
1060.055 0.0286587
1060.634 0.0286400
1061.214 0.0286207
1061.794 0.0286007
1062.373 0.0285801
1062.953 0.0285589
1063.533 0.0285370
1064.113 0.0285145
1064.692 0.0284915
1065.272 0.0284678
1065.852 0.0284436
1066.431 0.0284188
1067.011 0.0283935
1067.591 0.0283676
1068.171 0.0283412
1068.751 0.0283142
1069.331 0.0282868
1069.91 0.0282589
1070.49 0.0282305
1071.071 0.0282015
1071.651 0.0281722
1072.231 0.0281424
1072.811 0.0281122
1073.391 0.0280816
1073.972 0.0280506
1074.552 0.0280192
1075.133 0.0279874
1075.713 0.0279554
1076.294 0.0279229
1076.875 0.0278901
1077.456 0.0278571
1078.037 0.0278237
1078.618 0.0277901
1079.199 0.0277563
1079.78 0.0277222
1080.362 0.0276879
1080.943 0.0276534
1081.525 0.0276187
1082.107 0.0275838
1082.689 0.0275489
1083.271 0.0275137
1083.853 0.0274785
1084.436 0.0274432
1085.018 0.0274078
1085.601 0.0273723
1086.184 0.0273368
1086.767 0.0273013
1087.351 0.0272658
1087.934 0.0272303
1088.518 0.0271948
1089.102 0.0271594
1089.686 0.0271241
1090.27 0.0270888
1090.855 0.0270537
1091.439 0.0270187
1092.024 0.0269838
1092.609 0.0269491
1093.195 0.0269145
1093.78 0.0268802
1094.366 0.0268461
1094.952 0.0268122
1095.539 0.0267785
1096.125 0.0267452
1096.712 0.0267121
1097.299 0.0266793
1097.887 0.0266467
1098.475 0.0266146
1099.063 0.0265828
1099.651 0.0265513
1100.239 0.0265203
1100.828 0.0264896
1101.417 0.0264593
1102.007 0.0264295
1102.597 0.0264000
1103.187 0.0263711
1103.777 0.0263426
1104.368 0.0263146
1104.959 0.0262871
1105.551 0.0262601
1106.143 0.0262336
1106.735 0.0262077
1107.328 0.0261822
1107.921 0.0261574
1108.514 0.0261331
1109.108 0.0261094
1109.702 0.0260863
1110.296 0.0260638
1110.891 0.0260419
1111.486 0.0260207
1112.082 0.0260001
1112.678 0.0259801
1113.275 0.0259607
1113.872 0.0259420
1114.469 0.0259240
1115.067 0.0259067
1115.665 0.0258900
1116.264 0.0258741
1116.864 0.0258588
1117.463 0.0258442
1118.063 0.0258303
1118.664 0.0258172
1119.265 0.0258047
1119.867 0.0257930
1120.469 0.0257820
1121.072 0.0257717
1121.675 0.0257622
1122.279 0.0257534
1122.883 0.0257453
1123.488 0.0257380
1124.093 0.0257314
1124.699 0.0257255
1125.305 0.0257204
1125.912 0.0257160
1126.52 0.0257123
1127.128 0.0257094
1127.737 0.0257072
1128.346 0.0257058
1128.956 0.0257051
1129.567 0.0257051
1130.178 0.0257058
1130.79 0.0257073
1131.402 0.0257094
1132.015 0.0257123
1132.629 0.0257159
1133.243 0.0257202
1133.858 0.0257251
1134.474 0.0257308
1135.09 0.0257371
1135.707 0.0257442
1136.325 0.0257518
1136.943 0.0257602
1137.562 0.0257691
1138.182 0.0257788
1138.802 0.0257890
1139.423 0.0257999
1140.045 0.0258113
1140.668 0.0258234
1141.291 0.0258360
1141.916 0.0258493
1142.54 0.0258631
1143.166 0.0258774
1143.793 0.0258923
1144.42 0.0259077
1145.048 0.0259236
