Measurement Sequence started on: 09-46-08-630
Integration time: 30
Scans to Average: 2 
>>>>>Begin Spectral Data<<<<<
434.745 .1044526
435.665 .1033276
436.585 .1001222
437.503 .0915282
438.420 .0854985
439.335 .0850017
440.249 .0815837
441.162 .0785152
442.074 .0758456
442.984 .0736711
443.894 .0718461
444.802 .0702381
445.708 .0688644
446.614 .0676966
447.518 .0666759
448.422 .0657846
449.324 .0649993
450.224 .0643277
451.124 .0637193
452.022 .0631951
452.920 .0627193
453.816 .0622901
454.711 .0619051
455.605 .0615591
456.497 .0612464
457.389 .0609648
458.279 .0607062
459.169 .0604722
460.057 .0602572
460.944 .0600708
461.830 .0599027
462.715 .0597479
463.599 .0595990
464.482 .0594523
465.363 .0593025
466.244 .0591569
467.124 .0590123
468.002 .0588700
468.880 .0587355
469.756 .0586090
470.632 .0584945
471.506 .0583949
472.379 .0583116
473.252 .0582393
474.123 .0581793
474.994 .0581322
475.863 .0580894
476.731 .0580496
477.599 .0580124
478.465 .0579754
479.331 .0579405
480.195 .0579027
481.059 .0578652
481.921 .0578280
482.783 .0578015
483.643 .0577836
484.503 .0577752
485.362 .0577794
486.220 .0577897
487.077 .0578034
487.933 .0578177
488.788 .0578238
489.642 .0578185
490.496 .0578062
491.348 .0577895
492.200 .0577736
493.050 .0577611
493.900 .0577555
494.749 .0577594
495.597 .0577712
496.445 .0577816
497.291 .0577755
498.136 .0577506
498.981 .0577057
499.825 .0576305
500.668 .0575370
501.510 .0574283
502.352 .0573219
503.192 .0572273
504.032 .0571523
504.871 .0570985
505.709 .0570717
506.546 .0570613
507.383 .0570639
508.219 .0570776
509.054 .0571007
509.888 .0571312
510.722 .0571793
511.554 .0572568
512.386 .0573722
513.217 .0575274
514.048 .0577295
514.877 .0579719
515.706 .0582600
516.535 .0585683
517.362 .0588920
518.189 .0592144
519.015 .0595305
519.840 .0598206
520.665 .0600893
521.489 .0603401
522.312 .0605640
523.134 .0607766
523.956 .0609898
524.777 .0612094
525.598 .0614563
526.417 .0617194
527.236 .0620128
528.055 .0623262
528.872 .0626480
529.690 .0629422
530.506 .0632075
531.322 .0634423
532.137 .0636377
532.951 .0637882
533.765 .0639125
534.578 .0640119
535.391 .0640940
536.203 .0641527
537.014 .0641807
537.824 .0641599
538.634 .0640813
539.444 .0639070
540.253 .0636448
541.061 .0632830
541.868 .0628471
542.675 .0623484
543.482 .0618224
544.288 .0612931
545.093 .0607619
545.897 .0602431
546.702 .0597626
547.505 .0593069
548.308 .0588805
549.110 .0584698
549.912 .0580846
550.713 .0577219
551.514 .0573872
552.314 .0570831
553.114 .0568144
553.913 .0565960
554.711 .0564040
555.509 .0562226
556.306 .0560607
557.103 .0559069
557.900 .0557484
558.695 .0555882
559.491 .0554303
560.285 .0552687
561.080 .0551060
561.873 .0549462
562.667 .0547869
563.459 .0546328
564.252 .0544750
565.043 .0543039
565.835 .0541189
566.625 .0539175
567.416 .0536877
568.205 .0534399
568.995 .0531855
569.783 .0529212
570.572 .0526587
571.360 .0524024
572.147 .0521570
572.934 .0519222
573.720 .0516916
574.506 .0514675
575.292 .0512427
576.077 .0510192
576.862 .0507937
577.646 .0505691
578.429 .0503542
579.213 .0501465
579.996 .0499513
580.778 .0497687
581.560 .0495992
582.341 .0494400
583.123 .0492856
583.903 .0491379
584.684 .0489956
585.463 .0488594
586.243 .0487324
587.022 .0486157
587.800 .0485087
588.578 .0484122
589.356 .0483242
590.134 .0482441
590.911 .0481712
591.687 .0481029
592.463 .0480390
593.239 .0479784
594.014 .0479214
594.789 .0478678
595.564 .0478186
596.338 .0477752
597.112 .0477365
597.885 .0477032
598.658 .0476724
599.431 .0476432
600.203 .0476154
600.975 .0475882
601.747 .0475615
602.518 .0475354
603.289 .0475098
604.059 .0474835
604.829 .0474575
605.599 .0474313
606.369 .0474035
607.138 .0473737
607.906 .0473421
608.675 .0473087
609.443 .0472733
610.210 .0472373
610.977 .0472010
611.744 .0471655
612.511 .0471311
613.277 .0470959
614.043 .0470596
614.809 .0470220
615.574 .0469822
616.339 .0469388
617.104 .0468929
617.868 .0468452
618.632 .0467962
619.395 .0467485
620.159 .0467026
620.922 .0466590
621.684 .0466178
622.447 .0465778
623.209 .0465377
623.970 .0464963
624.732 .0464534
625.493 .0464077
626.254 .0463605
627.014 .0463127
627.774 .0462647
628.534 .0462178
629.294 .0461736
630.053 .0461331
630.812 .0460963
631.571 .0460630
632.329 .0460334
633.087 .0460070
633.845 .0459834
634.602 .0459620
635.359 .0459432
636.116 .0459266
636.873 .0459123
637.629 .0458996
638.385 .0458887
639.141 .0458791
639.897 .0458714
640.652 .0458646
641.407 .0458580
642.161 .0458515
642.916 .0458439
643.670 .0458346
644.424 .0458238
645.177 .0458104
645.931 .0457938
646.684 .0457740
647.436 .0457511
648.189 .0457244
648.941 .0456945
649.693 .0456622
650.445 .0456273
651.196 .0455908
651.947 .0455533
652.698 .0455139
653.449 .0454735
654.199 .0454326
654.949 .0453907
655.699 .0453477
656.449 .0453030
657.198 .0452573
657.947 .0452099
658.696 .0451617
659.445 .0451127
660.193 .0450635
660.941 .0450146
661.689 .0449664
662.436 .0449184
663.184 .0448710
663.931 .0448233
664.678 .0447754
665.424 .0447262
666.171 .0446758
666.917 .0446239
667.663 .0445711
668.408 .0445175
669.154 .0444646
669.899 .0444117
670.644 .0443600
671.388 .0443093
672.133 .0442600
672.877 .0442110
673.621 .0441626
674.365 .0441140
675.108 .0440656
675.851 .0440173
676.594 .0439702
677.337 .0439239
678.080 .0438805
678.822 .0438398
679.564 .0438024
680.306 .0437688
681.047 .0437390
681.789 .0437119
682.530 .0436872
683.271 .0436641
684.012 .0436433
684.752 .0436238
685.492 .0436056
686.232 .0435891
686.972 .0435748
687.712 .0435625
688.451 .0435522
689.190 .0435436
689.929 .0435367
690.667 .0435306
691.406 .0435248
692.144 .0435184
692.882 .0435118
693.620 .0435047
694.357 .0434963
695.095 .0434860
695.832 .0434739
696.569 .0434583
697.305 .0434396
698.042 .0434185
698.778 .0433947
699.514 .0433680
700.249 .0433394
700.985 .0433090
701.720 .0432769
702.455 .0432435
703.190 .0432088
703.925 .0431718
704.659 .0431331
705.393 .0430917
706.127 .0430472
706.861 .0430009
707.595 .0429537
708.328 .0429056
709.061 .0428572
709.794 .0428082
710.527 .0427588
711.259 .0427090
711.991 .0426589
712.723 .0426074
713.455 .0425547
714.186 .0425011
714.918 .0424462
715.649 .0423907
716.380 .0423354
717.110 .0422803
717.841 .0422260
718.571 .0421720
719.301 .0421184
720.031 .0420654
720.760 .0420128
721.490 .0419610
722.219 .0419105
722.948 .0418612
723.676 .0418127
724.405 .0417653
725.133 .0417193
725.861 .0416741
726.589 .0416296
727.317 .0415859
728.044 .0415423
728.771 .0414996
729.498 .0414577
730.225 .0414167
730.951 .0413778
731.677 .0413411
732.403 .0413062
733.129 .0412734
733.855 .0412429
734.580 .0412145
735.305 .0411874
736.030 .0411623
736.755 .0411387
737.479 .0411165
738.203 .0410960
738.927 .0410772
739.651 .0410603
740.375 .0410453
741.098 .0410314
741.821 .0410180
742.544 .0410049
743.267 .0409915
743.989 .0409774
744.711 .0409628
745.433 .0409482
746.155 .0409331
746.877 .0409177
747.598 .0409025
748.319 .0408876
749.040 .0408726
749.760 .0408576
750.481 .0408417
751.201 .0408251
751.921 .0408068
752.640 .0407874
753.360 .0407666
754.079 .0407455
754.798 .0407242
755.517 .0407026
756.235 .0406807
756.953 .0406589
757.671 .0406360
758.389 .0406126
759.107 .0405882
759.824 .0405624
760.541 .0405346
761.258 .0405059
761.974 .0404763
762.691 .0404461
763.407 .0404155
764.123 .0403850
764.838 .0403544
765.554 .0403234
766.269 .0402921
766.984 .0402598
767.699 .0402271
768.413 .0401937
769.127 .0401593
769.841 .0401246
770.555 .0400895
771.268 .0400543
771.982 .0400190
772.694 .0399840
773.407 .0399493
774.120 .0399141
774.832 .0398785
775.544 .0398427
776.256 .0398058
776.967 .0397676
777.678 .0397284
778.389 .0396880
779.100 .0396469
779.810 .0396051
780.521 .0395625
781.231 .0395198
781.940 .0394765
782.650 .0394327
783.359 .0393880
784.068 .0393433
784.776 .0392987
785.485 .0392538
786.193 .0392097
786.901 .0391663
787.609 .0391239
788.316 .0390837
789.023 .0390460
789.730 .0390109
790.436 .0389781
791.143 .0389474
791.849 .0389187
792.555 .0388915
793.260 .0388657
793.965 .0388401
794.670 .0388155
795.375 .0387913
796.080 .0387670
796.784 .0387428
797.488 .0387188
798.191 .0386951
798.895 .0386719
799.598 .0386491
800.301 .0386267
801.003 .0386047
801.705 .0385834
802.408 .0385625
803.109 .0385424
803.811 .0385233
804.512 .0385046
805.213 .0384867
805.913 .0384702
806.614 .0384544
807.314 .0384402
808.014 .0384278
808.713 .0384172
809.412 .0384082
810.111 .0384006
810.810 .0383940
811.508 .0383878
812.206 .0383822
812.904 .0383763
813.602 .0383695
814.299 .0383625
814.996 .0383539
815.692 .0383444
816.389 .0383345
817.085 .0383244
817.781 .0383143
818.476 .0383048
819.171 .0382960
819.866 .0382875
820.561 .0382794
821.255 .0382714
821.949 .0382628
822.643 .0382541
823.336 .0382443
824.029 .0382333
824.722 .0382212
825.415 .0382086
826.107 .0381954
826.799 .0381828
827.490 .0381703
828.182 .0381579
828.873 .0381450
829.563 .0381314
830.254 .0381166
830.944 .0381003
831.634 .0380823
832.323 .0380626
833.012 .0380414
833.701 .0380195
834.390 .0379968
835.078 .0379742
835.766 .0379518
836.453 .0379299
837.141 .0379081
837.828 .0378864
838.514 .0378646
839.201 .0378432
839.887 .0378221
840.572 .0378013
841.258 .0377804
841.943 .0377594
842.628 .0377381
843.312 .0377162
843.996 .0376935
844.680 .0376697
845.363 .0376446
846.046 .0376185
846.729 .0375911
847.412 .0375629
848.094 .0375341
848.776 .0375044
849.457 .0374739
850.139 .0374419
850.819 .0374083
851.500 .0373730
852.180 .0373366
852.860 .0372992
853.540 .0372612
854.219 .0372230
854.898 .0371850
855.576 .0371476
856.254 .0371108
856.932 .0370744
857.610 .0370380
858.287 .0370016
858.964 .0369647
859.640 .0369268
860.317 .0368888
860.993 .0368507
861.668 .0368127
862.343 .0367749
863.018 .0367372
863.693 .0366998
864.367 .0366627
865.041 .0366264
865.714 .0365907
866.387 .0365563
867.060 .0365231
867.732 .0364911
868.404 .0364603
869.076 .0364308
869.748 .0364024
870.419 .0363747
871.089 .0363477
871.760 .0363211
872.430 .0362952
873.099 .0362698
873.769 .0362455
874.438 .0362222
875.106 .0361997
875.774 .0361779
876.442 .0361561
877.110 .0361343
877.777 .0361121
878.444 .0360891
879.110 .0360659
879.776 .0360429
880.442 .0360206
881.108 .0359995
881.773 .0359800
882.437 .0359623
883.102 .0359465
883.766 .0359324
884.429 .0359195
885.093 .0359076
885.755 .0358963
886.418 .0358854
887.080 .0358752
887.742 .0358662
888.403 .0358584
889.064 .0358520
889.725 .0358476
890.385 .0358442
891.045 .0358416
891.705 .0358395
892.364 .0358374
893.023 .0358352
893.682 .0358329
894.340 .0358301
894.998 .0358271
895.655 .0358252
896.312 .0358246
896.969 .0358252
897.625 .0358274
898.281 .0358307
898.937 .0358341
899.592 .0358373
900.247 .0358393
900.901 .0358399
901.555 .0358391
902.209 .0358371
902.862 .0358331
903.515 .0358281
904.168 .0358227
904.820 .0358173
905.472 .0358122
906.123 .0358075
906.774 .0358029
907.425 .0357981
908.076 .0357937
908.726 .0357895
909.375 .0357858
910.024 .0357830
910.673 .0357808
911.322 .0357793
911.970 .0357782
912.618 .0357779
913.265 .0357777
913.912 .0357779
914.558 .0357779
915.205 .0357768
915.850 .0357744
916.496 .0357702
917.141 .0357639
917.786 .0357555
918.430 .0357444
919.074 .0357310
919.718 .0357146
920.361 .0356959
921.004 .0356751
921.646 .0356530
922.288 .0356303
922.930 .0356071
923.571 .0355833
924.212 .0355594
924.853 .0355353
925.493 .0355114
926.133 .0354881
926.772 .0354657
927.411 .0354441
928.050 .0354226
928.688 .0354010
929.326 .0353789
929.963 .0353557
930.600 .0353317
931.237 .0353058
931.874 .0352790
932.510 .0352507
933.145 .0352211
933.780 .0351905
934.415 .0351594
935.050 .0351276
935.684 .0350952
936.318 .0350621
936.951 .0350281
937.584 .0349930
938.217 .0349573
938.849 .0349204
939.481 .0348827
940.112 .0348442
940.743 .0348054
941.374 .0347659
942.004 .0347262
942.634 .0346860
943.264 .0346458
943.893 .0346059
944.522 .0345662
945.150 .0345261
945.778 .0344859
946.406 .0344455
947.033 .0344051
947.660 .0343644
948.287 .0343240
948.913 .0342833
949.539 .0342430
950.165 .0342029
950.790 .0341632
951.414 .0341240
952.039 .0340859
952.663 .0340486
953.286 .0340112
953.910 .0339742
954.533 .0339366
955.155 .0338987
955.777 .0338614
956.399 .0338252
957.020 .0337904
957.641 .0337571
958.262 .0337260
958.882 .0336965
959.502 .0336687
960.122 .0336419
960.741 .0336156
961.360 .0335899
961.979 .0335642
962.597 .0335381
963.214 .0335121
963.832 .0334871
964.449 .0334630
965.066 .0334399
965.682 .0334182
966.298 .0333975
966.914 .0333776
967.529 .0333583
968.144 .0333396
968.758 .0333213
969.373 .0333028
969.986 .0332842
970.600 .0332659
971.213 .0332484
971.826 .0332315
972.438 .0332153
973.050 .0332008
973.662 .0331878
974.274 .0331759
974.885 .0331647
975.495 .0331547
976.106 .0331456
976.716 .0331374
977.325 .0331289
977.935 .0331203
978.544 .0331114
979.152 .0331021
979.761 .0330927
980.369 .0330835
980.976 .0330745
981.584 .0330665
982.191 .0330595
982.797 .0330545
983.404 .0330505
984.010 .0330480
984.615 .0330467
985.221 .0330461
985.826 .0330460
986.430 .0330456
987.035 .0330452
987.639 .0330459
988.243 .0330472
988.846 .0330495
989.449 .0330519
990.052 .0330554
990.654 .0330593
991.256 .0330636
991.858 .0330681
992.460 .0330727
993.061 .0330778
993.662 .0330843
994.262 .0330916
994.863 .0331000
995.463 .0331092
996.062 .0331192
996.662 .0331292
997.261 .0331387
997.860 .0331471
998.458 .0331548
999.056 .0331620
999.654 .0331698
1000.252 .0331777
1000.849 .0331861
1001.446 .0331955
1002.043 .0332063
1002.639 .0332181
1003.235 .0332304
1003.831 .0332428
1004.427 .0332553
1005.022 .0332676
1005.617 .0332796
1006.212 .0332906
1006.806 .0333012
1007.401 .0333119
1007.995 .0333222
1008.588 .0333327
1009.182 .0333436
1009.775 .0333547
1010.368 .0333659
1010.960 .0333772
1011.553 .0333878
1012.145 .0333967
1012.737 .0334036
1013.328 .0334085
1013.920 .0334106
1014.511 .0334112
1015.102 .0334112
1015.692 .0334118
1016.283 .0334142
1016.873 .0334192
1017.463 .0334255
1018.052 .0334337
1018.642 .0334422
1019.231 .0334503
1019.820 .0334566
1020.409 .0334615
1020.997 .0334650
1021.585 .0334682
1022.173 .0334726
1022.761 .0334792
1023.349 .0334877
1023.936 .0334987
1024.524 .0335101
1025.111 .0335209
1025.697 .0335293
1026.284 .0335347
1026.870 .0335362
1027.457 .0335346
1028.043 .0335307
1028.628 .0335254
1029.214 .0335199
1029.800 .0335152
1030.385 .0335112
1030.970 .0335077
1031.555 .0335029
1032.139 .0334954
1032.724 .0334851
1033.308 .0334713
1033.893 .0334539
1034.477 .0334333
1035.060 .0334110
1035.644 .0333876
1036.228 .0333645
1036.811 .0333420
1037.394 .0333209
1037.977 .0333007
1038.560 .0332811
1039.143 .0332607
1039.726 .0332397
1040.308 .0332176
1040.891 .0331942
1041.473 .0331694
1042.055 .0331439
1042.637 .0331176
1043.219 .0330917
1043.801 .0330671
1044.382 .0330447
1044.964 .0330237
1045.545 .0330037
1046.127 .0329833
1046.708 .0329617
1047.289 .0329384
1047.870 .0329131
1048.451 .0328861
1049.032 .0328582
1049.612 .0328304
1050.193 .0328031
1050.774 .0327772
1051.354 .0327535
1051.935 .0327320
1052.515 .0327120
1053.095 .0326926
1053.675 .0326732
1054.256 .0326537
1054.836 .0326343
1055.416 .0326161
1055.996 .0325988
1056.576 .0325832
1057.156 .0325693
1057.735 .0325570
1058.315 .0325452
1058.895 .0325343
1059.475 .0325223
1060.055 .0325093
1060.634 .0324945
1061.214 .0324777
1061.794 .0324579
1062.373 .0324365
1062.953 .0324141
1063.533 .0323908
1064.113 .0323666
1064.692 .0323416
1065.272 .0323152
1065.852 .0322881
1066.431 .0322597
1067.011 .0322294
1067.591 .0321968
1068.171 .0321639
1068.751 .0321295
1069.331 .0320949
1069.910 .0320600
1070.490 .0320256
1071.071 .0319927
1071.651 .0319627
1072.231 .0319338
1072.811 .0319064
1073.391 .0318812
1073.972 .0318577
1074.552 .0318350
1075.133 .0318128
1075.713 .0317906
1076.294 .0317686
1076.875 .0317467
1077.456 .0317263
1078.037 .0317059
1078.618 .0316884
1079.199 .0316736
1079.780 .0316624
1080.362 .0316545
1080.943 .0316473
1081.525 .0316408
1082.107 .0316337
1082.689 .0316254
1083.271 .0316148
1083.853 .0316012
1084.436 .0315864
1085.018 .0315721
1085.601 .0315590
1086.184 .0315467
1086.767 .0315365
1087.351 .0315283
1087.934 .0315216
1088.518 .0315146
1089.102 .0315059
1089.686 .0314945
1090.270 .0314831
1090.855 .0314733
1091.439 .0314651
1092.024 .0314614
1092.609 .0314618
1093.195 .0314665
1093.780 .0314743
1094.366 .0314838
1094.952 .0314922
1095.539 .0314995
1096.125 .0315071
1096.712 .0315129
1097.299 .0315193
1097.887 .0315271
1098.475 .0315365
1099.063 .0315480
1099.651 .0315610
1100.239 .0315732
1100.828 .0315829
1101.417 .0315921
1102.007 .0315996
1102.597 .0316060
1103.187 .0316151
1103.777 .0316266
1104.368 .0316410
1104.959 .0316590
1105.551 .0316810
1106.143 .0317033
1106.735 .0317281
1107.328 .0317536
1107.921 .0317790
1108.514 .0318062
1109.108 .0318365
1109.702 .0318699
1110.296 .0319065
1110.891 .0319472
1111.486 .0319890
1112.082 .0320301
1112.678 .0320705
1113.275 .0321061
1113.872 .0321373
1114.469 .0321661
1115.067 .0321918
1115.665 .0322143
1116.264 .0322374
1116.864 .0322611
1117.463 .0322846
1118.063 .0323099
1118.664 .0323355
1119.265 .0323602
1119.867 .0323861
1120.469 .0324151
1121.072 .0324446
1121.675 .0324756
1122.279 .0325094
1122.883 .0325462
1123.488 .0325860
1124.093 .0326312
1124.699 .0326817
1125.305 .0327387
1125.912 .0328074
1126.520 .0328834
1127.128 .0329661
1127.737 .0330559
1128.346 .0331500
1128.956 .0332457
1129.567 .0333427
1130.178 .0334404
1130.790 .0335377
1131.402 .0336393
1132.015 .0337494
1132.629 .0338694
1133.243 .0340018
1133.858 .0341453
1134.474 .0342991
1135.090 .0344589
1135.707 .0346199
1136.325 .0347756
1136.943 .0349270
1137.562 .0350719
1138.182 .0352141
1138.802 .0353525
1139.423 .0354881
1140.045 .0356240
1140.668 .0357557
1141.291 .0358891
1141.916 .0360224
1142.540 .0361754
1143.166 .0362475
1143.793 .0362730
1144.420 .0365656
1145.048 .0367351
