Measurement Sequence started on: 12-08-58-817
Integration time: 28
Scans to Average: 2 
>>>>>Begin Spectral Data<<<<<
432.689 .0000100
433.621 .0000100
434.552 .0000100
435.482 .0000100
436.410 .5309075
437.337 .1409426
438.262 .1395624
439.187 .1297037
440.110 .1150255
441.031 .0992959
441.952 .0747874
442.871 .0650363
443.789 .0587857
444.705 .0543148
445.621 .0510117
446.535 .0483630
447.447 .0461593
448.359 .0442724
449.269 .0426155
450.178 .0411624
451.086 .0398653
451.993 .0387131
452.898 .0377004
453.803 .0368112
454.706 .0360485
455.608 .0353837
456.508 .0348146
457.408 .0343197
458.306 .0338745
459.204 .0334702
460.100 .0330915
460.995 .0327437
461.888 .0324284
462.781 .0321445
463.673 .0318942
464.563 .0316685
465.452 .0314671
466.340 .0312882
467.228 .0311257
468.114 .0309851
468.999 .0308456
469.882 .0307024
470.765 .0305595
471.647 .0304175
472.528 .0302766
473.407 .0301441
474.286 .0300262
475.163 .0299249
476.040 .0298408
476.915 .0297736
477.790 .0297159
478.663 .0296641
479.535 .0296185
480.407 .0295741
481.277 .0295244
482.147 .0294745
483.015 .0294255
483.883 .0293889
484.749 .0293662
485.615 .0293591
486.479 .0293670
487.343 .0293949
488.206 .0294418
489.067 .0295029
489.928 .0295780
490.788 .0296678
491.647 .0297608
492.505 .0298590
493.362 .0299585
494.218 .0300577
495.073 .0301553
495.928 .0302609
496.781 .0303711
497.634 .0304952
498.486 .0306332
499.337 .0307929
500.187 .0309742
501.036 .0311811
501.884 .0314051
502.731 .0316357
503.578 .0318736
504.424 .0321207
505.268 .0323699
506.113 .0326385
506.956 .0329269
507.798 .0332491
508.640 .0336151
509.480 .0340272
510.320 .0344976
511.160 .0350435
511.998 .0356660
512.836 .0363850
513.672 .0372040
514.508 .0381537
515.344 .0392373
516.178 .0404672
517.012 .0418893
517.845 .0434940
518.677 .0452904
519.508 .0473109
520.339 .0495854
521.169 .0521914
521.998 .0551703
522.826 .0585568
523.654 .0623894
524.481 .0666909
525.307 .0714310
526.133 .0765312
526.958 .0818847
527.782 .0873449
528.605 .0926770
529.428 .0976013
530.250 .1018267
531.072 .1051079
531.892 .1073036
532.712 .1082548
533.532 .1079304
534.350 .1064367
535.168 .1038384
535.986 .1003456
536.802 .0961687
537.618 .0915248
538.434 .0866152
539.249 .0816241
540.063 .0767122
540.876 .0719915
541.689 .0675909
542.501 .0635597
543.313 .0599101
544.124 .0566834
544.934 .0538138
545.744 .0512415
546.553 .0489482
547.361 .0469274
548.169 .0451244
548.976 .0435168
549.783 .0420784
550.589 .0407843
551.395 .0396014
552.200 .0385017
553.004 .0374704
553.808 .0365014
554.611 .0355915
555.414 .0347460
556.216 .0339706
557.018 .0332712
557.819 .0326397
558.619 .0320686
559.419 .0315499
560.218 .0310828
561.017 .0306562
561.815 .0302671
562.613 .0299083
563.410 .0295804
564.207 .0292829
565.003 .0290163
565.799 .0287688
566.594 .0285357
567.388 .0283158
568.182 .0281001
568.976 .0278794
569.769 .0276509
570.562 .0274273
571.354 .0272029
572.145 .0269834
572.936 .0267671
573.727 .0265597
574.517 .0263652
575.307 .0261807
576.096 .0260067
576.885 .0258471
577.673 .0257018
578.461 .0255708
579.248 .0254573
580.035 .0253648
580.821 .0252866
581.607 .0252209
582.392 .0251632
583.177 .0251135
583.962 .0250644
584.746 .0250180
585.529 .0249720
586.313 .0249293
587.095 .0248913
587.878 .0248545
588.660 .0248215
589.441 .0247918
590.222 .0247649
591.003 .0247394
591.783 .0247160
592.563 .0246947
593.342 .0246756
594.121 .0246594
594.899 .0246462
595.678 .0246355
596.455 .0246275
597.233 .0246208
598.009 .0246143
598.786 .0246068
599.562 .0245975
600.338 .0245863
601.113 .0245733
601.888 .0245583
602.663 .0245417
603.437 .0245239
604.211 .0245055
604.984 .0244861
605.757 .0244663
606.530 .0244448
607.302 .0244215
608.074 .0243985
608.845 .0243749
609.616 .0243522
610.387 .0243314
611.158 .0243126
611.928 .0242961
612.697 .0242826
613.467 .0242698
614.236 .0242582
615.004 .0242478
615.773 .0242376
616.541 .0242275
617.308 .0242182
618.076 .0242104
618.843 .0242040
619.609 .0241998
620.375 .0241980
621.141 .0241966
621.907 .0241970
622.672 .0241973
623.437 .0241972
624.202 .0241968
624.966 .0241952
625.730 .0241924
626.493 .0241892
627.257 .0241853
628.020 .0241809
628.782 .0241764
629.545 .0241715
630.307 .0241655
631.068 .0241578
631.830 .0241481
632.591 .0241360
633.352 .0241216
634.112 .0241051
634.872 .0240863
635.632 .0240661
636.392 .0240456
637.151 .0240249
637.910 .0240053
638.668 .0239873
639.427 .0239709
640.185 .0239565
640.943 .0239427
641.700 .0239297
642.457 .0239171
643.214 .0239048
643.971 .0238922
644.727 .0238795
645.483 .0238673
646.239 .0238557
646.994 .0238444
647.750 .0238343
648.505 .0238250
649.259 .0238167
650.014 .0238088
650.768 .0238019
651.521 .0237950
652.275 .0237887
653.028 .0237826
653.781 .0237772
654.534 .0237722
655.286 .0237679
656.039 .0237638
656.791 .0237608
657.542 .0237587
658.294 .0237570
659.045 .0237558
659.796 .0237556
660.546 .0237552
661.297 .0237545
662.047 .0237530
662.796 .0237506
663.546 .0237475
664.295 .0237437
665.044 .0237391
665.793 .0237341
666.542 .0237294
667.290 .0237247
668.038 .0237203
668.786 .0237166
669.533 .0237123
670.281 .0237073
671.028 .0237021
671.774 .0236958
672.521 .0236889
673.267 .0236815
674.013 .0236735
674.759 .0236649
675.505 .0236557
676.250 .0236452
676.995 .0236338
677.740 .0236217
678.484 .0236084
679.229 .0235936
679.973 .0235788
680.717 .0235635
681.460 .0235484
682.204 .0235345
682.947 .0235217
683.690 .0235104
684.433 .0235010
685.175 .0234928
685.917 .0234858
686.659 .0234803
687.401 .0234754
688.142 .0234712
688.884 .0234674
689.625 .0234638
690.365 .0234605
691.106 .0234582
691.846 .0234572
692.586 .0234574
693.326 .0234588
694.066 .0234615
694.805 .0234649
695.545 .0234685
696.284 .0234716
697.022 .0234737
697.761 .0234747
698.499 .0234744
699.237 .0234729
699.975 .0234710
700.713 .0234691
701.450 .0234685
702.187 .0234684
702.924 .0234692
703.661 .0234703
704.397 .0234713
705.133 .0234714
705.869 .0234700
706.605 .0234668
707.341 .0234619
708.076 .0234554
708.811 .0234477
709.546 .0234383
710.281 .0234286
711.015 .0234186
711.749 .0234083
712.483 .0233979
713.217 .0233874
713.950 .0233765
714.684 .0233656
715.417 .0233545
716.150 .0233433
716.882 .0233319
717.615 .0233211
718.347 .0233106
719.079 .0233006
719.811 .0232913
720.542 .0232826
721.273 .0232744
722.005 .0232670
722.735 .0232595
723.466 .0232522
724.196 .0232448
724.927 .0232372
725.656 .0232291
726.386 .0232201
727.116 .0232105
727.845 .0232003
728.574 .0231893
729.303 .0231779
730.031 .0231664
730.760 .0231549
731.488 .0231440
732.216 .0231336
732.944 .0231239
733.671 .0231151
734.398 .0231077
735.125 .0231012
735.852 .0230960
736.579 .0230921
737.305 .0230896
738.031 .0230889
738.757 .0230898
739.483 .0230923
740.208 .0230963
740.933 .0231018
741.658 .0231081
742.383 .0231145
743.108 .0231214
743.832 .0231281
744.556 .0231349
745.280 .0231416
746.004 .0231480
746.727 .0231546
747.450 .0231617
748.173 .0231686
748.896 .0231753
749.618 .0231811
750.340 .0231855
751.062 .0231885
751.784 .0231900
752.506 .0231899
753.227 .0231886
753.948 .0231866
754.669 .0231844
755.389 .0231816
756.110 .0231784
756.830 .0231744
757.550 .0231698
758.269 .0231643
758.989 .0231572
759.708 .0231484
760.427 .0231387
761.146 .0231277
761.864 .0231159
762.582 .0231032
763.300 .0230900
764.018 .0230762
764.736 .0230616
765.453 .0230465
766.170 .0230309
766.887 .0230144
767.603 .0229977
768.320 .0229806
769.036 .0229638
769.751 .0229470
770.467 .0229308
771.182 .0229151
771.897 .0229000
772.612 .0228857
773.327 .0228726
774.041 .0228606
774.755 .0228502
775.469 .0228409
776.183 .0228330
776.896 .0228263
777.609 .0228202
778.322 .0228144
779.035 .0228090
779.747 .0228036
780.459 .0227978
781.171 .0227917
781.882 .0227855
782.594 .0227795
783.305 .0227738
784.016 .0227688
784.726 .0227643
785.436 .0227603
786.147 .0227565
786.856 .0227532
787.566 .0227504
788.275 .0227481
788.984 .0227466
789.693 .0227460
790.401 .0227466
791.110 .0227484
791.818 .0227513
792.525 .0227560
793.233 .0227619
793.940 .0227689
794.647 .0227764
795.353 .0227844
796.060 .0227927
796.766 .0228015
797.472 .0228104
798.177 .0228198
798.883 .0228289
799.588 .0228379
800.292 .0228468
800.997 .0228558
801.701 .0228640
802.405 .0228716
803.109 .0228786
803.812 .0228851
804.515 .0228908
805.218 .0228960
805.921 .0229004
806.623 .0229043
807.325 .0229078
808.027 .0229102
808.728 .0229116
809.429 .0229123
810.130 .0229118
810.831 .0229104
811.531 .0229078
812.231 .0229039
812.931 .0228986
813.630 .0228919
814.330 .0228838
815.029 .0228739
815.727 .0228624
816.426 .0228497
817.124 .0228353
817.821 .0228195
818.519 .0228025
819.216 .0227841
819.913 .0227647
820.609 .0227450
821.306 .0227245
822.002 .0227039
822.697 .0226837
823.393 .0226637
824.088 .0226442
824.783 .0226251
825.477 .0226066
826.171 .0225881
826.865 .0225703
827.559 .0225527
828.252 .0225349
828.945 .0225183
829.638 .0225025
830.330 .0224875
831.023 .0224734
831.714 .0224604
832.406 .0224481
833.097 .0224363
833.788 .0224250
834.479 .0224140
835.169 .0224035
835.859 .0223932
836.548 .0223832
837.238 .0223735
837.927 .0223644
838.615 .0223553
839.304 .0223467
839.992 .0223384
840.680 .0223300
841.367 .0223217
842.054 .0223134
842.741 .0223059
843.428 .0222987
844.114 .0222918
844.800 .0222855
845.485 .0222793
846.170 .0222732
846.855 .0222671
847.540 .0222614
848.224 .0222562
848.908 .0222520
849.592 .0222493
850.275 .0222479
850.958 .0222482
851.641 .0222503
852.323 .0222542
853.005 .0222595
853.687 .0222661
854.368 .0222733
855.049 .0222811
855.730 .0222895
856.410 .0222979
857.090 .0223063
857.769 .0223148
858.449 .0223235
859.128 .0223319
859.806 .0223406
860.485 .0223501
861.163 .0223601
861.840 .0223710
862.518 .0223823
863.195 .0223938
863.871 .0224049
864.548 .0224151
865.224 .0224246
865.899 .0224328
866.574 .0224398
867.249 .0224456
867.924 .0224503
868.598 .0224540
869.272 .0224568
869.946 .0224587
870.619 .0224595
871.292 .0224587
871.964 .0224560
872.636 .0224512
873.308 .0224449
873.979 .0224372
874.651 .0224284
875.321 .0224192
875.992 .0224103
876.662 .0224016
877.331 .0223933
878.001 .0223854
878.670 .0223779
879.338 .0223703
880.007 .0223626
880.675 .0223544
881.342 .0223458
882.009 .0223367
882.676 .0223273
883.343 .0223170
884.009 .0223058
884.675 .0222935
885.340 .0222800
886.005 .0222653
886.670 .0222495
887.334 .0222326
887.998 .0222154
888.662 .0221976
889.325 .0221793
889.988 .0221602
890.650 .0221412
891.312 .0221213
891.974 .0221013
892.636 .0220812
893.297 .0220613
893.957 .0220421
894.618 .0220240
895.278 .0220071
895.937 .0219909
896.596 .0219754
897.255 .0219603
897.914 .0219445
898.572 .0219283
899.230 .0219108
899.887 .0218928
900.544 .0218744
901.201 .0218562
901.857 .0218384
902.513 .0218218
903.168 .0218061
903.823 .0217915
904.478 .0217774
905.132 .0217638
905.786 .0217503
906.440 .0217368
907.093 .0217232
907.746 .0217099
908.399 .0216966
909.051 .0216844
909.703 .0216729
910.354 .0216633
911.005 .0216545
911.656 .0216473
912.306 .0216414
912.956 .0216366
913.605 .0216325
914.254 .0216289
914.903 .0216258
915.551 .0216235
916.199 .0216214
916.847 .0216204
917.494 .0216201
918.141 .0216212
918.788 .0216234
919.434 .0216269
920.079 .0216313
920.725 .0216365
921.370 .0216419
922.014 .0216477
922.658 .0216534
923.302 .0216590
923.946 .0216642
924.589 .0216692
925.231 .0216739
925.873 .0216786
926.515 .0216832
927.157 .0216884
927.798 .0216935
928.439 .0216990
929.079 .0217049
929.719 .0217109
930.359 .0217171
930.998 .0217233
931.637 .0217297
932.275 .0217358
932.913 .0217418
933.551 .0217474
934.188 .0217525
934.825 .0217577
935.462 .0217630
936.098 .0217683
936.733 .0217739
937.369 .0217796
938.004 .0217851
938.638 .0217901
939.273 .0217946
939.907 .0217979
940.540 .0218004
941.173 .0218021
941.806 .0218032
942.438 .0218038
943.070 .0218042
943.702 .0218045
944.333 .0218045
944.964 .0218040
945.594 .0218027
946.224 .0218005
946.854 .0217975
947.483 .0217938
948.112 .0217892
948.741 .0217839
949.369 .0217780
949.996 .0217716
950.624 .0217646
951.251 .0217571
951.878 .0217491
952.504 .0217413
953.130 .0217327
953.755 .0217236
954.380 .0217134
955.005 .0217025
955.629 .0216907
956.253 .0216775
956.877 .0216628
957.500 .0216470
958.123 .0216297
958.746 .0216112
959.368 .0215915
959.990 .0215713
960.611 .0215504
961.232 .0215290
961.853 .0215068
962.473 .0214845
963.093 .0214613
963.712 .0214376
964.331 .0214132
964.950 .0213885
965.569 .0213634
966.187 .0213381
966.804 .0213137
967.422 .0212903
968.039 .0212678
968.655 .0212463
969.272 .0212254
969.887 .0212052
970.503 .0211852
971.118 .0211652
971.733 .0211450
972.347 .0211248
972.961 .0211042
973.575 .0210836
974.188 .0210627
974.801 .0210418
975.414 .0210206
976.026 .0209996
976.638 .0209785
977.250 .0209573
977.861 .0209367
978.472 .0209171
979.083 .0208982
979.693 .0208799
980.303 .0208619
980.912 .0208438
981.521 .0208254
982.130 .0208069
982.738 .0207885
983.346 .0207703
983.954 .0207528
984.562 .0207366
985.169 .0207217
985.775 .0207086
986.382 .0206971
986.988 .0206873
987.594 .0206791
988.199 .0206718
988.804 .0206652
989.409 .0206598
990.013 .0206561
990.617 .0206538
991.221 .0206532
991.824 .0206548
992.427 .0206582
993.030 .0206639
993.632 .0206712
994.234 .0206800
994.836 .0206907
995.438 .0207027
996.039 .0207154
996.640 .0207290
997.240 .0207430
997.840 .0207571
998.440 .0207716
999.040 .0207863
999.639 .0208014
1000.238 .0208166
1000.836 .0208325
1001.435 .0208487
1002.033 .0208655
1002.630 .0208830
1003.228 .0209004
1003.825 .0209183
1004.422 .0209360
1005.018 .0209529
1005.614 .0209695
1006.210 .0209856
1006.806 .0210015
1007.401 .0210177
1007.996 .0210341
1008.591 .0210509
1009.186 .0210684
1009.780 .0210865
1010.374 .0211046
1010.967 .0211227
1011.561 .0211408
1012.154 .0211580
1012.746 .0211746
1013.339 .0211899
1013.931 .0212040
1014.523 .0212176
1015.115 .0212314
1015.706 .0212453
1016.298 .0212602
1016.888 .0212763
1017.479 .0212933
1018.069 .0213109
1018.660 .0213290
1019.250 .0213470
1019.839 .0213648
1020.429 .0213823
1021.018 .0213999
1021.607 .0214177
1022.195 .0214363
1022.784 .0214560
1023.372 .0214774
1023.960 .0215001
1024.547 .0215235
1025.135 .0215469
1025.722 .0215695
1026.309 .0215909
1026.896 .0216101
1027.483 .0216271
1028.069 .0216417
1028.655 .0216544
1029.241 .0216644
1029.827 .0216719
1030.412 .0216780
1030.997 .0216825
1031.582 .0216851
1032.167 .0216861
1032.752 .0216853
1033.336 .0216831
1033.921 .0216796
1034.505 .0216751
1035.089 .0216696
1035.672 .0216639
1036.256 .0216580
1036.839 .0216517
1037.422 .0216456
1038.005 .0216403
1038.588 .0216357
1039.171 .0216312
1039.753 .0216277
1040.335 .0216248
1040.918 .0216219
1041.500 .0216198
1042.081 .0216174
1042.663 .0216146
1043.244 .0216116
1043.826 .0216076
1044.407 .0216023
1044.988 .0215961
1045.569 .0215885
1046.150 .0215795
1046.730 .0215694
1047.311 .0215587
1047.891 .0215467
1048.471 .0215343
1049.052 .0215219
1049.632 .0215089
1050.211 .0214950
1050.791 .0214802
1051.371 .0214639
1051.950 .0214474
1052.530 .0214294
1053.109 .0214104
1053.688 .0213907
1054.268 .0213703
1054.847 .0213496
1055.426 .0213295
1056.005 .0213096
1056.583 .0212907
1057.162 .0212726
1057.741 .0212555
1058.319 .0212386
1058.898 .0212227
1059.476 .0212073
1060.055 .0211924
1060.633 .0211783
1061.211 .0211644
1061.790 .0211502
1062.368 .0211365
1062.946 .0211225
1063.524 .0211077
1064.102 .0210932
1064.680 .0210785
1065.258 .0210627
1065.836 .0210469
1066.414 .0210316
1066.992 .0210164
1067.570 .0210023
1068.148 .0209882
1068.726 .0209753
1069.304 .0209633
1069.882 .0209513
1070.460 .0209387
1071.038 .0209265
1071.616 .0209149
1072.194 .0209031
1072.772 .0208913
1073.350 .0208811
1073.928 .0208709
1074.506 .0208619
1075.084 .0208532
1075.662 .0208451
1076.240 .0208369
1076.819 .0208285
1077.397 .0208184
1077.976 .0208084
1078.554 .0207968
1079.133 .0207832
1079.711 .0207695
1080.290 .0207556
1080.869 .0207420
1081.448 .0207298
1082.027 .0207194
1082.606 .0207125
1083.185 .0207076
1083.764 .0207055
1084.343 .0207049
1084.923 .0207061
1085.502 .0207078
1086.082 .0207084
1086.662 .0207088
1087.242 .0207081
1087.822 .0207068
1088.402 .0207056
1088.983 .0207058
1089.563 .0207081
1090.144 .0207130
1090.725 .0207201
1091.306 .0207296
1091.887 .0207423
1092.469 .0207568
1093.050 .0207726
1093.632 .0207890
1094.214 .0208055
1094.796 .0208236
1095.379 .0208428
1095.961 .0208642
1096.544 .0208876
1097.127 .0209154
1097.710 .0209459
1098.294 .0209787
1098.877 .0210124
1099.461 .0210453
1100.046 .0210772
1100.630 .0211076
1101.215 .0211346
1101.800 .0211587
1102.385 .0211810
1102.970 .0212020
1103.556 .0212210
1104.142 .0212404
1104.728 .0212593
1105.315 .0212782
1105.902 .0212970
1106.489 .0213153
1107.077 .0213330
1107.664 .0213526
1108.253 .0213731
1108.841 .0213948
1109.430 .0214198
1110.019 .0214468
1110.609 .0214733
1111.198 .0214990
1111.789 .0215244
1112.379 .0215460
1112.970 .0215644
1113.561 .0215820
1114.153 .0215987
1114.745 .0216159
1115.338 .0216322
1115.931 .0216477
1116.524 .0216625
1117.117 .0216768
1117.712 .0216879
1118.306 .0216967
1118.901 .0217067
1119.496 .0217153
1120.092 .0217237
1120.689 .0217351
1121.285 .0217504
1121.882 .0217680
1122.480 .0217874
1123.078 .0218093
1123.677 .0218323
1124.276 .0218562
1124.875 .0218790
1125.476 .0219034
1126.076 .0219302
1126.677 .0219583
1127.279 .0219873
1127.881 .0220162
1128.484 .0220478
1129.087 .0220802
1129.691 .0221140
1130.295 .0221484
1130.900 .0221842
1131.505 .0222200
1132.111 .0222537
1132.718 .0222875
1133.325 .0223208
1133.933 .0223563
1134.541 .0223921
1135.150 .0224262
1135.760 .0224629
1136.370 .0224995
1136.981 .0225385
1137.592 .0225758
1138.204 .0226126
1138.817 .0226414
1139.431 .0226667
1140.045 .0226901
1140.660 .0227099
1141.275 .0227224
1141.891 .0227303
1142.508 .0227403
1143.126 .0228430
1143.744 .0228711
1144.363 .0226518
1144.983 .0226165
