Measurement Sequence started on: 09-46-08-630
Integration time: 30
Scans to Average: 2 
>>>>>Begin Spectral Data<<<<<
434.745 .1086541
435.665 .1065804
436.585 .1058445
437.503 .0968658
438.420 .0912354
439.335 .0886044
440.249 .0848755
441.162 .0815261
442.074 .0785541
442.984 .0761555
443.894 .0741407
444.802 .0724422
445.708 .0709824
446.614 .0697266
447.518 .0686499
448.422 .0677186
449.324 .0669232
450.224 .0662431
451.124 .0656341
452.022 .0650982
452.920 .0645842
453.816 .0640914
454.711 .0636205
455.605 .0631870
456.497 .0627971
457.389 .0624575
458.279 .0621655
459.169 .0619146
460.057 .0616876
460.944 .0614852
461.830 .0612888
462.715 .0610931
463.599 .0608981
464.482 .0607044
465.363 .0605185
466.244 .0603515
467.124 .0602074
468.002 .0600914
468.880 .0600027
469.756 .0599393
470.632 .0598898
471.506 .0598451
472.379 .0597997
473.252 .0597515
474.123 .0596960
474.994 .0596379
475.863 .0595793
476.731 .0595228
477.599 .0594729
478.465 .0594337
479.331 .0594039
480.195 .0593803
481.059 .0593612
481.921 .0593382
482.783 .0593112
483.643 .0592784
484.503 .0592363
485.362 .0591875
486.220 .0591364
487.077 .0590849
487.933 .0590344
488.788 .0589916
489.642 .0589535
490.496 .0589168
491.348 .0588855
492.200 .0588555
493.050 .0588255
493.900 .0588001
494.749 .0587797
495.597 .0587649
496.445 .0587614
497.291 .0587609
498.136 .0587676
498.981 .0587817
499.825 .0587960
500.668 .0588116
501.510 .0588290
502.352 .0588496
503.192 .0588704
504.032 .0589024
504.871 .0589441
505.709 .0589936
506.546 .0590539
507.383 .0591151
508.219 .0591777
509.054 .0592458
509.888 .0593126
510.722 .0593824
511.554 .0594625
512.386 .0595532
513.217 .0596585
514.048 .0597920
514.877 .0599574
515.706 .0601590
516.535 .0603984
517.362 .0606792
518.189 .0609816
519.015 .0613162
519.840 .0616695
520.665 .0620361
521.489 .0624269
522.312 .0628262
523.134 .0632257
523.956 .0636456
524.777 .0640750
525.598 .0645126
526.417 .0649486
527.236 .0653806
528.055 .0657834
528.872 .0661471
529.690 .0664678
530.506 .0667331
531.322 .0669407
532.137 .0671102
532.951 .0672086
533.765 .0672687
534.578 .0672804
535.391 .0672431
536.203 .0671590
537.014 .0670404
537.824 .0668733
538.634 .0666527
539.444 .0664015
540.253 .0661295
541.061 .0658231
541.868 .0655201
542.675 .0651958
543.482 .0648658
544.288 .0645300
545.093 .0641994
545.897 .0638493
546.702 .0635090
547.505 .0631530
548.308 .0627790
549.110 .0623913
549.912 .0619902
550.713 .0615659
551.514 .0611373
552.314 .0607123
553.114 .0602929
553.913 .0598824
554.711 .0595046
555.509 .0591468
556.306 .0588216
557.103 .0585148
557.900 .0582185
558.695 .0579214
559.491 .0576302
560.285 .0573390
561.080 .0570420
561.873 .0567466
562.667 .0564543
563.459 .0561687
564.252 .0558909
565.043 .0556171
565.835 .0553443
566.625 .0550790
567.416 .0548184
568.205 .0545492
568.995 .0542828
569.783 .0540228
570.572 .0537749
571.360 .0535420
572.147 .0533244
572.934 .0531264
573.720 .0529422
574.506 .0527732
575.292 .0526098
576.077 .0524503
576.862 .0522928
577.646 .0521339
578.429 .0519748
579.213 .0518171
579.996 .0516594
580.778 .0515060
581.560 .0513601
582.341 .0512206
583.123 .0510832
583.903 .0509510
584.684 .0508215
585.463 .0506949
586.243 .0505683
587.022 .0504463
587.800 .0503260
588.578 .0502144
589.356 .0501082
590.134 .0500060
590.911 .0499099
591.687 .0498180
592.463 .0497289
593.239 .0496411
594.014 .0495540
594.789 .0494686
595.564 .0493854
596.338 .0493062
597.112 .0492297
597.885 .0491594
598.658 .0490929
599.431 .0490309
600.203 .0489701
600.975 .0489106
601.747 .0488519
602.518 .0487939
603.289 .0487365
604.059 .0486795
604.829 .0486237
605.599 .0485688
606.369 .0485145
607.138 .0484616
607.906 .0484079
608.675 .0483530
609.443 .0482971
610.210 .0482404
610.977 .0481836
611.744 .0481276
612.511 .0480742
613.277 .0480242
614.043 .0479781
614.809 .0479353
615.574 .0478956
616.339 .0478598
617.104 .0478278
617.868 .0477986
618.632 .0477726
619.395 .0477503
620.159 .0477315
620.922 .0477152
621.684 .0477017
622.447 .0476895
623.209 .0476780
623.970 .0476656
624.732 .0476523
625.493 .0476369
626.254 .0476198
627.014 .0476012
627.774 .0475813
628.534 .0475603
629.294 .0475375
630.053 .0475132
630.812 .0474873
631.571 .0474596
632.329 .0474303
633.087 .0473986
633.845 .0473663
634.602 .0473323
635.359 .0472974
636.116 .0472621
636.873 .0472265
637.629 .0471905
638.385 .0471530
639.141 .0471142
639.897 .0470734
640.652 .0470303
641.407 .0469857
642.161 .0469391
642.916 .0468917
643.670 .0468429
644.424 .0467931
645.177 .0467428
645.931 .0466923
646.684 .0466409
647.436 .0465896
648.189 .0465378
648.941 .0464856
649.693 .0464337
650.445 .0463825
651.196 .0463329
651.947 .0462852
652.698 .0462388
653.449 .0461940
654.199 .0461501
654.949 .0461074
655.699 .0460643
656.449 .0460218
657.198 .0459799
657.947 .0459382
658.696 .0458976
659.445 .0458590
660.193 .0458227
660.941 .0457897
661.689 .0457598
662.436 .0457325
663.184 .0457064
663.931 .0456810
664.678 .0456547
665.424 .0456278
666.171 .0455997
666.917 .0455709
667.663 .0455416
668.408 .0455128
669.154 .0454852
669.899 .0454587
670.644 .0454340
671.388 .0454102
672.133 .0453864
672.877 .0453615
673.621 .0453340
674.365 .0453038
675.108 .0452707
675.851 .0452355
676.594 .0451991
677.337 .0451629
678.080 .0451277
678.822 .0450938
679.564 .0450612
680.306 .0450294
681.047 .0449970
681.789 .0449633
682.530 .0449273
683.271 .0448887
684.012 .0448482
684.752 .0448065
685.492 .0447646
686.232 .0447239
686.972 .0446846
687.712 .0446470
688.451 .0446103
689.190 .0445741
689.929 .0445376
690.667 .0444999
691.406 .0444614
692.144 .0444216
692.882 .0443812
693.620 .0443404
694.357 .0442997
695.095 .0442596
695.832 .0442198
696.569 .0441802
697.305 .0441408
698.042 .0441010
698.778 .0440611
699.514 .0440209
700.249 .0439810
700.985 .0439414
701.720 .0439025
702.455 .0438642
703.190 .0438267
703.925 .0437901
704.659 .0437543
705.393 .0437189
706.127 .0436850
706.861 .0436522
707.595 .0436204
708.328 .0435902
709.061 .0435617
709.794 .0435346
710.527 .0435094
711.259 .0434858
711.991 .0434636
712.723 .0434422
713.455 .0434218
714.186 .0434011
714.918 .0433805
715.649 .0433594
716.380 .0433379
717.110 .0433164
717.841 .0432954
718.571 .0432743
719.301 .0432535
720.031 .0432333
720.760 .0432132
721.490 .0431917
722.219 .0431686
722.948 .0431430
723.676 .0431147
724.405 .0430835
725.133 .0430497
725.861 .0430142
726.589 .0429785
727.317 .0429429
728.044 .0429078
728.771 .0428734
729.498 .0428399
730.225 .0428069
730.951 .0427741
731.677 .0427410
732.403 .0427069
733.129 .0426722
733.855 .0426373
734.580 .0426024
735.305 .0425681
736.030 .0425344
736.755 .0425016
737.479 .0424694
738.203 .0424367
738.927 .0424031
739.651 .0423683
740.375 .0423324
741.098 .0422947
741.821 .0422554
742.544 .0422149
743.267 .0421737
743.989 .0421328
744.711 .0420926
745.433 .0420533
746.155 .0420153
746.877 .0419785
747.598 .0419428
748.319 .0419082
749.040 .0418746
749.760 .0418424
750.481 .0418112
751.201 .0417809
751.921 .0417518
752.640 .0417232
753.360 .0416953
754.079 .0416679
754.798 .0416410
755.517 .0416142
756.235 .0415872
756.953 .0415600
757.671 .0415326
758.389 .0415056
759.107 .0414787
759.824 .0414520
760.541 .0414250
761.258 .0413977
761.974 .0413702
762.691 .0413425
763.407 .0413153
764.123 .0412885
764.838 .0412629
765.554 .0412389
766.269 .0412165
766.984 .0411956
767.699 .0411757
768.413 .0411566
769.127 .0411384
769.841 .0411199
770.555 .0411007
771.268 .0410811
771.982 .0410614
772.694 .0410420
773.407 .0410223
774.120 .0410024
774.832 .0409827
775.544 .0409630
776.256 .0409430
776.967 .0409225
777.678 .0409014
778.389 .0408795
779.100 .0408561
779.810 .0408316
780.521 .0408058
781.231 .0407785
781.940 .0407507
782.650 .0407222
783.359 .0406934
784.068 .0406647
784.776 .0406362
785.485 .0406087
786.193 .0405820
786.901 .0405558
787.609 .0405292
788.316 .0405023
789.023 .0404749
789.730 .0404465
790.436 .0404169
791.143 .0403864
791.849 .0403556
792.555 .0403248
793.260 .0402943
793.965 .0402645
794.670 .0402354
795.375 .0402067
796.080 .0401778
796.784 .0401485
797.488 .0401182
798.191 .0400872
798.895 .0400553
799.598 .0400228
800.301 .0399903
801.003 .0399580
801.705 .0399262
802.408 .0398953
803.109 .0398657
803.811 .0398369
804.512 .0398083
805.213 .0397800
805.913 .0397515
806.614 .0397223
807.314 .0396929
808.014 .0396629
808.713 .0396327
809.412 .0396028
810.111 .0395732
810.810 .0395441
811.508 .0395158
812.206 .0394883
812.904 .0394601
813.602 .0394314
814.299 .0394023
814.996 .0393716
815.692 .0393403
816.389 .0393087
817.085 .0392765
817.781 .0392445
818.476 .0392130
819.171 .0391824
819.866 .0391527
820.561 .0391240
821.255 .0390954
821.949 .0390667
822.643 .0390385
823.336 .0390099
824.029 .0389814
824.722 .0389538
825.415 .0389271
826.107 .0389015
826.799 .0388773
827.490 .0388546
828.182 .0388340
828.873 .0388150
829.563 .0387971
830.254 .0387804
830.944 .0387645
831.634 .0387490
832.323 .0387343
833.012 .0387203
833.701 .0387075
834.390 .0386957
835.078 .0386852
835.766 .0386757
836.453 .0386677
837.141 .0386607
837.828 .0386543
838.514 .0386483
839.201 .0386425
839.887 .0386358
840.572 .0386283
841.258 .0386199
841.943 .0386105
842.628 .0385997
843.312 .0385874
843.996 .0385738
844.680 .0385591
845.363 .0385432
846.046 .0385262
846.729 .0385086
847.412 .0384905
848.094 .0384722
848.776 .0384537
849.457 .0384351
850.139 .0384165
850.819 .0383975
851.500 .0383782
852.180 .0383586
852.860 .0383391
853.540 .0383201
854.219 .0383016
854.898 .0382843
855.576 .0382682
856.254 .0382530
856.932 .0382385
857.610 .0382238
858.287 .0382091
858.964 .0381934
859.640 .0381763
860.317 .0381582
860.993 .0381392
861.668 .0381201
862.343 .0381009
863.018 .0380818
863.693 .0380630
864.367 .0380442
865.041 .0380247
865.714 .0380040
866.387 .0379818
867.060 .0379577
867.732 .0379310
868.404 .0379022
869.076 .0378712
869.748 .0378385
870.419 .0378046
871.089 .0377700
871.760 .0377345
872.430 .0376990
873.099 .0376631
873.769 .0376272
874.438 .0375914
875.106 .0375555
875.774 .0375198
876.442 .0374842
877.110 .0374494
877.777 .0374154
878.444 .0373826
879.110 .0373512
879.776 .0373216
880.442 .0372941
881.108 .0372685
881.773 .0372447
882.437 .0372227
883.102 .0372016
883.766 .0371812
884.429 .0371609
885.093 .0371405
885.755 .0371200
886.418 .0370994
887.080 .0370785
887.742 .0370575
888.403 .0370368
889.064 .0370163
889.725 .0369957
890.385 .0369754
891.045 .0369549
891.705 .0369337
892.364 .0369116
893.023 .0368886
893.682 .0368650
894.340 .0368410
894.998 .0368172
895.655 .0367940
896.312 .0367722
896.969 .0367516
897.625 .0367324
898.281 .0367146
898.937 .0366981
899.592 .0366821
900.247 .0366668
900.901 .0366526
901.555 .0366395
902.209 .0366277
902.862 .0366173
903.515 .0366086
904.168 .0366014
904.820 .0365953
905.472 .0365901
906.123 .0365847
906.774 .0365791
907.425 .0365729
908.076 .0365659
908.726 .0365584
909.375 .0365508
910.024 .0365430
910.673 .0365347
911.322 .0365258
911.970 .0365159
912.618 .0365048
913.265 .0364929
913.912 .0364795
914.558 .0364647
915.205 .0364491
915.850 .0364333
916.496 .0364177
917.141 .0364028
917.786 .0363884
918.430 .0363739
919.074 .0363591
919.718 .0363435
920.361 .0363263
921.004 .0363080
921.646 .0362894
922.288 .0362703
922.930 .0362517
923.571 .0362332
924.212 .0362157
924.853 .0361992
925.493 .0361840
926.133 .0361691
926.772 .0361544
927.411 .0361395
928.050 .0361240
928.688 .0361080
929.326 .0360917
929.963 .0360755
930.600 .0360600
931.237 .0360452
931.874 .0360312
932.510 .0360178
933.145 .0360051
933.780 .0359923
934.415 .0359799
935.050 .0359667
935.684 .0359535
936.318 .0359400
936.951 .0359267
937.584 .0359140
938.217 .0359022
938.849 .0358909
939.481 .0358798
940.112 .0358691
940.743 .0358576
941.374 .0358450
942.004 .0358316
942.634 .0358165
943.264 .0358005
943.893 .0357834
944.522 .0357653
945.150 .0357465
945.778 .0357273
946.406 .0357070
947.033 .0356851
947.660 .0356618
948.287 .0356362
948.913 .0356083
949.539 .0355785
950.165 .0355471
950.790 .0355143
951.414 .0354811
952.039 .0354478
952.663 .0354147
953.286 .0353823
953.910 .0353496
954.533 .0353172
955.155 .0352850
955.777 .0352524
956.399 .0352192
957.020 .0351863
957.641 .0351542
958.262 .0351221
958.882 .0350903
959.502 .0350591
960.122 .0350279
960.741 .0349972
961.360 .0349664
961.979 .0349358
962.597 .0349059
963.214 .0348764
963.832 .0348474
964.449 .0348192
965.066 .0347919
965.682 .0347653
966.298 .0347390
966.914 .0347143
967.529 .0346906
968.144 .0346673
968.758 .0346449
969.373 .0346231
969.986 .0346017
970.600 .0345807
971.213 .0345596
971.826 .0345384
972.438 .0345172
973.050 .0344959
973.662 .0344742
974.274 .0344525
974.885 .0344309
975.495 .0344088
976.106 .0343863
976.716 .0343643
977.325 .0343415
977.935 .0343196
978.544 .0342986
979.152 .0342785
979.761 .0342595
980.369 .0342417
980.976 .0342245
981.584 .0342080
982.191 .0341925
982.797 .0341773
983.404 .0341621
984.010 .0341476
984.615 .0341330
985.221 .0341186
985.826 .0341043
986.430 .0340897
987.035 .0340743
987.639 .0340588
988.243 .0340430
988.846 .0340265
989.449 .0340098
990.052 .0339938
990.654 .0339785
991.256 .0339646
991.858 .0339512
992.460 .0339386
993.061 .0339269
993.662 .0339158
994.262 .0339044
994.863 .0338935
995.463 .0338830
996.062 .0338735
996.662 .0338655
997.261 .0338597
997.860 .0338557
998.458 .0338530
999.056 .0338515
999.654 .0338506
1000.252 .0338493
1000.849 .0338477
1001.446 .0338450
1002.043 .0338428
1002.639 .0338411
1003.235 .0338402
1003.831 .0338408
1004.427 .0338440
1005.022 .0338493
1005.617 .0338561
1006.212 .0338640
1006.806 .0338723
1007.401 .0338804
1007.995 .0338878
1008.588 .0338944
1009.182 .0339011
1009.775 .0339073
1010.368 .0339137
1010.960 .0339202
1011.553 .0339273
1012.145 .0339345
1012.737 .0339416
1013.328 .0339489
1013.920 .0339562
1014.511 .0339635
1015.102 .0339710
1015.692 .0339786
1016.283 .0339860
1016.873 .0339939
1017.463 .0340014
1018.052 .0340086
1018.642 .0340151
1019.231 .0340205
1019.820 .0340258
1020.409 .0340307
1020.997 .0340351
1021.585 .0340389
1022.173 .0340427
1022.761 .0340466
1023.349 .0340496
1023.936 .0340520
1024.524 .0340539
1025.111 .0340545
1025.697 .0340539
1026.284 .0340518
1026.870 .0340484
1027.457 .0340445
1028.043 .0340401
1028.628 .0340355
1029.214 .0340315
1029.800 .0340281
1030.385 .0340262
1030.970 .0340255
1031.555 .0340261
1032.139 .0340271
1032.724 .0340280
1033.308 .0340283
1033.893 .0340276
1034.477 .0340257
1035.060 .0340225
1035.644 .0340187
1036.228 .0340152
1036.811 .0340113
1037.394 .0340082
1037.977 .0340061
1038.560 .0340049
1039.143 .0340044
1039.726 .0340039
1040.308 .0340031
1040.891 .0340013
1041.473 .0339991
1042.055 .0339955
1042.637 .0339904
1043.219 .0339846
1043.801 .0339782
1044.382 .0339700
1044.964 .0339606
1045.545 .0339501
1046.127 .0339383
1046.708 .0339258
1047.289 .0339130
1047.870 .0338990
1048.451 .0338850
1049.032 .0338702
1049.612 .0338552
1050.193 .0338389
1050.774 .0338227
1051.354 .0338057
1051.935 .0337878
1052.515 .0337704
1053.095 .0337531
1053.675 .0337366
1054.256 .0337220
1054.836 .0337093
1055.416 .0336993
1055.996 .0336905
1056.576 .0336837
1057.156 .0336772
1057.735 .0336714
1058.315 .0336664
1058.895 .0336617
1059.475 .0336573
1060.055 .0336538
1060.634 .0336513
1061.214 .0336493
1061.794 .0336483
1062.373 .0336482
1062.953 .0336478
1063.533 .0336470
1064.113 .0336453
1064.692 .0336418
1065.272 .0336354
1065.852 .0336271
1066.431 .0336163
1067.011 .0336031
1067.591 .0335885
1068.171 .0335720
1068.751 .0335549
1069.331 .0335362
1069.910 .0335161
1070.490 .0334933
1071.071 .0334690
1071.651 .0334429
1072.231 .0334141
1072.811 .0333843
1073.391 .0333537
1073.972 .0333233
1074.552 .0332952
1075.133 .0332695
1075.713 .0332476
1076.294 .0332285
1076.875 .0332125
1077.456 .0331984
1078.037 .0331851
1078.618 .0331727
1079.199 .0331613
1079.780 .0331506
1080.362 .0331411
1080.943 .0331322
1081.525 .0331248
1082.107 .0331191
1082.689 .0331138
1083.271 .0331081
1083.853 .0331012
1084.436 .0330927
1085.018 .0330817
1085.601 .0330680
1086.184 .0330520
1086.767 .0330338
1087.351 .0330130
1087.934 .0329902
1088.518 .0329653
1089.102 .0329388
1089.686 .0329113
1090.270 .0328834
1090.855 .0328569
1091.439 .0328327
1092.024 .0328114
1092.609 .0327947
1093.195 .0327806
1093.780 .0327704
1094.366 .0327621
1094.952 .0327558
1095.539 .0327498
1096.125 .0327446
1096.712 .0327388
1097.299 .0327332
1097.887 .0327273
1098.475 .0327217
1099.063 .0327150
1099.651 .0327093
1100.239 .0327017
1100.828 .0326929
1101.417 .0326821
1102.007 .0326714
1102.597 .0326588
1103.187 .0326487
1103.777 .0326402
1104.368 .0326347
1104.959 .0326321
1105.551 .0326342
1106.143 .0326398
1106.735 .0326514
1107.328 .0326689
1107.921 .0326920
1108.514 .0327213
1109.108 .0327596
1109.702 .0328005
1110.296 .0328448
1110.891 .0328877
1111.486 .0329271
1112.082 .0329586
1112.678 .0329832
1113.275 .0329993
1113.872 .0330074
1114.469 .0330112
1115.067 .0330134
1115.665 .0330132
1116.264 .0330153
1116.864 .0330182
1117.463 .0330223
1118.063 .0330275
1118.664 .0330329
1119.265 .0330376
1119.867 .0330451
1120.469 .0330590
1121.072 .0330796
1121.675 .0331080
1122.279 .0331459
1122.883 .0331927
1123.488 .0332462
1124.093 .0333087
1124.699 .0333759
1125.305 .0334440
1125.912 .0335152
1126.520 .0335850
1127.128 .0336523
1127.737 .0337175
1128.346 .0337810
1128.956 .0338420
1129.567 .0339017
1130.178 .0339625
1130.790 .0340209
1131.402 .0340858
1132.015 .0341572
1132.629 .0342358
1133.243 .0343239
1133.858 .0344240
1134.474 .0345322
1135.090 .0346497
1135.707 .0347804
1136.325 .0349210
1136.943 .0350707
1137.562 .0352271
1138.182 .0353868
1138.802 .0355522
1139.423 .0357218
1140.045 .0358970
1140.668 .0360784
1141.291 .0362740
1141.916 .0364709
1142.540 .0366578
1143.166 .0368778
1143.793 .0371434
1144.420 .0374655
1145.048 .0374042
