BestFit value for E:\RC_data\Compressed_For_Future_Analysis_Lite\test_shlomo\aqueous_test\GoodSpectraLarge_Full\0012_2025-06-24_09-45-30\Interpretation_History\2025-07-21_16-23-34\ResultsGraphs\BestFit\(Run)spectra_09-46-21-692_BestFit.txt
600.203 0.0441614
600.975 0.0441018
601.747 0.0440424
602.518 0.0439832
603.289 0.0439241
604.059 0.0438654
604.829 0.0438069
605.599 0.0437486
606.369 0.0436906
607.138 0.0436329
607.906 0.0435756
608.675 0.0435186
609.443 0.0434619
610.210 0.0434057
610.977 0.0433498
611.744 0.0432943
612.511 0.0432391
613.277 0.0431844
614.043 0.0431301
614.809 0.0430761
615.574 0.0430225
616.339 0.0429693
617.104 0.0429165
617.868 0.0428640
618.632 0.0428119
619.395 0.0427601
620.159 0.0427086
620.922 0.0426573
621.684 0.0426064
622.447 0.0425556
623.209 0.0425051
623.970 0.0424548
624.732 0.0424045
625.493 0.0423545
626.254 0.0423045
627.014 0.0422546
627.774 0.0422048
628.534 0.0421551
629.294 0.0421053
630.053 0.0420555
630.812 0.0420058
631.571 0.0419560
632.329 0.0419062
633.087 0.0418563
633.845 0.0418063
634.602 0.0417564
635.359 0.0417064
636.116 0.0416563
636.873 0.0416062
637.629 0.0415561
638.385 0.0415059
639.141 0.0414557
639.897 0.0414056
640.652 0.0413555
641.407 0.0413054
642.161 0.0412555
642.916 0.0412056
643.670 0.0411559
644.424 0.0411063
645.177 0.0410569
645.931 0.0410077
646.684 0.0409588
647.436 0.0409102
648.189 0.0408617
648.941 0.0408137
649.693 0.0407660
650.445 0.0407186
651.196 0.0406717
651.947 0.0406251
652.698 0.0405789
653.449 0.0405332
654.199 0.0404879
654.949 0.0404430
655.699 0.0403986
656.449 0.0403546
657.198 0.0403111
657.947 0.0402680
658.696 0.0402253
659.445 0.0401830
660.193 0.0401411
660.941 0.0400996
661.689 0.0400584
662.436 0.0400177
663.184 0.0399771
663.931 0.0399369
664.678 0.0398969
665.424 0.0398572
666.171 0.0398176
666.917 0.0397781
667.663 0.0397388
668.408 0.0396997
669.154 0.0396605
669.899 0.0396214
670.644 0.0395823
671.388 0.0395431
672.133 0.0395039
672.877 0.0394646
673.621 0.0394251
674.365 0.0393855
675.108 0.0393458
675.851 0.0393059
676.594 0.0392659
677.337 0.0392255
678.080 0.0391850
678.822 0.0391443
679.564 0.0391034
680.306 0.0390622
681.047 0.0390208
681.789 0.0389792
682.530 0.0389375
683.271 0.0388955
684.012 0.0388534
684.752 0.0388111
685.492 0.0387687
686.232 0.0387263
686.972 0.0386837
687.712 0.0386411
688.451 0.0385985
689.190 0.0385560
689.929 0.0385134
690.667 0.0384710
691.406 0.0384287
692.144 0.0383866
692.882 0.0383447
693.620 0.0383029
694.357 0.0382615
695.095 0.0382204
695.832 0.0381795
696.569 0.0381391
697.305 0.0380991
698.042 0.0380594
698.778 0.0380202
699.514 0.0379815
700.249 0.0379433
700.985 0.0379055
701.720 0.0378683
702.455 0.0378316
703.190 0.0377954
703.925 0.0377598
704.659 0.0377247
705.393 0.0376901
706.127 0.0376561
706.861 0.0376225
707.595 0.0375895
708.328 0.0375569
709.061 0.0375249
709.794 0.0374933
710.527 0.0374620
711.259 0.0374313
711.991 0.0374008
712.723 0.0373707
713.455 0.0373409
714.186 0.0373114
714.918 0.0372821
715.649 0.0372530
716.380 0.0372240
717.110 0.0371952
717.841 0.0371664
718.571 0.0371377
719.301 0.0371090
720.031 0.0370802
720.760 0.0370514
721.490 0.0370224
722.219 0.0369932
722.948 0.0369639
723.676 0.0369344
724.405 0.0369046
725.133 0.0368746
725.861 0.0368442
726.589 0.0368135
727.317 0.0367825
728.044 0.0367511
728.771 0.0367194
729.498 0.0366872
730.225 0.0366547
730.951 0.0366218
731.677 0.0365885
732.403 0.0365548
733.129 0.0365206
733.855 0.0364861
734.580 0.0364513
735.305 0.0364161
736.030 0.0363806
736.755 0.0363447
737.479 0.0363086
738.203 0.0362722
738.927 0.0362356
739.651 0.0361987
740.375 0.0361617
741.098 0.0361246
741.821 0.0360873
742.544 0.0360500
743.267 0.0360127
743.989 0.0359754
744.711 0.0359382
745.433 0.0359011
746.155 0.0358641
746.877 0.0358273
747.598 0.0357907
748.319 0.0357544
749.040 0.0357184
749.760 0.0356828
750.481 0.0356475
751.201 0.0356126
751.921 0.0355782
752.640 0.0355443
753.360 0.0355109
754.079 0.0354780
754.798 0.0354457
755.517 0.0354139
756.235 0.0353828
756.953 0.0353523
757.671 0.0353224
758.389 0.0352931
759.107 0.0352645
759.824 0.0352365
760.541 0.0352092
761.258 0.0351825
761.974 0.0351565
762.691 0.0351311
763.407 0.0351064
764.123 0.0350822
764.838 0.0350587
765.554 0.0350357
766.269 0.0350132
766.984 0.0349913
767.699 0.0349699
768.413 0.0349489
769.127 0.0349284
769.841 0.0349082
770.555 0.0348884
771.268 0.0348690
771.982 0.0348498
772.694 0.0348308
773.407 0.0348121
774.120 0.0347935
774.832 0.0347750
775.544 0.0347566
776.256 0.0347382
776.967 0.0347198
777.678 0.0347014
778.389 0.0346828
779.100 0.0346641
779.810 0.0346453
780.521 0.0346261
781.231 0.0346068
781.940 0.0345871
782.650 0.0345671
783.359 0.0345468
784.068 0.0345260
784.776 0.0345049
785.485 0.0344833
786.193 0.0344612
786.901 0.0344386
787.609 0.0344155
788.316 0.0343919
789.023 0.0343678
789.730 0.0343431
790.436 0.0343178
791.143 0.0342920
791.849 0.0342656
792.555 0.0342386
793.260 0.0342111
793.965 0.0341831
794.670 0.0341545
795.375 0.0341254
796.080 0.0340957
796.784 0.0340656
797.488 0.0340350
798.191 0.0340039
798.895 0.0339724
799.598 0.0339406
800.301 0.0339083
801.003 0.0338758
801.705 0.0338429
802.408 0.0338097
803.109 0.0337764
803.811 0.0337428
804.512 0.0337091
805.213 0.0336752
805.913 0.0336413
806.614 0.0336074
807.314 0.0335735
808.014 0.0335396
808.713 0.0335058
809.412 0.0334722
810.111 0.0334388
810.810 0.0334055
811.508 0.0333726
812.206 0.0333400
812.904 0.0333077
813.602 0.0332757
814.299 0.0332442
814.996 0.0332132
815.692 0.0331827
816.389 0.0331526
817.085 0.0331232
817.781 0.0330943
818.476 0.0330660
819.171 0.0330384
819.866 0.0330114
820.561 0.0329851
821.255 0.0329595
821.949 0.0329346
822.643 0.0329104
823.336 0.0328870
824.029 0.0328643
824.722 0.0328423
825.415 0.0328211
826.107 0.0328007
826.799 0.0327810
827.490 0.0327621
828.182 0.0327438
828.873 0.0327264
829.563 0.0327096
830.254 0.0326935
830.944 0.0326781
831.634 0.0326634
832.323 0.0326493
833.012 0.0326359
833.701 0.0326230
834.390 0.0326107
835.078 0.0325989
835.766 0.0325876
836.453 0.0325768
837.141 0.0325664
837.828 0.0325565
838.514 0.0325469
839.201 0.0325376
839.887 0.0325286
840.572 0.0325199
841.258 0.0325114
841.943 0.0325030
842.628 0.0324948
843.312 0.0324866
843.996 0.0324785
844.680 0.0324704
845.363 0.0324623
846.046 0.0324541
846.729 0.0324458
847.412 0.0324373
848.094 0.0324286
848.776 0.0324197
849.457 0.0324105
850.139 0.0324010
850.819 0.0323912
851.500 0.0323810
852.180 0.0323704
852.860 0.0323593
853.540 0.0323478
854.219 0.0323357
854.898 0.0323232
855.576 0.0323101
856.254 0.0322965
856.932 0.0322822
857.610 0.0322673
858.287 0.0322519
858.964 0.0322358
859.640 0.0322190
860.317 0.0322016
860.993 0.0321835
861.668 0.0321647
862.343 0.0321453
863.018 0.0321252
863.693 0.0321044
864.367 0.0320830
865.041 0.0320609
865.714 0.0320381
866.387 0.0320147
867.060 0.0319906
867.732 0.0319659
868.404 0.0319407
869.076 0.0319148
869.748 0.0318883
870.419 0.0318613
871.089 0.0318338
871.760 0.0318057
872.430 0.0317772
873.099 0.0317482
873.769 0.0317188
874.438 0.0316890
875.106 0.0316589
875.774 0.0316284
876.442 0.0315976
877.110 0.0315665
877.777 0.0315352
878.444 0.0315038
879.110 0.0314721
879.776 0.0314404
880.442 0.0314085
881.108 0.0313766
881.773 0.0313447
882.437 0.0313129
883.102 0.0312811
883.766 0.0312493
884.429 0.0312178
885.093 0.0311864
885.755 0.0311553
886.418 0.0311243
887.080 0.0310937
887.742 0.0310633
888.403 0.0310334
889.064 0.0310038
889.725 0.0309746
890.385 0.0309460
891.045 0.0309177
891.705 0.0308900
892.364 0.0308628
893.023 0.0308362
893.682 0.0308101
894.340 0.0307847
894.998 0.0307599
895.655 0.0307358
896.312 0.0307124
896.969 0.0306896
897.625 0.0306675
898.281 0.0306462
898.937 0.0306256
899.592 0.0306058
900.247 0.0305867
900.901 0.0305684
901.555 0.0305508
902.209 0.0305341
902.862 0.0305181
903.515 0.0305029
904.168 0.0304884
904.820 0.0304748
905.472 0.0304619
906.123 0.0304498
906.774 0.0304384
907.425 0.0304278
908.076 0.0304179
908.726 0.0304088
909.375 0.0304004
910.024 0.0303926
910.673 0.0303856
911.322 0.0303792
911.970 0.0303734
912.618 0.0303683
913.265 0.0303638
913.912 0.0303598
914.558 0.0303564
915.205 0.0303536
915.850 0.0303512
916.496 0.0303493
917.141 0.0303479
917.786 0.0303469
918.430 0.0303463
919.074 0.0303460
919.718 0.0303460
920.361 0.0303464
921.004 0.0303470
921.646 0.0303479
922.288 0.0303489
922.930 0.0303501
923.571 0.0303515
924.212 0.0303530
924.853 0.0303545
925.493 0.0303560
926.133 0.0303576
926.772 0.0303592
927.411 0.0303606
928.050 0.0303620
928.688 0.0303633
929.326 0.0303644
929.963 0.0303653
930.600 0.0303660
931.237 0.0303664
931.874 0.0303666
932.510 0.0303664
933.145 0.0303659
933.780 0.0303651
934.415 0.0303639
935.050 0.0303622
935.684 0.0303601
936.318 0.0303576
936.951 0.0303546
937.584 0.0303510
938.217 0.0303470
938.849 0.0303424
939.481 0.0303372
940.112 0.0303315
940.743 0.0303251
941.374 0.0303182
942.004 0.0303106
942.634 0.0303024
943.264 0.0302936
943.893 0.0302841
944.522 0.0302739
945.150 0.0302631
945.778 0.0302516
946.406 0.0302394
947.033 0.0302265
947.660 0.0302130
948.287 0.0301987
948.913 0.0301838
949.539 0.0301682
950.165 0.0301519
950.790 0.0301349
951.414 0.0301173
952.039 0.0300990
952.663 0.0300800
953.286 0.0300605
953.910 0.0300402
954.533 0.0300193
955.155 0.0299979
955.777 0.0299758
956.399 0.0299531
957.020 0.0299299
957.641 0.0299061
958.262 0.0298818
958.882 0.0298570
959.502 0.0298316
960.122 0.0298066
960.741 0.0297845
961.360 0.0297620
961.979 0.0297390
962.597 0.0297157
963.214 0.0296919
963.832 0.0296678
964.449 0.0296434
965.066 0.0296186
965.682 0.0295936
966.298 0.0295683
966.914 0.0295427
967.529 0.0295170
968.144 0.0294910
968.758 0.0294650
969.373 0.0294387
969.986 0.0294125
970.600 0.0293860
971.213 0.0293596
971.826 0.0293331
972.438 0.0293067
973.050 0.0292803
973.662 0.0292539
974.274 0.0292276
974.885 0.0292014
975.495 0.0291754
976.106 0.0291495
976.716 0.0291238
977.325 0.0290984
977.935 0.0290732
978.544 0.0290482
979.152 0.0290236
979.761 0.0289992
980.369 0.0289752
980.976 0.0289515
981.584 0.0289282
982.191 0.0289054
982.797 0.0288829
983.404 0.0288609
984.010 0.0288394
984.615 0.0288183
985.221 0.0287978
985.826 0.0287777
986.430 0.0287582
987.035 0.0287393
987.639 0.0287209
988.243 0.0287031
988.846 0.0286858
989.449 0.0286692
990.052 0.0286532
990.654 0.0286379
991.256 0.0286232
991.858 0.0286091
992.460 0.0285957
993.061 0.0285829
993.662 0.0285709
994.262 0.0285595
994.863 0.0285488
995.463 0.0285387
996.062 0.0285294
996.662 0.0285207
997.261 0.0285128
997.860 0.0285055
998.458 0.0284990
999.056 0.0284931
999.654 0.0284879
1000.252 0.0284819
1000.849 0.0284745
1001.446 0.0284679
1002.043 0.0284619
1002.639 0.0284566
1003.235 0.0284519
1003.831 0.0284479
1004.427 0.0284446
1005.022 0.0284419
1005.617 0.0284399
1006.212 0.0284384
1006.806 0.0284376
1007.401 0.0284374
1007.995 0.0284378
1008.588 0.0284387
1009.182 0.0284402
1009.775 0.0284422
1010.368 0.0284448
1010.96 0.0284478
1011.553 0.0284514
1012.145 0.0284554
1012.737 0.0284599
1013.328 0.0284648
1013.92 0.0284702
1014.511 0.0284759
1015.102 0.0284821
1015.692 0.0284885
1016.283 0.0284954
1016.873 0.0285025
1017.463 0.0285100
1018.052 0.0285177
1018.642 0.0285257
1019.231 0.0285339
1019.82 0.0285423
1020.409 0.0285509
1020.997 0.0285597
1021.585 0.0285686
1022.173 0.0285777
1022.761 0.0285868
1023.349 0.0285961
1023.936 0.0286054
1024.524 0.0286147
1025.111 0.0286240
1025.697 0.0286334
1026.284 0.0286427
1026.87 0.0286519
1027.457 0.0286611
1028.043 0.0286702
1028.628 0.0286791
1029.214 0.0286879
1029.80 0.0286966
1030.385 0.0287051
1030.97 0.0287133
1031.555 0.0287214
1032.139 0.0287292
1032.724 0.0287367
1033.308 0.0287440
1033.893 0.0287509
1034.477 0.0287576
1035.06 0.0287639
1035.644 0.0287698
1036.228 0.0287754
1036.811 0.0287806
1037.394 0.0287854
1037.977 0.0287897
1038.56 0.0287936
1039.143 0.0287971
1039.726 0.0288001
1040.308 0.0288026
1040.891 0.0288047
1041.473 0.0288062
1042.055 0.0288072
1042.637 0.0288077
1043.219 0.0288076
1043.801 0.0288070
1044.382 0.0288058
1044.964 0.0288041
1045.545 0.0288018
1046.127 0.0287988
1046.708 0.0287953
1047.289 0.0287912
1047.87 0.0287865
1048.451 0.0287812
1049.032 0.0287752
1049.612 0.0287687
1050.193 0.0287615
1050.774 0.0287536
1051.354 0.0287452
1051.935 0.0287361
1052.515 0.0287264
1053.095 0.0287160
1053.675 0.0287050
1054.256 0.0286934
1054.836 0.0286811
1055.416 0.0286682
1055.996 0.0286547
1056.576 0.0286406
1057.156 0.0286258
1057.735 0.0286104
1058.315 0.0285944
1058.895 0.0285778
1059.475 0.0285606
1060.055 0.0285428
1060.634 0.0285245
1061.214 0.0285055
1061.794 0.0284859
1062.373 0.0284659
1062.953 0.0284452
1063.533 0.0284240
1064.113 0.0284023
1064.692 0.0283800
1065.272 0.0283573
1065.852 0.0283340
1066.431 0.0283103
1067.011 0.0282861
1067.591 0.0282614
1068.171 0.0282363
1068.751 0.0282107
1069.331 0.0281847
1069.91 0.0281584
1070.49 0.0281316
1071.071 0.0281044
1071.651 0.0280770
1072.231 0.0280491
1072.811 0.0280210
1073.391 0.0279925
1073.972 0.0279637
1074.552 0.0279347
1075.133 0.0279054
1075.713 0.0278759
1076.294 0.0278461
1076.875 0.0278161
1077.456 0.0277860
1078.037 0.0277556
1078.618 0.0277252
1079.199 0.0276946
1079.78 0.0276639
1080.362 0.0276331
1080.943 0.0276022
1081.525 0.0275713
1082.107 0.0275403
1082.689 0.0275093
1083.271 0.0274784
1083.853 0.0274474
1084.436 0.0274165
1085.018 0.0273857
1085.601 0.0273549
1086.184 0.0273242
1086.767 0.0272936
1087.351 0.0272632
1087.934 0.0272329
1088.518 0.0272028
1089.102 0.0271729
1089.686 0.0271432
1090.27 0.0271138
1090.855 0.0270845
1091.439 0.0270556
1092.024 0.0270270
1092.609 0.0269986
1093.195 0.0269705
1093.78 0.0269428
1094.366 0.0269154
1094.952 0.0268884
1095.539 0.0268618
1096.125 0.0268356
1096.712 0.0268098
1097.299 0.0267844
1097.887 0.0267595
1098.475 0.0267350
1099.063 0.0267110
1099.651 0.0266875
1100.239 0.0266645
1100.828 0.0266420
1101.417 0.0266200
1102.007 0.0265986
1102.597 0.0265777
1103.187 0.0265573
1103.777 0.0265376
1104.368 0.0265184
1104.959 0.0264999
1105.551 0.0264819
1106.143 0.0264645
1106.735 0.0264478
1107.328 0.0264317
1107.921 0.0264162
1108.514 0.0264014
1109.108 0.0263872
1109.702 0.0263737
1110.296 0.0263608
1110.891 0.0263486
1111.486 0.0263371
1112.082 0.0263262
1112.678 0.0263161
1113.275 0.0263066
1113.872 0.0262978
1114.469 0.0262897
1115.067 0.0262822
1115.665 0.0262755
1116.264 0.0262694
1116.864 0.0262641
1117.463 0.0262594
1118.063 0.0262554
1118.664 0.0262521
1119.265 0.0262495
1119.867 0.0262476
1120.469 0.0262463
1121.072 0.0262457
1121.675 0.0262458
1122.279 0.0262466
1122.883 0.0262479
1123.488 0.0262500
1124.093 0.0262527
1124.699 0.0262560
1125.305 0.0262600
1125.912 0.0262646
1126.52 0.0262698
1127.128 0.0262755
1127.737 0.0262819
1128.346 0.0262889
1128.956 0.0262964
1129.567 0.0263046
1130.178 0.0263132
1130.79 0.0263224
1131.402 0.0263321
1132.015 0.0263423
1132.629 0.0263530
1133.243 0.0263642
1133.858 0.0263759
1134.474 0.0263880
1135.09 0.0264006
1135.707 0.0264136
1136.325 0.0264270
1136.943 0.0264407
1137.562 0.0264549
1138.182 0.0264694
1138.802 0.0264842
1139.423 0.0264994
1140.045 0.0265149
1140.668 0.0265306
1141.291 0.0265466
1141.916 0.0265629
1142.54 0.0265794
1143.166 0.0265961
1143.793 0.0266130
1144.42 0.0266300
1145.048 0.0266472
