BestFit value for E:\RC_data\Compressed_For_Future_Analysis_Lite\test_shlomo\aqueous_test\GoodSpectraLarge_Full\0012_2025-06-24_09-45-30\Interpretation_History\2025-07-21_16-23-34\ResultsGraphs\BestFit\(Run)spectra_09-46-25-527_BestFit.txt
600.203 0.0475056
600.975 0.0474457
601.747 0.0473858
602.518 0.0473262
603.289 0.0472666
604.059 0.0472072
604.829 0.0471478
605.599 0.0470885
606.369 0.0470291
607.138 0.0469699
607.906 0.0469106
608.675 0.0468513
609.443 0.0467920
610.210 0.0467328
610.977 0.0466734
611.744 0.0466141
612.511 0.0465547
613.277 0.0464953
614.043 0.0464359
614.809 0.0463765
615.574 0.0463171
616.339 0.0462578
617.104 0.0461985
617.868 0.0461393
618.632 0.0460802
619.395 0.0460212
620.159 0.0459623
620.922 0.0459036
621.684 0.0458451
622.447 0.0457868
623.209 0.0457288
623.970 0.0456711
624.732 0.0456135
625.493 0.0455564
626.254 0.0454996
627.014 0.0454432
627.774 0.0453871
628.534 0.0453315
629.294 0.0452762
630.053 0.0452215
630.812 0.0451671
631.571 0.0451132
632.329 0.0450598
633.087 0.0450069
633.845 0.0449544
634.602 0.0449024
635.359 0.0448508
636.116 0.0447997
636.873 0.0447489
637.629 0.0446987
638.385 0.0446488
639.141 0.0445993
639.897 0.0445501
640.652 0.0445014
641.407 0.0444529
642.161 0.0444047
642.916 0.0443567
643.670 0.0443090
644.424 0.0442614
645.177 0.0442141
645.931 0.0441668
646.684 0.0441196
647.436 0.0440726
648.189 0.0440255
648.941 0.0439785
649.693 0.0439314
650.445 0.0438842
651.196 0.0438370
651.947 0.0437897
652.698 0.0437422
653.449 0.0436946
654.199 0.0436469
654.949 0.0435989
655.699 0.0435508
656.449 0.0435025
657.198 0.0434540
657.947 0.0434052
658.696 0.0433563
659.445 0.0433071
660.193 0.0432578
660.941 0.0432083
661.689 0.0431587
662.436 0.0431089
663.184 0.0430589
663.931 0.0430088
664.678 0.0429587
665.424 0.0429085
666.171 0.0428582
666.917 0.0428079
667.663 0.0427577
668.408 0.0427075
669.154 0.0426574
669.899 0.0426075
670.644 0.0425577
671.388 0.0425081
672.133 0.0424587
672.877 0.0424096
673.621 0.0423607
674.365 0.0423122
675.108 0.0422641
675.851 0.0422164
676.594 0.0421691
677.337 0.0421222
678.080 0.0420757
678.822 0.0420298
679.564 0.0419844
680.306 0.0419395
681.047 0.0418951
681.789 0.0418513
682.530 0.0418080
683.271 0.0417653
684.012 0.0417232
684.752 0.0416816
685.492 0.0416406
686.232 0.0416001
686.972 0.0415602
687.712 0.0415207
688.451 0.0414818
689.190 0.0414434
689.929 0.0414054
690.667 0.0413679
691.406 0.0413308
692.144 0.0412941
692.882 0.0412577
693.620 0.0412216
694.357 0.0411858
695.095 0.0411502
695.832 0.0411149
696.569 0.0410797
697.305 0.0410447
698.042 0.0410098
698.778 0.0409749
699.514 0.0409400
700.249 0.0409051
700.985 0.0408701
701.720 0.0408351
702.455 0.0407999
703.190 0.0407646
703.925 0.0407290
704.659 0.0406932
705.393 0.0406572
706.127 0.0406209
706.861 0.0405842
707.595 0.0405472
708.328 0.0405099
709.061 0.0404723
709.794 0.0404342
710.527 0.0403957
711.259 0.0403569
711.991 0.0403177
712.723 0.0402781
713.455 0.0402381
714.186 0.0401977
714.918 0.0401569
715.649 0.0401157
716.380 0.0400742
717.110 0.0400324
717.841 0.0399902
718.571 0.0399477
719.301 0.0399050
720.031 0.0398620
720.760 0.0398188
721.490 0.0397754
722.219 0.0397319
722.948 0.0396882
723.676 0.0396446
724.405 0.0396008
725.133 0.0395570
725.861 0.0395133
726.589 0.0394697
727.317 0.0394262
728.044 0.0393828
728.771 0.0393397
729.498 0.0392968
730.225 0.0392541
730.951 0.0392118
731.677 0.0391699
732.403 0.0391283
733.129 0.0390872
733.855 0.0390465
734.580 0.0390063
735.305 0.0389667
736.030 0.0389276
736.755 0.0388890
737.479 0.0388511
738.203 0.0388138
738.927 0.0387771
739.651 0.0387411
740.375 0.0387057
741.098 0.0386710
741.821 0.0386370
742.544 0.0386037
743.267 0.0385710
743.989 0.0385391
744.711 0.0385078
745.433 0.0384772
746.155 0.0384472
746.877 0.0384179
747.598 0.0383892
748.319 0.0383611
749.040 0.0383336
749.760 0.0383067
750.481 0.0382803
751.201 0.0382544
751.921 0.0382290
752.640 0.0382041
753.360 0.0381795
754.079 0.0381553
754.798 0.0381315
755.517 0.0381079
756.235 0.0380847
756.953 0.0380616
757.671 0.0380387
758.389 0.0380159
759.107 0.0379933
759.824 0.0379706
760.541 0.0379480
761.258 0.0379254
761.974 0.0379027
762.691 0.0378798
763.407 0.0378568
764.123 0.0378336
764.838 0.0378102
765.554 0.0377865
766.269 0.0377625
766.984 0.0377381
767.699 0.0377134
768.413 0.0376883
769.127 0.0376627
769.841 0.0376367
770.555 0.0376102
771.268 0.0375832
771.982 0.0375557
772.694 0.0375277
773.407 0.0374991
774.120 0.0374699
774.832 0.0374402
775.544 0.0374099
776.256 0.0373790
776.967 0.0373476
777.678 0.0373156
778.389 0.0372830
779.100 0.0372498
779.810 0.0372161
780.521 0.0371818
781.231 0.0371470
781.940 0.0371118
782.650 0.0370760
783.359 0.0370398
784.068 0.0370031
784.776 0.0369660
785.485 0.0369285
786.193 0.0368907
786.901 0.0368525
787.609 0.0368141
788.316 0.0367754
789.023 0.0367365
789.730 0.0366973
790.436 0.0366581
791.143 0.0366187
791.849 0.0365793
792.555 0.0365399
793.260 0.0365005
793.965 0.0364612
794.670 0.0364219
795.375 0.0363828
796.080 0.0363438
796.784 0.0363051
797.488 0.0362666
798.191 0.0362285
798.895 0.0361907
799.598 0.0361533
800.301 0.0361163
801.003 0.0360798
801.705 0.0360437
802.408 0.0360081
803.109 0.0359732
803.811 0.0359388
804.512 0.0359050
805.213 0.0358718
805.913 0.0358393
806.614 0.0358075
807.314 0.0357764
808.014 0.0357460
808.713 0.0357164
809.412 0.0356875
810.111 0.0356593
810.810 0.0356320
811.508 0.0356054
812.206 0.0355796
812.904 0.0355546
813.602 0.0355303
814.299 0.0355069
814.996 0.0354842
815.692 0.0354624
816.389 0.0354412
817.085 0.0354208
817.781 0.0354012
818.476 0.0353823
819.171 0.0353640
819.866 0.0353465
820.561 0.0353296
821.255 0.0353134
821.949 0.0352977
822.643 0.0352827
823.336 0.0352682
824.029 0.0352543
824.722 0.0352408
825.415 0.0352278
826.107 0.0352152
826.799 0.0352030
827.490 0.0351912
828.182 0.0351797
828.873 0.0351684
829.563 0.0351574
830.254 0.0351466
830.944 0.0351360
831.634 0.0351255
832.323 0.0351151
833.012 0.0351048
833.701 0.0350944
834.390 0.0350840
835.078 0.0350736
835.766 0.0350630
836.453 0.0350523
837.141 0.0350414
837.828 0.0350302
838.514 0.0350189
839.201 0.0350072
839.887 0.0349952
840.572 0.0349828
841.258 0.0349700
841.943 0.0349568
842.628 0.0349432
843.312 0.0349291
843.996 0.0349144
844.680 0.0348993
845.363 0.0348836
846.046 0.0348673
846.729 0.0348504
847.412 0.0348329
848.094 0.0348148
848.776 0.0347960
849.457 0.0347766
850.139 0.0347565
850.819 0.0347357
851.500 0.0347143
852.180 0.0346922
852.860 0.0346693
853.540 0.0346458
854.219 0.0346216
854.898 0.0345967
855.576 0.0345712
856.254 0.0345449
856.932 0.0345180
857.610 0.0344904
858.287 0.0344622
858.964 0.0344334
859.640 0.0344039
860.317 0.0343738
860.993 0.0343432
861.668 0.0343120
862.343 0.0342803
863.018 0.0342480
863.693 0.0342152
864.367 0.0341820
865.041 0.0341483
865.714 0.0341143
866.387 0.0340798
867.060 0.0340450
867.732 0.0340099
868.404 0.0339745
869.076 0.0339388
869.748 0.0339029
870.419 0.0338668
871.089 0.0338306
871.760 0.0337941
872.430 0.0337577
873.099 0.0337212
873.769 0.0336846
874.438 0.0336481
875.106 0.0336116
875.774 0.0335753
876.442 0.0335390
877.110 0.0335029
877.777 0.0334670
878.444 0.0334313
879.110 0.0333959
879.776 0.0333607
880.442 0.0333259
881.108 0.0332914
881.773 0.0332574
882.437 0.0332238
883.102 0.0331906
883.766 0.0331579
884.429 0.0331257
885.093 0.0330940
885.755 0.0330629
886.418 0.0330324
887.080 0.0330025
887.742 0.0329732
888.403 0.0329445
889.064 0.0329166
889.725 0.0328893
890.385 0.0328627
891.045 0.0328369
891.705 0.0328117
892.364 0.0327874
893.023 0.0327637
893.682 0.0327409
894.340 0.0327188
894.998 0.0326975
895.655 0.0326770
896.312 0.0326573
896.969 0.0326384
897.625 0.0326203
898.281 0.0326030
898.937 0.0325865
899.592 0.0325708
900.247 0.0325558
900.901 0.0325417
901.555 0.0325283
902.209 0.0325157
902.862 0.0325039
903.515 0.0324928
904.168 0.0324824
904.820 0.0324727
905.472 0.0324637
906.123 0.0324555
906.774 0.0324479
907.425 0.0324409
908.076 0.0324346
908.726 0.0324288
909.375 0.0324237
910.024 0.0324191
910.673 0.0324151
911.322 0.0324116
911.970 0.0324086
912.618 0.0324060
913.265 0.0324039
913.912 0.0324022
914.558 0.0324009
915.205 0.0323999
915.850 0.0323993
916.496 0.0323990
917.141 0.0323989
917.786 0.0323991
918.430 0.0323995
919.074 0.0324001
919.718 0.0324008
920.361 0.0324017
921.004 0.0324026
921.646 0.0324036
922.288 0.0324047
922.930 0.0324057
923.571 0.0324067
924.212 0.0324076
924.853 0.0324085
925.493 0.0324092
926.133 0.0324098
926.772 0.0324102
927.411 0.0324105
928.050 0.0324104
928.688 0.0324102
929.326 0.0324096
929.963 0.0324087
930.600 0.0324075
931.237 0.0324060
931.874 0.0324040
932.510 0.0324017
933.145 0.0323989
933.780 0.0323957
934.415 0.0323920
935.050 0.0323878
935.684 0.0323831
936.318 0.0323779
936.951 0.0323721
937.584 0.0323658
938.217 0.0323589
938.849 0.0323515
939.481 0.0323434
940.112 0.0323347
940.743 0.0323254
941.374 0.0323154
942.004 0.0323048
942.634 0.0322936
943.264 0.0322817
943.893 0.0322691
944.522 0.0322559
945.150 0.0322420
945.778 0.0322274
946.406 0.0322121
947.033 0.0321962
947.660 0.0321795
948.287 0.0321622
948.913 0.0321443
949.539 0.0321256
950.165 0.0321063
950.790 0.0320863
951.414 0.0320657
952.039 0.0320444
952.663 0.0320225
953.286 0.0320000
953.910 0.0319768
954.533 0.0319530
955.155 0.0319286
955.777 0.0319036
956.399 0.0318781
957.020 0.0318520
957.641 0.0318253
958.262 0.0317981
958.882 0.0317705
959.502 0.0317423
960.122 0.0317145
960.741 0.0316903
961.360 0.0316657
961.979 0.0316406
962.597 0.0316150
963.214 0.0315891
963.832 0.0315628
964.449 0.0315361
965.066 0.0315091
965.682 0.0314818
966.298 0.0314542
966.914 0.0314263
967.529 0.0313982
968.144 0.0313698
968.758 0.0313413
969.373 0.0313125
969.986 0.0312836
970.600 0.0312546
971.213 0.0312254
971.826 0.0311962
972.438 0.0311669
973.050 0.0311376
973.662 0.0311082
974.274 0.0310788
974.885 0.0310495
975.495 0.0310203
976.106 0.0309911
976.716 0.0309620
977.325 0.0309331
977.935 0.0309043
978.544 0.0308756
979.152 0.0308472
979.761 0.0308190
980.369 0.0307910
980.976 0.0307633
981.584 0.0307358
982.191 0.0307087
982.797 0.0306819
983.404 0.0306553
984.010 0.0306292
984.615 0.0306035
985.221 0.0305781
985.826 0.0305532
986.430 0.0305287
987.035 0.0305046
987.639 0.0304810
988.243 0.0304579
988.846 0.0304353
989.449 0.0304132
990.052 0.0303917
990.654 0.0303706
991.256 0.0303502
991.858 0.0303303
992.460 0.0303109
993.061 0.0302922
993.662 0.0302740
994.262 0.0302565
994.863 0.0302396
995.463 0.0302233
996.062 0.0302076
996.662 0.0301926
997.261 0.0301782
997.860 0.0301645
998.458 0.0301514
999.056 0.0301391
999.654 0.0301273
1000.252 0.0301145
1000.849 0.0300999
1001.446 0.0300860
1002.043 0.0300728
1002.639 0.0300602
1003.235 0.0300484
1003.831 0.0300373
1004.427 0.0300268
1005.022 0.0300170
1005.617 0.0300079
1006.212 0.0299995
1006.806 0.0299917
1007.401 0.0299846
1007.995 0.0299782
1008.588 0.0299724
1009.182 0.0299673
1009.775 0.0299628
1010.368 0.0299589
1010.96 0.0299557
1011.553 0.0299530
1012.145 0.0299510
1012.737 0.0299495
1013.328 0.0299487
1013.92 0.0299484
1014.511 0.0299487
1015.102 0.0299495
1015.692 0.0299508
1016.283 0.0299527
1016.873 0.0299551
1017.463 0.0299579
1018.052 0.0299613
1018.642 0.0299651
1019.231 0.0299693
1019.82 0.0299740
1020.409 0.0299791
1020.997 0.0299846
1021.585 0.0299905
1022.173 0.0299967
1022.761 0.0300033
1023.349 0.0300102
1023.936 0.0300175
1024.524 0.0300250
1025.111 0.0300328
1025.697 0.0300409
1026.284 0.0300492
1026.87 0.0300578
1027.457 0.0300666
1028.043 0.0300755
1028.628 0.0300846
1029.214 0.0300939
1029.80 0.0301033
1030.385 0.0301128
1030.97 0.0301224
1031.555 0.0301320
1032.139 0.0301418
1032.724 0.0301515
1033.308 0.0301613
1033.893 0.0301711
1034.477 0.0301809
1035.06 0.0301906
1035.644 0.0302003
1036.228 0.0302099
1036.811 0.0302194
1037.394 0.0302287
1037.977 0.0302380
1038.56 0.0302471
1039.143 0.0302561
1039.726 0.0302649
1040.308 0.0302734
1040.891 0.0302818
1041.473 0.0302899
1042.055 0.0302978
1042.637 0.0303054
1043.219 0.0303128
1043.801 0.0303198
1044.382 0.0303265
1044.964 0.0303329
1045.545 0.0303390
1046.127 0.0303447
1046.708 0.0303500
1047.289 0.0303550
1047.87 0.0303595
1048.451 0.0303637
1049.032 0.0303674
1049.612 0.0303707
1050.193 0.0303735
1050.774 0.0303759
1051.354 0.0303778
1051.935 0.0303792
1052.515 0.0303802
1053.095 0.0303806
1053.675 0.0303806
1054.256 0.0303800
1054.836 0.0303789
1055.416 0.0303772
1055.996 0.0303750
1056.576 0.0303723
1057.156 0.0303690
1057.735 0.0303652
1058.315 0.0303607
1058.895 0.0303557
1059.475 0.0303502
1060.055 0.0303440
1060.634 0.0303373
1061.214 0.0303299
1061.794 0.0303220
1062.373 0.0303134
1062.953 0.0303043
1063.533 0.0302946
1064.113 0.0302842
1064.692 0.0302733
1065.272 0.0302617
1065.852 0.0302496
1066.431 0.0302368
1067.011 0.0302235
1067.591 0.0302095
1068.171 0.0301949
1068.751 0.0301798
1069.331 0.0301640
1069.91 0.0301477
1070.49 0.0301308
1071.071 0.0301132
1071.651 0.0300951
1072.231 0.0300764
1072.811 0.0300572
1073.391 0.0300374
1073.972 0.0300170
1074.552 0.0299961
1075.133 0.0299746
1075.713 0.0299526
1076.294 0.0299301
1076.875 0.0299070
1077.456 0.0298834
1078.037 0.0298594
1078.618 0.0298348
1079.199 0.0298097
1079.78 0.0297842
1080.362 0.0297582
1080.943 0.0297317
1081.525 0.0297048
1082.107 0.0296774
1082.689 0.0296497
1083.271 0.0296215
1083.853 0.0295929
1084.436 0.0295639
1085.018 0.0295346
1085.601 0.0295048
1086.184 0.0294747
1086.767 0.0294443
1087.351 0.0294136
1087.934 0.0293826
1088.518 0.0293512
1089.102 0.0293196
1089.686 0.0292877
1090.27 0.0292555
1090.855 0.0292231
1091.439 0.0291905
1092.024 0.0291577
1092.609 0.0291247
1093.195 0.0290915
1093.78 0.0290581
1094.366 0.0290246
1094.952 0.0289910
1095.539 0.0289572
1096.125 0.0289233
1096.712 0.0288894
1097.299 0.0288553
1097.887 0.0288212
1098.475 0.0287871
1099.063 0.0287530
1099.651 0.0287188
1100.239 0.0286847
1100.828 0.0286506
1101.417 0.0286166
1102.007 0.0285825
1102.597 0.0285486
1103.187 0.0285147
1103.777 0.0284810
1104.368 0.0284474
1104.959 0.0284140
1105.551 0.0283806
1106.143 0.0283475
1106.735 0.0283145
1107.328 0.0282817
1107.921 0.0282492
1108.514 0.0282169
1109.108 0.0281848
1109.702 0.0281530
1110.296 0.0281215
1110.891 0.0280903
1111.486 0.0280594
1112.082 0.0280288
1112.678 0.0279986
1113.275 0.0279686
1113.872 0.0279391
1114.469 0.0279100
1115.067 0.0278812
1115.665 0.0278529
1116.264 0.0278249
1116.864 0.0277974
1117.463 0.0277704
1118.063 0.0277438
1118.664 0.0277176
1119.265 0.0276920
1119.867 0.0276668
1120.469 0.0276422
1121.072 0.0276180
1121.675 0.0275944
1122.279 0.0275713
1122.883 0.0275488
1123.488 0.0275268
1124.093 0.0275054
1124.699 0.0274846
1125.305 0.0274644
1125.912 0.0274447
1126.52 0.0274257
1127.128 0.0274072
1127.737 0.0273894
1128.346 0.0273722
1128.956 0.0273556
1129.567 0.0273397
1130.178 0.0273244
1130.79 0.0273097
1131.402 0.0272957
1132.015 0.0272824
1132.629 0.0272697
1133.243 0.0272577
1133.858 0.0272464
1134.474 0.0272357
1135.09 0.0272257
1135.707 0.0272164
1136.325 0.0272078
1136.943 0.0271998
1137.562 0.0271925
1138.182 0.0271860
1138.802 0.0271800
1139.423 0.0271748
1140.045 0.0271703
1140.668 0.0271664
1141.291 0.0271632
1141.916 0.0271607
1142.54 0.0271589
1143.166 0.0271577
1143.793 0.0271573
1144.42 0.0271574
1145.048 0.0271583
