Measurement Sequence started on: 09-46-08-630
Integration time: 30
Scans to Average: 2 
>>>>>Begin Spectral Data<<<<<
434.745 .1246400
435.665 .1081531
436.585 .1051271
437.503 .0985103
438.420 .0914004
439.335 .0898301
440.249 .0855439
441.162 .0821700
442.074 .0792623
442.984 .0768908
443.894 .0749738
444.802 .0733832
445.708 .0720488
446.614 .0709337
447.518 .0699770
448.422 .0691496
449.324 .0684278
450.224 .0677893
451.124 .0672327
452.022 .0667486
452.920 .0663221
453.816 .0659642
454.711 .0656722
455.605 .0654502
456.497 .0652933
457.389 .0651948
458.279 .0651211
459.169 .0650650
460.057 .0650043
460.944 .0649216
461.830 .0648212
462.715 .0647102
463.599 .0645863
464.482 .0644633
465.363 .0643572
466.244 .0642605
467.124 .0641807
468.002 .0641144
468.880 .0640459
469.756 .0639741
470.632 .0638894
471.506 .0637905
472.379 .0636809
473.252 .0635739
474.123 .0634651
474.994 .0633698
475.863 .0632947
476.731 .0632355
477.599 .0631890
478.465 .0631574
479.331 .0631338
480.195 .0631045
481.059 .0630715
481.921 .0630258
482.783 .0629714
483.643 .0629148
484.503 .0628530
485.362 .0627919
486.220 .0627362
487.077 .0626888
487.933 .0626497
488.788 .0626249
489.642 .0626100
490.496 .0626023
491.348 .0626047
492.200 .0626155
493.050 .0626337
493.900 .0626600
494.749 .0627048
495.597 .0627613
496.445 .0628341
497.291 .0629107
498.136 .0629866
498.981 .0630616
499.825 .0631303
500.668 .0631903
501.510 .0632414
502.352 .0632926
503.192 .0633453
504.032 .0634050
504.871 .0634773
505.709 .0635594
506.546 .0636476
507.383 .0637357
508.219 .0638182
509.054 .0638827
509.888 .0639419
510.722 .0640011
511.554 .0640739
512.386 .0641743
513.217 .0643084
514.048 .0644811
514.877 .0646906
515.706 .0649279
516.535 .0651709
517.362 .0654169
518.189 .0656575
519.015 .0658774
519.840 .0660872
520.665 .0663002
521.489 .0665267
522.312 .0667811
523.134 .0670871
523.956 .0674301
524.777 .0678104
525.598 .0682248
526.417 .0686467
527.236 .0690687
528.055 .0694794
528.872 .0698641
529.690 .0702274
530.506 .0705700
531.322 .0708823
532.137 .0711656
532.951 .0714457
533.765 .0717094
534.578 .0719397
535.391 .0721310
536.203 .0722499
537.014 .0722934
537.824 .0722486
538.634 .0721039
539.444 .0718671
540.253 .0715649
541.061 .0712085
541.868 .0708126
542.675 .0704038
543.482 .0700006
544.288 .0696062
545.093 .0692337
545.897 .0688547
546.702 .0684701
547.505 .0680621
548.308 .0676439
549.110 .0672037
549.912 .0667561
550.713 .0663075
551.514 .0658774
552.314 .0654731
553.114 .0651101
553.913 .0647839
554.711 .0644922
555.509 .0642190
556.306 .0639652
557.103 .0636990
557.900 .0634238
558.695 .0631318
559.491 .0628442
560.285 .0625533
561.080 .0622810
561.873 .0620243
562.667 .0617876
563.459 .0615734
564.252 .0613663
565.043 .0611521
565.835 .0609208
566.625 .0606610
567.416 .0603818
568.205 .0600750
568.995 .0597654
569.783 .0594502
570.572 .0591488
571.360 .0588685
572.147 .0586007
572.934 .0583459
573.720 .0580976
574.506 .0578535
575.292 .0576071
576.077 .0573568
576.862 .0571103
577.646 .0568723
578.429 .0566494
579.213 .0564450
579.996 .0562527
580.778 .0560738
581.560 .0559042
582.341 .0557412
583.123 .0555843
583.903 .0554326
584.684 .0552872
585.463 .0551523
586.243 .0550255
587.022 .0549098
587.800 .0547987
588.578 .0546954
589.356 .0545958
590.134 .0544983
590.911 .0543996
591.687 .0543008
592.463 .0542011
593.239 .0541030
594.014 .0540049
594.789 .0539092
595.564 .0538138
596.338 .0537211
597.112 .0536302
597.885 .0535390
598.658 .0534492
599.431 .0533610
600.203 .0532757
600.975 .0531939
601.747 .0531149
602.518 .0530410
603.289 .0529714
604.059 .0529069
604.829 .0528457
605.599 .0527878
606.369 .0527323
607.138 .0526787
607.906 .0526282
608.675 .0525823
609.443 .0525417
610.210 .0525074
610.977 .0524808
611.744 .0524608
612.511 .0524476
613.277 .0524391
614.043 .0524332
614.809 .0524290
615.574 .0524241
616.339 .0524168
617.104 .0524084
617.868 .0523997
618.632 .0523912
619.395 .0523834
620.159 .0523774
620.922 .0523717
621.684 .0523652
622.447 .0523565
623.209 .0523434
623.970 .0523254
624.732 .0523022
625.493 .0522725
626.254 .0522380
627.014 .0522007
627.774 .0521612
628.534 .0521200
629.294 .0520787
630.053 .0520350
630.812 .0519898
631.571 .0519422
632.329 .0518910
633.087 .0518373
633.845 .0517814
634.602 .0517235
635.359 .0516642
636.116 .0516046
636.873 .0515444
637.629 .0514833
638.385 .0514233
639.141 .0513623
639.897 .0513015
640.652 .0512421
641.407 .0511840
642.161 .0511276
642.916 .0510734
643.670 .0510199
644.424 .0509672
645.177 .0509161
645.931 .0508646
646.684 .0508129
647.436 .0507622
648.189 .0507128
648.941 .0506647
649.693 .0506191
650.445 .0505769
651.196 .0505371
651.947 .0504997
652.698 .0504639
653.449 .0504287
654.199 .0503948
654.949 .0503613
655.699 .0503289
656.449 .0502982
657.198 .0502697
657.947 .0502435
658.696 .0502197
659.445 .0501994
660.193 .0501807
660.941 .0501635
661.689 .0501471
662.436 .0501310
663.184 .0501136
663.931 .0500948
664.678 .0500748
665.424 .0500530
666.171 .0500296
666.917 .0500049
667.663 .0499783
668.408 .0499512
669.154 .0499229
669.899 .0498933
670.644 .0498616
671.388 .0498285
672.133 .0497923
672.877 .0497529
673.621 .0497100
674.365 .0496637
675.108 .0496138
675.851 .0495611
676.594 .0495060
677.337 .0494493
678.080 .0493916
678.822 .0493337
679.564 .0492752
680.306 .0492175
681.047 .0491595
681.789 .0491013
682.530 .0490427
683.271 .0489841
684.012 .0489258
684.752 .0488680
685.492 .0488112
686.232 .0487560
686.972 .0487029
687.712 .0486518
688.451 .0486028
689.190 .0485558
689.929 .0485105
690.667 .0484661
691.406 .0484222
692.144 .0483794
692.882 .0483372
693.620 .0482965
694.357 .0482574
695.095 .0482198
695.832 .0481844
696.569 .0481507
697.305 .0481189
698.042 .0480891
698.778 .0480615
699.514 .0480355
700.249 .0480108
700.985 .0479876
701.720 .0479651
702.455 .0479431
703.190 .0479220
703.925 .0479008
704.659 .0478798
705.393 .0478588
706.127 .0478370
706.861 .0478154
707.595 .0477938
708.328 .0477721
709.061 .0477506
709.794 .0477291
710.527 .0477081
711.259 .0476865
711.991 .0476649
712.723 .0476436
713.455 .0476222
714.186 .0476009
714.918 .0475789
715.649 .0475564
716.380 .0475337
717.110 .0475106
717.841 .0474874
718.571 .0474639
719.301 .0474398
720.031 .0474153
720.760 .0473889
721.490 .0473600
722.219 .0473282
722.948 .0472928
723.676 .0472540
724.405 .0472125
725.133 .0471681
725.861 .0471220
726.589 .0470756
727.317 .0470302
728.044 .0469846
728.771 .0469396
729.498 .0468942
730.225 .0468474
730.951 .0467993
731.677 .0467497
732.403 .0466984
733.129 .0466474
733.855 .0465969
734.580 .0465478
735.305 .0464999
736.030 .0464539
736.755 .0464081
737.479 .0463627
738.203 .0463167
738.927 .0462694
739.651 .0462205
740.375 .0461707
741.098 .0461206
741.821 .0460708
742.544 .0460222
743.267 .0459747
743.989 .0459286
744.711 .0458839
745.433 .0458399
746.155 .0457965
746.877 .0457538
747.598 .0457123
748.319 .0456718
749.040 .0456328
749.760 .0455951
750.481 .0455590
751.201 .0455242
751.921 .0454905
752.640 .0454580
753.360 .0454260
754.079 .0453947
754.798 .0453639
755.517 .0453344
756.235 .0453061
756.953 .0452792
757.671 .0452543
758.389 .0452308
759.107 .0452092
759.824 .0451889
760.541 .0451694
761.258 .0451512
761.974 .0451339
762.691 .0451170
763.407 .0451009
764.123 .0450858
764.838 .0450715
765.554 .0450577
766.269 .0450448
766.984 .0450318
767.699 .0450187
768.413 .0450059
769.127 .0449928
769.841 .0449795
770.555 .0449662
771.268 .0449524
771.982 .0449389
772.694 .0449251
773.407 .0449112
774.120 .0448962
774.832 .0448806
775.544 .0448636
776.256 .0448446
776.967 .0448242
777.678 .0448031
778.389 .0447804
779.100 .0447569
779.810 .0447324
780.521 .0447070
781.231 .0446803
781.940 .0446522
782.650 .0446225
783.359 .0445908
784.068 .0445570
784.776 .0445211
785.485 .0444833
786.193 .0444448
786.901 .0444051
787.609 .0443647
788.316 .0443243
789.023 .0442837
789.730 .0442427
790.436 .0442013
791.143 .0441600
791.849 .0441182
792.555 .0440756
793.260 .0440321
793.965 .0439881
794.670 .0439438
795.375 .0438990
796.080 .0438536
796.784 .0438082
797.488 .0437626
798.191 .0437172
798.895 .0436720
799.598 .0436274
800.301 .0435833
801.003 .0435399
801.705 .0434968
802.408 .0434541
803.109 .0434116
803.811 .0433696
804.512 .0433282
805.213 .0432875
805.913 .0432474
806.614 .0432081
807.314 .0431699
808.014 .0431325
808.713 .0430957
809.412 .0430597
810.111 .0430237
810.810 .0429881
811.508 .0429528
812.206 .0429177
812.904 .0428832
813.602 .0428490
814.299 .0428158
814.996 .0427835
815.692 .0427524
816.389 .0427224
817.085 .0426932
817.781 .0426651
818.476 .0426375
819.171 .0426107
819.866 .0425847
820.561 .0425593
821.255 .0425342
821.949 .0425100
822.643 .0424868
823.336 .0424648
824.029 .0424442
824.722 .0424251
825.415 .0424079
826.107 .0423918
826.799 .0423765
827.490 .0423617
828.182 .0423475
828.873 .0423334
829.563 .0423187
830.254 .0423039
830.944 .0422891
831.634 .0422747
832.323 .0422615
833.012 .0422496
833.701 .0422397
834.390 .0422312
835.078 .0422240
835.766 .0422178
836.453 .0422130
837.141 .0422089
837.828 .0422052
838.514 .0422019
839.201 .0421992
839.887 .0421962
840.572 .0421932
841.258 .0421903
841.943 .0421874
842.628 .0421843
843.312 .0421805
843.996 .0421760
844.680 .0421711
845.363 .0421652
846.046 .0421583
846.729 .0421497
847.412 .0421393
848.094 .0421265
848.776 .0421119
849.457 .0420960
850.139 .0420792
850.819 .0420615
851.500 .0420436
852.180 .0420260
852.860 .0420091
853.540 .0419927
854.219 .0419765
854.898 .0419606
855.576 .0419445
856.254 .0419267
856.932 .0419071
857.610 .0418857
858.287 .0418632
858.964 .0418391
859.640 .0418139
860.317 .0417879
860.993 .0417614
861.668 .0417349
862.343 .0417078
863.018 .0416801
863.693 .0416513
864.367 .0416207
865.041 .0415880
865.714 .0415530
866.387 .0415162
867.060 .0414775
867.732 .0414378
868.404 .0413971
869.076 .0413559
869.748 .0413142
870.419 .0412719
871.089 .0412288
871.760 .0411845
872.430 .0411390
873.099 .0410920
873.769 .0410439
874.438 .0409951
875.106 .0409465
875.774 .0408988
876.442 .0408522
877.110 .0408078
877.777 .0407656
878.444 .0407250
879.110 .0406860
879.776 .0406482
880.442 .0406113
881.108 .0405751
881.773 .0405399
882.437 .0405052
883.102 .0404712
883.766 .0404379
884.429 .0404048
885.093 .0403722
885.755 .0403403
886.418 .0403087
887.080 .0402773
887.742 .0402459
888.403 .0402140
889.064 .0401819
889.725 .0401496
890.385 .0401178
891.045 .0400863
891.705 .0400553
892.364 .0400250
893.023 .0399956
893.682 .0399674
894.340 .0399409
894.998 .0399157
895.655 .0398922
896.312 .0398702
896.969 .0398494
897.625 .0398295
898.281 .0398110
898.937 .0397939
899.592 .0397781
900.247 .0397636
900.901 .0397503
901.555 .0397381
902.209 .0397276
902.862 .0397181
903.515 .0397094
904.168 .0397017
904.820 .0396947
905.472 .0396879
906.123 .0396818
906.774 .0396764
907.425 .0396719
908.076 .0396680
908.726 .0396641
909.375 .0396603
910.024 .0396562
910.673 .0396518
911.322 .0396470
911.970 .0396421
912.618 .0396369
913.265 .0396315
913.912 .0396261
914.558 .0396210
915.205 .0396159
915.850 .0396104
916.496 .0396046
917.141 .0395984
917.786 .0395916
918.430 .0395844
919.074 .0395770
919.718 .0395695
920.361 .0395619
921.004 .0395544
921.646 .0395469
922.288 .0395397
922.930 .0395327
923.571 .0395256
924.212 .0395187
924.853 .0395124
925.493 .0395056
926.133 .0394994
926.772 .0394937
927.411 .0394879
928.050 .0394817
928.688 .0394749
929.326 .0394670
929.963 .0394583
930.600 .0394489
931.237 .0394387
931.874 .0394281
932.510 .0394175
933.145 .0394055
933.780 .0393924
934.415 .0393784
935.050 .0393630
935.684 .0393461
936.318 .0393290
936.951 .0393114
937.584 .0392935
938.217 .0392767
938.849 .0392600
939.481 .0392438
940.112 .0392274
940.743 .0392101
941.374 .0391918
942.004 .0391723
942.634 .0391517
943.264 .0391297
943.893 .0391068
944.522 .0390836
945.150 .0390598
945.778 .0390357
946.406 .0390105
947.033 .0389848
947.660 .0389576
948.287 .0389290
948.913 .0388984
949.539 .0388662
950.165 .0388321
950.790 .0387968
951.414 .0387604
952.039 .0387229
952.663 .0386850
953.286 .0386466
953.910 .0386073
954.533 .0385679
955.155 .0385277
955.777 .0384870
956.399 .0384456
957.020 .0384045
957.641 .0383631
958.262 .0383219
958.882 .0382812
959.502 .0382407
960.122 .0382005
960.741 .0381609
961.360 .0381215
961.979 .0380827
962.597 .0380450
963.214 .0380082
963.832 .0379726
964.449 .0379381
965.066 .0379049
965.682 .0378727
966.298 .0378413
966.914 .0378105
967.529 .0377800
968.144 .0377493
968.758 .0377185
969.373 .0376871
969.986 .0376553
970.600 .0376230
971.213 .0375902
971.826 .0375563
972.438 .0375217
973.050 .0374859
973.662 .0374486
974.274 .0374096
974.885 .0373700
975.495 .0373294
976.106 .0372884
976.716 .0372475
977.325 .0372069
977.935 .0371671
978.544 .0371288
979.152 .0370912
979.761 .0370548
980.369 .0370196
980.976 .0369861
981.584 .0369540
982.191 .0369244
982.797 .0368970
983.404 .0368725
984.010 .0368504
984.615 .0368306
985.221 .0368117
985.826 .0367936
986.430 .0367757
987.035 .0367574
987.639 .0367389
988.243 .0367208
988.846 .0367023
989.449 .0366846
990.052 .0366670
990.654 .0366498
991.256 .0366324
991.858 .0366151
992.460 .0365976
993.061 .0365803
993.662 .0365629
994.262 .0365460
994.863 .0365299
995.463 .0365154
996.062 .0365023
996.662 .0364910
997.261 .0364813
997.860 .0364732
998.458 .0364662
999.056 .0364611
999.654 .0364572
1000.252 .0364554
1000.849 .0364544
1001.446 .0364539
1002.043 .0364541
1002.639 .0364546
1003.235 .0364553
1003.831 .0364569
1004.427 .0364596
1005.022 .0364638
1005.617 .0364701
1006.212 .0364784
1006.806 .0364886
1007.401 .0365006
1007.995 .0365135
1008.588 .0365262
1009.182 .0365384
1009.775 .0365499
1010.368 .0365610
1010.960 .0365728
1011.553 .0365858
1012.145 .0366000
1012.737 .0366157
1013.328 .0366330
1013.920 .0366507
1014.511 .0366687
1015.102 .0366857
1015.692 .0367012
1016.283 .0367158
1016.873 .0367291
1017.463 .0367414
1018.052 .0367533
1018.642 .0367654
1019.231 .0367775
1019.820 .0367890
1020.409 .0368008
1020.997 .0368116
1021.585 .0368218
1022.173 .0368317
1022.761 .0368416
1023.349 .0368514
1023.936 .0368616
1024.524 .0368726
1025.111 .0368839
1025.697 .0368955
1026.284 .0369070
1026.870 .0369178
1027.457 .0369287
1028.043 .0369395
1028.628 .0369504
1029.214 .0369618
1029.800 .0369746
1030.385 .0369875
1030.970 .0370006
1031.555 .0370138
1032.139 .0370261
1032.724 .0370373
1033.308 .0370475
1033.893 .0370567
1034.477 .0370647
1035.060 .0370723
1035.644 .0370787
1036.228 .0370835
1036.811 .0370869
1037.394 .0370885
1037.977 .0370885
1038.560 .0370870
1039.143 .0370846
1039.726 .0370815
1040.308 .0370781
1040.891 .0370746
1041.473 .0370697
1042.055 .0370641
1042.637 .0370560
1043.219 .0370453
1043.801 .0370317
1044.382 .0370156
1044.964 .0369986
1045.545 .0369806
1046.127 .0369628
1046.708 .0369461
1047.289 .0369304
1047.870 .0369152
1048.451 .0369011
1049.032 .0368867
1049.612 .0368719
1050.193 .0368565
1050.774 .0368411
1051.354 .0368263
1051.935 .0368126
1052.515 .0368007
1053.095 .0367896
1053.675 .0367790
1054.256 .0367692
1054.836 .0367580
1055.416 .0367473
1055.996 .0367356
1056.576 .0367232
1057.156 .0367107
1057.735 .0366980
1058.315 .0366841
1058.895 .0366700
1059.475 .0366554
1060.055 .0366399
1060.634 .0366229
1061.214 .0366050
1061.794 .0365863
1062.373 .0365674
1062.953 .0365492
1063.533 .0365316
1064.113 .0365146
1064.692 .0364983
1065.272 .0364813
1065.852 .0364650
1066.431 .0364491
1067.011 .0364334
1067.591 .0364180
1068.171 .0364034
1068.751 .0363899
1069.331 .0363764
1069.910 .0363628
1070.490 .0363479
1071.071 .0363320
1071.651 .0363135
1072.231 .0362920
1072.811 .0362684
1073.391 .0362426
1073.972 .0362153
1074.552 .0361879
1075.133 .0361611
1075.713 .0361355
1076.294 .0361108
1076.875 .0360858
1077.456 .0360602
1078.037 .0360331
1078.618 .0360034
1079.199 .0359718
1079.780 .0359383
1080.362 .0359058
1080.943 .0358716
1081.525 .0358379
1082.107 .0358061
1082.689 .0357747
1083.271 .0357460
1083.853 .0357174
1084.436 .0356893
1085.018 .0356617
1085.601 .0356338
1086.184 .0356062
1086.767 .0355779
1087.351 .0355514
1087.934 .0355249
1088.518 .0354980
1089.102 .0354713
1089.686 .0354448
1090.270 .0354179
1090.855 .0353930
1091.439 .0353702
1092.024 .0353491
1092.609 .0353308
1093.195 .0353134
1093.780 .0352971
1094.366 .0352821
1094.952 .0352663
1095.539 .0352512
1096.125 .0352360
1096.712 .0352221
1097.299 .0352080
1097.887 .0351958
1098.475 .0351863
1099.063 .0351781
1099.651 .0351719
1100.239 .0351664
1100.828 .0351610
1101.417 .0351556
1102.007 .0351500
1102.597 .0351453
1103.187 .0351418
1103.777 .0351395
1104.368 .0351361
1104.959 .0351344
1105.551 .0351313
1106.143 .0351272
1106.735 .0351221
1107.328 .0351157
1107.921 .0351082
1108.514 .0351019
1109.108 .0350966
1109.702 .0350945
1110.296 .0350961
1110.891 .0351029
1111.486 .0351103
1112.082 .0351202
1112.678 .0351293
1113.275 .0351369
1113.872 .0351432
1114.469 .0351500
1115.067 .0351557
1115.665 .0351660
1116.264 .0351819
1116.864 .0352052
1117.463 .0352368
1118.063 .0352770
1118.664 .0353202
1119.265 .0353684
1119.867 .0354187
1120.469 .0354715
1121.072 .0355244
1121.675 .0355825
1122.279 .0356454
1122.883 .0357140
1123.488 .0357888
1124.093 .0358724
1124.699 .0359628
1125.305 .0360570
1125.912 .0361500
1126.520 .0362407
1127.128 .0363276
1127.737 .0364101
1128.346 .0364881
1128.956 .0365682
1129.567 .0366474
1130.178 .0367303
1130.790 .0368128
1131.402 .0368992
1132.015 .0369906
1132.629 .0370846
1133.243 .0371838
1133.858 .0372891
1134.474 .0373989
1135.090 .0375131
1135.707 .0376322
1136.325 .0377588
1136.943 .0378879
1137.562 .0380188
1138.182 .0381565
1138.802 .0382985
1139.423 .0384463
1140.045 .0386007
1140.668 .0387542
1141.291 .0389179
1141.916 .0390843
1142.540 .0392689
1143.166 .0394365
1143.793 .0394018
1144.420 .0397741
1145.048 .0399877
