BestFit value for E:\RC_data\Compressed_For_Future_Analysis_Lite\test_shlomo\aqueous_test\GoodSpectraLarge_Full\0012_2025-06-24_09-45-30\Interpretation_History\2025-07-21_16-23-34\ResultsGraphs\BestFit\(Run)spectra_09-46-35-607_BestFit.txt
600.203 0.0466174
600.975 0.0465572
601.747 0.0464972
602.518 0.0464375
603.289 0.0463780
604.059 0.0463188
604.829 0.0462598
605.599 0.0462010
606.369 0.0461423
607.138 0.0460840
607.906 0.0460258
608.675 0.0459677
609.443 0.0459099
610.210 0.0458523
610.977 0.0457948
611.744 0.0457375
612.511 0.0456803
613.277 0.0456233
614.043 0.0455664
614.809 0.0455096
615.574 0.0454530
616.339 0.0453964
617.104 0.0453400
617.868 0.0452838
618.632 0.0452276
619.395 0.0451717
620.159 0.0451157
620.922 0.0450599
621.684 0.0450042
622.447 0.0449485
623.209 0.0448930
623.970 0.0448377
624.732 0.0447824
625.493 0.0447272
626.254 0.0446721
627.014 0.0446172
627.774 0.0445624
628.534 0.0445076
629.294 0.0444530
630.053 0.0443985
630.812 0.0443442
631.571 0.0442900
632.329 0.0442359
633.087 0.0441820
633.845 0.0441283
634.602 0.0440747
635.359 0.0440213
636.116 0.0439680
636.873 0.0439149
637.629 0.0438620
638.385 0.0438094
639.141 0.0437568
639.897 0.0437045
640.652 0.0436525
641.407 0.0436006
642.161 0.0435490
642.916 0.0434976
643.670 0.0434465
644.424 0.0433955
645.177 0.0433449
645.931 0.0432945
646.684 0.0432443
647.436 0.0431945
648.189 0.0431449
648.941 0.0430955
649.693 0.0430465
650.445 0.0429977
651.196 0.0429492
651.947 0.0429010
652.698 0.0428530
653.449 0.0428054
654.199 0.0427580
654.949 0.0427109
655.699 0.0426641
656.449 0.0426175
657.198 0.0425713
657.947 0.0425253
658.696 0.0424795
659.445 0.0424340
660.193 0.0423888
660.941 0.0423438
661.689 0.0422991
662.436 0.0422546
663.184 0.0422103
663.931 0.0421663
664.678 0.0421225
665.424 0.0420789
666.171 0.0420355
666.917 0.0419923
667.663 0.0419492
668.408 0.0419064
669.154 0.0418636
669.899 0.0418211
670.644 0.0417787
671.388 0.0417364
672.133 0.0416943
672.877 0.0416522
673.621 0.0416103
674.365 0.0415684
675.108 0.0415267
675.851 0.0414850
676.594 0.0414434
677.337 0.0414018
678.080 0.0413602
678.822 0.0413188
679.564 0.0412773
680.306 0.0412359
681.047 0.0411945
681.789 0.0411530
682.530 0.0411116
683.271 0.0410701
684.012 0.0410287
684.752 0.0409872
685.492 0.0409458
686.232 0.0409042
686.972 0.0408627
687.712 0.0408211
688.451 0.0407795
689.190 0.0407378
689.929 0.0406961
690.667 0.0406544
691.406 0.0406126
692.144 0.0405707
692.882 0.0405289
693.620 0.0404870
694.357 0.0404450
695.095 0.0404030
695.832 0.0403611
696.569 0.0403190
697.305 0.0402770
698.042 0.0402349
698.778 0.0401929
699.514 0.0401508
700.249 0.0401088
700.985 0.0400668
701.720 0.0400248
702.455 0.0399828
703.190 0.0399408
703.925 0.0398989
704.659 0.0398571
705.393 0.0398153
706.127 0.0397736
706.861 0.0397320
707.595 0.0396904
708.328 0.0396490
709.061 0.0396077
709.794 0.0395665
710.527 0.0395255
711.259 0.0394846
711.991 0.0394439
712.723 0.0394033
713.455 0.0393630
714.186 0.0393228
714.918 0.0392828
715.649 0.0392430
716.380 0.0392034
717.110 0.0391641
717.841 0.0391250
718.571 0.0390861
719.301 0.0390475
720.031 0.0390092
720.760 0.0389711
721.490 0.0389333
722.219 0.0388958
722.948 0.0388585
723.676 0.0388216
724.405 0.0387849
725.133 0.0387486
725.861 0.0387126
726.589 0.0386768
727.317 0.0386414
728.044 0.0386063
728.771 0.0385716
729.498 0.0385371
730.225 0.0385029
730.951 0.0384691
731.677 0.0384356
732.403 0.0384024
733.129 0.0383695
733.855 0.0383369
734.580 0.0383046
735.305 0.0382727
736.030 0.0382410
736.755 0.0382096
737.479 0.0381785
738.203 0.0381477
738.927 0.0381171
739.651 0.0380869
740.375 0.0380568
741.098 0.0380271
741.821 0.0379975
742.544 0.0379682
743.267 0.0379391
743.989 0.0379103
744.711 0.0378816
745.433 0.0378532
746.155 0.0378249
746.877 0.0377967
747.598 0.0377688
748.319 0.0377410
749.040 0.0377133
749.760 0.0376857
750.481 0.0376583
751.201 0.0376309
751.921 0.0376036
752.640 0.0375765
753.360 0.0375493
754.079 0.0375223
754.798 0.0374952
755.517 0.0374682
756.235 0.0374412
756.953 0.0374142
757.671 0.0373872
758.389 0.0373602
759.107 0.0373331
759.824 0.0373060
760.541 0.0372788
761.258 0.0372516
761.974 0.0372243
762.691 0.0371969
763.407 0.0371694
764.123 0.0371418
764.838 0.0371141
765.554 0.0370863
766.269 0.0370583
766.984 0.0370302
767.699 0.0370020
768.413 0.0369736
769.127 0.0369451
769.841 0.0369164
770.555 0.0368875
771.268 0.0368585
771.982 0.0368293
772.694 0.0368000
773.407 0.0367704
774.120 0.0367406
774.832 0.0367107
775.544 0.0366806
776.256 0.0366503
776.967 0.0366199
777.678 0.0365893
778.389 0.0365585
779.100 0.0365275
779.810 0.0364963
780.521 0.0364649
781.231 0.0364334
781.940 0.0364018
782.650 0.0363699
783.359 0.0363380
784.068 0.0363058
784.776 0.0362736
785.485 0.0362412
786.193 0.0362086
786.901 0.0361760
787.609 0.0361432
788.316 0.0361104
789.023 0.0360774
789.730 0.0360444
790.436 0.0360113
791.143 0.0359780
791.849 0.0359448
792.555 0.0359115
793.260 0.0358782
793.965 0.0358449
794.670 0.0358115
795.375 0.0357781
796.080 0.0357447
796.784 0.0357114
797.488 0.0356781
798.191 0.0356449
798.895 0.0356117
799.598 0.0355785
800.301 0.0355455
801.003 0.0355125
801.705 0.0354797
802.408 0.0354469
803.109 0.0354144
803.811 0.0353819
804.512 0.0353496
805.213 0.0353174
805.913 0.0352855
806.614 0.0352536
807.314 0.0352220
808.014 0.0351907
808.713 0.0351595
809.412 0.0351286
810.111 0.0350979
810.810 0.0350674
811.508 0.0350373
812.206 0.0350073
812.904 0.0349777
813.602 0.0349483
814.299 0.0349192
814.996 0.0348905
815.692 0.0348620
816.389 0.0348339
817.085 0.0348061
817.781 0.0347785
818.476 0.0347514
819.171 0.0347246
819.866 0.0346981
820.561 0.0346720
821.255 0.0346462
821.949 0.0346208
822.643 0.0345957
823.336 0.0345710
824.029 0.0345467
824.722 0.0345227
825.415 0.0344991
826.107 0.0344758
826.799 0.0344529
827.490 0.0344304
828.182 0.0344083
828.873 0.0343865
829.563 0.0343651
830.254 0.0343440
830.944 0.0343233
831.634 0.0343029
832.323 0.0342829
833.012 0.0342632
833.701 0.0342439
834.390 0.0342249
835.078 0.0342063
835.766 0.0341879
836.453 0.0341699
837.141 0.0341522
837.828 0.0341348
838.514 0.0341177
839.201 0.0341009
839.887 0.0340844
840.572 0.0340681
841.258 0.0340521
841.943 0.0340364
842.628 0.0340209
843.312 0.0340057
843.996 0.0339906
844.680 0.0339758
845.363 0.0339612
846.046 0.0339468
846.729 0.0339326
847.412 0.0339186
848.094 0.0339047
848.776 0.0338910
849.457 0.0338774
850.139 0.0338639
850.819 0.0338506
851.500 0.0338374
852.180 0.0338243
852.860 0.0338113
853.540 0.0337983
854.219 0.0337854
854.898 0.0337725
855.576 0.0337597
856.254 0.0337470
856.932 0.0337342
857.610 0.0337214
858.287 0.0337087
858.964 0.0336959
859.640 0.0336831
860.317 0.0336702
860.993 0.0336573
861.668 0.0336443
862.343 0.0336313
863.018 0.0336182
863.693 0.0336049
864.367 0.0335916
865.041 0.0335782
865.714 0.0335646
866.387 0.0335509
867.060 0.0335371
867.732 0.0335231
868.404 0.0335090
869.076 0.0334947
869.748 0.0334802
870.419 0.0334655
871.089 0.0334506
871.760 0.0334356
872.430 0.0334203
873.099 0.0334048
873.769 0.0333891
874.438 0.0333732
875.106 0.0333571
875.774 0.0333407
876.442 0.0333241
877.110 0.0333072
877.777 0.0332901
878.444 0.0332727
879.110 0.0332551
879.776 0.0332373
880.442 0.0332191
881.108 0.0332007
881.773 0.0331820
882.437 0.0331631
883.102 0.0331439
883.766 0.0331244
884.429 0.0331047
885.093 0.0330846
885.755 0.0330644
886.418 0.0330438
887.080 0.0330230
887.742 0.0330019
888.403 0.0329806
889.064 0.0329589
889.725 0.0329370
890.385 0.0329149
891.045 0.0328925
891.705 0.0328698
892.364 0.0328469
893.023 0.0328238
893.682 0.0328004
894.340 0.0327767
894.998 0.0327528
895.655 0.0327288
896.312 0.0327044
896.969 0.0326799
897.625 0.0326552
898.281 0.0326302
898.937 0.0326050
899.592 0.0325797
900.247 0.0325541
900.901 0.0325284
901.555 0.0325026
902.209 0.0324765
902.862 0.0324503
903.515 0.0324239
904.168 0.0323974
904.820 0.0323708
905.472 0.0323440
906.123 0.0323172
906.774 0.0322902
907.425 0.0322631
908.076 0.0322359
908.726 0.0322086
909.375 0.0321813
910.024 0.0321539
910.673 0.0321265
911.322 0.0320990
911.970 0.0320714
912.618 0.0320439
913.265 0.0320163
913.912 0.0319887
914.558 0.0319612
915.205 0.0319336
915.850 0.0319060
916.496 0.0318785
917.141 0.0318510
917.786 0.0318236
918.430 0.0317962
919.074 0.0317689
919.718 0.0317417
920.361 0.0317145
921.004 0.0316875
921.646 0.0316606
922.288 0.0316337
922.930 0.0316070
923.571 0.0315804
924.212 0.0315540
924.853 0.0315277
925.493 0.0315016
926.133 0.0314756
926.772 0.0314499
927.411 0.0314243
928.050 0.0313988
928.688 0.0313736
929.326 0.0313486
929.963 0.0313238
930.600 0.0312993
931.237 0.0312749
931.874 0.0312508
932.510 0.0312269
933.145 0.0312033
933.780 0.0311800
934.415 0.0311569
935.050 0.0311340
935.684 0.0311115
936.318 0.0310892
936.951 0.0310672
937.584 0.0310455
938.217 0.0310241
938.849 0.0310030
939.481 0.0309822
940.112 0.0309617
940.743 0.0309415
941.374 0.0309216
942.004 0.0309021
942.634 0.0308828
943.264 0.0308639
943.893 0.0308454
944.522 0.0308271
945.150 0.0308093
945.778 0.0307917
946.406 0.0307745
947.033 0.0307576
947.660 0.0307410
948.287 0.0307248
948.913 0.0307090
949.539 0.0306935
950.165 0.0306783
950.790 0.0306635
951.414 0.0306491
952.039 0.0306349
952.663 0.0306211
953.286 0.0306077
953.910 0.0305946
954.533 0.0305819
955.155 0.0305695
955.777 0.0305575
956.399 0.0305457
957.020 0.0305344
957.641 0.0305233
958.262 0.0305126
958.882 0.0305022
959.502 0.0304922
960.122 0.0304834
960.741 0.0304786
961.360 0.0304741
961.979 0.0304699
962.597 0.0304660
963.214 0.0304623
963.832 0.0304590
964.449 0.0304560
965.066 0.0304532
965.682 0.0304507
966.298 0.0304485
966.914 0.0304465
967.529 0.0304448
968.144 0.0304434
968.758 0.0304422
969.373 0.0304413
969.986 0.0304406
970.600 0.0304401
971.213 0.0304398
971.826 0.0304398
972.438 0.0304400
973.050 0.0304405
973.662 0.0304411
974.274 0.0304419
974.885 0.0304429
975.495 0.0304441
976.106 0.0304455
976.716 0.0304470
977.325 0.0304488
977.935 0.0304507
978.544 0.0304527
979.152 0.0304549
979.761 0.0304572
980.369 0.0304597
980.976 0.0304623
981.584 0.0304650
982.191 0.0304678
982.797 0.0304707
983.404 0.0304737
984.010 0.0304768
984.615 0.0304800
985.221 0.0304833
985.826 0.0304867
986.430 0.0304901
987.035 0.0304935
987.639 0.0304971
988.243 0.0305006
988.846 0.0305042
989.449 0.0305078
990.052 0.0305114
990.654 0.0305151
991.256 0.0305187
991.858 0.0305224
992.460 0.0305260
993.061 0.0305297
993.662 0.0305333
994.262 0.0305368
994.863 0.0305404
995.463 0.0305439
996.062 0.0305473
996.662 0.0305507
997.261 0.0305540
997.860 0.0305573
998.458 0.0305604
999.056 0.0305635
999.654 0.0305665
1000.252 0.0305677
1000.849 0.0305665
1001.446 0.0305652
1002.043 0.0305638
1002.639 0.0305622
1003.235 0.0305606
1003.831 0.0305588
1004.427 0.0305569
1005.022 0.0305548
1005.617 0.0305526
1006.212 0.0305503
1006.806 0.0305478
1007.401 0.0305451
1007.995 0.0305423
1008.588 0.0305393
1009.182 0.0305361
1009.775 0.0305328
1010.368 0.0305292
1010.96 0.0305255
1011.553 0.0305216
1012.145 0.0305175
1012.737 0.0305132
1013.328 0.0305087
1013.92 0.0305040
1014.511 0.0304991
1015.102 0.0304939
1015.692 0.0304886
1016.283 0.0304830
1016.873 0.0304772
1017.463 0.0304711
1018.052 0.0304648
1018.642 0.0304583
1019.231 0.0304516
1019.82 0.0304446
1020.409 0.0304373
1020.997 0.0304299
1021.585 0.0304221
1022.173 0.0304142
1022.761 0.0304059
1023.349 0.0303974
1023.936 0.0303887
1024.524 0.0303797
1025.111 0.0303704
1025.697 0.0303609
1026.284 0.0303511
1026.87 0.0303411
1027.457 0.0303308
1028.043 0.0303202
1028.628 0.0303094
1029.214 0.0302983
1029.80 0.0302869
1030.385 0.0302753
1030.97 0.0302634
1031.555 0.0302512
1032.139 0.0302388
1032.724 0.0302261
1033.308 0.0302131
1033.893 0.0301999
1034.477 0.0301864
1035.06 0.0301727
1035.644 0.0301586
1036.228 0.0301443
1036.811 0.0301298
1037.394 0.0301150
1037.977 0.0301000
1038.56 0.0300847
1039.143 0.0300691
1039.726 0.0300533
1040.308 0.0300372
1040.891 0.0300209
1041.473 0.0300043
1042.055 0.0299875
1042.637 0.0299704
1043.219 0.0299531
1043.801 0.0299356
1044.382 0.0299179
1044.964 0.0298998
1045.545 0.0298816
1046.127 0.0298631
1046.708 0.0298445
1047.289 0.0298256
1047.87 0.0298064
1048.451 0.0297871
1049.032 0.0297675
1049.612 0.0297478
1050.193 0.0297278
1050.774 0.0297076
1051.354 0.0296873
1051.935 0.0296667
1052.515 0.0296460
1053.095 0.0296251
1053.675 0.0296040
1054.256 0.0295826
1054.836 0.0295612
1055.416 0.0295395
1055.996 0.0295177
1056.576 0.0294958
1057.156 0.0294736
1057.735 0.0294514
1058.315 0.0294290
1058.895 0.0294064
1059.475 0.0293837
1060.055 0.0293608
1060.634 0.0293379
1061.214 0.0293148
1061.794 0.0292916
1062.373 0.0292683
1062.953 0.0292448
1063.533 0.0292212
1064.113 0.0291976
1064.692 0.0291739
1065.272 0.0291500
1065.852 0.0291261
1066.431 0.0291021
1067.011 0.0290780
1067.591 0.0290539
1068.171 0.0290296
1068.751 0.0290054
1069.331 0.0289810
1069.91 0.0289567
1070.49 0.0289322
1071.071 0.0289077
1071.651 0.0288832
1072.231 0.0288587
1072.811 0.0288342
1073.391 0.0288096
1073.972 0.0287850
1074.552 0.0287605
1075.133 0.0287358
1075.713 0.0287113
1076.294 0.0286867
1076.875 0.0286621
1077.456 0.0286376
1078.037 0.0286130
1078.618 0.0285885
1079.199 0.0285641
1079.78 0.0285397
1080.362 0.0285153
1080.943 0.0284910
1081.525 0.0284667
1082.107 0.0284425
1082.689 0.0284184
1083.271 0.0283943
1083.853 0.0283703
1084.436 0.0283464
1085.018 0.0283226
1085.601 0.0282989
1086.184 0.0282752
1086.767 0.0282517
1087.351 0.0282283
1087.934 0.0282050
1088.518 0.0281818
1089.102 0.0281587
1089.686 0.0281358
1090.27 0.0281130
1090.855 0.0280903
1091.439 0.0280678
1092.024 0.0280454
1092.609 0.0280232
1093.195 0.0280011
1093.78 0.0279792
1094.366 0.0279574
1094.952 0.0279358
1095.539 0.0279144
1096.125 0.0278932
1096.712 0.0278721
1097.299 0.0278513
1097.887 0.0278306
1098.475 0.0278101
1099.063 0.0277898
1099.651 0.0277697
1100.239 0.0277499
1100.828 0.0277302
1101.417 0.0277108
1102.007 0.0276915
1102.597 0.0276725
1103.187 0.0276537
1103.777 0.0276352
1104.368 0.0276169
1104.959 0.0275988
1105.551 0.0275810
1106.143 0.0275633
1106.735 0.0275460
1107.328 0.0275289
1107.921 0.0275120
1108.514 0.0274955
1109.108 0.0274791
1109.702 0.0274630
1110.296 0.0274473
1110.891 0.0274317
1111.486 0.0274164
1112.082 0.0274014
1112.678 0.0273867
1113.275 0.0273723
1113.872 0.0273581
1114.469 0.0273442
1115.067 0.0273306
1115.665 0.0273173
1116.264 0.0273043
1116.864 0.0272915
1117.463 0.0272791
1118.063 0.0272669
1118.664 0.0272551
1119.265 0.0272435
1119.867 0.0272323
1120.469 0.0272213
1121.072 0.0272106
1121.675 0.0272003
1122.279 0.0271902
1122.883 0.0271805
1123.488 0.0271710
1124.093 0.0271619
1124.699 0.0271530
1125.305 0.0271445
1125.912 0.0271363
1126.52 0.0271284
1127.128 0.0271208
1127.737 0.0271135
1128.346 0.0271065
1128.956 0.0270998
1129.567 0.0270934
1130.178 0.0270874
1130.79 0.0270816
1131.402 0.0270762
1132.015 0.0270711
1132.629 0.0270662
1133.243 0.0270617
1133.858 0.0270575
1134.474 0.0270536
1135.09 0.0270500
1135.707 0.0270467
1136.325 0.0270437
1136.943 0.0270410
1137.562 0.0270386
1138.182 0.0270365
1138.802 0.0270347
1139.423 0.0270332
1140.045 0.0270320
1140.668 0.0270311
1141.291 0.0270304
1141.916 0.0270301
1142.54 0.0270300
1143.166 0.0270303
1143.793 0.0270308
1144.42 0.0270316
1145.048 0.0270326
