Measurement Sequence started on: 09-46-08-630
Integration time: 30
Scans to Average: 2 
>>>>>Begin Spectral Data<<<<<
434.745 .1223480
435.665 .1230707
436.585 .1153260
437.503 .1047612
438.420 .0975573
439.335 .0954619
440.249 .0907626
441.162 .0865649
442.074 .0831022
442.984 .0803466
443.894 .0781051
444.802 .0762571
445.708 .0747291
446.614 .0734666
447.518 .0724139
448.422 .0715206
449.324 .0707732
450.224 .0701506
451.124 .0696174
452.022 .0691690
452.920 .0687861
453.816 .0684591
454.711 .0681916
455.605 .0679782
456.497 .0678188
457.389 .0676938
458.279 .0676019
459.169 .0675289
460.057 .0674610
460.944 .0673939
461.830 .0673230
462.715 .0672408
463.599 .0671489
464.482 .0670476
465.363 .0669374
466.244 .0668282
467.124 .0667192
468.002 .0666059
468.880 .0664891
469.756 .0663644
470.632 .0662299
471.506 .0660841
472.379 .0659328
473.252 .0657801
474.123 .0656321
474.994 .0654971
475.863 .0653773
476.731 .0652764
477.599 .0651934
478.465 .0651260
479.331 .0650681
480.195 .0650157
481.059 .0649638
481.921 .0649073
482.783 .0648572
483.643 .0648176
484.503 .0647922
485.362 .0647799
486.220 .0647876
487.077 .0648132
487.933 .0648487
488.788 .0648882
489.642 .0649233
490.496 .0649523
491.348 .0649700
492.200 .0649774
493.050 .0649800
493.900 .0649817
494.749 .0649907
495.597 .0650108
496.445 .0650460
497.291 .0650870
498.136 .0651315
498.981 .0651780
499.825 .0652231
500.668 .0652672
501.510 .0653032
502.352 .0653384
503.192 .0653779
504.032 .0654274
504.871 .0654814
505.709 .0655538
506.546 .0656423
507.383 .0657434
508.219 .0658612
509.054 .0659948
509.888 .0661359
510.722 .0662897
511.554 .0664564
512.386 .0666404
513.217 .0668360
514.048 .0670588
514.877 .0673042
515.706 .0675885
516.535 .0679031
517.362 .0682585
518.189 .0686444
519.015 .0690705
519.840 .0695215
520.665 .0699967
521.489 .0704950
522.312 .0710073
523.134 .0715315
523.956 .0720805
524.777 .0726448
525.598 .0732325
526.417 .0737999
527.236 .0743608
528.055 .0748870
528.872 .0753608
529.690 .0757773
530.506 .0761483
531.322 .0764604
532.137 .0767206
532.951 .0769185
533.765 .0770689
534.578 .0771627
535.391 .0771962
536.203 .0771491
537.014 .0770236
537.824 .0768102
538.634 .0765101
539.444 .0761321
540.253 .0757311
541.061 .0752901
541.868 .0748241
542.675 .0743357
543.482 .0738256
544.288 .0733060
545.093 .0727623
545.897 .0721922
546.702 .0716190
547.505 .0710363
548.308 .0704499
549.110 .0698684
549.912 .0693138
550.713 .0687850
551.514 .0682841
552.314 .0678056
553.114 .0673436
553.913 .0669085
554.711 .0664998
555.509 .0661088
556.306 .0657462
557.103 .0654104
557.900 .0650856
558.695 .0647754
559.491 .0644803
560.285 .0641839
561.080 .0639049
561.873 .0636413
562.667 .0633903
563.459 .0631568
564.252 .0629465
565.043 .0627474
565.835 .0625571
566.625 .0623735
567.416 .0621805
568.205 .0619779
568.995 .0617692
569.783 .0615467
570.572 .0613192
571.360 .0610858
572.147 .0608486
572.934 .0606050
573.720 .0603580
574.506 .0601026
575.292 .0598422
576.077 .0595807
576.862 .0593179
577.646 .0590598
578.429 .0588048
579.213 .0585624
579.996 .0583333
580.778 .0581134
581.560 .0579023
582.341 .0577009
583.123 .0575091
583.903 .0573254
584.684 .0571543
585.463 .0569944
586.243 .0568473
587.022 .0567139
587.800 .0565857
588.578 .0564666
589.356 .0563545
590.134 .0562463
590.911 .0561416
591.687 .0560431
592.463 .0559495
593.239 .0558601
594.014 .0557777
594.789 .0557025
595.564 .0556330
596.338 .0555690
597.112 .0555080
597.885 .0554501
598.658 .0553932
599.431 .0553372
600.203 .0552827
600.975 .0552301
601.747 .0551800
602.518 .0551322
603.289 .0550885
604.059 .0550486
604.829 .0550128
605.599 .0549778
606.369 .0549445
607.138 .0549116
607.906 .0548779
608.675 .0548422
609.443 .0548067
610.210 .0547717
610.977 .0547370
611.744 .0547046
612.511 .0546752
613.277 .0546471
614.043 .0546226
614.809 .0545983
615.574 .0545747
616.339 .0545508
617.104 .0545263
617.868 .0544997
618.632 .0544731
619.395 .0544464
620.159 .0544194
620.922 .0543930
621.684 .0543684
622.447 .0543445
623.209 .0543210
623.970 .0542980
624.732 .0542745
625.493 .0542497
626.254 .0542235
627.014 .0541947
627.774 .0541643
628.534 .0541319
629.294 .0540965
630.053 .0540577
630.812 .0540159
631.571 .0539713
632.329 .0539227
633.087 .0538704
633.845 .0538142
634.602 .0537551
635.359 .0536936
636.116 .0536305
636.873 .0535658
637.629 .0535009
638.385 .0534357
639.141 .0533706
639.897 .0533048
640.652 .0532393
641.407 .0531729
642.161 .0531064
642.916 .0530394
643.670 .0529730
644.424 .0529073
645.177 .0528441
645.931 .0527840
646.684 .0527271
647.436 .0526723
648.189 .0526184
648.941 .0525641
649.693 .0525096
650.445 .0524537
651.196 .0523958
651.947 .0523358
652.698 .0522758
653.449 .0522153
654.199 .0521549
654.949 .0520956
655.699 .0520390
656.449 .0519854
657.198 .0519342
657.947 .0518850
658.696 .0518378
659.445 .0517944
660.193 .0517541
660.941 .0517164
661.689 .0516813
662.436 .0516490
663.184 .0516184
663.931 .0515899
664.678 .0515634
665.424 .0515377
666.171 .0515128
666.917 .0514884
667.663 .0514640
668.408 .0514388
669.154 .0514125
669.899 .0513849
670.644 .0513554
671.388 .0513242
672.133 .0512894
672.877 .0512521
673.621 .0512134
674.365 .0511739
675.108 .0511335
675.851 .0510929
676.594 .0510540
677.337 .0510158
678.080 .0509787
678.822 .0509427
679.564 .0509082
680.306 .0508749
681.047 .0508425
681.789 .0508106
682.530 .0507793
683.271 .0507483
684.012 .0507172
684.752 .0506859
685.492 .0506543
686.232 .0506221
686.972 .0505899
687.712 .0505568
688.451 .0505242
689.190 .0504906
689.929 .0504571
690.667 .0504230
691.406 .0503887
692.144 .0503537
692.882 .0503177
693.620 .0502815
694.357 .0502448
695.095 .0502071
695.832 .0501695
696.569 .0501315
697.305 .0500936
698.042 .0500549
698.778 .0500161
699.514 .0499760
700.249 .0499351
700.985 .0498923
701.720 .0498474
702.455 .0497999
703.190 .0497503
703.925 .0496987
704.659 .0496459
705.393 .0495922
706.127 .0495378
706.861 .0494829
707.595 .0494284
708.328 .0493742
709.061 .0493206
709.794 .0492668
710.527 .0492138
711.259 .0491618
711.991 .0491105
712.723 .0490604
713.455 .0490124
714.186 .0489666
714.918 .0489228
715.649 .0488809
716.380 .0488403
717.110 .0488007
717.841 .0487622
718.571 .0487241
719.301 .0486862
720.031 .0486493
720.760 .0486127
721.490 .0485765
722.219 .0485414
722.948 .0485070
723.676 .0484724
724.405 .0484384
725.133 .0484040
725.861 .0483693
726.589 .0483342
727.317 .0482989
728.044 .0482642
728.771 .0482305
729.498 .0481978
730.225 .0481666
730.951 .0481369
731.677 .0481091
732.403 .0480823
733.129 .0480569
733.855 .0480325
734.580 .0480092
735.305 .0479865
736.030 .0479643
736.755 .0479430
737.479 .0479229
738.203 .0479030
738.927 .0478840
739.651 .0478653
740.375 .0478461
741.098 .0478269
741.821 .0478068
742.544 .0477863
743.267 .0477656
743.989 .0477453
744.711 .0477254
745.433 .0477060
746.155 .0476879
746.877 .0476702
747.598 .0476535
748.319 .0476374
749.040 .0476207
749.760 .0476034
750.481 .0475857
751.201 .0475669
751.921 .0475475
752.640 .0475281
753.360 .0475084
754.079 .0474896
754.798 .0474712
755.517 .0474532
756.235 .0474354
756.953 .0474175
757.671 .0473994
758.389 .0473799
759.107 .0473597
759.824 .0473381
760.541 .0473158
761.258 .0472933
761.974 .0472706
762.691 .0472488
763.407 .0472280
764.123 .0472083
764.838 .0471896
765.554 .0471712
766.269 .0471524
766.984 .0471328
767.699 .0471112
768.413 .0470869
769.127 .0470597
769.841 .0470300
770.555 .0469984
771.268 .0469657
771.982 .0469333
772.694 .0469011
773.407 .0468698
774.120 .0468391
774.832 .0468078
775.544 .0467766
776.256 .0467450
776.967 .0467123
777.678 .0466793
778.389 .0466459
779.100 .0466123
779.810 .0465791
780.521 .0465471
781.231 .0465157
781.940 .0464850
782.650 .0464544
783.359 .0464232
784.068 .0463908
784.776 .0463577
785.485 .0463229
786.193 .0462873
786.901 .0462508
787.609 .0462132
788.316 .0461750
789.023 .0461370
789.730 .0460990
790.436 .0460615
791.143 .0460244
791.849 .0459883
792.555 .0459531
793.260 .0459189
793.965 .0458858
794.670 .0458539
795.375 .0458231
796.080 .0457933
796.784 .0457637
797.488 .0457342
798.191 .0457045
798.895 .0456745
799.598 .0456440
800.301 .0456130
801.003 .0455816
801.705 .0455499
802.408 .0455182
803.109 .0454864
803.811 .0454546
804.512 .0454226
805.213 .0453906
805.913 .0453580
806.614 .0453248
807.314 .0452908
808.014 .0452559
808.713 .0452208
809.412 .0451861
810.111 .0451514
810.810 .0451177
811.508 .0450849
812.206 .0450531
812.904 .0450217
813.602 .0449907
814.299 .0449598
814.996 .0449291
815.692 .0448986
816.389 .0448685
817.085 .0448386
817.781 .0448093
818.476 .0447805
819.171 .0447526
819.866 .0447257
820.561 .0446989
821.255 .0446719
821.949 .0446449
822.643 .0446181
823.336 .0445920
824.029 .0445665
824.722 .0445423
825.415 .0445196
826.107 .0444976
826.799 .0444760
827.490 .0444547
828.182 .0444339
828.873 .0444132
829.563 .0443928
830.254 .0443733
830.944 .0443547
831.634 .0443379
832.323 .0443233
833.012 .0443106
833.701 .0442997
834.390 .0442902
835.078 .0442815
835.766 .0442737
836.453 .0442669
837.141 .0442604
837.828 .0442550
838.514 .0442510
839.201 .0442479
839.887 .0442452
840.572 .0442429
841.258 .0442405
841.943 .0442377
842.628 .0442343
843.312 .0442298
843.996 .0442243
844.680 .0442181
845.363 .0442109
846.046 .0442026
846.729 .0441934
847.412 .0441833
848.094 .0441720
848.776 .0441599
849.457 .0441467
850.139 .0441333
850.819 .0441200
851.500 .0441072
852.180 .0440954
852.860 .0440848
853.540 .0440763
854.219 .0440691
854.898 .0440635
855.576 .0440589
856.254 .0440553
856.932 .0440526
857.610 .0440503
858.287 .0440483
858.964 .0440463
859.640 .0440440
860.317 .0440415
860.993 .0440378
861.668 .0440338
862.343 .0440284
863.018 .0440217
863.693 .0440136
864.367 .0440037
865.041 .0439918
865.714 .0439782
866.387 .0439628
867.060 .0439457
867.732 .0439270
868.404 .0439071
869.076 .0438859
869.748 .0438637
870.419 .0438408
871.089 .0438167
871.760 .0437919
872.430 .0437669
873.099 .0437410
873.769 .0437148
874.438 .0436886
875.106 .0436616
875.774 .0436350
876.442 .0436080
877.110 .0435807
877.777 .0435530
878.444 .0435251
879.110 .0434970
879.776 .0434684
880.442 .0434404
881.108 .0434131
881.773 .0433867
882.437 .0433619
883.102 .0433382
883.766 .0433157
884.429 .0432938
885.093 .0432720
885.755 .0432498
886.418 .0432265
887.080 .0432015
887.742 .0431745
888.403 .0431456
889.064 .0431153
889.725 .0430832
890.385 .0430501
891.045 .0430170
891.705 .0429831
892.364 .0429479
893.023 .0429120
893.682 .0428746
894.340 .0428361
894.998 .0427961
895.655 .0427545
896.312 .0427119
896.969 .0426691
897.625 .0426264
898.281 .0425839
898.937 .0425427
899.592 .0425029
900.247 .0424642
900.901 .0424274
901.555 .0423916
902.209 .0423565
902.862 .0423227
903.515 .0422902
904.168 .0422587
904.820 .0422285
905.472 .0421997
906.123 .0421723
906.774 .0421466
907.425 .0421217
908.076 .0420972
908.726 .0420729
909.375 .0420484
910.024 .0420224
910.673 .0419950
911.322 .0419664
911.970 .0419365
912.618 .0419060
913.265 .0418753
913.912 .0418436
914.558 .0418114
915.205 .0417780
915.850 .0417431
916.496 .0417058
917.141 .0416668
917.786 .0416256
918.430 .0415825
919.074 .0415380
919.718 .0414934
920.361 .0414491
921.004 .0414064
921.646 .0413651
922.288 .0413256
922.930 .0412872
923.571 .0412492
924.212 .0412108
924.853 .0411720
925.493 .0411327
926.133 .0410929
926.772 .0410528
927.411 .0410134
928.050 .0409746
928.688 .0409369
929.326 .0409008
929.963 .0408664
930.600 .0408335
931.237 .0408024
931.874 .0407733
932.510 .0407462
933.145 .0407204
933.780 .0406956
934.415 .0406724
935.050 .0406505
935.684 .0406301
936.318 .0406107
936.951 .0405927
937.584 .0405758
938.217 .0405597
938.849 .0405442
939.481 .0405287
940.112 .0405130
940.743 .0404968
941.374 .0404800
942.004 .0404629
942.634 .0404459
943.264 .0404287
943.893 .0404122
944.522 .0403966
945.150 .0403815
945.778 .0403663
946.406 .0403514
947.033 .0403370
947.660 .0403228
948.287 .0403091
948.913 .0402962
949.539 .0402839
950.165 .0402734
950.790 .0402640
951.414 .0402562
952.039 .0402494
952.663 .0402431
953.286 .0402364
953.910 .0402291
954.533 .0402210
955.155 .0402117
955.777 .0402020
956.399 .0401934
957.020 .0401858
957.641 .0401801
958.262 .0401761
958.882 .0401737
959.502 .0401727
960.122 .0401720
960.741 .0401708
961.360 .0401693
961.979 .0401671
962.597 .0401643
963.214 .0401609
963.832 .0401576
964.449 .0401547
965.066 .0401529
965.682 .0401523
966.298 .0401528
966.914 .0401543
967.529 .0401564
968.144 .0401590
968.758 .0401614
969.373 .0401629
969.986 .0401641
970.600 .0401646
971.213 .0401649
971.826 .0401648
972.438 .0401642
973.050 .0401638
973.662 .0401639
974.274 .0401637
974.885 .0401627
975.495 .0401612
976.106 .0401593
976.716 .0401554
977.325 .0401504
977.935 .0401442
978.544 .0401368
979.152 .0401291
979.761 .0401212
980.369 .0401129
980.976 .0401055
981.584 .0400987
982.191 .0400928
982.797 .0400882
983.404 .0400847
984.010 .0400815
984.615 .0400786
985.221 .0400759
985.826 .0400718
986.430 .0400658
987.035 .0400589
987.639 .0400502
988.243 .0400400
988.846 .0400286
989.449 .0400168
990.052 .0400057
990.654 .0399947
991.256 .0399838
991.858 .0399729
992.460 .0399623
993.061 .0399514
993.662 .0399403
994.262 .0399301
994.863 .0399208
995.463 .0399127
996.062 .0399066
996.662 .0399022
997.261 .0398995
997.860 .0398985
998.458 .0398988
999.056 .0398994
999.654 .0399004
1000.252 .0399006
1000.849 .0399001
1001.446 .0398988
1002.043 .0398964
1002.639 .0398926
1003.235 .0398882
1003.831 .0398834
1004.427 .0398772
1005.022 .0398697
1005.617 .0398619
1006.212 .0398526
1006.806 .0398423
1007.401 .0398302
1007.995 .0398165
1008.588 .0398003
1009.182 .0397828
1009.775 .0397638
1010.368 .0397429
1010.960 .0397208
1011.553 .0396984
1012.145 .0396753
1012.737 .0396522
1013.328 .0396291
1013.920 .0396059
1014.511 .0395829
1015.102 .0395607
1015.692 .0395378
1016.283 .0395147
1016.873 .0394921
1017.463 .0394703
1018.052 .0394488
1018.642 .0394282
1019.231 .0394083
1019.820 .0393883
1020.409 .0393693
1020.997 .0393501
1021.585 .0393307
1022.173 .0393117
1022.761 .0392925
1023.349 .0392729
1023.936 .0392524
1024.524 .0392315
1025.111 .0392096
1025.697 .0391867
1026.284 .0391632
1026.870 .0391381
1027.457 .0391125
1028.043 .0390860
1028.628 .0390593
1029.214 .0390319
1029.800 .0390041
1030.385 .0389767
1030.970 .0389491
1031.555 .0389219
1032.139 .0388953
1032.724 .0388694
1033.308 .0388433
1033.893 .0388180
1034.477 .0387931
1035.060 .0387681
1035.644 .0387441
1036.228 .0387205
1036.811 .0386973
1037.394 .0386743
1037.977 .0386517
1038.560 .0386288
1039.143 .0386059
1039.726 .0385829
1040.308 .0385579
1040.891 .0385324
1041.473 .0385051
1042.055 .0384754
1042.637 .0384443
1043.219 .0384121
1043.801 .0383785
1044.382 .0383442
1044.964 .0383108
1045.545 .0382775
1046.127 .0382459
1046.708 .0382159
1047.289 .0381859
1047.870 .0381569
1048.451 .0381282
1049.032 .0380989
1049.612 .0380694
1050.193 .0380405
1050.774 .0380127
1051.354 .0379858
1051.935 .0379619
1052.515 .0379397
1053.095 .0379204
1053.675 .0379037
1054.256 .0378886
1054.836 .0378729
1055.416 .0378569
1055.996 .0378407
1056.576 .0378237
1057.156 .0378067
1057.735 .0377908
1058.315 .0377775
1058.895 .0377688
1059.475 .0377634
1060.055 .0377608
1060.634 .0377582
1061.214 .0377555
1061.794 .0377503
1062.373 .0377416
1062.953 .0377293
1063.533 .0377145
1064.113 .0376980
1064.692 .0376808
1065.272 .0376637
1065.852 .0376472
1066.431 .0376309
1067.011 .0376147
1067.591 .0375963
1068.171 .0375747
1068.751 .0375505
1069.331 .0375258
1069.910 .0374995
1070.490 .0374743
1071.071 .0374517
1071.651 .0374325
1072.231 .0374174
1072.811 .0374063
1073.391 .0373981
1073.972 .0373933
1074.552 .0373901
1075.133 .0373880
1075.713 .0373845
1076.294 .0373819
1076.875 .0373801
1077.456 .0373801
1078.037 .0373829
1078.618 .0373876
1079.199 .0373952
1079.780 .0374049
1080.362 .0374156
1080.943 .0374263
1081.525 .0374343
1082.107 .0374390
1082.689 .0374400
1083.271 .0374374
1083.853 .0374303
1084.436 .0374234
1085.018 .0374182
1085.601 .0374147
1086.184 .0374137
1086.767 .0374149
1087.351 .0374165
1087.934 .0374176
1088.518 .0374179
1089.102 .0374131
1089.686 .0374072
1090.270 .0374013
1090.855 .0373934
1091.439 .0373871
1092.024 .0373838
1092.609 .0373826
1093.195 .0373830
1093.780 .0373856
1094.366 .0373888
1094.952 .0373906
1095.539 .0373943
1096.125 .0373976
1096.712 .0374035
1097.299 .0374127
1097.887 .0374259
1098.475 .0374400
1099.063 .0374572
1099.651 .0374752
1100.239 .0374930
1100.828 .0375131
1101.417 .0375339
1102.007 .0375581
1102.597 .0375879
1103.187 .0376229
1103.777 .0376621
1104.368 .0377020
1104.959 .0377423
1105.551 .0377758
1106.143 .0378007
1106.735 .0378152
1107.328 .0378184
1107.921 .0378151
1108.514 .0378078
1109.108 .0378008
1109.702 .0377972
1110.296 .0377989
1110.891 .0378031
1111.486 .0378110
1112.082 .0378187
1112.678 .0378244
1113.275 .0378259
1113.872 .0378261
1114.469 .0378274
1115.067 .0378326
1115.665 .0378455
1116.264 .0378728
1116.864 .0379137
1117.463 .0379729
1118.063 .0380435
1118.664 .0381260
1119.265 .0382153
1119.867 .0383089
1120.469 .0384008
1121.072 .0384906
1121.675 .0385780
1122.279 .0386613
1122.883 .0387394
1123.488 .0388192
1124.093 .0388979
1124.699 .0389772
1125.305 .0390534
1125.912 .0391289
1126.520 .0391998
1127.128 .0392694
1127.737 .0393317
1128.346 .0393875
1128.956 .0394417
1129.567 .0394929
1130.178 .0395401
1130.790 .0395905
1131.402 .0396484
1132.015 .0397158
1132.629 .0397955
1133.243 .0398904
1133.858 .0400001
1134.474 .0401251
1135.090 .0402635
1135.707 .0404156
1136.325 .0405770
1136.943 .0407421
1137.562 .0409036
1138.182 .0410690
1138.802 .0412340
1139.423 .0414037
1140.045 .0415765
1140.668 .0417505
1141.291 .0419326
1141.916 .0420758
1142.540 .0424489
1143.166 .0425591
1143.793 .0426108
1144.420 .0428469
1145.048 .0418691
