Measurement Sequence started on: 10-20-44-796
Integration time: 35
Scans to Average: 2 
>>>>>Begin Spectral Data<<<<<
432.953 .0242477
433.882 .0378134
434.810 .0353116
435.737 .0327683
436.662 .0329928
437.586 .0340857
438.509 .0345001
439.431 .0345325
440.351 .0346701
441.269 .0348437
442.187 .0349699
443.103 .0350265
444.018 .0350756
444.932 .0351031
445.844 .0351118
446.756 .0351097
447.666 .0351048
448.575 .0350775
449.482 .0350317
450.388 .0349655
451.294 .0348865
452.198 .0347897
453.100 .0346899
454.002 .0345834
454.902 .0344764
455.801 .0343609
456.699 .0342509
457.596 .0341422
458.492 .0340411
459.387 .0339429
460.280 .0338577
461.172 .0337751
462.064 .0337000
462.954 .0336286
463.843 .0335617
464.730 .0335023
465.617 .0334498
466.503 .0333975
467.387 .0333526
468.271 .0333141
469.153 .0332821
470.035 .0332507
470.915 .0332251
471.794 .0331974
472.673 .0331734
473.550 .0331514
474.426 .0331344
475.301 .0331188
476.175 .0331101
477.048 .0331011
477.920 .0330903
478.791 .0330795
479.661 .0330670
480.530 .0330523
481.398 .0330397
482.266 .0330267
483.132 .0330140
483.997 .0330019
484.861 .0329919
485.724 .0329831
486.587 .0329749
487.448 .0329611
488.308 .0329403
489.168 .0329120
490.026 .0328767
490.884 .0328300
491.741 .0327774
492.597 .0327227
493.452 .0326646
494.306 .0326029
495.159 .0325393
496.011 .0324763
496.862 .0324116
497.713 .0323412
498.562 .0322642
499.411 .0321809
500.259 .0320910
501.106 .0319956
501.952 .0318965
502.798 .0317977
503.642 .0317008
504.486 .0316057
505.329 .0315134
506.171 .0314245
507.012 .0313390
507.852 .0312513
508.692 .0311624
509.531 .0310657
510.369 .0309555
511.206 .0308347
512.043 .0307018
512.878 .0305590
513.713 .0304061
514.547 .0302495
515.381 .0300904
516.213 .0299330
517.045 .0297775
517.876 .0296151
518.706 .0294456
519.536 .0292688
520.365 .0290741
521.193 .0288606
522.020 .0286336
522.847 .0283959
523.673 .0281527
524.498 .0279121
525.323 .0276790
526.146 .0274578
526.969 .0272539
527.792 .0270677
528.614 .0268892
529.435 .0267286
530.255 .0265796
531.075 .0264358
531.894 .0263136
532.712 .0262086
533.530 .0261211
534.347 .0260530
535.163 .0260060
535.979 .0259786
536.794 .0259636
537.608 .0259631
538.422 .0259757
539.235 .0260026
540.048 .0260439
540.860 .0260856
541.671 .0261360
542.481 .0261957
543.292 .0262543
544.101 .0263091
544.910 .0263602
545.718 .0264103
546.526 .0264597
547.333 .0265088
548.139 .0265644
548.945 .0266236
549.750 .0266876
550.555 .0267538
551.359 .0268124
552.162 .0268626
552.965 .0269048
553.768 .0269416
554.569 .0269753
555.371 .0270070
556.171 .0270415
556.972 .0270836
557.771 .0271367
558.570 .0271960
559.369 .0272568
560.167 .0273250
560.964 .0273948
561.761 .0274615
562.558 .0275246
563.354 .0275900
564.149 .0276579
564.944 .0277303
565.738 .0278045
566.532 .0278808
567.325 .0279575
568.118 .0280338
568.910 .0281038
569.702 .0281693
570.494 .0282297
571.285 .0282831
572.075 .0283351
572.865 .0283879
573.654 .0284393
574.443 .0284945
575.232 .0285521
576.020 .0286138
576.807 .0286761
577.594 .0287370
578.381 .0287990
579.167 .0288605
579.952 .0289230
580.738 .0289842
581.522 .0290462
582.307 .0291099
583.091 .0291733
583.874 .0292352
584.657 .0292956
585.440 .0293529
586.222 .0294078
587.004 .0294572
587.785 .0295031
588.566 .0295451
589.346 .0295831
590.126 .0296167
590.906 .0296452
591.685 .0296687
592.464 .0296881
593.242 .0297019
594.020 .0297115
594.797 .0297175
595.575 .0297197
596.351 .0297185
597.128 .0297148
597.904 .0297085
598.679 .0297002
599.454 .0296903
600.229 .0296797
601.004 .0296673
601.778 .0296542
602.551 .0296397
603.325 .0296253
604.097 .0296109
604.870 .0295961
605.642 .0295817
606.414 .0295685
607.185 .0295562
607.956 .0295455
608.727 .0295368
609.497 .0295303
610.267 .0295248
611.037 .0295197
611.806 .0295130
612.575 .0295044
613.344 .0294945
614.112 .0294828
614.880 .0294692
615.647 .0294546
616.414 .0294384
617.181 .0294222
617.948 .0294062
618.714 .0293908
619.480 .0293762
620.245 .0293622
621.011 .0293487
621.775 .0293347
622.540 .0293200
623.304 .0293049
624.068 .0292899
624.832 .0292750
625.595 .0292599
626.358 .0292444
627.120 .0292294
627.883 .0292146
628.645 .0292006
629.406 .0291874
630.168 .0291748
630.929 .0291633
631.689 .0291516
632.450 .0291392
633.210 .0291263
633.970 .0291118
634.729 .0290960
635.489 .0290785
636.248 .0290601
637.006 .0290409
637.765 .0290218
638.523 .0290041
639.280 .0289878
640.038 .0289723
640.795 .0289580
641.552 .0289445
642.309 .0289313
643.065 .0289182
643.821 .0289038
644.577 .0288885
645.332 .0288729
646.088 .0288570
646.843 .0288403
647.597 .0288232
648.352 .0288068
649.106 .0287903
649.860 .0287737
650.613 .0287574
651.367 .0287409
652.120 .0287248
652.872 .0287090
653.625 .0286934
654.377 .0286778
655.129 .0286624
655.881 .0286470
656.632 .0286307
657.384 .0286138
658.135 .0285956
658.885 .0285763
659.636 .0285564
660.386 .0285362
661.136 .0285156
661.885 .0284952
662.635 .0284760
663.384 .0284577
664.133 .0284401
664.881 .0284230
665.630 .0284066
666.378 .0283907
667.126 .0283752
667.874 .0283594
668.621 .0283435
669.368 .0283283
670.115 .0283135
670.862 .0282985
671.608 .0282845
672.354 .0282715
673.100 .0282598
673.846 .0282494
674.591 .0282401
675.337 .0282316
676.082 .0282239
676.826 .0282160
677.571 .0282077
678.315 .0281988
679.059 .0281890
679.803 .0281777
680.547 .0281658
681.290 .0281535
682.033 .0281405
682.776 .0281275
683.518 .0281146
684.261 .0281014
685.003 .0280884
685.745 .0280752
686.487 .0280622
687.228 .0280494
687.969 .0280368
688.710 .0280238
689.451 .0280110
690.192 .0279981
690.932 .0279850
691.672 .0279713
692.412 .0279575
693.152 .0279438
693.891 .0279299
694.630 .0279170
695.369 .0279051
696.108 .0278943
696.846 .0278844
697.585 .0278746
698.323 .0278651
699.061 .0278547
699.798 .0278433
700.536 .0278309
701.273 .0278172
702.010 .0278027
702.746 .0277871
703.483 .0277710
704.219 .0277550
704.955 .0277391
705.691 .0277235
706.427 .0277080
707.162 .0276929
707.897 .0276778
708.632 .0276625
709.367 .0276472
710.101 .0276318
710.835 .0276157
711.569 .0275993
712.303 .0275822
713.037 .0275643
713.770 .0275463
714.503 .0275279
715.236 .0275097
715.969 .0274918
716.702 .0274742
717.434 .0274572
718.166 .0274402
718.898 .0274237
719.629 .0274066
720.361 .0273890
721.092 .0273713
721.823 .0273522
722.554 .0273323
723.284 .0273120
724.014 .0272910
724.744 .0272698
725.474 .0272481
726.204 .0272267
726.933 .0272052
727.662 .0271838
728.391 .0271621
729.120 .0271406
729.849 .0271195
730.577 .0270982
731.305 .0270768
732.033 .0270560
732.760 .0270355
733.488 .0270159
734.215 .0269975
734.942 .0269801
735.669 .0269637
736.395 .0269482
737.122 .0269330
737.848 .0269174
738.573 .0269015
739.299 .0268845
740.024 .0268666
740.750 .0268484
741.474 .0268300
742.199 .0268113
742.924 .0267935
743.648 .0267762
744.372 .0267591
745.096 .0267424
745.819 .0267254
746.543 .0267081
747.266 .0266910
747.989 .0266742
748.711 .0266579
749.434 .0266431
750.156 .0266308
750.878 .0266203
751.599 .0266127
752.321 .0266072
753.042 .0266038
753.763 .0266023
754.484 .0266020
755.205 .0266024
755.925 .0266032
756.645 .0266041
757.365 .0266045
758.085 .0266046
758.804 .0266042
759.523 .0266024
760.242 .0265992
760.961 .0265945
761.679 .0265879
762.397 .0265794
763.115 .0265693
763.833 .0265569
764.551 .0265431
765.268 .0265276
765.985 .0265100
766.702 .0264908
767.418 .0264706
768.134 .0264492
768.850 .0264273
769.566 .0264054
770.282 .0263838
770.997 .0263629
771.712 .0263437
772.427 .0263257
773.142 .0263092
773.856 .0262940
774.570 .0262797
775.284 .0262661
775.998 .0262536
776.711 .0262418
777.424 .0262307
778.137 .0262208
778.849 .0262119
779.562 .0262040
780.274 .0261975
780.986 .0261921
781.697 .0261880
782.409 .0261848
783.120 .0261825
783.831 .0261802
784.541 .0261782
785.252 .0261764
785.962 .0261741
786.671 .0261711
787.381 .0261675
788.090 .0261636
788.799 .0261594
789.508 .0261551
790.217 .0261508
790.925 .0261465
791.633 .0261426
792.341 .0261379
793.048 .0261326
793.755 .0261260
794.462 .0261174
795.169 .0261069
795.875 .0260951
796.581 .0260828
797.287 .0260704
797.993 .0260593
798.698 .0260505
799.403 .0260438
800.108 .0260391
800.812 .0260357
801.517 .0260329
802.221 .0260300
802.924 .0260258
803.628 .0260198
804.331 .0260128
805.034 .0260055
805.736 .0259981
806.439 .0259916
807.141 .0259863
807.843 .0259825
808.544 .0259792
809.245 .0259762
809.946 .0259724
810.647 .0259672
811.347 .0259606
812.047 .0259523
812.747 .0259428
813.447 .0259326
814.146 .0259220
814.845 .0259119
815.543 .0259026
816.242 .0258940
816.940 .0258853
817.638 .0258769
818.335 .0258682
819.032 .0258586
819.729 .0258478
820.426 .0258361
821.122 .0258232
821.818 .0258093
822.514 .0257947
823.209 .0257800
823.905 .0257652
824.599 .0257507
825.294 .0257363
825.988 .0257219
826.682 .0257072
827.376 .0256921
828.069 .0256763
828.762 .0256602
829.455 .0256433
830.147 .0256264
830.840 .0256096
831.531 .0255939
832.223 .0255790
832.914 .0255650
833.605 .0255519
834.296 .0255393
834.986 .0255265
835.676 .0255135
836.366 .0255002
837.055 .0254868
837.744 .0254729
838.433 .0254595
839.121 .0254460
839.809 .0254332
840.497 .0254207
841.185 .0254087
841.872 .0253965
842.559 .0253845
843.245 .0253724
843.932 .0253604
844.617 .0253486
845.303 .0253374
845.988 .0253263
846.673 .0253158
847.358 .0253053
848.042 .0252950
848.726 .0252845
849.410 .0252739
850.093 .0252630
850.776 .0252515
851.459 .0252394
852.141 .0252269
852.823 .0252137
853.505 .0252002
854.186 .0251862
854.867 .0251714
855.548 .0251560
856.228 .0251403
856.908 .0251243
857.588 .0251080
858.267 .0250921
858.946 .0250764
859.625 .0250608
860.303 .0250455
860.981 .0250304
861.659 .0250156
862.336 .0250012
863.013 .0249867
863.690 .0249717
864.366 .0249571
865.042 .0249424
865.718 .0249277
866.393 .0249133
867.068 .0248992
867.743 .0248851
868.417 .0248709
869.091 .0248566
869.765 .0248417
870.438 .0248264
871.111 .0248109
871.783 .0247950
872.456 .0247792
873.127 .0247638
873.799 .0247491
874.470 .0247354
875.141 .0247233
875.811 .0247119
876.481 .0247012
877.151 .0246915
877.820 .0246821
878.489 .0246726
879.158 .0246630
879.826 .0246533
880.494 .0246436
881.162 .0246340
881.829 .0246243
882.496 .0246143
883.163 .0246048
883.829 .0245953
884.495 .0245857
885.160 .0245761
885.825 .0245670
886.490 .0245588
887.154 .0245513
887.818 .0245446
888.482 .0245381
889.145 .0245319
889.808 .0245263
890.471 .0245205
891.133 .0245147
891.795 .0245090
892.456 .0245033
893.117 .0244980
893.778 .0244927
894.439 .0244878
895.099 .0244828
895.758 .0244777
896.417 .0244726
897.076 .0244669
897.735 .0244605
898.393 .0244541
899.051 .0244480
899.708 .0244421
900.365 .0244367
901.022 .0244320
901.678 .0244279
902.334 .0244248
902.990 .0244223
903.645 .0244201
904.300 .0244187
904.954 .0244180
905.608 .0244173
906.262 .0244169
906.915 .0244169
907.568 .0244166
908.221 .0244164
908.873 .0244167
909.525 .0244171
910.176 .0244178
910.828 .0244187
911.478 .0244196
912.129 .0244202
912.778 .0244202
913.428 .0244190
914.077 .0244167
914.726 .0244137
915.375 .0244098
916.023 .0244061
916.670 .0244036
917.318 .0244026
917.964 .0244033
918.611 .0244059
919.257 .0244095
919.903 .0244133
920.548 .0244168
921.193 .0244200
921.838 .0244230
922.482 .0244262
923.126 .0244298
923.770 .0244347
924.413 .0244406
925.056 .0244477
925.698 .0244553
926.340 .0244631
926.982 .0244699
927.623 .0244752
928.264 .0244784
928.904 .0244798
929.544 .0244795
930.184 .0244778
930.823 .0244748
931.462 .0244710
932.101 .0244657
932.739 .0244592
933.377 .0244512
934.014 .0244417
934.651 .0244310
935.288 .0244197
935.924 .0244077
936.560 .0243956
937.196 .0243840
937.831 .0243727
938.466 .0243616
939.100 .0243509
939.734 .0243400
940.368 .0243290
941.001 .0243186
941.634 .0243084
942.266 .0242989
942.899 .0242900
943.530 .0242818
944.162 .0242739
944.793 .0242664
945.423 .0242589
946.053 .0242509
946.683 .0242425
947.313 .0242340
947.942 .0242248
948.571 .0242149
949.199 .0242045
949.827 .0241931
950.455 .0241806
951.082 .0241670
951.709 .0241523
952.335 .0241368
952.961 .0241204
953.587 .0241036
954.212 .0240863
954.837 .0240689
955.462 .0240513
956.086 .0240337
956.710 .0240170
957.334 .0240004
957.957 .0239842
958.579 .0239683
959.202 .0239528
959.824 .0239373
960.445 .0239221
961.067 .0239072
961.688 .0238928
962.308 .0238794
962.928 .0238667
963.548 .0238547
964.168 .0238437
964.787 .0238336
965.406 .0238237
966.024 .0238144
966.642 .0238051
967.260 .0237955
967.877 .0237864
968.494 .0237777
969.110 .0237699
969.727 .0237629
970.342 .0237568
970.958 .0237513
971.573 .0237461
972.188 .0237410
972.802 .0237351
973.416 .0237285
974.030 .0237209
974.643 .0237119
975.256 .0237021
975.869 .0236915
976.481 .0236804
977.093 .0236693
977.705 .0236581
978.316 .0236473
978.927 .0236362
979.538 .0236253
980.148 .0236141
980.758 .0236028
981.367 .0235915
981.977 .0235797
982.586 .0235680
983.194 .0235566
983.802 .0235457
984.410 .0235355
985.018 .0235264
985.625 .0235185
986.232 .0235117
986.838 .0235064
987.445 .0235016
988.050 .0234973
988.656 .0234926
989.261 .0234872
989.866 .0234799
990.471 .0234712
991.075 .0234612
991.679 .0234498
992.282 .0234382
992.886 .0234267
993.489 .0234157
994.091 .0234053
994.694 .0233961
995.296 .0233876
995.897 .0233786
996.499 .0233690
997.100 .0233577
997.701 .0233452
998.301 .0233317
998.901 .0233176
999.501 .0233033
1000.101 .0232894
1000.700 .0232767
1001.299 .0232645
1001.898 .0232540
1002.496 .0232448
1003.094 .0232367
1003.692 .0232287
1004.289 .0232210
1004.887 .0232133
1005.484 .0232051
1006.080 .0231970
1006.677 .0231892
1007.273 .0231811
1007.868 .0231735
1008.464 .0231659
1009.059 .0231590
1009.654 .0231527
1010.249 .0231479
1010.843 .0231435
1011.437 .0231403
1012.031 .0231378
1012.625 .0231358
1013.218 .0231340
1013.811 .0231328
1014.404 .0231316
1014.997 .0231300
1015.589 .0231282
1016.181 .0231258
1016.773 .0231228
1017.365 .0231193
1017.956 .0231147
1018.547 .0231097
1019.138 .0231044
1019.728 .0230989
1020.319 .0230936
1020.909 .0230889
1021.499 .0230846
1022.088 .0230804
1022.678 .0230763
1023.267 .0230717
1023.856 .0230663
1024.445 .0230602
1025.033 .0230534
1025.621 .0230459
1026.209 .0230386
1026.797 .0230314
1027.385 .0230247
1027.972 .0230190
1028.560 .0230136
1029.147 .0230078
1029.734 .0230025
1030.320 .0229966
1030.907 .0229901
1031.493 .0229829
1032.079 .0229754
1032.665 .0229668
1033.250 .0229577
1033.836 .0229488
1034.421 .0229397
1035.006 .0229311
1035.591 .0229232
1036.176 .0229157
1036.761 .0229089
1037.345 .0229028
1037.929 .0228967
1038.514 .0228906
1039.097 .0228852
1039.681 .0228800
1040.265 .0228753
1040.848 .0228716
1041.432 .0228694
1042.015 .0228685
1042.598 .0228689
1043.181 .0228708
1043.764 .0228728
1044.346 .0228750
1044.929 .0228762
1045.511 .0228769
1046.094 .0228770
1046.676 .0228771
1047.258 .0228784
1047.840 .0228814
1048.422 .0228871
1049.003 .0228942
1049.585 .0229019
1050.166 .0229093
1050.748 .0229157
1051.329 .0229198
1051.910 .0229197
1052.491 .0229168
1053.072 .0229116
1053.653 .0229060
1054.234 .0229007
1054.815 .0228962
1055.396 .0228935
1055.976 .0228915
1056.557 .0228895
1057.138 .0228854
1057.718 .0228795
1058.298 .0228716
1058.879 .0228619
1059.459 .0228513
1060.039 .0228404
1060.620 .0228306
1061.200 .0228227
1061.780 .0228185
1062.360 .0228165
1062.940 .0228161
1063.520 .0228157
1064.101 .0228143
1064.681 .0228109
1065.261 .0228030
1065.841 .0227913
1066.421 .0227780
1067.001 .0227630
1067.581 .0227477
1068.161 .0227327
1068.741 .0227215
1069.321 .0227138
1069.901 .0227101
1070.482 .0227081
1071.062 .0227090
1071.642 .0227107
1072.222 .0227131
1072.803 .0227147
1073.383 .0227175
1073.963 .0227200
1074.544 .0227247
1075.124 .0227302
1075.705 .0227373
1076.286 .0227447
1076.866 .0227534
1077.447 .0227612
1078.028 .0227691
1078.609 .0227745
1079.190 .0227791
1079.771 .0227819
1080.352 .0227838
1080.934 .0227836
1081.515 .0227836
1082.097 .0227835
1082.679 .0227861
1083.260 .0227896
1083.842 .0227963
1084.424 .0228066
1085.007 .0228213
1085.589 .0228378
1086.172 .0228563
1086.754 .0228754
1087.337 .0228934
1087.920 .0229096
1088.503 .0229251
1089.087 .0229369
1089.670 .0229496
1090.254 .0229622
1090.838 .0229737
1091.422 .0229854
1092.006 .0229981
1092.590 .0230087
1093.175 .0230179
1093.760 .0230254
1094.345 .0230292
1094.930 .0230301
1095.516 .0230309
1096.102 .0230309
1096.688 .0230323
1097.274 .0230361
1097.860 .0230415
1098.447 .0230476
1099.034 .0230548
1099.622 .0230578
1100.209 .0230578
1100.797 .0230544
1101.385 .0230458
1101.973 .0230330
1102.562 .0230189
1103.151 .0230038
1103.740 .0229903
1104.330 .0229776
1104.920 .0229675
1105.510 .0229604
1106.101 .0229564
1106.691 .0229538
1107.283 .0229544
1107.874 .0229576
1108.466 .0229631
1109.058 .0229705
1109.651 .0229834
1110.244 .0229970
1110.837 .0230129
1111.431 .0230296
1112.025 .0230461
1112.620 .0230619
1113.215 .0230776
1113.810 .0230928
1114.406 .0231094
1115.002 .0231281
1115.599 .0231483
1116.196 .0231695
1116.793 .0231929
1117.391 .0232146
1117.989 .0232320
1118.588 .0232462
1119.187 .0232549
1119.787 .0232583
1120.387 .0232601
1120.988 .0232629
1121.589 .0232686
1122.190 .0232767
1122.793 .0232873
1123.395 .0232993
1123.998 .0233119
1124.602 .0233250
1125.206 .0233362
1125.811 .0233511
1126.416 .0233678
1127.022 .0233855
1127.628 .0234049
1128.235 .0234280
1128.843 .0234523
1129.451 .0234769
1130.059 .0234967
1130.669 .0235142
1131.278 .0235266
1131.889 .0235371
1132.500 .0235444
1133.112 .0235537
1133.724 .0235693
1134.337 .0235908
1134.950 .0236170
1135.564 .0236486
1136.179 .0236829
1136.795 .0237215
1137.411 .0237626
1138.028 .0238075
1138.645 .0238555
1139.263 .0239168
1139.882 .0239897
1140.502 .0240798
1141.122 .0241856
1141.743 .0243023
1142.365 .0244311
1142.987 .0245553
1143.611 .0248027
1144.235 .0248647
1144.859 .0248746
1145.485 .0250978
