Measurement Sequence started on: 10-20-44-796
Integration time: 35
Scans to Average: 2 
>>>>>Begin Spectral Data<<<<<
432.953 .0374180
433.882 .0303320
434.810 .0309617
435.737 .0331794
436.662 .0296965
437.586 .0318091
438.509 .0318578
439.431 .0322007
440.351 .0325563
441.269 .0328694
442.187 .0332477
443.103 .0335545
444.018 .0338006
444.932 .0340108
445.844 .0341866
446.756 .0343404
447.666 .0344690
448.575 .0345703
449.482 .0346528
450.388 .0347068
451.294 .0347350
452.198 .0347330
453.100 .0347004
454.002 .0346580
454.902 .0346189
455.801 .0345808
456.699 .0345512
457.596 .0345352
458.492 .0345255
459.387 .0345142
460.280 .0345104
461.172 .0345031
462.064 .0344924
462.954 .0344714
463.843 .0344376
464.730 .0343986
465.617 .0343575
466.503 .0343148
467.387 .0342722
468.271 .0342304
469.153 .0341854
470.035 .0341313
470.915 .0340775
471.794 .0340225
472.673 .0339659
473.550 .0339112
474.426 .0338639
475.301 .0338231
476.175 .0337923
477.048 .0337675
477.920 .0337518
478.791 .0337433
479.661 .0337379
480.530 .0337346
481.398 .0337354
482.266 .0337439
483.132 .0337600
483.997 .0337831
484.861 .0338132
485.724 .0338459
486.587 .0338760
487.448 .0338977
488.308 .0339088
489.168 .0339068
490.026 .0338891
490.884 .0338597
491.741 .0338218
492.597 .0337795
493.452 .0337339
494.306 .0336889
495.159 .0336448
496.011 .0335994
496.862 .0335489
497.713 .0334887
498.562 .0334158
499.411 .0333314
500.259 .0332351
501.106 .0331311
501.952 .0330258
502.798 .0329258
503.642 .0328352
504.486 .0327572
505.329 .0326908
506.171 .0326337
507.012 .0325801
507.852 .0325274
508.692 .0324668
509.531 .0323930
510.369 .0323093
511.206 .0322156
512.043 .0321181
512.878 .0320196
513.713 .0319257
514.547 .0318366
515.381 .0317538
516.213 .0316724
517.045 .0315857
517.876 .0314872
518.706 .0313717
519.536 .0312355
520.365 .0310833
521.193 .0309133
522.020 .0307330
522.847 .0305446
523.673 .0303587
524.498 .0301723
525.323 .0299866
526.146 .0298053
526.969 .0296312
527.792 .0294566
528.614 .0292858
529.435 .0291169
530.255 .0289594
531.075 .0288069
531.894 .0286687
532.712 .0285435
533.530 .0284310
534.347 .0283333
535.163 .0282460
535.979 .0281747
536.794 .0281276
537.608 .0280920
538.422 .0280670
539.235 .0280541
540.048 .0280469
540.860 .0280345
541.671 .0280232
542.481 .0280088
543.292 .0279894
544.101 .0279666
544.910 .0279452
545.718 .0279204
546.526 .0279030
547.333 .0278917
548.139 .0278803
548.945 .0278814
549.750 .0278874
550.555 .0278941
551.359 .0279109
552.162 .0279362
552.965 .0279705
553.768 .0280047
554.569 .0280481
555.371 .0280930
556.171 .0281421
556.972 .0281963
557.771 .0282506
558.570 .0283087
559.369 .0283720
560.167 .0284358
560.964 .0284997
561.761 .0285615
562.558 .0286227
563.354 .0286822
564.149 .0287405
564.944 .0287972
565.738 .0288540
566.532 .0289109
567.325 .0289735
568.118 .0290361
568.910 .0291027
569.702 .0291733
570.494 .0292504
571.285 .0293329
572.075 .0294195
572.865 .0295102
573.654 .0296041
574.443 .0296995
575.232 .0297954
576.020 .0298872
576.807 .0299774
577.594 .0300623
578.381 .0301407
579.167 .0302131
579.952 .0302795
580.738 .0303411
581.522 .0303990
582.307 .0304532
583.091 .0305035
583.874 .0305494
584.657 .0305907
585.440 .0306262
586.222 .0306581
587.004 .0306855
587.785 .0307098
588.566 .0307329
589.346 .0307544
590.126 .0307751
590.906 .0307964
591.685 .0308183
592.464 .0308390
593.242 .0308582
594.020 .0308735
594.797 .0308862
595.575 .0308954
596.351 .0309013
597.128 .0309046
597.904 .0309056
598.679 .0309060
599.454 .0309043
600.229 .0309017
601.004 .0308981
601.778 .0308917
602.551 .0308834
603.325 .0308712
604.097 .0308563
604.870 .0308382
605.642 .0308176
606.414 .0307951
607.185 .0307720
607.956 .0307488
608.727 .0307263
609.497 .0307049
610.267 .0306844
611.037 .0306645
611.806 .0306447
612.575 .0306249
613.344 .0306053
614.112 .0305852
614.880 .0305657
615.647 .0305464
616.414 .0305282
617.181 .0305106
617.948 .0304944
618.714 .0304786
619.480 .0304630
620.245 .0304472
621.011 .0304300
621.775 .0304108
622.540 .0303901
623.304 .0303681
624.068 .0303449
624.832 .0303206
625.595 .0302956
626.358 .0302696
627.120 .0302432
627.883 .0302155
628.645 .0301871
629.406 .0301586
630.168 .0301301
630.929 .0301011
631.689 .0300736
632.450 .0300479
633.210 .0300247
633.970 .0300034
634.729 .0299846
635.489 .0299674
636.248 .0299502
637.006 .0299330
637.765 .0299151
638.523 .0298956
639.280 .0298751
640.038 .0298534
640.795 .0298320
641.552 .0298104
642.309 .0297894
643.065 .0297685
643.821 .0297480
644.577 .0297276
645.332 .0297060
646.088 .0296830
646.843 .0296595
647.597 .0296351
648.352 .0296101
649.106 .0295866
649.860 .0295643
650.613 .0295440
651.367 .0295265
652.120 .0295111
652.872 .0294980
653.625 .0294867
654.377 .0294768
655.129 .0294667
655.881 .0294564
656.632 .0294454
657.384 .0294327
658.135 .0294196
658.885 .0294051
659.636 .0293900
660.386 .0293748
661.136 .0293602
661.885 .0293458
662.635 .0293326
663.384 .0293208
664.133 .0293093
664.881 .0292977
665.630 .0292854
666.378 .0292711
667.126 .0292554
667.874 .0292379
668.621 .0292188
669.368 .0291993
670.115 .0291805
670.862 .0291624
671.608 .0291468
672.354 .0291332
673.100 .0291219
673.846 .0291123
674.591 .0291039
675.337 .0290953
676.082 .0290860
676.826 .0290761
677.571 .0290655
678.315 .0290542
679.059 .0290429
679.803 .0290312
680.547 .0290205
681.290 .0290107
682.033 .0290011
682.776 .0289914
683.518 .0289807
684.261 .0289683
685.003 .0289538
685.745 .0289365
686.487 .0289168
687.228 .0288950
687.969 .0288722
688.710 .0288487
689.451 .0288246
690.192 .0288012
690.932 .0287784
691.672 .0287570
692.412 .0287363
693.152 .0287163
693.891 .0286970
694.630 .0286781
695.369 .0286593
696.108 .0286405
696.846 .0286214
697.585 .0286021
698.323 .0285826
699.061 .0285631
699.798 .0285434
700.536 .0285239
701.273 .0285043
702.010 .0284850
702.746 .0284658
703.483 .0284469
704.219 .0284281
704.955 .0284100
705.691 .0283928
706.427 .0283760
707.162 .0283597
707.897 .0283443
708.632 .0283296
709.367 .0283159
710.101 .0283032
710.835 .0282909
711.569 .0282789
712.303 .0282671
713.037 .0282552
713.770 .0282428
714.503 .0282299
715.236 .0282159
715.969 .0282008
716.702 .0281842
717.434 .0281664
718.166 .0281470
718.898 .0281268
719.629 .0281057
720.361 .0280839
721.092 .0280618
721.823 .0280398
722.554 .0280174
723.284 .0279953
724.014 .0279728
724.744 .0279494
725.474 .0279248
726.204 .0278996
726.933 .0278738
727.662 .0278477
728.391 .0278224
729.120 .0277984
729.849 .0277759
730.577 .0277551
731.305 .0277354
732.033 .0277169
732.760 .0276986
733.488 .0276803
734.215 .0276622
734.942 .0276441
735.669 .0276262
736.395 .0276087
737.122 .0275924
737.848 .0275774
738.573 .0275638
739.299 .0275514
740.024 .0275397
740.750 .0275289
741.474 .0275177
742.199 .0275057
742.924 .0274936
743.648 .0274809
744.372 .0274674
745.096 .0274541
745.819 .0274409
746.543 .0274277
747.266 .0274153
747.989 .0274035
748.711 .0273921
749.434 .0273813
750.156 .0273710
750.878 .0273611
751.599 .0273519
752.321 .0273436
753.042 .0273355
753.763 .0273279
754.484 .0273208
755.205 .0273132
755.925 .0273058
756.645 .0272980
757.365 .0272901
758.085 .0272820
758.804 .0272738
759.523 .0272651
760.242 .0272562
760.961 .0272471
761.679 .0272374
762.397 .0272268
763.115 .0272149
763.833 .0272016
764.551 .0271871
765.268 .0271708
765.985 .0271535
766.702 .0271354
767.418 .0271168
768.134 .0270979
768.850 .0270792
769.566 .0270605
770.282 .0270420
770.997 .0270238
771.712 .0270056
772.427 .0269874
773.142 .0269696
773.856 .0269519
774.570 .0269347
775.284 .0269182
775.998 .0269017
776.711 .0268856
777.424 .0268702
778.137 .0268551
778.849 .0268401
779.562 .0268258
780.274 .0268115
780.986 .0267977
781.697 .0267847
782.409 .0267721
783.120 .0267608
783.831 .0267506
784.541 .0267412
785.252 .0267326
785.962 .0267249
786.671 .0267176
787.381 .0267103
788.090 .0267038
788.799 .0266968
789.508 .0266892
790.217 .0266811
790.925 .0266724
791.633 .0266631
792.341 .0266533
793.048 .0266428
793.755 .0266312
794.462 .0266188
795.169 .0266049
795.875 .0265897
796.581 .0265737
797.287 .0265568
797.993 .0265393
798.698 .0265218
799.403 .0265048
800.108 .0264887
800.812 .0264739
801.517 .0264612
802.221 .0264507
802.924 .0264415
803.628 .0264341
804.331 .0264283
805.034 .0264237
805.736 .0264194
806.439 .0264154
807.141 .0264112
807.843 .0264069
808.544 .0264012
809.245 .0263944
809.946 .0263861
810.647 .0263769
811.347 .0263660
812.047 .0263536
812.747 .0263401
813.447 .0263253
814.146 .0263091
814.845 .0262931
815.543 .0262764
816.242 .0262604
816.940 .0262451
817.638 .0262313
818.335 .0262185
819.032 .0262070
819.729 .0261961
820.426 .0261862
821.122 .0261769
821.818 .0261673
822.514 .0261573
823.209 .0261475
823.905 .0261376
824.599 .0261274
825.294 .0261171
825.988 .0261066
826.682 .0260951
827.376 .0260828
828.069 .0260691
828.762 .0260537
829.455 .0260364
830.147 .0260176
830.840 .0259975
831.531 .0259770
832.223 .0259565
832.914 .0259369
833.605 .0259187
834.296 .0259025
834.986 .0258882
835.676 .0258756
836.366 .0258650
837.055 .0258559
837.744 .0258475
838.433 .0258395
839.121 .0258316
839.809 .0258236
840.497 .0258162
841.185 .0258094
841.872 .0258033
842.559 .0257982
843.245 .0257938
843.932 .0257901
844.617 .0257868
845.303 .0257833
845.988 .0257789
846.673 .0257733
847.358 .0257666
848.042 .0257585
848.726 .0257491
849.410 .0257394
850.093 .0257294
850.776 .0257196
851.459 .0257094
852.141 .0256985
852.823 .0256872
853.505 .0256758
854.186 .0256630
854.867 .0256496
855.548 .0256358
856.228 .0256219
856.908 .0256085
857.588 .0255960
858.267 .0255848
858.946 .0255749
859.625 .0255662
860.303 .0255582
860.981 .0255509
861.659 .0255441
862.336 .0255376
863.013 .0255316
863.690 .0255261
864.366 .0255211
865.042 .0255166
865.718 .0255130
866.393 .0255100
867.068 .0255069
867.743 .0255035
868.417 .0254991
869.091 .0254938
869.765 .0254872
870.438 .0254787
871.111 .0254691
871.783 .0254584
872.456 .0254471
873.127 .0254351
873.799 .0254228
874.470 .0254102
875.141 .0253974
875.811 .0253841
876.481 .0253709
877.151 .0253581
877.820 .0253463
878.489 .0253356
879.158 .0253265
879.826 .0253187
880.494 .0253123
881.162 .0253065
881.829 .0253015
882.496 .0252963
883.163 .0252908
883.829 .0252846
884.495 .0252782
885.160 .0252723
885.825 .0252675
886.490 .0252640
887.154 .0252620
887.818 .0252606
888.482 .0252592
889.145 .0252566
889.808 .0252524
890.471 .0252461
891.133 .0252382
891.795 .0252289
892.456 .0252194
893.117 .0252102
893.778 .0252024
894.439 .0251966
895.099 .0251924
895.758 .0251893
896.417 .0251870
897.076 .0251843
897.735 .0251814
898.393 .0251782
899.051 .0251751
899.708 .0251720
900.365 .0251699
901.022 .0251686
901.678 .0251682
902.334 .0251681
902.990 .0251682
903.645 .0251676
904.300 .0251669
904.954 .0251649
905.608 .0251618
906.262 .0251583
906.915 .0251549
907.568 .0251505
908.221 .0251463
908.873 .0251417
909.525 .0251366
910.176 .0251308
910.828 .0251241
911.478 .0251163
912.129 .0251077
912.778 .0250985
913.428 .0250891
914.077 .0250795
914.726 .0250703
915.375 .0250605
916.023 .0250508
916.670 .0250410
917.318 .0250306
917.964 .0250192
918.611 .0250072
919.257 .0249941
919.903 .0249796
920.548 .0249642
921.193 .0249484
921.838 .0249326
922.482 .0249179
923.126 .0249043
923.770 .0248927
924.413 .0248829
925.056 .0248751
925.698 .0248686
926.340 .0248632
926.982 .0248583
927.623 .0248533
928.264 .0248474
928.904 .0248415
929.544 .0248354
930.184 .0248295
930.823 .0248241
931.462 .0248193
932.101 .0248151
932.739 .0248111
933.377 .0248064
934.014 .0248003
934.651 .0247925
935.288 .0247830
935.924 .0247713
936.560 .0247583
937.196 .0247445
937.831 .0247303
938.466 .0247162
939.100 .0247026
939.734 .0246885
940.368 .0246745
941.001 .0246602
941.634 .0246454
942.266 .0246299
942.899 .0246137
943.530 .0245975
944.162 .0245812
944.793 .0245652
945.423 .0245491
946.053 .0245326
946.683 .0245161
947.313 .0244992
947.942 .0244814
948.571 .0244629
949.199 .0244438
949.827 .0244244
950.455 .0244051
951.082 .0243865
951.709 .0243685
952.335 .0243516
952.961 .0243359
953.587 .0243206
954.212 .0243054
954.837 .0242902
955.462 .0242751
956.086 .0242602
956.710 .0242458
957.334 .0242321
957.957 .0242193
958.579 .0242074
959.202 .0241967
959.824 .0241863
960.445 .0241762
961.067 .0241658
961.688 .0241545
962.308 .0241424
962.928 .0241292
963.548 .0241153
964.168 .0241014
964.787 .0240876
965.406 .0240739
966.024 .0240607
966.642 .0240481
967.260 .0240359
967.877 .0240246
968.494 .0240137
969.110 .0240030
969.727 .0239927
970.342 .0239825
970.958 .0239728
971.573 .0239639
972.188 .0239561
972.802 .0239490
973.416 .0239428
974.030 .0239370
974.643 .0239311
975.256 .0239256
975.869 .0239200
976.481 .0239144
977.093 .0239085
977.705 .0239025
978.316 .0238963
978.927 .0238895
979.538 .0238818
980.148 .0238728
980.758 .0238628
981.367 .0238516
981.977 .0238392
982.586 .0238265
983.194 .0238141
983.802 .0238027
984.410 .0237920
985.018 .0237825
985.625 .0237736
986.232 .0237648
986.838 .0237557
987.445 .0237459
988.050 .0237354
988.656 .0237241
989.261 .0237123
989.866 .0237006
990.471 .0236897
991.075 .0236799
991.679 .0236714
992.282 .0236644
992.886 .0236585
993.489 .0236530
994.091 .0236476
994.694 .0236420
995.296 .0236360
995.897 .0236289
996.499 .0236211
997.100 .0236125
997.701 .0236038
998.301 .0235953
998.901 .0235878
999.501 .0235820
1000.101 .0235780
1000.700 .0235755
1001.299 .0235743
1001.898 .0235741
1002.496 .0235740
1003.094 .0235726
1003.692 .0235701
1004.289 .0235661
1004.887 .0235607
1005.484 .0235543
1006.080 .0235476
1006.677 .0235415
1007.273 .0235359
1007.868 .0235307
1008.464 .0235252
1009.059 .0235192
1009.654 .0235120
1010.249 .0235037
1010.843 .0234949
1011.437 .0234856
1012.031 .0234756
1012.625 .0234658
1013.218 .0234569
1013.811 .0234496
1014.404 .0234435
1014.997 .0234389
1015.589 .0234357
1016.181 .0234345
1016.773 .0234340
1017.365 .0234348
1017.956 .0234371
1018.547 .0234405
1019.138 .0234454
1019.728 .0234513
1020.319 .0234574
1020.909 .0234642
1021.499 .0234708
1022.088 .0234777
1022.678 .0234836
1023.267 .0234888
1023.856 .0234922
1024.445 .0234941
1025.033 .0234945
1025.621 .0234928
1026.209 .0234893
1026.797 .0234851
1027.385 .0234802
1027.972 .0234750
1028.560 .0234702
1029.147 .0234660
1029.734 .0234624
1030.320 .0234592
1030.907 .0234548
1031.493 .0234496
1032.079 .0234425
1032.665 .0234355
1033.250 .0234279
1033.836 .0234209
1034.421 .0234157
1035.006 .0234123
1035.591 .0234111
1036.176 .0234112
1036.761 .0234116
1037.345 .0234121
1037.929 .0234111
1038.514 .0234082
1039.097 .0234029
1039.681 .0233962
1040.265 .0233893
1040.848 .0233825
1041.432 .0233773
1042.015 .0233731
1042.598 .0233696
1043.181 .0233668
1043.764 .0233634
1044.346 .0233589
1044.929 .0233535
1045.511 .0233468
1046.094 .0233398
1046.676 .0233326
1047.258 .0233266
1047.840 .0233218
1048.422 .0233194
1049.003 .0233189
1049.585 .0233197
1050.166 .0233207
1050.748 .0233220
1051.329 .0233226
1051.910 .0233236
1052.491 .0233242
1053.072 .0233248
1053.653 .0233261
1054.234 .0233282
1054.815 .0233309
1055.396 .0233343
1055.976 .0233376
1056.557 .0233414
1057.138 .0233443
1057.718 .0233459
1058.298 .0233459
1058.879 .0233448
1059.459 .0233420
1060.039 .0233381
1060.620 .0233334
1061.200 .0233274
1061.780 .0233203
1062.360 .0233119
1062.940 .0233024
1063.520 .0232913
1064.101 .0232793
1064.681 .0232651
1065.261 .0232500
1065.841 .0232340
1066.421 .0232162
1067.001 .0231975
1067.581 .0231791
1068.161 .0231606
1068.741 .0231429
1069.321 .0231259
1069.901 .0231113
1070.482 .0230978
1071.062 .0230863
1071.642 .0230758
1072.222 .0230678
1072.803 .0230623
1073.383 .0230601
1073.963 .0230599
1074.544 .0230629
1075.124 .0230682
1075.705 .0230757
1076.286 .0230837
1076.866 .0230915
1077.447 .0230971
1078.028 .0231000
1078.609 .0230993
1079.190 .0230959
1079.771 .0230892
1080.352 .0230822
1080.934 .0230748
1081.515 .0230683
1082.097 .0230636
1082.679 .0230596
1083.260 .0230561
1083.842 .0230532
1084.424 .0230499
1085.007 .0230457
1085.589 .0230408
1086.172 .0230367
1086.754 .0230337
1087.337 .0230335
1087.920 .0230354
1088.503 .0230391
1089.087 .0230459
1089.670 .0230522
1090.254 .0230561
1090.838 .0230566
1091.422 .0230552
1092.006 .0230495
1092.590 .0230421
1093.175 .0230328
1093.760 .0230241
1094.345 .0230169
1094.930 .0230104
1095.516 .0230049
1096.102 .0230023
1096.688 .0229997
1097.274 .0229972
1097.860 .0229941
1098.447 .0229921
1099.034 .0229885
1099.622 .0229870
1100.209 .0229859
1100.797 .0229867
1101.385 .0229914
1101.973 .0230003
1102.562 .0230103
1103.151 .0230224
1103.740 .0230345
1104.330 .0230449
1104.920 .0230540
1105.510 .0230613
1106.101 .0230647
1106.691 .0230686
1107.283 .0230715
1107.874 .0230744
1108.466 .0230761
1109.058 .0230787
1109.651 .0230807
1110.244 .0230812
1110.837 .0230798
1111.431 .0230729
1112.025 .0230620
1112.620 .0230482
1113.215 .0230330
1113.810 .0230159
1114.406 .0229993
1115.002 .0229826
1115.599 .0229649
1116.196 .0229442
1116.793 .0229182
1117.391 .0228903
1117.989 .0228603
1118.588 .0228296
1119.187 .0228007
1119.787 .0227737
1120.387 .0227569
1120.988 .0227475
1121.589 .0227475
1122.190 .0227546
1122.793 .0227676
1123.395 .0227842
1123.998 .0228042
1124.602 .0228281
1125.206 .0228564
1125.811 .0228933
1126.416 .0229400
1127.022 .0229968
1127.628 .0230618
1128.235 .0231331
1128.843 .0232098
1129.451 .0232880
1130.059 .0233636
1130.669 .0234321
1131.278 .0234973
1131.889 .0235559
1132.500 .0236087
1133.112 .0236585
1133.724 .0237048
1134.337 .0237491
1134.950 .0237884
1135.564 .0238219
1136.179 .0238461
1136.795 .0238669
1137.411 .0238844
1138.028 .0238993
1138.645 .0239148
1139.263 .0239392
1139.882 .0239692
1140.502 .0240028
1141.122 .0240409
1141.743 .0240883
1142.365 .0241602
1142.987 .0242071
1143.611 .0241586
1144.235 .0241929
1144.859 .0244511
1145.485 .0250877
