Measurement Sequence started on: 10-20-44-796
Integration time: 35
Scans to Average: 2 
>>>>>Begin Spectral Data<<<<<
432.953 .0436452
433.882 .0320023
434.810 .0349312
435.737 .0373172
436.662 .0347663
437.586 .0350435
438.509 .0345772
439.431 .0344370
440.351 .0342040
441.269 .0339611
442.187 .0338348
443.103 .0337381
444.018 .0336933
444.932 .0337122
445.844 .0337670
446.756 .0338317
447.666 .0339055
448.575 .0339851
449.482 .0340636
450.388 .0341278
451.294 .0341669
452.198 .0341777
453.100 .0341600
454.002 .0341089
454.902 .0340321
455.801 .0339529
456.699 .0338710
457.596 .0337821
458.492 .0336966
459.387 .0336190
460.280 .0335454
461.172 .0334806
462.064 .0334266
462.954 .0333723
463.843 .0333212
464.730 .0332748
465.617 .0332341
466.503 .0332084
467.387 .0331966
468.271 .0331954
469.153 .0332125
470.035 .0332455
470.915 .0332853
471.794 .0333276
472.673 .0333733
473.550 .0334165
474.426 .0334513
475.301 .0334749
476.175 .0334901
477.048 .0334956
477.920 .0334944
478.791 .0334852
479.661 .0334716
480.530 .0334533
481.398 .0334318
482.266 .0334073
483.132 .0333828
483.997 .0333578
484.861 .0333329
485.724 .0333125
486.587 .0332948
487.448 .0332773
488.308 .0332587
489.168 .0332376
490.026 .0332159
490.884 .0331869
491.741 .0331550
492.597 .0331217
493.452 .0330899
494.306 .0330584
495.159 .0330273
496.011 .0329972
496.862 .0329669
497.713 .0329305
498.562 .0328861
499.411 .0328310
500.259 .0327615
501.106 .0326788
501.952 .0325883
502.798 .0324946
503.642 .0324017
504.486 .0323115
505.329 .0322283
506.171 .0321476
507.012 .0320675
507.852 .0319845
508.692 .0318997
509.531 .0318145
510.369 .0317247
511.206 .0316349
512.043 .0315514
512.878 .0314713
513.713 .0313895
514.547 .0313070
515.381 .0312178
516.213 .0311146
517.045 .0309916
517.876 .0308506
518.706 .0306897
519.536 .0305170
520.365 .0303331
521.193 .0301468
522.020 .0299612
522.847 .0297768
523.673 .0295854
524.498 .0293903
525.323 .0291838
526.146 .0289661
526.969 .0287363
527.792 .0285075
528.614 .0282788
529.435 .0280655
530.255 .0278664
531.075 .0276864
531.894 .0275319
532.712 .0274035
533.530 .0272835
534.347 .0271755
535.163 .0270734
535.979 .0269843
536.794 .0269032
537.608 .0268385
538.422 .0267996
539.235 .0267838
540.048 .0267895
540.860 .0268120
541.671 .0268503
542.481 .0269042
543.292 .0269631
544.101 .0270284
544.910 .0270921
545.718 .0271559
546.526 .0272124
547.333 .0272635
548.139 .0273122
548.945 .0273541
549.750 .0273861
550.555 .0274113
551.359 .0274405
552.162 .0274663
552.965 .0274990
553.768 .0275364
554.569 .0275757
555.371 .0276140
556.171 .0276446
556.972 .0276727
557.771 .0276974
558.570 .0277171
559.369 .0277406
560.167 .0277731
560.964 .0278174
561.761 .0278667
562.558 .0279336
563.354 .0280100
564.149 .0280940
564.944 .0281827
565.738 .0282772
566.532 .0283717
567.325 .0284694
568.118 .0285691
568.910 .0286660
569.702 .0287676
570.494 .0288720
571.285 .0289744
572.075 .0290856
572.865 .0291975
573.654 .0293079
574.443 .0294161
575.232 .0295248
576.020 .0296267
576.807 .0297212
577.594 .0298092
578.381 .0298865
579.167 .0299551
579.952 .0300186
580.738 .0300756
581.522 .0301294
582.307 .0301839
583.091 .0302356
583.874 .0302845
584.657 .0303308
585.440 .0303752
586.222 .0304176
587.004 .0304576
587.785 .0304942
588.566 .0305272
589.346 .0305581
590.126 .0305874
590.906 .0306126
591.685 .0306372
592.464 .0306585
593.242 .0306772
594.020 .0306927
594.797 .0307069
595.575 .0307193
596.351 .0307308
597.128 .0307414
597.904 .0307509
598.679 .0307580
599.454 .0307624
600.229 .0307639
601.004 .0307633
601.778 .0307619
602.551 .0307590
603.325 .0307550
604.097 .0307519
604.870 .0307488
605.642 .0307448
606.414 .0307403
607.185 .0307351
607.956 .0307290
608.727 .0307222
609.497 .0307148
610.267 .0307078
611.037 .0307014
611.806 .0306950
612.575 .0306881
613.344 .0306802
614.112 .0306710
614.880 .0306587
615.647 .0306443
616.414 .0306277
617.181 .0306097
617.948 .0305900
618.714 .0305703
619.480 .0305503
620.245 .0305303
621.011 .0305103
621.775 .0304911
622.540 .0304729
623.304 .0304555
624.068 .0304397
624.832 .0304257
625.595 .0304135
626.358 .0304044
627.120 .0303971
627.883 .0303915
628.645 .0303867
629.406 .0303821
630.168 .0303765
630.929 .0303710
631.689 .0303647
632.450 .0303570
633.210 .0303481
633.970 .0303378
634.729 .0303240
635.489 .0303071
636.248 .0302866
637.006 .0302621
637.765 .0302336
638.523 .0302024
639.280 .0301688
640.038 .0301343
640.795 .0301008
641.552 .0300687
642.309 .0300391
643.065 .0300128
643.821 .0299882
644.577 .0299656
645.332 .0299454
646.088 .0299268
646.843 .0299094
647.597 .0298933
648.352 .0298783
649.106 .0298642
649.860 .0298517
650.613 .0298407
651.367 .0298311
652.120 .0298226
652.872 .0298145
653.625 .0298054
654.377 .0297957
655.129 .0297846
655.881 .0297726
656.632 .0297601
657.384 .0297468
658.135 .0297323
658.885 .0297178
659.636 .0297033
660.386 .0296888
661.136 .0296737
661.885 .0296588
662.635 .0296430
663.384 .0296269
664.133 .0296104
664.881 .0295936
665.630 .0295774
666.378 .0295624
667.126 .0295471
667.874 .0295328
668.621 .0295182
669.368 .0295031
670.115 .0294869
670.862 .0294702
671.608 .0294522
672.354 .0294331
673.100 .0294143
673.846 .0293962
674.591 .0293789
675.337 .0293638
676.082 .0293501
676.826 .0293381
677.571 .0293269
678.315 .0293161
679.059 .0293054
679.803 .0292962
680.547 .0292877
681.290 .0292802
682.033 .0292739
682.776 .0292690
683.518 .0292649
684.261 .0292612
685.003 .0292573
685.745 .0292520
686.487 .0292457
687.228 .0292382
687.969 .0292288
688.710 .0292189
689.451 .0292087
690.192 .0291986
690.932 .0291891
691.672 .0291795
692.412 .0291701
693.152 .0291606
693.891 .0291506
694.630 .0291393
695.369 .0291274
696.108 .0291144
696.846 .0291006
697.585 .0290863
698.323 .0290722
699.061 .0290580
699.798 .0290438
700.536 .0290296
701.273 .0290148
702.010 .0289995
702.746 .0289831
703.483 .0289645
704.219 .0289447
704.955 .0289228
705.691 .0288990
706.427 .0288739
707.162 .0288489
707.897 .0288248
708.632 .0288021
709.367 .0287814
710.101 .0287624
710.835 .0287445
711.569 .0287275
712.303 .0287106
713.037 .0286931
713.770 .0286751
714.503 .0286566
715.236 .0286381
715.969 .0286205
716.702 .0286045
717.434 .0285897
718.166 .0285764
718.898 .0285642
719.629 .0285520
720.361 .0285390
721.092 .0285257
721.823 .0285112
722.554 .0284959
723.284 .0284797
724.014 .0284621
724.744 .0284440
725.474 .0284253
726.204 .0284057
726.933 .0283850
727.662 .0283634
728.391 .0283408
729.120 .0283169
729.849 .0282926
730.577 .0282678
731.305 .0282425
732.033 .0282168
732.760 .0281896
733.488 .0281614
734.215 .0281317
734.942 .0281014
735.669 .0280706
736.395 .0280406
737.122 .0280113
737.848 .0279832
738.573 .0279565
739.299 .0279315
740.024 .0279075
740.750 .0278840
741.474 .0278605
742.199 .0278367
742.924 .0278124
743.648 .0277878
744.372 .0277629
745.096 .0277396
745.819 .0277169
746.543 .0276954
747.266 .0276752
747.989 .0276567
748.711 .0276397
749.434 .0276232
750.156 .0276074
750.878 .0275919
751.599 .0275762
752.321 .0275600
753.042 .0275432
753.763 .0275263
754.484 .0275095
755.205 .0274922
755.925 .0274753
756.645 .0274594
757.365 .0274440
758.085 .0274299
758.804 .0274166
759.523 .0274035
760.242 .0273902
760.961 .0273766
761.679 .0273627
762.397 .0273481
763.115 .0273338
763.833 .0273194
764.551 .0273058
765.268 .0272927
765.985 .0272792
766.702 .0272658
767.418 .0272522
768.134 .0272378
768.850 .0272221
769.566 .0272050
770.282 .0271867
770.997 .0271677
771.712 .0271486
772.427 .0271290
773.142 .0271096
773.856 .0270901
774.570 .0270706
775.284 .0270511
775.998 .0270320
776.711 .0270130
777.424 .0269950
778.137 .0269779
778.849 .0269614
779.562 .0269458
780.274 .0269312
780.986 .0269173
781.697 .0269047
782.409 .0268928
783.120 .0268817
783.831 .0268716
784.541 .0268630
785.252 .0268555
785.962 .0268492
786.671 .0268432
787.381 .0268370
788.090 .0268301
788.799 .0268223
789.508 .0268124
790.217 .0268012
790.925 .0267886
791.633 .0267754
792.341 .0267618
793.048 .0267480
793.755 .0267338
794.462 .0267195
795.169 .0267047
795.875 .0266894
796.581 .0266729
797.287 .0266563
797.993 .0266393
798.698 .0266229
799.403 .0266070
800.108 .0265927
800.812 .0265805
801.517 .0265709
802.221 .0265635
802.924 .0265582
803.628 .0265541
804.331 .0265516
805.034 .0265499
805.736 .0265491
806.439 .0265483
807.141 .0265473
807.843 .0265460
808.544 .0265445
809.245 .0265418
809.946 .0265385
810.647 .0265345
811.347 .0265299
812.047 .0265241
812.747 .0265171
813.447 .0265093
814.146 .0265010
814.845 .0264919
815.543 .0264824
816.242 .0264723
816.940 .0264625
817.638 .0264529
818.335 .0264441
819.032 .0264363
819.729 .0264292
820.426 .0264229
821.122 .0264161
821.818 .0264090
822.514 .0264013
823.209 .0263927
823.905 .0263833
824.599 .0263731
825.294 .0263619
825.988 .0263495
826.682 .0263364
827.376 .0263225
828.069 .0263073
828.762 .0262911
829.455 .0262734
830.147 .0262542
830.840 .0262342
831.531 .0262138
832.223 .0261937
832.914 .0261744
833.605 .0261561
834.296 .0261384
834.986 .0261214
835.676 .0261051
836.366 .0260889
837.055 .0260726
837.744 .0260567
838.433 .0260409
839.121 .0260260
839.809 .0260125
840.497 .0260007
841.185 .0259900
841.872 .0259807
842.559 .0259723
843.245 .0259643
843.932 .0259559
844.617 .0259471
845.303 .0259376
845.988 .0259274
846.673 .0259165
847.358 .0259051
848.042 .0258935
848.726 .0258826
849.410 .0258716
850.093 .0258606
850.776 .0258495
851.459 .0258382
852.141 .0258251
852.823 .0258110
853.505 .0257958
854.186 .0257796
854.867 .0257624
855.548 .0257450
856.228 .0257283
856.908 .0257125
857.588 .0256982
858.267 .0256851
858.946 .0256726
859.625 .0256609
860.303 .0256483
860.981 .0256348
861.659 .0256203
862.336 .0256050
863.013 .0255885
863.690 .0255713
864.366 .0255538
865.042 .0255353
865.718 .0255158
866.393 .0254956
867.068 .0254736
867.743 .0254501
868.417 .0254247
869.091 .0253979
869.765 .0253701
870.438 .0253422
871.111 .0253146
871.783 .0252883
872.456 .0252630
873.127 .0252394
873.799 .0252164
874.470 .0251944
875.141 .0251733
875.811 .0251531
876.481 .0251342
877.151 .0251170
877.820 .0251016
878.489 .0250884
879.158 .0250765
879.826 .0250662
880.494 .0250554
881.162 .0250443
881.829 .0250322
882.496 .0250180
883.163 .0250023
883.829 .0249859
884.495 .0249686
885.160 .0249513
885.825 .0249349
886.490 .0249197
887.154 .0249057
887.818 .0248926
888.482 .0248798
889.145 .0248668
889.808 .0248539
890.471 .0248404
891.133 .0248261
891.795 .0248119
892.456 .0247974
893.117 .0247827
893.778 .0247688
894.439 .0247555
895.099 .0247435
895.758 .0247325
896.417 .0247227
897.076 .0247132
897.735 .0247033
898.393 .0246929
899.051 .0246810
899.708 .0246676
900.365 .0246523
901.022 .0246359
901.678 .0246193
902.334 .0246036
902.990 .0245892
903.645 .0245765
904.300 .0245657
904.954 .0245564
905.608 .0245476
906.262 .0245384
906.915 .0245285
907.568 .0245177
908.221 .0245062
908.873 .0244951
909.525 .0244845
910.176 .0244752
910.828 .0244674
911.478 .0244604
912.129 .0244533
912.778 .0244460
913.428 .0244376
914.077 .0244281
914.726 .0244174
915.375 .0244051
916.023 .0243912
916.670 .0243768
917.318 .0243619
917.964 .0243460
918.611 .0243290
919.257 .0243110
919.903 .0242919
920.548 .0242722
921.193 .0242525
921.838 .0242334
922.482 .0242159
923.126 .0242009
923.770 .0241876
924.413 .0241763
925.056 .0241671
925.698 .0241600
926.340 .0241544
926.982 .0241496
927.623 .0241455
928.264 .0241419
928.904 .0241395
929.544 .0241378
930.184 .0241363
930.823 .0241351
931.462 .0241339
932.101 .0241318
932.739 .0241283
933.377 .0241230
934.014 .0241157
934.651 .0241067
935.288 .0240959
935.924 .0240833
936.560 .0240697
937.196 .0240565
937.831 .0240436
938.466 .0240308
939.100 .0240185
939.734 .0240059
940.368 .0239934
941.001 .0239809
941.634 .0239679
942.266 .0239546
942.899 .0239418
943.530 .0239296
944.162 .0239179
944.793 .0239072
945.423 .0238971
946.053 .0238870
946.683 .0238769
947.313 .0238656
947.942 .0238525
948.571 .0238381
949.199 .0238222
949.827 .0238048
950.455 .0237866
951.082 .0237687
951.709 .0237512
952.335 .0237350
952.961 .0237204
953.587 .0237071
954.212 .0236951
954.837 .0236848
955.462 .0236750
956.086 .0236666
956.710 .0236590
957.334 .0236523
957.957 .0236464
958.579 .0236416
959.202 .0236378
959.824 .0236350
960.445 .0236333
961.067 .0236329
961.688 .0236333
962.308 .0236343
962.928 .0236359
963.548 .0236376
964.168 .0236393
964.787 .0236408
965.406 .0236414
966.024 .0236414
966.642 .0236401
967.260 .0236384
967.877 .0236364
968.494 .0236340
969.110 .0236316
969.727 .0236291
970.342 .0236268
970.958 .0236248
971.573 .0236223
972.188 .0236196
972.802 .0236164
973.416 .0236129
974.030 .0236085
974.643 .0236042
975.256 .0236008
975.869 .0235987
976.481 .0235981
977.093 .0235995
977.705 .0236021
978.316 .0236062
978.927 .0236115
979.538 .0236176
980.148 .0236246
980.758 .0236323
981.367 .0236401
981.977 .0236490
982.586 .0236584
983.194 .0236677
983.802 .0236766
984.410 .0236848
985.018 .0236914
985.625 .0236964
986.232 .0237007
986.838 .0237036
987.445 .0237061
988.050 .0237086
988.656 .0237108
989.261 .0237130
989.866 .0237147
990.471 .0237148
991.075 .0237140
991.679 .0237116
992.282 .0237074
992.886 .0237020
993.489 .0236972
994.091 .0236931
994.694 .0236896
995.296 .0236866
995.897 .0236838
996.499 .0236801
997.100 .0236764
997.701 .0236713
998.301 .0236656
998.901 .0236602
999.501 .0236561
1000.101 .0236540
1000.700 .0236545
1001.299 .0236573
1001.898 .0236619
1002.496 .0236675
1003.094 .0236733
1003.692 .0236782
1004.289 .0236821
1004.887 .0236853
1005.484 .0236881
1006.080 .0236901
1006.677 .0236919
1007.273 .0236925
1007.868 .0236926
1008.464 .0236919
1009.059 .0236896
1009.654 .0236853
1010.249 .0236798
1010.843 .0236742
1011.437 .0236679
1012.031 .0236625
1012.625 .0236581
1013.218 .0236547
1013.811 .0236527
1014.404 .0236518
1014.997 .0236518
1015.589 .0236529
1016.181 .0236548
1016.773 .0236574
1017.365 .0236609
1017.956 .0236658
1018.547 .0236711
1019.138 .0236780
1019.728 .0236861
1020.319 .0236949
1020.909 .0237033
1021.499 .0237124
1022.088 .0237213
1022.678 .0237301
1023.267 .0237385
1023.856 .0237452
1024.445 .0237506
1025.033 .0237546
1025.621 .0237567
1026.209 .0237578
1026.797 .0237578
1027.385 .0237577
1027.972 .0237570
1028.560 .0237565
1029.147 .0237548
1029.734 .0237518
1030.320 .0237479
1030.907 .0237419
1031.493 .0237338
1032.079 .0237238
1032.665 .0237125
1033.250 .0237001
1033.836 .0236881
1034.421 .0236758
1035.006 .0236634
1035.591 .0236516
1036.176 .0236396
1036.761 .0236273
1037.345 .0236149
1037.929 .0236027
1038.514 .0235906
1039.097 .0235793
1039.681 .0235698
1040.265 .0235612
1040.848 .0235546
1041.432 .0235504
1042.015 .0235467
1042.598 .0235436
1043.181 .0235413
1043.764 .0235388
1044.346 .0235370
1044.929 .0235358
1045.511 .0235337
1046.094 .0235316
1046.676 .0235292
1047.258 .0235259
1047.840 .0235210
1048.422 .0235151
1049.003 .0235076
1049.585 .0234970
1050.166 .0234846
1050.748 .0234708
1051.329 .0234559
1051.910 .0234416
1052.491 .0234270
1053.072 .0234122
1053.653 .0233975
1054.234 .0233820
1054.815 .0233655
1055.396 .0233478
1055.976 .0233292
1056.557 .0233104
1057.138 .0232912
1057.718 .0232724
1058.298 .0232548
1058.879 .0232381
1059.459 .0232233
1060.039 .0232088
1060.620 .0231932
1061.200 .0231756
1061.780 .0231566
1062.360 .0231365
1062.940 .0231160
1063.520 .0230948
1064.101 .0230753
1064.681 .0230574
1065.261 .0230409
1065.841 .0230255
1066.421 .0230106
1067.001 .0229952
1067.581 .0229798
1068.161 .0229633
1068.741 .0229490
1069.321 .0229362
1069.901 .0229293
1070.482 .0229263
1071.062 .0229277
1071.642 .0229342
1072.222 .0229429
1072.803 .0229510
1073.383 .0229593
1073.963 .0229637
1074.544 .0229646
1075.124 .0229629
1075.705 .0229594
1076.286 .0229563
1076.866 .0229557
1077.447 .0229577
1078.028 .0229613
1078.609 .0229660
1079.190 .0229743
1079.771 .0229802
1080.352 .0229860
1080.934 .0229895
1081.515 .0229896
1082.097 .0229874
1082.679 .0229841
1083.260 .0229799
1083.842 .0229792
1084.424 .0229827
1085.007 .0229896
1085.589 .0229980
1086.172 .0230071
1086.754 .0230137
1087.337 .0230148
1087.920 .0230095
1088.503 .0229957
1089.087 .0229717
1089.670 .0229421
1090.254 .0229082
1090.838 .0228753
1091.422 .0228450
1092.006 .0228218
1092.590 .0228047
1093.175 .0227938
1093.760 .0227845
1094.345 .0227736
1094.930 .0227607
1095.516 .0227445
1096.102 .0227248
1096.688 .0227024
1097.274 .0226805
1097.860 .0226624
1098.447 .0226458
1099.034 .0226362
1099.622 .0226291
1100.209 .0226250
1100.797 .0226187
1101.385 .0226101
1101.973 .0225944
1102.562 .0225748
1103.151 .0225516
1103.740 .0225276
1104.330 .0225059
1104.920 .0224883
1105.510 .0224738
1106.101 .0224659
1106.691 .0224645
1107.283 .0224675
1107.874 .0224705
1108.466 .0224746
1109.058 .0224709
1109.651 .0224626
1110.244 .0224462
1110.837 .0224244
1111.431 .0223988
1112.025 .0223753
1112.620 .0223555
1113.215 .0223417
1113.810 .0223364
1114.406 .0223388
1115.002 .0223465
1115.599 .0223568
1116.196 .0223623
1116.793 .0223638
1117.391 .0223617
1117.989 .0223590
1118.588 .0223581
1119.187 .0223626
1119.787 .0223754
1120.387 .0223991
1120.988 .0224293
1121.589 .0224632
1122.190 .0224959
1122.793 .0225211
1123.395 .0225355
1123.998 .0225375
1124.602 .0225298
1125.206 .0225188
1125.811 .0225119
1126.416 .0225096
1127.022 .0225134
1127.628 .0225265
1128.235 .0225451
1128.843 .0225687
1129.451 .0225970
1130.059 .0226275
1130.669 .0226566
1131.278 .0226865
1131.889 .0227141
1132.500 .0227389
1133.112 .0227697
1133.724 .0228075
1134.337 .0228522
1134.950 .0229052
1135.564 .0229650
1136.179 .0230311
1136.795 .0231033
1137.411 .0231785
1138.028 .0232489
1138.645 .0233147
1139.263 .0233720
1139.882 .0234275
1140.502 .0234931
1141.122 .0235524
1141.743 .0236085
1142.365 .0236381
1142.987 .0238254
1143.611 .0241995
1144.235 .0237433
1144.859 .0236050
1145.485 .0230089
