Measurement Sequence started on: 10-20-44-796
Integration time: 35
Scans to Average: 2 
>>>>>Begin Spectral Data<<<<<
432.953 .0578457
433.882 .0502529
434.810 .0450772
435.737 .0413974
436.662 .0391804
437.586 .0414362
438.509 .0402592
439.431 .0396311
440.351 .0393285
441.269 .0392385
442.187 .0392729
443.103 .0393330
444.018 .0394380
444.932 .0395782
445.844 .0397218
446.756 .0398514
447.666 .0399633
448.575 .0400302
449.482 .0400634
450.388 .0401003
451.294 .0401255
452.198 .0401433
453.100 .0401714
454.002 .0401896
454.902 .0401914
455.801 .0401841
456.699 .0401637
457.596 .0401265
458.492 .0400793
459.387 .0400266
460.280 .0399582
461.172 .0398875
462.064 .0398197
462.954 .0397473
463.843 .0396803
464.730 .0396143
465.617 .0395430
466.503 .0394635
467.387 .0393770
468.271 .0392827
469.153 .0391892
470.035 .0390983
470.915 .0390107
471.794 .0389286
472.673 .0388560
473.550 .0387957
474.426 .0387442
475.301 .0387011
476.175 .0386643
477.048 .0386212
477.920 .0385739
478.791 .0385173
479.661 .0384556
480.530 .0383925
481.398 .0383358
482.266 .0382858
483.132 .0382430
483.997 .0382098
484.861 .0381867
485.724 .0381716
486.587 .0381598
487.448 .0381425
488.308 .0381207
489.168 .0380950
490.026 .0380653
490.884 .0380289
491.741 .0379956
492.597 .0379661
493.452 .0379423
494.306 .0379225
495.159 .0379061
496.011 .0378923
496.862 .0378798
497.713 .0378630
498.562 .0378329
499.411 .0377881
500.259 .0377327
501.106 .0376635
501.952 .0375860
502.798 .0375013
503.642 .0374091
504.486 .0373093
505.329 .0372078
506.171 .0371008
507.012 .0369884
507.852 .0368753
508.692 .0367650
509.531 .0366518
510.369 .0365431
511.206 .0364358
512.043 .0363271
512.878 .0362229
513.713 .0361174
514.547 .0359988
515.381 .0358783
516.213 .0357575
517.045 .0356360
517.876 .0355203
518.706 .0354186
519.536 .0353268
520.365 .0352372
521.193 .0351489
522.020 .0350479
522.847 .0349274
523.673 .0347810
524.498 .0345917
525.323 .0343748
526.146 .0341386
526.969 .0338886
527.792 .0336280
528.614 .0333674
529.435 .0331116
530.255 .0328522
531.075 .0325882
531.894 .0323287
532.712 .0320756
533.530 .0318415
534.347 .0316328
535.163 .0314462
535.979 .0313013
536.794 .0311940
537.608 .0311203
538.422 .0310822
539.235 .0310618
540.048 .0310574
540.860 .0310581
541.671 .0310803
542.481 .0311117
543.292 .0311470
544.101 .0311964
544.910 .0312402
545.718 .0312853
546.526 .0313240
547.333 .0313469
548.139 .0313692
548.945 .0313884
549.750 .0314001
550.555 .0314026
551.359 .0314114
552.162 .0314256
552.965 .0314533
553.768 .0314914
554.569 .0315391
555.371 .0315911
556.171 .0316557
556.972 .0317175
557.771 .0317735
558.570 .0318297
559.369 .0318818
560.167 .0319259
560.964 .0319720
561.761 .0320166
562.558 .0320706
563.354 .0321352
564.149 .0322067
564.944 .0322790
565.738 .0323553
566.532 .0324291
567.325 .0324994
568.118 .0325640
568.910 .0326275
569.702 .0326883
570.494 .0327527
571.285 .0328218
572.075 .0328958
572.865 .0329756
573.654 .0330570
574.443 .0331340
575.232 .0332076
576.020 .0332712
576.807 .0333300
577.594 .0333829
578.381 .0334301
579.167 .0334695
579.952 .0335031
580.738 .0335306
581.522 .0335534
582.307 .0335689
583.091 .0335790
583.874 .0335851
584.657 .0335905
585.440 .0335962
586.222 .0336035
587.004 .0336138
587.785 .0336307
588.566 .0336495
589.346 .0336688
590.126 .0336847
590.906 .0336974
591.685 .0337067
592.464 .0337106
593.242 .0337102
594.020 .0337049
594.797 .0336969
595.575 .0336861
596.351 .0336738
597.128 .0336614
597.904 .0336488
598.679 .0336371
599.454 .0336259
600.229 .0336145
601.004 .0336025
601.778 .0335891
602.551 .0335759
603.325 .0335609
604.097 .0335433
604.870 .0335238
605.642 .0335035
606.414 .0334823
607.185 .0334600
607.956 .0334375
608.727 .0334151
609.497 .0333918
610.267 .0333672
611.037 .0333404
611.806 .0333111
612.575 .0332791
613.344 .0332450
614.112 .0332088
614.880 .0331729
615.647 .0331369
616.414 .0331025
617.181 .0330709
617.948 .0330417
618.714 .0330158
619.480 .0329932
620.245 .0329745
621.011 .0329575
621.775 .0329418
622.540 .0329279
623.304 .0329138
624.068 .0329002
624.832 .0328859
625.595 .0328702
626.358 .0328534
627.120 .0328354
627.883 .0328149
628.645 .0327924
629.406 .0327678
630.168 .0327415
630.929 .0327135
631.689 .0326836
632.450 .0326527
633.210 .0326215
633.970 .0325920
634.729 .0325645
635.489 .0325381
636.248 .0325149
637.006 .0324936
637.765 .0324742
638.523 .0324552
639.280 .0324368
640.038 .0324180
640.795 .0323989
641.552 .0323794
642.309 .0323595
643.065 .0323391
643.821 .0323186
644.577 .0322973
645.332 .0322760
646.088 .0322531
646.843 .0322284
647.597 .0322022
648.352 .0321764
649.106 .0321505
649.860 .0321250
650.613 .0321005
651.367 .0320783
652.120 .0320583
652.872 .0320401
653.625 .0320228
654.377 .0320074
655.129 .0319941
655.881 .0319824
656.632 .0319719
657.384 .0319635
658.135 .0319557
658.885 .0319482
659.636 .0319404
660.386 .0319309
661.136 .0319185
661.885 .0319033
662.635 .0318860
663.384 .0318667
664.133 .0318458
664.881 .0318239
665.630 .0318016
666.378 .0317802
667.126 .0317585
667.874 .0317361
668.621 .0317138
669.368 .0316914
670.115 .0316683
670.862 .0316441
671.608 .0316196
672.354 .0315951
673.100 .0315716
673.846 .0315496
674.591 .0315281
675.337 .0315079
676.082 .0314884
676.826 .0314696
677.571 .0314503
678.315 .0314308
679.059 .0314102
679.803 .0313893
680.547 .0313679
681.290 .0313451
682.033 .0313209
682.776 .0312962
683.518 .0312699
684.261 .0312423
685.003 .0312125
685.745 .0311821
686.487 .0311505
687.228 .0311196
687.969 .0310888
688.710 .0310583
689.451 .0310283
690.192 .0309983
690.932 .0309677
691.672 .0309362
692.412 .0309032
693.152 .0308696
693.891 .0308350
694.630 .0308005
695.369 .0307657
696.108 .0307323
696.846 .0307006
697.585 .0306706
698.323 .0306417
699.061 .0306132
699.798 .0305847
700.536 .0305555
701.273 .0305255
702.010 .0304942
702.746 .0304625
703.483 .0304312
704.219 .0304008
704.955 .0303728
705.691 .0303466
706.427 .0303230
707.162 .0303019
707.897 .0302825
708.632 .0302639
709.367 .0302454
710.101 .0302277
710.835 .0302095
711.569 .0301911
712.303 .0301730
713.037 .0301554
713.770 .0301387
714.503 .0301228
715.236 .0301071
715.969 .0300912
716.702 .0300750
717.434 .0300573
718.166 .0300374
718.898 .0300166
719.629 .0299942
720.361 .0299713
721.092 .0299485
721.823 .0299270
722.554 .0299061
723.284 .0298867
724.014 .0298675
724.744 .0298472
725.474 .0298255
726.204 .0298024
726.933 .0297781
727.662 .0297539
728.391 .0297302
729.120 .0297077
729.849 .0296873
730.577 .0296702
731.305 .0296547
732.033 .0296416
732.760 .0296301
733.488 .0296198
734.215 .0296093
734.942 .0295988
735.669 .0295882
736.395 .0295785
737.122 .0295698
737.848 .0295619
738.573 .0295547
739.299 .0295478
740.024 .0295413
740.750 .0295353
741.474 .0295294
742.199 .0295233
742.924 .0295165
743.648 .0295099
744.372 .0295024
745.096 .0294955
745.819 .0294885
746.543 .0294814
747.266 .0294751
747.989 .0294684
748.711 .0294617
749.434 .0294552
750.156 .0294494
750.878 .0294452
751.599 .0294427
752.321 .0294420
753.042 .0294424
753.763 .0294443
754.484 .0294472
755.205 .0294501
755.925 .0294521
756.645 .0294532
757.365 .0294528
758.085 .0294508
758.804 .0294473
759.523 .0294422
760.242 .0294362
760.961 .0294286
761.679 .0294201
762.397 .0294102
763.115 .0293983
763.833 .0293849
764.551 .0293693
765.268 .0293524
765.985 .0293340
766.702 .0293144
767.418 .0292947
768.134 .0292753
768.850 .0292562
769.566 .0292366
770.282 .0292178
770.997 .0291990
771.712 .0291796
772.427 .0291595
773.142 .0291389
773.856 .0291184
774.570 .0290978
775.284 .0290780
775.998 .0290590
776.711 .0290419
777.424 .0290262
778.137 .0290112
778.849 .0289968
779.562 .0289827
780.274 .0289684
780.986 .0289538
781.697 .0289391
782.409 .0289243
783.120 .0289102
783.831 .0288972
784.541 .0288854
785.252 .0288751
785.962 .0288661
786.671 .0288581
787.381 .0288500
788.090 .0288412
788.799 .0288311
789.508 .0288193
790.217 .0288055
790.925 .0287899
791.633 .0287720
792.341 .0287525
793.048 .0287316
793.755 .0287093
794.462 .0286860
795.169 .0286620
795.875 .0286379
796.581 .0286132
797.287 .0285883
797.993 .0285633
798.698 .0285381
799.403 .0285136
800.108 .0284893
800.812 .0284648
801.517 .0284405
802.221 .0284168
802.924 .0283932
803.628 .0283710
804.331 .0283502
805.034 .0283312
805.736 .0283141
806.439 .0282985
807.141 .0282840
807.843 .0282709
808.544 .0282589
809.245 .0282467
809.946 .0282339
810.647 .0282212
811.347 .0282078
812.047 .0281947
812.747 .0281827
813.447 .0281714
814.146 .0281608
814.845 .0281511
815.543 .0281407
816.242 .0281296
816.940 .0281172
817.638 .0281029
818.335 .0280862
819.032 .0280674
819.729 .0280466
820.426 .0280239
821.122 .0280008
821.818 .0279770
822.514 .0279521
823.209 .0279266
823.905 .0279000
824.599 .0278719
825.294 .0278427
825.988 .0278131
826.682 .0277830
827.376 .0277537
828.069 .0277258
828.762 .0276989
829.455 .0276739
830.147 .0276497
830.840 .0276262
831.531 .0276020
832.223 .0275777
832.914 .0275529
833.605 .0275280
834.296 .0275044
834.986 .0274820
835.676 .0274618
836.366 .0274441
837.055 .0274284
837.744 .0274144
838.433 .0274009
839.121 .0273873
839.809 .0273724
840.497 .0273569
841.185 .0273406
841.872 .0273246
842.559 .0273096
843.245 .0272965
843.932 .0272848
844.617 .0272752
845.303 .0272676
845.988 .0272608
846.673 .0272549
847.358 .0272496
848.042 .0272438
848.726 .0272374
849.410 .0272303
850.093 .0272226
850.776 .0272145
851.459 .0272064
852.141 .0271968
852.823 .0271869
853.505 .0271773
854.186 .0271675
854.867 .0271577
855.548 .0271491
856.228 .0271417
856.908 .0271345
857.588 .0271281
858.267 .0271213
858.946 .0271139
859.625 .0271057
860.303 .0270962
860.981 .0270851
861.659 .0270736
862.336 .0270611
863.013 .0270483
863.690 .0270364
864.366 .0270250
865.042 .0270142
865.718 .0270047
866.393 .0269963
867.068 .0269880
867.743 .0269793
868.417 .0269705
869.091 .0269607
869.765 .0269507
870.438 .0269402
871.111 .0269299
871.783 .0269206
872.456 .0269130
873.127 .0269067
873.799 .0269022
874.470 .0268993
875.141 .0268969
875.811 .0268941
876.481 .0268909
877.151 .0268868
877.820 .0268812
878.489 .0268755
879.158 .0268699
879.826 .0268645
880.494 .0268605
881.162 .0268573
881.829 .0268547
882.496 .0268525
883.163 .0268507
883.829 .0268482
884.495 .0268455
885.160 .0268430
885.825 .0268405
886.490 .0268387
887.154 .0268377
887.818 .0268373
888.482 .0268372
889.145 .0268376
889.808 .0268376
890.471 .0268366
891.133 .0268354
891.795 .0268332
892.456 .0268311
893.117 .0268297
893.778 .0268293
894.439 .0268301
895.099 .0268332
895.758 .0268380
896.417 .0268443
897.076 .0268521
897.735 .0268611
898.393 .0268712
899.051 .0268815
899.708 .0268912
900.365 .0268998
901.022 .0269077
901.678 .0269141
902.334 .0269181
902.990 .0269201
903.645 .0269200
904.300 .0269180
904.954 .0269143
905.608 .0269094
906.262 .0269036
906.915 .0268975
907.568 .0268916
908.221 .0268849
908.873 .0268779
909.525 .0268707
910.176 .0268631
910.828 .0268558
911.478 .0268486
912.129 .0268412
912.778 .0268350
913.428 .0268305
914.077 .0268274
914.726 .0268250
915.375 .0268233
916.023 .0268222
916.670 .0268207
917.318 .0268186
917.964 .0268152
918.611 .0268105
919.257 .0268059
919.903 .0268005
920.548 .0267945
921.193 .0267890
921.838 .0267840
922.482 .0267803
923.126 .0267776
923.770 .0267752
924.413 .0267732
925.056 .0267713
925.698 .0267696
926.340 .0267670
926.982 .0267638
927.623 .0267603
928.264 .0267556
928.904 .0267505
929.544 .0267446
930.184 .0267378
930.823 .0267310
931.462 .0267243
932.101 .0267168
932.739 .0267088
933.377 .0266994
934.014 .0266889
934.651 .0266777
935.288 .0266650
935.924 .0266509
936.560 .0266360
937.196 .0266210
937.831 .0266054
938.466 .0265892
939.100 .0265736
939.734 .0265571
940.368 .0265406
941.001 .0265233
941.634 .0265048
942.266 .0264858
942.899 .0264662
943.530 .0264457
944.162 .0264244
944.793 .0264034
945.423 .0263819
946.053 .0263599
946.683 .0263386
947.313 .0263172
947.942 .0262955
948.571 .0262735
949.199 .0262511
949.827 .0262278
950.455 .0262050
951.082 .0261827
951.709 .0261613
952.335 .0261414
952.961 .0261225
953.587 .0261052
954.212 .0260890
954.837 .0260737
955.462 .0260585
956.086 .0260429
956.710 .0260273
957.334 .0260103
957.957 .0259931
958.579 .0259758
959.202 .0259584
959.824 .0259414
960.445 .0259236
961.067 .0259050
961.688 .0258857
962.308 .0258651
962.928 .0258434
963.548 .0258203
964.168 .0257963
964.787 .0257711
965.406 .0257457
966.024 .0257211
966.642 .0256971
967.260 .0256739
967.877 .0256526
968.494 .0256314
969.110 .0256110
969.727 .0255906
970.342 .0255707
970.958 .0255518
971.573 .0255344
972.188 .0255173
972.802 .0255015
973.416 .0254875
974.030 .0254751
974.643 .0254633
975.256 .0254535
975.869 .0254438
976.481 .0254335
977.093 .0254229
977.705 .0254115
978.316 .0253992
978.927 .0253877
979.538 .0253756
980.148 .0253641
980.758 .0253531
981.367 .0253428
981.977 .0253320
982.586 .0253220
983.194 .0253117
983.802 .0253002
984.410 .0252882
985.018 .0252754
985.625 .0252612
986.232 .0252465
986.838 .0252311
987.445 .0252155
988.050 .0252003
988.656 .0251855
989.261 .0251707
989.866 .0251564
990.471 .0251421
991.075 .0251274
991.679 .0251119
992.282 .0250960
992.886 .0250784
993.489 .0250601
994.091 .0250406
994.694 .0250199
995.296 .0250001
995.897 .0249814
996.499 .0249646
997.100 .0249502
997.701 .0249377
998.301 .0249272
998.901 .0249189
999.501 .0249119
1000.101 .0249048
1000.700 .0248979
1001.299 .0248908
1001.898 .0248825
1002.496 .0248740
1003.094 .0248654
1003.692 .0248566
1004.289 .0248490
1004.887 .0248417
1005.484 .0248335
1006.080 .0248253
1006.677 .0248166
1007.273 .0248067
1007.868 .0247966
1008.464 .0247864
1009.059 .0247753
1009.654 .0247641
1010.249 .0247536
1010.843 .0247432
1011.437 .0247339
1012.031 .0247259
1012.625 .0247191
1013.218 .0247142
1013.811 .0247117
1014.404 .0247104
1014.997 .0247105
1015.589 .0247121
1016.181 .0247144
1016.773 .0247164
1017.365 .0247176
1017.956 .0247168
1018.547 .0247145
1019.138 .0247106
1019.728 .0247050
1020.319 .0246981
1020.909 .0246902
1021.499 .0246809
1022.088 .0246706
1022.678 .0246587
1023.267 .0246459
1023.856 .0246326
1024.445 .0246193
1025.033 .0246052
1025.621 .0245904
1026.209 .0245754
1026.797 .0245599
1027.385 .0245449
1027.972 .0245311
1028.560 .0245183
1029.147 .0245077
1029.734 .0244999
1030.320 .0244947
1030.907 .0244919
1031.493 .0244911
1032.079 .0244920
1032.665 .0244928
1033.250 .0244929
1033.836 .0244915
1034.421 .0244884
1035.006 .0244846
1035.591 .0244808
1036.176 .0244770
1036.761 .0244734
1037.345 .0244700
1037.929 .0244660
1038.514 .0244595
1039.097 .0244517
1039.681 .0244420
1040.265 .0244302
1040.848 .0244186
1041.432 .0244073
1042.015 .0243971
1042.598 .0243898
1043.181 .0243846
1043.764 .0243804
1044.346 .0243765
1044.929 .0243730
1045.511 .0243683
1046.094 .0243620
1046.676 .0243560
1047.258 .0243513
1047.840 .0243498
1048.422 .0243513
1049.003 .0243546
1049.585 .0243597
1050.166 .0243667
1050.748 .0243739
1051.329 .0243811
1051.910 .0243879
1052.491 .0243942
1053.072 .0244010
1053.653 .0244076
1054.234 .0244148
1054.815 .0244237
1055.396 .0244333
1055.976 .0244424
1056.557 .0244493
1057.138 .0244534
1057.718 .0244529
1058.298 .0244484
1058.879 .0244402
1059.459 .0244274
1060.039 .0244112
1060.620 .0243928
1061.200 .0243715
1061.780 .0243491
1062.360 .0243260
1062.940 .0243009
1063.520 .0242756
1064.101 .0242496
1064.681 .0242228
1065.261 .0241955
1065.841 .0241681
1066.421 .0241440
1067.001 .0241212
1067.581 .0241012
1068.161 .0240846
1068.741 .0240727
1069.321 .0240670
1069.901 .0240662
1070.482 .0240706
1071.062 .0240794
1071.642 .0240913
1072.222 .0241057
1072.803 .0241209
1073.383 .0241364
1073.963 .0241541
1074.544 .0241728
1075.124 .0241919
1075.705 .0242129
1076.286 .0242326
1076.866 .0242524
1077.447 .0242723
1078.028 .0242921
1078.609 .0243103
1079.190 .0243276
1079.771 .0243465
1080.352 .0243613
1080.934 .0243755
1081.515 .0243887
1082.097 .0243990
1082.679 .0244081
1083.260 .0244147
1083.842 .0244177
1084.424 .0244194
1085.007 .0244227
1085.589 .0244274
1086.172 .0244333
1086.754 .0244418
1087.337 .0244493
1087.920 .0244557
1088.503 .0244603
1089.087 .0244603
1089.670 .0244548
1090.254 .0244476
1090.838 .0244358
1091.422 .0244213
1092.006 .0244068
1092.590 .0243927
1093.175 .0243805
1093.760 .0243686
1094.345 .0243577
1094.930 .0243478
1095.516 .0243397
1096.102 .0243361
1096.688 .0243372
1097.274 .0243459
1097.860 .0243602
1098.447 .0243778
1099.034 .0243996
1099.622 .0244217
1100.209 .0244417
1100.797 .0244604
1101.385 .0244772
1101.973 .0244918
1102.562 .0245058
1103.151 .0245201
1103.740 .0245369
1104.330 .0245544
1104.920 .0245694
1105.510 .0245775
1106.101 .0245753
1106.691 .0245631
1107.283 .0245390
1107.874 .0245085
1108.466 .0244770
1109.058 .0244454
1109.651 .0244235
1110.244 .0244148
1110.837 .0244206
1111.431 .0244402
1112.025 .0244719
1112.620 .0245127
1113.215 .0245589
1113.810 .0246083
1114.406 .0246551
1115.002 .0247026
1115.599 .0247503
1116.196 .0247954
1116.793 .0248355
1117.391 .0248718
1117.989 .0249027
1118.588 .0249287
1119.187 .0249501
1119.787 .0249579
1120.387 .0249572
1120.988 .0249466
1121.589 .0249221
1122.190 .0248860
1122.793 .0248362
1123.395 .0247774
1123.998 .0247105
1124.602 .0246442
1125.206 .0245811
1125.811 .0245321
1126.416 .0245026
1127.022 .0244924
1127.628 .0245024
1128.235 .0245292
1128.843 .0245660
1129.451 .0246120
1130.059 .0246612
1130.669 .0247083
1131.278 .0247516
1131.889 .0247948
1132.500 .0248355
1133.112 .0248858
1133.724 .0249412
1134.337 .0250082
1134.950 .0250772
1135.564 .0251462
1136.179 .0252098
1136.795 .0252721
1137.411 .0253292
1138.028 .0253811
1138.645 .0254327
1139.263 .0254900
1139.882 .0255523
1140.502 .0256361
1141.122 .0257240
1141.743 .0258378
1142.365 .0259558
1142.987 .0260222
1143.611 .0264180
1144.235 .0261823
1144.859 .0266261
1145.485 .0264584
