Measurement Sequence started on: 10-20-44-796
Integration time: 35
Scans to Average: 2 
>>>>>Begin Spectral Data<<<<<
432.953 .0269738
433.882 .0252605
434.810 .0276776
435.737 .0304648
436.662 .0299776
437.586 .0306363
438.509 .0312090
439.431 .0316885
440.351 .0320008
441.269 .0321797
442.187 .0323249
443.103 .0323971
444.018 .0324518
444.932 .0324790
445.844 .0324681
446.756 .0324310
447.666 .0323669
448.575 .0322840
449.482 .0322015
450.388 .0321148
451.294 .0320422
452.198 .0319962
453.100 .0319589
454.002 .0319358
454.902 .0319205
455.801 .0319019
456.699 .0318773
457.596 .0318551
458.492 .0318269
459.387 .0317979
460.280 .0317705
461.172 .0317557
462.064 .0317458
462.954 .0317457
463.843 .0317481
464.730 .0317581
465.617 .0317684
466.503 .0317703
467.387 .0317591
468.271 .0317424
469.153 .0317192
470.035 .0316945
470.915 .0316697
471.794 .0316499
472.673 .0316355
473.550 .0316307
474.426 .0316312
475.301 .0316367
476.175 .0316393
477.048 .0316387
477.920 .0316308
478.791 .0316202
479.661 .0316012
480.530 .0315800
481.398 .0315613
482.266 .0315459
483.132 .0315328
483.997 .0315203
484.861 .0315089
485.724 .0314990
486.587 .0314864
487.448 .0314683
488.308 .0314406
489.168 .0314053
490.026 .0313635
490.884 .0313175
491.741 .0312687
492.597 .0312216
493.452 .0311770
494.306 .0311387
495.159 .0311048
496.011 .0310751
496.862 .0310485
497.713 .0310229
498.562 .0309931
499.411 .0309550
500.259 .0309069
501.106 .0308519
501.952 .0307898
502.798 .0307288
503.642 .0306690
504.486 .0306125
505.329 .0305599
506.171 .0305102
507.012 .0304580
507.852 .0304033
508.692 .0303366
509.531 .0302583
510.369 .0301656
511.206 .0300647
512.043 .0299536
512.878 .0298414
513.713 .0297301
514.547 .0296219
515.381 .0295136
516.213 .0294056
517.045 .0292875
517.876 .0291602
518.706 .0290163
519.536 .0288553
520.365 .0286753
521.193 .0284828
522.020 .0282777
522.847 .0280698
523.673 .0278618
524.498 .0276591
525.323 .0274534
526.146 .0272514
526.969 .0270567
527.792 .0268668
528.614 .0266859
529.435 .0265145
530.255 .0263583
531.075 .0262189
531.894 .0260991
532.712 .0259991
533.530 .0259159
534.347 .0258518
535.163 .0257973
535.979 .0257474
536.794 .0257033
537.608 .0256574
538.422 .0256152
539.235 .0255803
540.048 .0255507
540.860 .0255241
541.671 .0255098
542.481 .0255059
543.292 .0255163
544.101 .0255319
544.910 .0255556
545.718 .0255834
546.526 .0256127
547.333 .0256424
548.139 .0256699
548.945 .0257068
549.750 .0257531
550.555 .0258074
551.359 .0258723
552.162 .0259409
552.965 .0260148
553.768 .0260863
554.569 .0261533
555.371 .0262091
556.171 .0262530
556.972 .0262853
557.771 .0263105
558.570 .0263323
559.369 .0263553
560.167 .0263917
560.964 .0264396
561.761 .0265013
562.558 .0265702
563.354 .0266462
564.149 .0267258
564.944 .0268032
565.738 .0268780
566.532 .0269474
567.325 .0270195
568.118 .0270946
568.910 .0271752
569.702 .0272669
570.494 .0273670
571.285 .0274763
572.075 .0275894
572.865 .0277016
573.654 .0278058
574.443 .0278998
575.232 .0279852
576.020 .0280612
576.807 .0281289
577.594 .0281905
578.381 .0282505
579.167 .0283104
579.952 .0283717
580.738 .0284333
581.522 .0284978
582.307 .0285625
583.091 .0286251
583.874 .0286832
584.657 .0287356
585.440 .0287836
586.222 .0288264
587.004 .0288656
587.785 .0289023
588.566 .0289337
589.346 .0289627
590.126 .0289872
590.906 .0290087
591.685 .0290280
592.464 .0290431
593.242 .0290557
594.020 .0290653
594.797 .0290716
595.575 .0290747
596.351 .0290753
597.128 .0290729
597.904 .0290670
598.679 .0290581
599.454 .0290454
600.229 .0290294
601.004 .0290121
601.778 .0289940
602.551 .0289759
603.325 .0289588
604.097 .0289425
604.870 .0289259
605.642 .0289104
606.414 .0288939
607.185 .0288772
607.956 .0288599
608.727 .0288435
609.497 .0288268
610.267 .0288117
611.037 .0287975
611.806 .0287847
612.575 .0287739
613.344 .0287641
614.112 .0287543
614.880 .0287453
615.647 .0287360
616.414 .0287269
617.181 .0287173
617.948 .0287084
618.714 .0286992
619.480 .0286910
620.245 .0286816
621.011 .0286715
621.775 .0286599
622.540 .0286478
623.304 .0286346
624.068 .0286225
624.832 .0286115
625.595 .0286014
626.358 .0285933
627.120 .0285868
627.883 .0285799
628.645 .0285727
629.406 .0285638
630.168 .0285537
630.929 .0285416
631.689 .0285289
632.450 .0285152
633.210 .0285031
633.970 .0284926
634.729 .0284833
635.489 .0284743
636.248 .0284645
637.006 .0284531
637.765 .0284390
638.523 .0284221
639.280 .0284027
640.038 .0283811
640.795 .0283602
641.552 .0283396
642.309 .0283207
643.065 .0283036
643.821 .0282884
644.577 .0282740
645.332 .0282589
646.088 .0282428
646.843 .0282245
647.597 .0282042
648.352 .0281821
649.106 .0281593
649.860 .0281367
650.613 .0281153
651.367 .0280956
652.120 .0280780
652.872 .0280624
653.625 .0280483
654.377 .0280351
655.129 .0280224
655.881 .0280095
656.632 .0279958
657.384 .0279810
658.135 .0279652
658.885 .0279485
659.636 .0279315
660.386 .0279144
661.136 .0278974
661.885 .0278811
662.635 .0278649
663.384 .0278490
664.133 .0278332
664.881 .0278170
665.630 .0277999
666.378 .0277822
667.126 .0277636
667.874 .0277444
668.621 .0277246
669.368 .0277046
670.115 .0276848
670.862 .0276659
671.608 .0276484
672.354 .0276321
673.100 .0276174
673.846 .0276045
674.591 .0275927
675.337 .0275823
676.082 .0275723
676.826 .0275626
677.571 .0275528
678.315 .0275426
679.059 .0275321
679.803 .0275215
680.547 .0275108
681.290 .0275000
682.033 .0274884
682.776 .0274765
683.518 .0274636
684.261 .0274494
685.003 .0274344
685.745 .0274184
686.487 .0274020
687.228 .0273853
687.969 .0273678
688.710 .0273503
689.451 .0273326
690.192 .0273150
690.932 .0272972
691.672 .0272792
692.412 .0272612
693.152 .0272437
693.891 .0272272
694.630 .0272119
695.369 .0271982
696.108 .0271862
696.846 .0271755
697.585 .0271652
698.323 .0271555
699.061 .0271454
699.798 .0271349
700.536 .0271238
701.273 .0271117
702.010 .0270994
702.746 .0270867
703.483 .0270742
704.219 .0270616
704.955 .0270493
705.691 .0270368
706.427 .0270239
707.162 .0270111
707.897 .0269978
708.632 .0269846
709.367 .0269717
710.101 .0269585
710.835 .0269454
711.569 .0269324
712.303 .0269196
713.037 .0269071
713.770 .0268954
714.503 .0268839
715.236 .0268728
715.969 .0268622
716.702 .0268519
717.434 .0268414
718.166 .0268310
718.898 .0268199
719.629 .0268082
720.361 .0267960
721.092 .0267829
721.823 .0267688
722.554 .0267549
723.284 .0267404
724.014 .0267253
724.744 .0267094
725.474 .0266931
726.204 .0266761
726.933 .0266588
727.662 .0266413
728.391 .0266237
729.120 .0266062
729.849 .0265892
730.577 .0265724
731.305 .0265561
732.033 .0265402
732.760 .0265246
733.488 .0265090
734.215 .0264942
734.942 .0264792
735.669 .0264644
736.395 .0264500
737.122 .0264363
737.848 .0264225
738.573 .0264090
739.299 .0263954
740.024 .0263818
740.750 .0263681
741.474 .0263546
742.199 .0263407
742.924 .0263271
743.648 .0263134
744.372 .0262997
745.096 .0262859
745.819 .0262721
746.543 .0262578
747.266 .0262443
747.989 .0262314
748.711 .0262192
749.434 .0262077
750.156 .0261978
750.878 .0261891
751.599 .0261818
752.321 .0261753
753.042 .0261692
753.763 .0261634
754.484 .0261576
755.205 .0261511
755.925 .0261443
756.645 .0261371
757.365 .0261293
758.085 .0261212
758.804 .0261128
759.523 .0261036
760.242 .0260938
760.961 .0260826
761.679 .0260700
762.397 .0260551
763.115 .0260381
763.833 .0260187
764.551 .0259976
765.268 .0259751
765.985 .0259517
766.702 .0259285
767.418 .0259061
768.134 .0258846
768.850 .0258641
769.566 .0258444
770.282 .0258258
770.997 .0258071
771.712 .0257883
772.427 .0257692
773.142 .0257502
773.856 .0257310
774.570 .0257120
775.284 .0256941
775.998 .0256774
776.711 .0256620
777.424 .0256475
778.137 .0256335
778.849 .0256196
779.562 .0256052
780.274 .0255903
780.986 .0255749
781.697 .0255595
782.409 .0255437
783.120 .0255288
783.831 .0255145
784.541 .0255009
785.252 .0254885
785.962 .0254771
786.671 .0254666
787.381 .0254561
788.090 .0254452
788.799 .0254336
789.508 .0254213
790.217 .0254087
790.925 .0253950
791.633 .0253809
792.341 .0253659
793.048 .0253501
793.755 .0253336
794.462 .0253168
795.169 .0252995
795.875 .0252821
796.581 .0252646
797.287 .0252471
797.993 .0252296
798.698 .0252132
799.403 .0251974
800.108 .0251825
800.812 .0251684
801.517 .0251549
802.221 .0251418
802.924 .0251291
803.628 .0251169
804.331 .0251055
805.034 .0250948
805.736 .0250845
806.439 .0250745
807.141 .0250650
807.843 .0250560
808.544 .0250471
809.245 .0250382
809.946 .0250288
810.647 .0250185
811.347 .0250075
812.047 .0249960
812.747 .0249842
813.447 .0249727
814.146 .0249614
814.845 .0249510
815.543 .0249409
816.242 .0249317
816.940 .0249227
817.638 .0249140
818.335 .0249050
819.032 .0248954
819.729 .0248851
820.426 .0248744
821.122 .0248631
821.818 .0248515
822.514 .0248395
823.209 .0248274
823.905 .0248150
824.599 .0248024
825.294 .0247896
825.988 .0247766
826.682 .0247628
827.376 .0247489
828.069 .0247346
828.762 .0247200
829.455 .0247056
830.147 .0246920
830.840 .0246790
831.531 .0246674
832.223 .0246571
832.914 .0246479
833.605 .0246397
834.296 .0246324
834.986 .0246254
835.676 .0246184
836.366 .0246115
837.055 .0246039
837.744 .0245960
838.433 .0245877
839.121 .0245788
839.809 .0245699
840.497 .0245614
841.185 .0245533
841.872 .0245456
842.559 .0245387
843.245 .0245322
843.932 .0245260
844.617 .0245201
845.303 .0245140
845.988 .0245077
846.673 .0245010
847.358 .0244942
848.042 .0244873
848.726 .0244812
849.410 .0244756
850.093 .0244710
850.776 .0244674
851.459 .0244642
852.141 .0244607
852.823 .0244566
853.505 .0244516
854.186 .0244455
854.867 .0244383
855.548 .0244301
856.228 .0244217
856.908 .0244138
857.588 .0244068
858.267 .0244008
858.946 .0243956
859.625 .0243913
860.303 .0243873
860.981 .0243835
861.659 .0243796
862.336 .0243755
863.013 .0243713
863.690 .0243672
864.366 .0243634
865.042 .0243596
865.718 .0243559
866.393 .0243524
867.068 .0243488
867.743 .0243452
868.417 .0243413
869.091 .0243372
869.765 .0243332
870.438 .0243298
871.111 .0243262
871.783 .0243228
872.456 .0243194
873.127 .0243158
873.799 .0243117
874.470 .0243070
875.141 .0243013
875.811 .0242949
876.481 .0242880
877.151 .0242803
877.820 .0242722
878.489 .0242644
879.158 .0242562
879.826 .0242481
880.494 .0242398
881.162 .0242312
881.829 .0242224
882.496 .0242135
883.163 .0242042
883.829 .0241949
884.495 .0241855
885.160 .0241764
885.825 .0241684
886.490 .0241619
887.154 .0241566
887.818 .0241528
888.482 .0241505
889.145 .0241486
889.808 .0241471
890.471 .0241460
891.133 .0241445
891.795 .0241424
892.456 .0241397
893.117 .0241361
893.778 .0241322
894.439 .0241282
895.099 .0241238
895.758 .0241193
896.417 .0241150
897.076 .0241101
897.735 .0241047
898.393 .0240989
899.051 .0240928
899.708 .0240865
900.365 .0240800
901.022 .0240734
901.678 .0240666
902.334 .0240601
902.990 .0240539
903.645 .0240481
904.300 .0240427
904.954 .0240374
905.608 .0240324
906.262 .0240274
906.915 .0240224
907.568 .0240174
908.221 .0240124
908.873 .0240076
909.525 .0240027
910.176 .0239972
910.828 .0239915
911.478 .0239856
912.129 .0239789
912.778 .0239717
913.428 .0239640
914.077 .0239557
914.726 .0239468
915.375 .0239376
916.023 .0239280
916.670 .0239186
917.318 .0239093
917.964 .0238997
918.611 .0238896
919.257 .0238789
919.903 .0238671
920.548 .0238543
921.193 .0238415
921.838 .0238285
922.482 .0238156
923.126 .0238035
923.770 .0237921
924.413 .0237816
925.056 .0237720
925.698 .0237633
926.340 .0237556
926.982 .0237483
927.623 .0237413
928.264 .0237345
928.904 .0237281
929.544 .0237218
930.184 .0237156
930.823 .0237094
931.462 .0237025
932.101 .0236948
932.739 .0236856
933.377 .0236751
934.014 .0236632
934.651 .0236497
935.288 .0236346
935.924 .0236182
936.560 .0236005
937.196 .0235815
937.831 .0235616
938.466 .0235409
939.100 .0235190
939.734 .0234964
940.368 .0234731
941.001 .0234496
941.634 .0234262
942.266 .0234029
942.899 .0233801
943.530 .0233579
944.162 .0233361
944.793 .0233144
945.423 .0232932
946.053 .0232724
946.683 .0232516
947.313 .0232311
947.942 .0232109
948.571 .0231906
949.199 .0231703
949.827 .0231496
950.455 .0231281
951.082 .0231062
951.709 .0230838
952.335 .0230611
952.961 .0230387
953.587 .0230167
954.212 .0229951
954.837 .0229738
955.462 .0229530
956.086 .0229325
956.710 .0229118
957.334 .0228912
957.957 .0228701
958.579 .0228486
959.202 .0228268
959.824 .0228047
960.445 .0227826
961.067 .0227609
961.688 .0227397
962.308 .0227195
962.928 .0227003
963.548 .0226825
964.168 .0226661
964.787 .0226511
965.406 .0226375
966.024 .0226245
966.642 .0226124
967.260 .0226011
967.877 .0225903
968.494 .0225802
969.110 .0225704
969.727 .0225611
970.342 .0225522
970.958 .0225440
971.573 .0225359
972.188 .0225279
972.802 .0225198
973.416 .0225113
974.030 .0225021
974.643 .0224920
975.256 .0224815
975.869 .0224706
976.481 .0224597
977.093 .0224487
977.705 .0224377
978.316 .0224270
978.927 .0224166
979.538 .0224064
980.148 .0223961
980.758 .0223857
981.367 .0223754
981.977 .0223654
982.586 .0223559
983.194 .0223468
983.802 .0223381
984.410 .0223292
985.018 .0223196
985.625 .0223084
986.232 .0222962
986.838 .0222828
987.445 .0222690
988.050 .0222550
988.656 .0222416
989.261 .0222290
989.866 .0222171
990.471 .0222067
991.075 .0221971
991.679 .0221882
992.282 .0221802
992.886 .0221728
993.489 .0221665
994.091 .0221609
994.694 .0221571
995.296 .0221547
995.897 .0221538
996.499 .0221534
997.100 .0221528
997.701 .0221522
998.301 .0221512
998.901 .0221490
999.501 .0221463
1000.101 .0221437
1000.700 .0221415
1001.299 .0221401
1001.898 .0221399
1002.496 .0221409
1003.094 .0221429
1003.692 .0221448
1004.289 .0221462
1004.887 .0221462
1005.484 .0221446
1006.080 .0221417
1006.677 .0221375
1007.273 .0221331
1007.868 .0221285
1008.464 .0221240
1009.059 .0221200
1009.654 .0221166
1010.249 .0221135
1010.843 .0221101
1011.437 .0221073
1012.031 .0221041
1012.625 .0221004
1013.218 .0220964
1013.811 .0220922
1014.404 .0220883
1014.997 .0220855
1015.589 .0220836
1016.181 .0220830
1016.773 .0220841
1017.365 .0220871
1017.956 .0220910
1018.547 .0220966
1019.138 .0221032
1019.728 .0221097
1020.319 .0221155
1020.909 .0221203
1021.499 .0221233
1022.088 .0221250
1022.678 .0221249
1023.267 .0221235
1023.856 .0221211
1024.445 .0221188
1025.033 .0221168
1025.621 .0221157
1026.209 .0221154
1026.797 .0221158
1027.385 .0221158
1027.972 .0221158
1028.560 .0221148
1029.147 .0221133
1029.734 .0221122
1030.320 .0221117
1030.907 .0221126
1031.493 .0221150
1032.079 .0221193
1032.665 .0221257
1033.250 .0221331
1033.836 .0221416
1034.421 .0221501
1035.006 .0221584
1035.591 .0221658
1036.176 .0221727
1036.761 .0221792
1037.345 .0221852
1037.929 .0221907
1038.514 .0221957
1039.097 .0222000
1039.681 .0222037
1040.265 .0222069
1040.848 .0222094
1041.432 .0222113
1042.015 .0222126
1042.598 .0222136
1043.181 .0222152
1043.764 .0222173
1044.346 .0222199
1044.929 .0222230
1045.511 .0222266
1046.094 .0222306
1046.676 .0222343
1047.258 .0222380
1047.840 .0222415
1048.422 .0222454
1049.003 .0222491
1049.585 .0222529
1050.166 .0222573
1050.748 .0222614
1051.329 .0222665
1051.910 .0222722
1052.491 .0222772
1053.072 .0222825
1053.653 .0222878
1054.234 .0222936
1054.815 .0222981
1055.396 .0223020
1055.976 .0223052
1056.557 .0223078
1057.138 .0223114
1057.718 .0223150
1058.298 .0223194
1058.879 .0223259
1059.459 .0223328
1060.039 .0223398
1060.620 .0223457
1061.200 .0223492
1061.780 .0223493
1062.360 .0223464
1062.940 .0223406
1063.520 .0223331
1064.101 .0223250
1064.681 .0223194
1065.261 .0223164
1065.841 .0223166
1066.421 .0223211
1067.001 .0223279
1067.581 .0223358
1068.161 .0223438
1068.741 .0223510
1069.321 .0223575
1069.901 .0223620
1070.482 .0223655
1071.062 .0223674
1071.642 .0223683
1072.222 .0223695
1072.803 .0223688
1073.383 .0223688
1073.963 .0223690
1074.544 .0223694
1075.124 .0223691
1075.705 .0223686
1076.286 .0223678
1076.866 .0223667
1077.447 .0223655
1078.028 .0223639
1078.609 .0223612
1079.190 .0223589
1079.771 .0223567
1080.352 .0223559
1080.934 .0223581
1081.515 .0223651
1082.097 .0223764
1082.679 .0223932
1083.260 .0224127
1083.842 .0224339
1084.424 .0224532
1085.007 .0224710
1085.589 .0224854
1086.172 .0224960
1086.754 .0225036
1087.337 .0225091
1087.920 .0225167
1088.503 .0225268
1089.087 .0225393
1089.670 .0225563
1090.254 .0225750
1090.838 .0225941
1091.422 .0226099
1092.006 .0226213
1092.590 .0226281
1093.175 .0226291
1093.760 .0226245
1094.345 .0226157
1094.930 .0226059
1095.516 .0225942
1096.102 .0225831
1096.688 .0225751
1097.274 .0225701
1097.860 .0225655
1098.447 .0225614
1099.034 .0225572
1099.622 .0225495
1100.209 .0225405
1100.797 .0225285
1101.385 .0225142
1101.973 .0224995
1102.562 .0224823
1103.151 .0224647
1103.740 .0224484
1104.330 .0224342
1104.920 .0224208
1105.510 .0224109
1106.101 .0224056
1106.691 .0224012
1107.283 .0223986
1107.874 .0223975
1108.466 .0223967
1109.058 .0223940
1109.651 .0223911
1110.244 .0223861
1110.837 .0223823
1111.431 .0223803
1112.025 .0223816
1112.620 .0223904
1113.215 .0224061
1113.810 .0224293
1114.406 .0224579
1115.002 .0224900
1115.599 .0225224
1116.196 .0225486
1116.793 .0225678
1117.391 .0225788
1117.989 .0225819
1118.588 .0225799
1119.187 .0225760
1119.787 .0225755
1120.387 .0225807
1120.988 .0225923
1121.589 .0226127
1122.190 .0226377
1122.793 .0226645
1123.395 .0226909
1123.998 .0227125
1124.602 .0227314
1125.206 .0227454
1125.811 .0227577
1126.416 .0227699
1127.022 .0227823
1127.628 .0227973
1128.235 .0228111
1128.843 .0228271
1129.451 .0228448
1130.059 .0228618
1130.669 .0228818
1131.278 .0229042
1131.889 .0229275
1132.500 .0229519
1133.112 .0229757
1133.724 .0229995
1134.337 .0230211
1134.950 .0230387
1135.564 .0230542
1136.179 .0230678
1136.795 .0230838
1137.411 .0231040
1138.028 .0231305
1138.645 .0231655
1139.263 .0232067
1139.882 .0232448
1140.502 .0232804
1141.122 .0233126
1141.743 .0233382
1142.365 .0233630
1142.987 .0232736
1143.611 .0233333
1144.235 .0234121
1144.859 .0233702
1145.485 .0236091
