Measurement Sequence started on: 10-20-44-796
Integration time: 35
Scans to Average: 2 
>>>>>Begin Spectral Data<<<<<
432.953 .0454431
433.882 .0411252
434.810 .0369288
435.737 .0339514
436.662 .0303987
437.586 .0330126
438.509 .0320316
439.431 .0314434
440.351 .0311433
441.269 .0310142
442.187 .0310111
443.103 .0310002
444.018 .0310158
444.932 .0310560
445.844 .0311046
446.756 .0311432
447.666 .0311761
448.575 .0311715
449.482 .0311456
450.388 .0310906
451.294 .0310240
452.198 .0309540
453.100 .0308972
454.002 .0308587
454.902 .0308417
455.801 .0308423
456.699 .0308539
457.596 .0308693
458.492 .0308923
459.387 .0309208
460.280 .0309522
461.172 .0309744
462.064 .0310002
462.954 .0310186
463.843 .0310304
464.730 .0310325
465.617 .0310249
466.503 .0310165
467.387 .0309969
468.271 .0309723
469.153 .0309479
470.035 .0309252
470.915 .0309051
471.794 .0308807
472.673 .0308526
473.550 .0308154
474.426 .0307704
475.301 .0307176
476.175 .0306648
477.048 .0306137
477.920 .0305682
478.791 .0305319
479.661 .0305045
480.530 .0304870
481.398 .0304730
482.266 .0304613
483.132 .0304485
483.997 .0304293
484.861 .0304090
485.724 .0303892
486.587 .0303719
487.448 .0303564
488.308 .0303453
489.168 .0303402
490.026 .0303365
490.884 .0303298
491.741 .0303209
492.597 .0303075
493.452 .0302924
494.306 .0302744
495.159 .0302545
496.011 .0302349
496.862 .0302176
497.713 .0301962
498.562 .0301698
499.411 .0301323
500.259 .0300827
501.106 .0300209
501.952 .0299489
502.798 .0298679
503.642 .0297821
504.486 .0296975
505.329 .0296195
506.171 .0295443
507.012 .0294756
507.852 .0294048
508.692 .0293335
509.531 .0292589
510.369 .0291750
511.206 .0290833
512.043 .0289818
512.878 .0288691
513.713 .0287500
514.547 .0286195
515.381 .0284851
516.213 .0283465
517.045 .0282104
517.876 .0280694
518.706 .0279264
519.536 .0277794
520.365 .0276204
521.193 .0274511
522.020 .0272720
522.847 .0270840
523.673 .0268889
524.498 .0266864
525.323 .0264847
526.146 .0263007
526.969 .0261381
527.792 .0259879
528.614 .0258540
529.435 .0257382
530.255 .0256319
531.075 .0255174
531.894 .0254030
532.712 .0252847
533.530 .0251606
534.347 .0250404
535.163 .0249237
535.979 .0248295
536.794 .0247572
537.608 .0247062
538.422 .0246784
539.235 .0246667
540.048 .0246666
540.860 .0246552
541.671 .0246386
542.481 .0246190
543.292 .0245897
544.101 .0245583
544.910 .0245397
545.718 .0245385
546.526 .0245536
547.333 .0245845
548.139 .0246258
548.945 .0246748
549.750 .0247207
550.555 .0247639
551.359 .0247972
552.162 .0248238
552.965 .0248528
553.768 .0248854
554.569 .0249337
555.371 .0249912
556.171 .0250522
556.972 .0251200
557.771 .0251855
558.570 .0252424
559.369 .0252891
560.167 .0253343
560.964 .0253839
561.761 .0254403
562.558 .0255077
563.354 .0255865
564.149 .0256755
564.944 .0257722
565.738 .0258711
566.532 .0259704
567.325 .0260712
568.118 .0261734
568.910 .0262823
569.702 .0264033
570.494 .0265352
571.285 .0266793
572.075 .0268324
572.865 .0269861
573.654 .0271347
574.443 .0272714
575.232 .0273948
576.020 .0275023
576.807 .0275966
577.594 .0276783
578.381 .0277531
579.167 .0278223
579.952 .0278854
580.738 .0279460
581.522 .0280042
582.307 .0280581
583.091 .0281100
583.874 .0281583
584.657 .0282042
585.440 .0282463
586.222 .0282872
587.004 .0283257
587.785 .0283643
588.566 .0284027
589.346 .0284391
590.126 .0284759
590.906 .0285114
591.685 .0285453
592.464 .0285788
593.242 .0286110
594.020 .0286386
594.797 .0286624
595.575 .0286822
596.351 .0286980
597.128 .0287100
597.904 .0287198
598.679 .0287280
599.454 .0287364
600.229 .0287443
601.004 .0287507
601.778 .0287558
602.551 .0287599
603.325 .0287606
604.097 .0287584
604.870 .0287532
605.642 .0287464
606.414 .0287379
607.185 .0287294
607.956 .0287229
608.727 .0287182
609.497 .0287148
610.267 .0287119
611.037 .0287084
611.806 .0287025
612.575 .0286929
613.344 .0286803
614.112 .0286647
614.880 .0286476
615.647 .0286306
616.414 .0286148
617.181 .0286028
617.948 .0285946
618.714 .0285887
619.480 .0285842
620.245 .0285795
621.011 .0285713
621.775 .0285587
622.540 .0285420
623.304 .0285218
624.068 .0284991
624.832 .0284768
625.595 .0284560
626.358 .0284373
627.120 .0284209
627.883 .0284061
628.645 .0283916
629.406 .0283768
630.168 .0283604
630.929 .0283424
631.689 .0283232
632.450 .0283043
633.210 .0282859
633.970 .0282687
634.729 .0282537
635.489 .0282398
636.248 .0282271
637.006 .0282151
637.765 .0282033
638.523 .0281902
639.280 .0281765
640.038 .0281627
640.795 .0281485
641.552 .0281344
642.309 .0281216
643.065 .0281088
643.821 .0280959
644.577 .0280823
645.332 .0280678
646.088 .0280527
646.843 .0280377
647.597 .0280219
648.352 .0280061
649.106 .0279917
649.860 .0279791
650.613 .0279679
651.367 .0279589
652.120 .0279522
652.872 .0279457
653.625 .0279391
654.377 .0279319
655.129 .0279225
655.881 .0279118
656.632 .0278997
657.384 .0278857
658.135 .0278706
658.885 .0278552
659.636 .0278404
660.386 .0278267
661.136 .0278152
661.885 .0278048
662.635 .0277952
663.384 .0277866
664.133 .0277781
664.881 .0277685
665.630 .0277586
666.378 .0277480
667.126 .0277368
667.874 .0277251
668.621 .0277137
669.368 .0277029
670.115 .0276938
670.862 .0276858
671.608 .0276796
672.354 .0276749
673.100 .0276712
673.846 .0276681
674.591 .0276649
675.337 .0276619
676.082 .0276581
676.826 .0276542
677.571 .0276498
678.315 .0276446
679.059 .0276390
679.803 .0276325
680.547 .0276249
681.290 .0276165
682.033 .0276068
682.776 .0275957
683.518 .0275838
684.261 .0275705
685.003 .0275560
685.745 .0275409
686.487 .0275252
687.228 .0275089
687.969 .0274922
688.710 .0274748
689.451 .0274565
690.192 .0274377
690.932 .0274192
691.672 .0274007
692.412 .0273826
693.152 .0273657
693.891 .0273496
694.630 .0273347
695.369 .0273214
696.108 .0273085
696.846 .0272958
697.585 .0272830
698.323 .0272698
699.061 .0272553
699.798 .0272399
700.536 .0272236
701.273 .0272069
702.010 .0271905
702.746 .0271743
703.483 .0271591
704.219 .0271451
704.955 .0271325
705.691 .0271206
706.427 .0271088
707.162 .0270974
707.897 .0270856
708.632 .0270737
709.367 .0270611
710.101 .0270479
710.835 .0270338
711.569 .0270190
712.303 .0270040
713.037 .0269884
713.770 .0269728
714.503 .0269569
715.236 .0269415
715.969 .0269261
716.702 .0269107
717.434 .0268954
718.166 .0268801
718.898 .0268644
719.629 .0268479
720.361 .0268311
721.092 .0268141
721.823 .0267975
722.554 .0267817
723.284 .0267669
724.014 .0267528
724.744 .0267389
725.474 .0267247
726.204 .0267097
726.933 .0266940
727.662 .0266767
728.391 .0266577
729.120 .0266375
729.849 .0266165
730.577 .0265957
731.305 .0265752
732.033 .0265548
732.760 .0265343
733.488 .0265134
734.215 .0264916
734.942 .0264683
735.669 .0264430
736.395 .0264171
737.122 .0263911
737.848 .0263650
738.573 .0263397
739.299 .0263156
740.024 .0262933
740.750 .0262728
741.474 .0262532
742.199 .0262344
742.924 .0262162
743.648 .0261991
744.372 .0261825
745.096 .0261664
745.819 .0261514
746.543 .0261372
747.266 .0261241
747.989 .0261120
748.711 .0261000
749.434 .0260881
750.156 .0260770
750.878 .0260660
751.599 .0260559
752.321 .0260460
753.042 .0260368
753.763 .0260290
754.484 .0260224
755.205 .0260163
755.925 .0260104
756.645 .0260047
757.365 .0259992
758.085 .0259925
758.804 .0259856
759.523 .0259774
760.242 .0259691
760.961 .0259606
761.679 .0259509
762.397 .0259396
763.115 .0259273
763.833 .0259130
764.551 .0258966
765.268 .0258786
765.985 .0258594
766.702 .0258392
767.418 .0258191
768.134 .0257993
768.850 .0257799
769.566 .0257607
770.282 .0257429
770.997 .0257252
771.712 .0257084
772.427 .0256927
773.142 .0256779
773.856 .0256644
774.570 .0256523
775.284 .0256412
775.998 .0256304
776.711 .0256204
777.424 .0256107
778.137 .0255994
778.849 .0255869
779.562 .0255725
780.274 .0255558
780.986 .0255373
781.697 .0255177
782.409 .0254974
783.120 .0254778
783.831 .0254598
784.541 .0254431
785.252 .0254287
785.962 .0254171
786.671 .0254075
787.381 .0253986
788.090 .0253904
788.799 .0253821
789.508 .0253729
790.217 .0253633
790.925 .0253537
791.633 .0253440
792.341 .0253350
793.048 .0253265
793.755 .0253185
794.462 .0253108
795.169 .0253028
795.875 .0252937
796.581 .0252835
797.287 .0252715
797.993 .0252577
798.698 .0252427
799.403 .0252276
800.108 .0252123
800.812 .0251972
801.517 .0251829
802.221 .0251696
802.924 .0251569
803.628 .0251450
804.331 .0251339
805.034 .0251239
805.736 .0251148
806.439 .0251060
807.141 .0250983
807.843 .0250910
808.544 .0250842
809.245 .0250773
809.946 .0250696
810.647 .0250617
811.347 .0250534
812.047 .0250451
812.747 .0250368
813.447 .0250287
814.146 .0250207
814.845 .0250129
815.543 .0250056
816.242 .0249982
816.940 .0249904
817.638 .0249828
818.335 .0249746
819.032 .0249651
819.729 .0249554
820.426 .0249448
821.122 .0249332
821.818 .0249207
822.514 .0249071
823.209 .0248923
823.905 .0248770
824.599 .0248620
825.294 .0248470
825.988 .0248323
826.682 .0248179
827.376 .0248030
828.069 .0247880
828.762 .0247723
829.455 .0247549
830.147 .0247363
830.840 .0247169
831.531 .0246960
832.223 .0246748
832.914 .0246544
833.605 .0246356
834.296 .0246188
834.986 .0246043
835.676 .0245911
836.366 .0245787
837.055 .0245671
837.744 .0245554
838.433 .0245427
839.121 .0245303
839.809 .0245180
840.497 .0245071
841.185 .0244983
841.872 .0244921
842.559 .0244889
843.245 .0244881
843.932 .0244885
844.617 .0244889
845.303 .0244875
845.988 .0244839
846.673 .0244775
847.358 .0244692
848.042 .0244593
848.726 .0244482
849.410 .0244368
850.093 .0244256
850.776 .0244144
851.459 .0244024
852.141 .0243888
852.823 .0243735
853.505 .0243563
854.186 .0243364
854.867 .0243152
855.548 .0242938
856.228 .0242738
856.908 .0242565
857.588 .0242422
858.267 .0242312
858.946 .0242228
859.625 .0242162
860.303 .0242109
860.981 .0242059
861.659 .0242009
862.336 .0241949
863.013 .0241885
863.690 .0241822
864.366 .0241759
865.042 .0241700
865.718 .0241646
866.393 .0241594
867.068 .0241537
867.743 .0241464
868.417 .0241376
869.091 .0241273
869.765 .0241156
870.438 .0241022
871.111 .0240877
871.783 .0240725
872.456 .0240569
873.127 .0240410
873.799 .0240251
874.470 .0240090
875.141 .0239926
875.811 .0239758
876.481 .0239588
877.151 .0239425
877.820 .0239266
878.489 .0239111
879.158 .0238962
879.826 .0238816
880.494 .0238669
881.162 .0238518
881.829 .0238372
882.496 .0238225
883.163 .0238086
883.829 .0237958
884.495 .0237847
885.160 .0237762
885.825 .0237699
886.490 .0237656
887.154 .0237629
887.818 .0237607
888.482 .0237579
889.145 .0237539
889.808 .0237499
890.471 .0237452
891.133 .0237396
891.795 .0237337
892.456 .0237276
893.117 .0237211
893.778 .0237142
894.439 .0237065
895.099 .0236977
895.758 .0236875
896.417 .0236759
897.076 .0236628
897.735 .0236486
898.393 .0236345
899.051 .0236204
899.708 .0236077
900.365 .0235966
901.022 .0235862
901.678 .0235774
902.334 .0235702
902.990 .0235639
903.645 .0235581
904.300 .0235524
904.954 .0235468
905.608 .0235408
906.262 .0235352
906.915 .0235298
907.568 .0235248
908.221 .0235209
908.873 .0235171
909.525 .0235134
910.176 .0235096
910.828 .0235049
911.478 .0234990
912.129 .0234915
912.778 .0234823
913.428 .0234716
914.077 .0234597
914.726 .0234480
915.375 .0234366
916.023 .0234265
916.670 .0234177
917.318 .0234099
917.964 .0234031
918.611 .0233961
919.257 .0233884
919.903 .0233795
920.548 .0233690
921.193 .0233578
921.838 .0233462
922.482 .0233349
923.126 .0233245
923.770 .0233156
924.413 .0233080
925.056 .0233015
925.698 .0232954
926.340 .0232895
926.982 .0232822
927.623 .0232738
928.264 .0232640
928.904 .0232525
929.544 .0232406
930.184 .0232283
930.823 .0232164
931.462 .0232054
932.101 .0231952
932.739 .0231858
933.377 .0231770
934.014 .0231683
934.651 .0231591
935.288 .0231495
935.924 .0231397
936.560 .0231291
937.196 .0231182
937.831 .0231072
938.466 .0230959
939.100 .0230838
939.734 .0230711
940.368 .0230568
941.001 .0230419
941.634 .0230265
942.266 .0230107
942.899 .0229948
943.530 .0229789
944.162 .0229630
944.793 .0229475
945.423 .0229318
946.053 .0229159
946.683 .0228998
947.313 .0228837
947.942 .0228670
948.571 .0228502
949.199 .0228331
949.827 .0228165
950.455 .0228002
951.082 .0227844
951.709 .0227688
952.335 .0227538
952.961 .0227383
953.587 .0227225
954.212 .0227060
954.837 .0226888
955.462 .0226701
956.086 .0226516
956.710 .0226327
957.334 .0226142
957.957 .0225966
958.579 .0225801
959.202 .0225648
959.824 .0225516
960.445 .0225391
961.067 .0225277
961.688 .0225180
962.308 .0225098
962.928 .0225024
963.548 .0224969
964.168 .0224917
964.787 .0224866
965.406 .0224819
966.024 .0224776
966.642 .0224728
967.260 .0224681
967.877 .0224636
968.494 .0224589
969.110 .0224548
969.727 .0224508
970.342 .0224461
970.958 .0224421
971.573 .0224383
972.188 .0224342
972.802 .0224304
973.416 .0224274
974.030 .0224247
974.643 .0224232
975.256 .0224229
975.869 .0224235
976.481 .0224249
977.093 .0224267
977.705 .0224286
978.316 .0224300
978.927 .0224313
979.538 .0224317
980.148 .0224319
980.758 .0224316
981.367 .0224306
981.977 .0224296
982.586 .0224291
983.194 .0224283
983.802 .0224280
984.410 .0224272
985.018 .0224262
985.625 .0224249
986.232 .0224242
986.838 .0224233
987.445 .0224238
988.050 .0224253
988.656 .0224279
989.261 .0224314
989.866 .0224360
990.471 .0224405
991.075 .0224455
991.679 .0224500
992.282 .0224527
992.886 .0224537
993.489 .0224540
994.091 .0224521
994.694 .0224488
995.296 .0224449
995.897 .0224399
996.499 .0224339
997.100 .0224279
997.701 .0224219
998.301 .0224155
998.901 .0224105
999.501 .0224058
1000.101 .0224015
1000.700 .0223983
1001.299 .0223961
1001.898 .0223949
1002.496 .0223965
1003.094 .0223997
1003.692 .0224042
1004.289 .0224100
1004.887 .0224182
1005.484 .0224266
1006.080 .0224357
1006.677 .0224446
1007.273 .0224529
1007.868 .0224602
1008.464 .0224665
1009.059 .0224709
1009.654 .0224752
1010.249 .0224785
1010.843 .0224818
1011.437 .0224843
1012.031 .0224868
1012.625 .0224888
1013.218 .0224914
1013.811 .0224943
1014.404 .0224983
1014.997 .0225024
1015.589 .0225071
1016.181 .0225118
1016.773 .0225168
1017.365 .0225200
1017.956 .0225212
1018.547 .0225211
1019.138 .0225197
1019.728 .0225158
1020.319 .0225118
1020.909 .0225077
1021.499 .0225041
1022.088 .0225011
1022.678 .0224975
1023.267 .0224926
1023.856 .0224861
1024.445 .0224770
1025.033 .0224646
1025.621 .0224500
1026.209 .0224350
1026.797 .0224189
1027.385 .0224045
1027.972 .0223925
1028.560 .0223832
1029.147 .0223769
1029.734 .0223743
1030.320 .0223736
1030.907 .0223738
1031.493 .0223755
1032.079 .0223776
1032.665 .0223803
1033.250 .0223846
1033.836 .0223898
1034.421 .0223968
1035.006 .0224058
1035.591 .0224161
1036.176 .0224267
1036.761 .0224385
1037.345 .0224500
1037.929 .0224604
1038.514 .0224690
1039.097 .0224762
1039.681 .0224817
1040.265 .0224862
1040.848 .0224899
1041.432 .0224925
1042.015 .0224944
1042.598 .0224955
1043.181 .0224950
1043.764 .0224936
1044.346 .0224915
1044.929 .0224895
1045.511 .0224878
1046.094 .0224860
1046.676 .0224850
1047.258 .0224851
1047.840 .0224866
1048.422 .0224887
1049.003 .0224902
1049.585 .0224902
1050.166 .0224881
1050.748 .0224843
1051.329 .0224797
1051.910 .0224735
1052.491 .0224678
1053.072 .0224618
1053.653 .0224555
1054.234 .0224485
1054.815 .0224400
1055.396 .0224299
1055.976 .0224185
1056.557 .0224053
1057.138 .0223916
1057.718 .0223764
1058.298 .0223629
1058.879 .0223502
1059.459 .0223391
1060.039 .0223286
1060.620 .0223172
1061.200 .0223044
1061.780 .0222901
1062.360 .0222741
1062.940 .0222569
1063.520 .0222393
1064.101 .0222229
1064.681 .0222079
1065.261 .0221949
1065.841 .0221839
1066.421 .0221765
1067.001 .0221700
1067.581 .0221643
1068.161 .0221572
1068.741 .0221489
1069.321 .0221381
1069.901 .0221263
1070.482 .0221147
1071.062 .0221030
1071.642 .0220934
1072.222 .0220856
1072.803 .0220805
1073.383 .0220790
1073.963 .0220796
1074.544 .0220816
1075.124 .0220834
1075.705 .0220862
1076.286 .0220859
1076.866 .0220843
1077.447 .0220830
1078.028 .0220815
1078.609 .0220806
1079.190 .0220814
1079.771 .0220850
1080.352 .0220906
1080.934 .0220986
1081.515 .0221075
1082.097 .0221175
1082.679 .0221263
1083.260 .0221319
1083.842 .0221322
1084.424 .0221280
1085.007 .0221206
1085.589 .0221073
1086.172 .0220894
1086.754 .0220685
1087.337 .0220436
1087.920 .0220160
1088.503 .0219870
1089.087 .0219571
1089.670 .0219251
1090.254 .0218935
1090.838 .0218625
1091.422 .0218320
1092.006 .0218029
1092.590 .0217775
1093.175 .0217551
1093.760 .0217382
1094.345 .0217259
1094.930 .0217155
1095.516 .0217133
1096.102 .0217154
1096.688 .0217215
1097.274 .0217308
1097.860 .0217430
1098.447 .0217568
1099.034 .0217697
1099.622 .0217833
1100.209 .0217937
1100.797 .0218022
1101.385 .0218081
1101.973 .0218092
1102.562 .0218058
1103.151 .0217992
1103.740 .0217871
1104.330 .0217710
1104.920 .0217552
1105.510 .0217349
1106.101 .0217142
1106.691 .0216924
1107.283 .0216718
1107.874 .0216511
1108.466 .0216283
1109.058 .0216058
1109.651 .0215809
1110.244 .0215611
1110.837 .0215447
1111.431 .0215306
1112.025 .0215255
1112.620 .0215269
1113.215 .0215352
1113.810 .0215484
1114.406 .0215648
1115.002 .0215804
1115.599 .0215957
1116.196 .0216077
1116.793 .0216154
1117.391 .0216204
1117.989 .0216274
1118.588 .0216373
1119.187 .0216525
1119.787 .0216717
1120.387 .0216889
1120.988 .0217030
1121.589 .0217147
1122.190 .0217110
1122.793 .0216969
1123.395 .0216737
1123.998 .0216465
1124.602 .0216222
1125.206 .0216049
1125.811 .0215980
1126.416 .0216083
1127.022 .0216296
1127.628 .0216568
1128.235 .0216811
1128.843 .0217060
1129.451 .0217226
1130.059 .0217322
1130.669 .0217397
1131.278 .0217459
1131.889 .0217523
1132.500 .0217654
1133.112 .0217829
1133.724 .0218041
1134.337 .0218277
1134.950 .0218483
1135.564 .0218678
1136.179 .0218864
1136.795 .0219045
1137.411 .0219256
1138.028 .0219527
1138.645 .0219860
1139.263 .0220237
1139.882 .0220630
1140.502 .0221170
1141.122 .0221791
1141.743 .0222586
1142.365 .0223417
1142.987 .0222127
1143.611 .0225905
1144.235 .0227123
1144.859 .0229731
1145.485 .0228073
