Measurement Sequence started on: 10-20-44-796
Integration time: 35
Scans to Average: 2 
>>>>>Begin Spectral Data<<<<<
432.953 .0316801
433.882 .0362422
434.810 .0349483
435.737 .0327715
436.662 .0317559
437.586 .0325473
438.509 .0323688
439.431 .0321384
440.351 .0320261
441.269 .0320090
442.187 .0320251
443.103 .0320382
444.018 .0320600
444.932 .0321010
445.844 .0321361
446.756 .0321824
447.666 .0322369
448.575 .0322909
449.482 .0323376
450.388 .0323643
451.294 .0323657
452.198 .0323468
453.100 .0323143
454.002 .0322736
454.902 .0322210
455.801 .0321748
456.699 .0321330
457.596 .0321071
458.492 .0320911
459.387 .0320872
460.280 .0320959
461.172 .0321113
462.064 .0321220
462.954 .0321254
463.843 .0321242
464.730 .0321189
465.617 .0321072
466.503 .0321006
467.387 .0320940
468.271 .0320879
469.153 .0320830
470.035 .0320769
470.915 .0320654
471.794 .0320440
472.673 .0320093
473.550 .0319643
474.426 .0319108
475.301 .0318496
476.175 .0317819
477.048 .0317159
477.920 .0316515
478.791 .0315861
479.661 .0315191
480.530 .0314528
481.398 .0313834
482.266 .0313149
483.132 .0312480
483.997 .0311839
484.861 .0311282
485.724 .0310810
486.587 .0310461
487.448 .0310212
488.308 .0310050
489.168 .0309941
490.026 .0309863
490.884 .0309807
491.741 .0309740
492.597 .0309683
493.452 .0309629
494.306 .0309578
495.159 .0309555
496.011 .0309542
496.862 .0309502
497.713 .0309425
498.562 .0309272
499.411 .0308988
500.259 .0308562
501.106 .0307972
501.952 .0307225
502.798 .0306367
503.642 .0305409
504.486 .0304377
505.329 .0303309
506.171 .0302230
507.012 .0301139
507.852 .0300089
508.692 .0299094
509.531 .0298105
510.369 .0297137
511.206 .0296216
512.043 .0295288
512.878 .0294357
513.713 .0293418
514.547 .0292503
515.381 .0291602
516.213 .0290714
517.045 .0289781
517.876 .0288822
518.706 .0287815
519.536 .0286722
520.365 .0285498
521.193 .0284169
522.020 .0282682
522.847 .0281063
523.673 .0279316
524.498 .0277433
525.323 .0275427
526.146 .0273397
526.969 .0271353
527.792 .0269367
528.614 .0267355
529.435 .0265387
530.255 .0263469
531.075 .0261616
531.894 .0259853
532.712 .0258231
533.530 .0256818
534.347 .0255651
535.163 .0254620
535.979 .0253837
536.794 .0253245
537.608 .0252878
538.422 .0252671
539.235 .0252600
540.048 .0252581
540.860 .0252607
541.671 .0252660
542.481 .0252733
543.292 .0252780
544.101 .0252886
544.910 .0252942
545.718 .0252966
546.526 .0253041
547.333 .0253178
548.139 .0253375
548.945 .0253759
549.750 .0254181
550.555 .0254673
551.359 .0255199
552.162 .0255745
552.965 .0256296
553.768 .0256868
554.569 .0257501
555.371 .0258118
556.171 .0258762
556.972 .0259494
557.771 .0260215
558.570 .0261030
559.369 .0261896
560.167 .0262750
560.964 .0263579
561.761 .0264375
562.558 .0265108
563.354 .0265818
564.149 .0266481
564.944 .0267103
565.738 .0267673
566.532 .0268235
567.325 .0268772
568.118 .0269278
568.910 .0269792
569.702 .0270320
570.494 .0270882
571.285 .0271519
572.075 .0272207
572.865 .0272966
573.654 .0273781
574.443 .0274621
575.232 .0275443
576.020 .0276230
576.807 .0276983
577.594 .0277704
578.381 .0278373
579.167 .0279009
579.952 .0279626
580.738 .0280247
581.522 .0280866
582.307 .0281470
583.091 .0282055
583.874 .0282601
584.657 .0283069
585.440 .0283472
586.222 .0283814
587.004 .0284102
587.785 .0284353
588.566 .0284579
589.346 .0284796
590.126 .0285014
590.906 .0285231
591.685 .0285458
592.464 .0285695
593.242 .0285929
594.020 .0286146
594.797 .0286355
595.575 .0286553
596.351 .0286732
597.128 .0286883
597.904 .0287009
598.679 .0287115
599.454 .0287187
600.229 .0287228
601.004 .0287237
601.778 .0287225
602.551 .0287181
603.325 .0287098
604.097 .0286984
604.870 .0286844
605.642 .0286678
606.414 .0286483
607.185 .0286269
607.956 .0286047
608.727 .0285819
609.497 .0285597
610.267 .0285383
611.037 .0285180
611.806 .0284980
612.575 .0284779
613.344 .0284574
614.112 .0284365
614.880 .0284151
615.647 .0283931
616.414 .0283717
617.181 .0283514
617.948 .0283321
618.714 .0283146
619.480 .0282996
620.245 .0282858
621.011 .0282719
621.775 .0282579
622.540 .0282427
623.304 .0282264
624.068 .0282087
624.832 .0281900
625.595 .0281707
626.358 .0281520
627.120 .0281339
627.883 .0281160
628.645 .0280999
629.406 .0280842
630.168 .0280682
630.929 .0280519
631.689 .0280350
632.450 .0280170
633.210 .0279990
633.970 .0279814
634.729 .0279640
635.489 .0279474
636.248 .0279320
637.006 .0279176
637.765 .0279040
638.523 .0278911
639.280 .0278785
640.038 .0278658
640.795 .0278541
641.552 .0278423
642.309 .0278318
643.065 .0278225
643.821 .0278149
644.577 .0278076
645.332 .0278011
646.088 .0277953
646.843 .0277892
647.597 .0277826
648.352 .0277756
649.106 .0277684
649.860 .0277609
650.613 .0277539
651.367 .0277480
652.120 .0277423
652.872 .0277375
653.625 .0277320
654.377 .0277254
655.129 .0277176
655.881 .0277078
656.632 .0276960
657.384 .0276820
658.135 .0276667
658.885 .0276495
659.636 .0276319
660.386 .0276144
661.136 .0275971
661.885 .0275806
662.635 .0275650
663.384 .0275501
664.133 .0275354
664.881 .0275214
665.630 .0275079
666.378 .0274948
667.126 .0274824
667.874 .0274697
668.621 .0274574
669.368 .0274458
670.115 .0274345
670.862 .0274235
671.608 .0274134
672.354 .0274039
673.100 .0273939
673.846 .0273833
674.591 .0273718
675.337 .0273594
676.082 .0273458
676.826 .0273310
677.571 .0273150
678.315 .0272983
679.059 .0272814
679.803 .0272644
680.547 .0272484
681.290 .0272328
682.033 .0272169
682.776 .0272008
683.518 .0271837
684.261 .0271656
685.003 .0271463
685.745 .0271261
686.487 .0271059
687.228 .0270860
687.969 .0270666
688.710 .0270480
689.451 .0270309
690.192 .0270146
690.932 .0269981
691.672 .0269815
692.412 .0269643
693.152 .0269458
693.891 .0269272
694.630 .0269085
695.369 .0268905
696.108 .0268733
696.846 .0268565
697.585 .0268401
698.323 .0268244
699.061 .0268083
699.798 .0267914
700.536 .0267734
701.273 .0267553
702.010 .0267370
702.746 .0267190
703.483 .0267020
704.219 .0266864
704.955 .0266721
705.691 .0266587
706.427 .0266453
707.162 .0266319
707.897 .0266185
708.632 .0266051
709.367 .0265917
710.101 .0265785
710.835 .0265662
711.569 .0265550
712.303 .0265447
713.037 .0265356
713.770 .0265269
714.503 .0265182
715.236 .0265095
715.969 .0265005
716.702 .0264909
717.434 .0264812
718.166 .0264719
718.898 .0264630
719.629 .0264546
720.361 .0264463
721.092 .0264379
721.823 .0264295
722.554 .0264209
723.284 .0264114
724.014 .0264007
724.744 .0263893
725.474 .0263767
726.204 .0263635
726.933 .0263496
727.662 .0263349
728.391 .0263206
729.120 .0263060
729.849 .0262911
730.577 .0262764
731.305 .0262616
732.033 .0262473
732.760 .0262332
733.488 .0262200
734.215 .0262074
734.942 .0261960
735.669 .0261856
736.395 .0261761
737.122 .0261674
737.848 .0261594
738.573 .0261515
739.299 .0261433
740.024 .0261348
740.750 .0261254
741.474 .0261152
742.199 .0261045
742.924 .0260931
743.648 .0260814
744.372 .0260691
745.096 .0260570
745.819 .0260443
746.543 .0260313
747.266 .0260178
747.989 .0260035
748.711 .0259887
749.434 .0259735
750.156 .0259579
750.878 .0259427
751.599 .0259281
752.321 .0259143
753.042 .0259013
753.763 .0258897
754.484 .0258789
755.205 .0258688
755.925 .0258593
756.645 .0258498
757.365 .0258399
758.085 .0258298
758.804 .0258188
759.523 .0258066
760.242 .0257936
760.961 .0257797
761.679 .0257645
762.397 .0257480
763.115 .0257306
763.833 .0257121
764.551 .0256924
765.268 .0256719
765.985 .0256505
766.702 .0256278
767.418 .0256043
768.134 .0255799
768.850 .0255546
769.566 .0255292
770.282 .0255035
770.997 .0254779
771.712 .0254531
772.427 .0254297
773.142 .0254075
773.856 .0253874
774.570 .0253694
775.284 .0253529
775.998 .0253375
776.711 .0253233
777.424 .0253092
778.137 .0252952
778.849 .0252810
779.562 .0252666
780.274 .0252517
780.986 .0252373
781.697 .0252228
782.409 .0252090
783.120 .0251961
783.831 .0251841
784.541 .0251722
785.252 .0251613
785.962 .0251503
786.671 .0251391
787.381 .0251275
788.090 .0251159
788.799 .0251039
789.508 .0250918
790.217 .0250799
790.925 .0250683
791.633 .0250572
792.341 .0250465
793.048 .0250358
793.755 .0250250
794.462 .0250141
795.169 .0250027
795.875 .0249907
796.581 .0249787
797.287 .0249667
797.993 .0249549
798.698 .0249437
799.403 .0249332
800.108 .0249234
800.812 .0249143
801.517 .0249062
802.221 .0248990
802.924 .0248926
803.628 .0248873
804.331 .0248832
805.034 .0248801
805.736 .0248779
806.439 .0248759
807.141 .0248744
807.843 .0248729
808.544 .0248708
809.245 .0248675
809.946 .0248635
810.647 .0248587
811.347 .0248535
812.047 .0248481
812.747 .0248430
813.447 .0248381
814.146 .0248334
814.845 .0248294
815.543 .0248256
816.242 .0248223
816.940 .0248192
817.638 .0248164
818.335 .0248142
819.032 .0248122
819.729 .0248110
820.426 .0248101
821.122 .0248095
821.818 .0248086
822.514 .0248067
823.209 .0248038
823.905 .0247994
824.599 .0247939
825.294 .0247870
825.988 .0247790
826.682 .0247705
827.376 .0247613
828.069 .0247521
828.762 .0247430
829.455 .0247336
830.147 .0247238
830.840 .0247136
831.531 .0247031
832.223 .0246924
832.914 .0246819
833.605 .0246717
834.296 .0246627
834.986 .0246543
835.676 .0246471
836.366 .0246403
837.055 .0246341
837.744 .0246278
838.433 .0246210
839.121 .0246133
839.809 .0246049
840.497 .0245959
841.185 .0245870
841.872 .0245784
842.559 .0245709
843.245 .0245640
843.932 .0245580
844.617 .0245524
845.303 .0245469
845.988 .0245411
846.673 .0245351
847.358 .0245283
848.042 .0245209
848.726 .0245129
849.410 .0245048
850.093 .0244970
850.776 .0244895
851.459 .0244821
852.141 .0244747
852.823 .0244669
853.505 .0244588
854.186 .0244495
854.867 .0244394
855.548 .0244283
856.228 .0244168
856.908 .0244046
857.588 .0243921
858.267 .0243802
858.946 .0243685
859.625 .0243574
860.303 .0243468
860.981 .0243365
861.659 .0243257
862.336 .0243144
863.013 .0243023
863.690 .0242895
864.366 .0242762
865.042 .0242625
865.718 .0242488
866.393 .0242353
867.068 .0242221
867.743 .0242088
868.417 .0241956
869.091 .0241825
869.765 .0241683
870.438 .0241538
871.111 .0241388
871.783 .0241236
872.456 .0241084
873.127 .0240938
873.799 .0240795
874.470 .0240655
875.141 .0240513
875.811 .0240367
876.481 .0240214
877.151 .0240058
877.820 .0239898
878.489 .0239737
879.158 .0239577
879.826 .0239425
880.494 .0239277
881.162 .0239135
881.829 .0238993
882.496 .0238843
883.163 .0238685
883.829 .0238514
884.495 .0238334
885.160 .0238153
885.825 .0237981
886.490 .0237827
887.154 .0237689
887.818 .0237570
888.482 .0237470
889.145 .0237379
889.808 .0237294
890.471 .0237204
891.133 .0237109
891.795 .0237001
892.456 .0236887
893.117 .0236767
893.778 .0236647
894.439 .0236530
895.099 .0236416
895.758 .0236300
896.417 .0236183
897.076 .0236060
897.735 .0235929
898.393 .0235793
899.051 .0235655
899.708 .0235509
900.365 .0235358
901.022 .0235205
901.678 .0235054
902.334 .0234900
902.990 .0234750
903.645 .0234603
904.300 .0234461
904.954 .0234328
905.608 .0234204
906.262 .0234094
906.915 .0234002
907.568 .0233917
908.221 .0233837
908.873 .0233751
909.525 .0233661
910.176 .0233553
910.828 .0233433
911.478 .0233305
912.129 .0233167
912.778 .0233027
913.428 .0232890
914.077 .0232762
914.726 .0232640
915.375 .0232526
916.023 .0232413
916.670 .0232299
917.318 .0232179
917.964 .0232052
918.611 .0231922
919.257 .0231792
919.903 .0231672
920.548 .0231563
921.193 .0231474
921.838 .0231410
922.482 .0231365
923.126 .0231345
923.770 .0231340
924.413 .0231352
925.056 .0231373
925.698 .0231402
926.340 .0231437
926.982 .0231473
927.623 .0231508
928.264 .0231537
928.904 .0231560
929.544 .0231572
930.184 .0231567
930.823 .0231547
931.462 .0231513
932.101 .0231466
932.739 .0231407
933.377 .0231339
934.014 .0231257
934.651 .0231172
935.288 .0231077
935.924 .0230970
936.560 .0230855
937.196 .0230735
937.831 .0230609
938.466 .0230479
939.100 .0230350
939.734 .0230225
940.368 .0230110
941.001 .0230010
941.634 .0229920
942.266 .0229844
942.899 .0229778
943.530 .0229717
944.162 .0229658
944.793 .0229607
945.423 .0229553
946.053 .0229497
946.683 .0229445
947.313 .0229397
947.942 .0229348
948.571 .0229300
949.199 .0229249
949.827 .0229195
950.455 .0229134
951.082 .0229067
951.709 .0228995
952.335 .0228923
952.961 .0228847
953.587 .0228766
954.212 .0228680
954.837 .0228593
955.462 .0228498
956.086 .0228403
956.710 .0228309
957.334 .0228220
957.957 .0228133
958.579 .0228056
959.202 .0227994
959.824 .0227946
960.445 .0227908
961.067 .0227877
961.688 .0227856
962.308 .0227838
962.928 .0227821
963.548 .0227804
964.168 .0227788
964.787 .0227774
965.406 .0227756
966.024 .0227737
966.642 .0227713
967.260 .0227689
967.877 .0227662
968.494 .0227631
969.110 .0227605
969.727 .0227577
970.342 .0227556
970.958 .0227544
971.573 .0227541
972.188 .0227541
972.802 .0227547
973.416 .0227559
974.030 .0227571
974.643 .0227582
975.256 .0227597
975.869 .0227613
976.481 .0227633
977.093 .0227661
977.705 .0227690
978.316 .0227722
978.927 .0227756
979.538 .0227784
980.148 .0227808
980.758 .0227823
981.367 .0227835
981.977 .0227839
982.586 .0227845
983.194 .0227849
983.802 .0227851
984.410 .0227858
985.018 .0227872
985.625 .0227886
986.232 .0227901
986.838 .0227916
987.445 .0227932
988.050 .0227943
988.656 .0227948
989.261 .0227948
989.866 .0227945
990.471 .0227936
991.075 .0227926
991.679 .0227910
992.282 .0227893
992.886 .0227875
993.489 .0227857
994.091 .0227834
994.694 .0227811
995.296 .0227786
995.897 .0227756
996.499 .0227721
997.100 .0227682
997.701 .0227635
998.301 .0227588
998.901 .0227543
999.501 .0227496
1000.101 .0227450
1000.700 .0227405
1001.299 .0227358
1001.898 .0227312
1002.496 .0227263
1003.094 .0227204
1003.692 .0227141
1004.289 .0227078
1004.887 .0227008
1005.484 .0226938
1006.080 .0226873
1006.677 .0226818
1007.273 .0226769
1007.868 .0226729
1008.464 .0226696
1009.059 .0226672
1009.654 .0226659
1010.249 .0226646
1010.843 .0226633
1011.437 .0226628
1012.031 .0226619
1012.625 .0226612
1013.218 .0226605
1013.811 .0226604
1014.404 .0226604
1014.997 .0226606
1015.589 .0226602
1016.181 .0226597
1016.773 .0226582
1017.365 .0226559
1017.956 .0226518
1018.547 .0226474
1019.138 .0226414
1019.728 .0226345
1020.319 .0226276
1020.909 .0226210
1021.499 .0226143
1022.088 .0226080
1022.678 .0226009
1023.267 .0225941
1023.856 .0225866
1024.445 .0225784
1025.033 .0225695
1025.621 .0225610
1026.209 .0225520
1026.797 .0225431
1027.385 .0225353
1027.972 .0225296
1028.560 .0225245
1029.147 .0225208
1029.734 .0225180
1030.320 .0225155
1030.907 .0225131
1031.493 .0225107
1032.079 .0225080
1032.665 .0225061
1033.250 .0225033
1033.836 .0224998
1034.421 .0224952
1035.006 .0224906
1035.591 .0224842
1036.176 .0224765
1036.761 .0224677
1037.345 .0224570
1037.929 .0224443
1038.514 .0224306
1039.097 .0224153
1039.681 .0223993
1040.265 .0223829
1040.848 .0223661
1041.432 .0223493
1042.015 .0223334
1042.598 .0223183
1043.181 .0223045
1043.764 .0222924
1044.346 .0222817
1044.929 .0222713
1045.511 .0222621
1046.094 .0222534
1046.676 .0222449
1047.258 .0222367
1047.840 .0222283
1048.422 .0222188
1049.003 .0222097
1049.585 .0222004
1050.166 .0221902
1050.748 .0221798
1051.329 .0221687
1051.910 .0221564
1052.491 .0221426
1053.072 .0221280
1053.653 .0221123
1054.234 .0220964
1054.815 .0220808
1055.396 .0220649
1055.976 .0220502
1056.557 .0220365
1057.138 .0220233
1057.718 .0220110
1058.298 .0219997
1058.879 .0219883
1059.459 .0219770
1060.039 .0219664
1060.620 .0219565
1061.200 .0219471
1061.780 .0219382
1062.360 .0219296
1062.940 .0219214
1063.520 .0219132
1064.101 .0219042
1064.681 .0218936
1065.261 .0218825
1065.841 .0218692
1066.421 .0218547
1067.001 .0218398
1067.581 .0218248
1068.161 .0218105
1068.741 .0217976
1069.321 .0217863
1069.901 .0217761
1070.482 .0217663
1071.062 .0217560
1071.642 .0217437
1072.222 .0217310
1072.803 .0217166
1073.383 .0217004
1073.963 .0216841
1074.544 .0216692
1075.124 .0216563
1075.705 .0216457
1076.286 .0216376
1076.866 .0216329
1077.447 .0216296
1078.028 .0216267
1078.609 .0216227
1079.190 .0216182
1079.771 .0216123
1080.352 .0216050
1080.934 .0215963
1081.515 .0215888
1082.097 .0215826
1082.679 .0215786
1083.260 .0215770
1083.842 .0215791
1084.424 .0215824
1085.007 .0215850
1085.589 .0215884
1086.172 .0215911
1086.754 .0215909
1087.337 .0215893
1087.920 .0215853
1088.503 .0215808
1089.087 .0215755
1089.670 .0215702
1090.254 .0215657
1090.838 .0215640
1091.422 .0215646
1092.006 .0215642
1092.590 .0215648
1093.175 .0215655
1093.760 .0215643
1094.345 .0215621
1094.930 .0215587
1095.516 .0215536
1096.102 .0215479
1096.688 .0215436
1097.274 .0215399
1097.860 .0215383
1098.447 .0215380
1099.034 .0215379
1099.622 .0215376
1100.209 .0215377
1100.797 .0215375
1101.385 .0215361
1101.973 .0215376
1102.562 .0215401
1103.151 .0215439
1103.740 .0215496
1104.330 .0215559
1104.920 .0215634
1105.510 .0215698
1106.101 .0215751
1106.691 .0215761
1107.283 .0215753
1107.874 .0215712
1108.466 .0215637
1109.058 .0215555
1109.651 .0215474
1110.244 .0215384
1110.837 .0215287
1111.431 .0215197
1112.025 .0215102
1112.620 .0214994
1113.215 .0214892
1113.810 .0214782
1114.406 .0214689
1115.002 .0214591
1115.599 .0214518
1116.196 .0214433
1116.793 .0214372
1117.391 .0214345
1117.989 .0214351
1118.588 .0214418
1119.187 .0214542
1119.787 .0214737
1120.387 .0215000
1120.988 .0215299
1121.589 .0215629
1122.190 .0215946
1122.793 .0216283
1123.395 .0216590
1123.998 .0216891
1124.602 .0217192
1125.206 .0217524
1125.811 .0217894
1126.416 .0218331
1127.022 .0218821
1127.628 .0219339
1128.235 .0219880
1128.843 .0220418
1129.451 .0220915
1130.059 .0221346
1130.669 .0221692
1131.278 .0222014
1131.889 .0222287
1132.500 .0222559
1133.112 .0222828
1133.724 .0223152
1134.337 .0223531
1134.950 .0223931
1135.564 .0224340
1136.179 .0224732
1136.795 .0225103
1137.411 .0225441
1138.028 .0225734
1138.645 .0226043
1139.263 .0226407
1139.882 .0226802
1140.502 .0227270
1141.122 .0227787
1141.743 .0228333
1142.365 .0228952
1142.987 .0229359
1143.611 .0230616
1144.235 .0230350
1144.859 .0230841
1145.485 .0232910
