Measurement Sequence started on: 10-20-44-796
Integration time: 35
Scans to Average: 2 
>>>>>Begin Spectral Data<<<<<
432.953 .0522388
433.882 .0385163
434.810 .0351998
435.737 .0333148
436.662 .0338314
437.586 .0346117
438.509 .0337147
439.431 .0334092
440.351 .0332538
441.269 .0331729
442.187 .0330932
443.103 .0330386
444.018 .0330254
444.932 .0330134
445.844 .0330268
446.756 .0330386
447.666 .0330471
448.575 .0330571
449.482 .0330687
450.388 .0330831
451.294 .0331097
452.198 .0331560
453.100 .0332051
454.002 .0332559
454.902 .0333014
455.801 .0333356
456.699 .0333579
457.596 .0333640
458.492 .0333570
459.387 .0333467
460.280 .0333337
461.172 .0333093
462.064 .0332844
462.954 .0332631
463.843 .0332325
464.730 .0331966
465.617 .0331550
466.503 .0331052
467.387 .0330501
468.271 .0329930
469.153 .0329368
470.035 .0328831
470.915 .0328395
471.794 .0328006
472.673 .0327687
473.550 .0327463
474.426 .0327276
475.301 .0327098
476.175 .0326948
477.048 .0326773
477.920 .0326523
478.791 .0326268
479.661 .0326002
480.530 .0325739
481.398 .0325506
482.266 .0325338
483.132 .0325250
483.997 .0325223
484.861 .0325250
485.724 .0325319
486.587 .0325416
487.448 .0325524
488.308 .0325568
489.168 .0325578
490.026 .0325564
490.884 .0325492
491.741 .0325388
492.597 .0325299
493.452 .0325227
494.306 .0325154
495.159 .0325091
496.011 .0325038
496.862 .0324909
497.713 .0324703
498.562 .0324352
499.411 .0323865
500.259 .0323208
501.106 .0322386
501.952 .0321416
502.798 .0320397
503.642 .0319361
504.486 .0318277
505.329 .0317247
506.171 .0316299
507.012 .0315375
507.852 .0314443
508.692 .0313501
509.531 .0312510
510.369 .0311430
511.206 .0310311
512.043 .0309126
512.878 .0307939
513.713 .0306780
514.547 .0305677
515.381 .0304647
516.213 .0303681
517.045 .0302715
517.876 .0301642
518.706 .0300534
519.536 .0299299
520.365 .0297841
521.193 .0296207
522.020 .0294441
522.847 .0292565
523.673 .0290555
524.498 .0288484
525.323 .0286332
526.146 .0284206
526.969 .0282144
527.792 .0280042
528.614 .0277916
529.435 .0275884
530.255 .0273936
531.075 .0272016
531.894 .0270251
532.712 .0268595
533.530 .0267063
534.347 .0265716
535.163 .0264464
535.979 .0263348
536.794 .0262424
537.608 .0261704
538.422 .0261157
539.235 .0260795
540.048 .0260616
540.860 .0260540
541.671 .0260629
542.481 .0260838
543.292 .0261080
544.101 .0261381
544.910 .0261734
545.718 .0262164
546.526 .0262691
547.333 .0263297
548.139 .0264017
548.945 .0264830
549.750 .0265682
550.555 .0266538
551.359 .0267344
552.162 .0268103
552.965 .0268810
553.768 .0269433
554.569 .0269983
555.371 .0270464
556.171 .0270928
556.972 .0271405
557.771 .0271908
558.570 .0272475
559.369 .0273063
560.167 .0273691
560.964 .0274350
561.761 .0274998
562.558 .0275660
563.354 .0276319
564.149 .0276957
564.944 .0277632
565.738 .0278316
566.532 .0279064
567.325 .0279838
568.118 .0280680
568.910 .0281591
569.702 .0282521
570.494 .0283488
571.285 .0284454
572.075 .0285387
572.865 .0286284
573.654 .0287091
574.443 .0287841
575.232 .0288514
576.020 .0289155
576.807 .0289765
577.594 .0290349
578.381 .0290944
579.167 .0291554
579.952 .0292174
580.738 .0292806
581.522 .0293423
582.307 .0293998
583.091 .0294534
583.874 .0295015
584.657 .0295422
585.440 .0295776
586.222 .0296078
587.004 .0296338
587.785 .0296572
588.566 .0296807
589.346 .0297034
590.126 .0297250
590.906 .0297462
591.685 .0297651
592.464 .0297801
593.242 .0297924
594.020 .0298011
594.797 .0298072
595.575 .0298115
596.351 .0298139
597.128 .0298146
597.904 .0298152
598.679 .0298152
599.454 .0298144
600.229 .0298135
601.004 .0298121
601.778 .0298093
602.551 .0298060
603.325 .0298018
604.097 .0297975
604.870 .0297925
605.642 .0297874
606.414 .0297815
607.185 .0297751
607.956 .0297681
608.727 .0297605
609.497 .0297528
610.267 .0297450
611.037 .0297365
611.806 .0297283
612.575 .0297198
613.344 .0297113
614.112 .0297022
614.880 .0296921
615.647 .0296805
616.414 .0296682
617.181 .0296549
617.948 .0296411
618.714 .0296274
619.480 .0296139
620.245 .0296003
621.011 .0295866
621.775 .0295729
622.540 .0295588
623.304 .0295439
624.068 .0295287
624.832 .0295120
625.595 .0294948
626.358 .0294765
627.120 .0294575
627.883 .0294385
628.645 .0294194
629.406 .0294000
630.168 .0293803
630.929 .0293603
631.689 .0293406
632.450 .0293203
633.210 .0293004
633.970 .0292812
634.729 .0292625
635.489 .0292440
636.248 .0292260
637.006 .0292084
637.765 .0291914
638.523 .0291747
639.280 .0291583
640.038 .0291419
640.795 .0291264
641.552 .0291112
642.309 .0290959
643.065 .0290804
643.821 .0290644
644.577 .0290471
645.332 .0290287
646.088 .0290090
646.843 .0289887
647.597 .0289681
648.352 .0289479
649.106 .0289292
649.860 .0289119
650.613 .0288961
651.367 .0288814
652.120 .0288675
652.872 .0288542
653.625 .0288404
654.377 .0288265
655.129 .0288127
655.881 .0287995
656.632 .0287868
657.384 .0287740
658.135 .0287619
658.885 .0287502
659.636 .0287377
660.386 .0287253
661.136 .0287123
661.885 .0286980
662.635 .0286828
663.384 .0286667
664.133 .0286500
664.881 .0286330
665.630 .0286155
666.378 .0285982
667.126 .0285810
667.874 .0285638
668.621 .0285465
669.368 .0285299
670.115 .0285144
670.862 .0284995
671.608 .0284858
672.354 .0284734
673.100 .0284618
673.846 .0284510
674.591 .0284408
675.337 .0284314
676.082 .0284224
676.826 .0284136
677.571 .0284050
678.315 .0283971
679.059 .0283892
679.803 .0283805
680.547 .0283717
681.290 .0283620
682.033 .0283505
682.776 .0283371
683.518 .0283218
684.261 .0283051
685.003 .0282871
685.745 .0282685
686.487 .0282501
687.228 .0282321
687.969 .0282145
688.710 .0281975
689.451 .0281810
690.192 .0281646
690.932 .0281474
691.672 .0281298
692.412 .0281115
693.152 .0280926
693.891 .0280735
694.630 .0280549
695.369 .0280371
696.108 .0280207
696.846 .0280047
697.585 .0279897
698.323 .0279748
699.061 .0279600
699.798 .0279448
700.536 .0279293
701.273 .0279129
702.010 .0278961
702.746 .0278790
703.483 .0278623
704.219 .0278458
704.955 .0278299
705.691 .0278142
706.427 .0277990
707.162 .0277838
707.897 .0277685
708.632 .0277534
709.367 .0277385
710.101 .0277232
710.835 .0277080
711.569 .0276925
712.303 .0276764
713.037 .0276597
713.770 .0276426
714.503 .0276243
715.236 .0276057
715.969 .0275869
716.702 .0275681
717.434 .0275505
718.166 .0275342
718.898 .0275184
719.629 .0275036
720.361 .0274896
721.092 .0274756
721.823 .0274611
722.554 .0274461
723.284 .0274302
724.014 .0274136
724.744 .0273960
725.474 .0273775
726.204 .0273586
726.933 .0273399
727.662 .0273208
728.391 .0273013
729.120 .0272817
729.849 .0272621
730.577 .0272425
731.305 .0272230
732.033 .0272037
732.760 .0271845
733.488 .0271652
734.215 .0271461
734.942 .0271271
735.669 .0271081
736.395 .0270894
737.122 .0270710
737.848 .0270530
738.573 .0270355
739.299 .0270185
740.024 .0270019
740.750 .0269857
741.474 .0269694
742.199 .0269523
742.924 .0269345
743.648 .0269164
744.372 .0268978
745.096 .0268795
745.819 .0268618
746.543 .0268451
747.266 .0268298
747.989 .0268164
748.711 .0268041
749.434 .0267932
750.156 .0267837
750.878 .0267749
751.599 .0267671
752.321 .0267604
753.042 .0267549
753.763 .0267510
754.484 .0267485
755.205 .0267467
755.925 .0267454
756.645 .0267442
757.365 .0267419
758.085 .0267379
758.804 .0267315
759.523 .0267223
760.242 .0267100
760.961 .0266949
761.679 .0266775
762.397 .0266580
763.115 .0266370
763.833 .0266145
764.551 .0265909
765.268 .0265662
765.985 .0265409
766.702 .0265151
767.418 .0264891
768.134 .0264634
768.850 .0264385
769.566 .0264146
770.282 .0263925
770.997 .0263729
771.712 .0263557
772.427 .0263410
773.142 .0263280
773.856 .0263165
774.570 .0263060
775.284 .0262958
775.998 .0262853
776.711 .0262743
777.424 .0262629
778.137 .0262504
778.849 .0262374
779.562 .0262242
780.274 .0262110
780.986 .0261981
781.697 .0261854
782.409 .0261730
783.120 .0261610
783.831 .0261494
784.541 .0261381
785.252 .0261273
785.962 .0261173
786.671 .0261080
787.381 .0260996
788.090 .0260921
788.799 .0260857
789.508 .0260797
790.217 .0260745
790.925 .0260692
791.633 .0260637
792.341 .0260576
793.048 .0260508
793.755 .0260426
794.462 .0260333
795.169 .0260226
795.875 .0260112
796.581 .0259990
797.287 .0259866
797.993 .0259737
798.698 .0259609
799.403 .0259485
800.108 .0259364
800.812 .0259240
801.517 .0259124
802.221 .0259005
802.924 .0258888
803.628 .0258771
804.331 .0258660
805.034 .0258553
805.736 .0258458
806.439 .0258375
807.141 .0258302
807.843 .0258236
808.544 .0258176
809.245 .0258115
809.946 .0258054
810.647 .0257985
811.347 .0257910
812.047 .0257828
812.747 .0257750
813.447 .0257668
814.146 .0257592
814.845 .0257526
815.543 .0257470
816.242 .0257418
816.940 .0257365
817.638 .0257309
818.335 .0257239
819.032 .0257157
819.729 .0257057
820.426 .0256941
821.122 .0256813
821.818 .0256671
822.514 .0256525
823.209 .0256376
823.905 .0256231
824.599 .0256090
825.294 .0255955
825.988 .0255821
826.682 .0255684
827.376 .0255548
828.069 .0255406
828.762 .0255261
829.455 .0255113
830.147 .0254964
830.840 .0254813
831.531 .0254664
832.223 .0254520
832.914 .0254378
833.605 .0254244
834.296 .0254111
834.986 .0253980
835.676 .0253849
836.366 .0253718
837.055 .0253586
837.744 .0253450
838.433 .0253315
839.121 .0253176
839.809 .0253036
840.497 .0252895
841.185 .0252753
841.872 .0252617
842.559 .0252489
843.245 .0252375
843.932 .0252275
844.617 .0252192
845.303 .0252125
845.988 .0252070
846.673 .0252019
847.358 .0251969
848.042 .0251911
848.726 .0251846
849.410 .0251767
850.093 .0251676
850.776 .0251575
851.459 .0251467
852.141 .0251354
852.823 .0251241
853.505 .0251123
854.186 .0251004
854.867 .0250882
855.548 .0250757
856.228 .0250629
856.908 .0250502
857.588 .0250377
858.267 .0250256
858.946 .0250138
859.625 .0250022
860.303 .0249904
860.981 .0249787
861.659 .0249668
862.336 .0249543
863.013 .0249417
863.690 .0249292
864.366 .0249171
865.042 .0249055
865.718 .0248944
866.393 .0248836
867.068 .0248724
867.743 .0248605
868.417 .0248472
869.091 .0248321
869.765 .0248160
870.438 .0247989
871.111 .0247815
871.783 .0247647
872.456 .0247493
873.127 .0247352
873.799 .0247227
874.470 .0247114
875.141 .0247005
875.811 .0246897
876.481 .0246790
877.151 .0246676
877.820 .0246560
878.489 .0246447
879.158 .0246339
879.826 .0246237
880.494 .0246154
881.162 .0246079
881.829 .0246014
882.496 .0245952
883.163 .0245886
883.829 .0245812
884.495 .0245727
885.160 .0245636
885.825 .0245542
886.490 .0245446
887.154 .0245356
887.818 .0245267
888.482 .0245189
889.145 .0245115
889.808 .0245044
890.471 .0244968
891.133 .0244887
891.795 .0244796
892.456 .0244694
893.117 .0244587
893.778 .0244484
894.439 .0244386
895.099 .0244296
895.758 .0244218
896.417 .0244151
897.076 .0244094
897.735 .0244045
898.393 .0243995
899.051 .0243943
899.708 .0243884
900.365 .0243814
901.022 .0243734
901.678 .0243650
902.334 .0243567
902.990 .0243482
903.645 .0243401
904.300 .0243319
904.954 .0243233
905.608 .0243139
906.262 .0243042
906.915 .0242938
907.568 .0242826
908.221 .0242708
908.873 .0242587
909.525 .0242465
910.176 .0242351
910.828 .0242242
911.478 .0242141
912.129 .0242046
912.778 .0241956
913.428 .0241869
914.077 .0241787
914.726 .0241711
915.375 .0241644
916.023 .0241584
916.670 .0241539
917.318 .0241496
917.964 .0241460
918.611 .0241426
919.257 .0241396
919.903 .0241363
920.548 .0241328
921.193 .0241288
921.838 .0241252
922.482 .0241218
923.126 .0241188
923.770 .0241159
924.413 .0241135
925.056 .0241112
925.698 .0241089
926.340 .0241064
926.982 .0241040
927.623 .0241012
928.264 .0240985
928.904 .0240953
929.544 .0240914
930.184 .0240867
930.823 .0240812
931.462 .0240751
932.101 .0240683
932.739 .0240605
933.377 .0240521
934.014 .0240431
934.651 .0240339
935.288 .0240239
935.924 .0240135
936.560 .0240028
937.196 .0239917
937.831 .0239801
938.466 .0239678
939.100 .0239552
939.734 .0239426
940.368 .0239302
941.001 .0239181
941.634 .0239066
942.266 .0238956
942.899 .0238845
943.530 .0238729
944.162 .0238604
944.793 .0238466
945.423 .0238311
946.053 .0238142
946.683 .0237962
947.313 .0237779
947.942 .0237598
948.571 .0237423
949.199 .0237259
949.827 .0237107
950.455 .0236960
951.082 .0236811
951.709 .0236658
952.335 .0236497
952.961 .0236332
953.587 .0236159
954.212 .0235986
954.837 .0235817
955.462 .0235659
956.086 .0235517
956.710 .0235389
957.334 .0235278
957.957 .0235176
958.579 .0235079
959.202 .0234979
959.824 .0234873
960.445 .0234760
961.067 .0234640
961.688 .0234521
962.308 .0234405
962.928 .0234296
963.548 .0234196
964.168 .0234110
964.787 .0234033
965.406 .0233967
966.024 .0233909
966.642 .0233853
967.260 .0233802
967.877 .0233745
968.494 .0233680
969.110 .0233610
969.727 .0233532
970.342 .0233450
970.958 .0233365
971.573 .0233284
972.188 .0233206
972.802 .0233132
973.416 .0233068
974.030 .0233012
974.643 .0232965
975.256 .0232928
975.869 .0232892
976.481 .0232864
977.093 .0232844
977.705 .0232830
978.316 .0232826
978.927 .0232833
979.538 .0232846
980.148 .0232859
980.758 .0232872
981.367 .0232881
981.977 .0232884
982.586 .0232885
983.194 .0232885
983.802 .0232881
984.410 .0232874
985.018 .0232859
985.625 .0232837
986.232 .0232813
986.838 .0232782
987.445 .0232739
988.050 .0232690
988.656 .0232637
989.261 .0232578
989.866 .0232514
990.471 .0232450
991.075 .0232387
991.679 .0232326
992.282 .0232264
992.886 .0232201
993.489 .0232145
994.091 .0232095
994.694 .0232052
995.296 .0232019
995.897 .0231993
996.499 .0231963
997.100 .0231925
997.701 .0231885
998.301 .0231834
998.901 .0231772
999.501 .0231703
1000.101 .0231629
1000.700 .0231562
1001.299 .0231498
1001.898 .0231436
1002.496 .0231381
1003.094 .0231336
1003.692 .0231288
1004.289 .0231234
1004.887 .0231181
1005.484 .0231126
1006.080 .0231073
1006.677 .0231029
1007.273 .0230993
1007.868 .0230974
1008.464 .0230973
1009.059 .0230985
1009.654 .0231013
1010.249 .0231050
1010.843 .0231089
1011.437 .0231128
1012.031 .0231165
1012.625 .0231199
1013.218 .0231220
1013.811 .0231232
1014.404 .0231236
1014.997 .0231229
1015.589 .0231216
1016.181 .0231197
1016.773 .0231178
1017.365 .0231164
1017.956 .0231146
1018.547 .0231124
1019.138 .0231096
1019.728 .0231067
1020.319 .0231030
1020.909 .0230993
1021.499 .0230952
1022.088 .0230912
1022.678 .0230876
1023.267 .0230850
1023.856 .0230827
1024.445 .0230809
1025.033 .0230787
1025.621 .0230757
1026.209 .0230716
1026.797 .0230658
1027.385 .0230581
1027.972 .0230501
1028.560 .0230415
1029.147 .0230337
1029.734 .0230272
1030.320 .0230233
1030.907 .0230208
1031.493 .0230210
1032.079 .0230223
1032.665 .0230242
1033.250 .0230259
1033.836 .0230271
1034.421 .0230273
1035.006 .0230270
1035.591 .0230259
1036.176 .0230237
1036.761 .0230213
1037.345 .0230195
1037.929 .0230164
1038.514 .0230132
1039.097 .0230090
1039.681 .0230033
1040.265 .0229959
1040.848 .0229869
1041.432 .0229762
1042.015 .0229652
1042.598 .0229542
1043.181 .0229438
1043.764 .0229350
1044.346 .0229283
1044.929 .0229236
1045.511 .0229212
1046.094 .0229198
1046.676 .0229189
1047.258 .0229177
1047.840 .0229166
1048.422 .0229148
1049.003 .0229138
1049.585 .0229141
1050.166 .0229153
1050.748 .0229182
1051.329 .0229218
1051.910 .0229255
1052.491 .0229284
1053.072 .0229299
1053.653 .0229297
1054.234 .0229279
1054.815 .0229255
1055.396 .0229228
1055.976 .0229211
1056.557 .0229216
1057.138 .0229231
1057.718 .0229264
1058.298 .0229304
1058.879 .0229344
1059.459 .0229359
1060.039 .0229349
1060.620 .0229312
1061.200 .0229243
1061.780 .0229141
1062.360 .0229023
1062.940 .0228894
1063.520 .0228770
1064.101 .0228636
1064.681 .0228505
1065.261 .0228371
1065.841 .0228239
1066.421 .0228088
1067.001 .0227925
1067.581 .0227744
1068.161 .0227548
1068.741 .0227345
1069.321 .0227144
1069.901 .0226958
1070.482 .0226802
1071.062 .0226669
1071.642 .0226566
1072.222 .0226495
1072.803 .0226450
1073.383 .0226413
1073.963 .0226393
1074.544 .0226379
1075.124 .0226362
1075.705 .0226354
1076.286 .0226364
1076.866 .0226386
1077.447 .0226416
1078.028 .0226454
1078.609 .0226483
1079.190 .0226512
1079.771 .0226538
1080.352 .0226548
1080.934 .0226559
1081.515 .0226568
1082.097 .0226571
1082.679 .0226560
1083.260 .0226535
1083.842 .0226494
1084.424 .0226414
1085.007 .0226311
1085.589 .0226175
1086.172 .0226031
1086.754 .0225913
1087.337 .0225829
1087.920 .0225798
1088.503 .0225824
1089.087 .0225903
1089.670 .0226003
1090.254 .0226104
1090.838 .0226190
1091.422 .0226248
1092.006 .0226268
1092.590 .0226266
1093.175 .0226251
1093.760 .0226247
1094.345 .0226269
1094.930 .0226301
1095.516 .0226350
1096.102 .0226403
1096.688 .0226428
1097.274 .0226408
1097.860 .0226329
1098.447 .0226205
1099.034 .0226024
1099.622 .0225814
1100.209 .0225603
1100.797 .0225410
1101.385 .0225258
1101.973 .0225145
1102.562 .0225068
1103.151 .0225028
1103.740 .0225015
1104.330 .0225010
1104.920 .0225027
1105.510 .0225063
1106.101 .0225098
1106.691 .0225121
1107.283 .0225157
1107.874 .0225195
1108.466 .0225210
1109.058 .0225217
1109.651 .0225195
1110.244 .0225161
1110.837 .0225127
1111.431 .0225070
1112.025 .0225012
1112.620 .0224970
1113.215 .0224930
1113.810 .0224864
1114.406 .0224808
1115.002 .0224748
1115.599 .0224690
1116.196 .0224632
1116.793 .0224575
1117.391 .0224532
1117.989 .0224499
1118.588 .0224496
1119.187 .0224506
1119.787 .0224531
1120.387 .0224543
1120.988 .0224524
1121.589 .0224489
1122.190 .0224407
1122.793 .0224294
1123.395 .0224142
1123.998 .0223995
1124.602 .0223855
1125.206 .0223738
1125.811 .0223658
1126.416 .0223652
1127.022 .0223737
1127.628 .0223871
1128.235 .0224079
1128.843 .0224358
1129.451 .0224678
1130.059 .0225060
1130.669 .0225467
1131.278 .0225932
1131.889 .0226420
1132.500 .0226936
1133.112 .0227447
1133.724 .0227976
1134.337 .0228493
1134.950 .0228943
1135.564 .0229334
1136.179 .0229685
1136.795 .0229965
1137.411 .0230233
1138.028 .0230492
1138.645 .0230772
1139.263 .0231116
1139.882 .0231490
1140.502 .0231939
1141.122 .0232465
1141.743 .0233185
1142.365 .0234116
1142.987 .0233461
1143.611 .0235502
1144.235 .0236113
1144.859 .0240312
1145.485 .0243231
