Measurement Sequence started on: 10-20-44-796
Integration time: 35
Scans to Average: 2 
>>>>>Begin Spectral Data<<<<<
432.953 .0471365
433.882 .0438143
434.810 .0401776
435.737 .0357970
436.662 .0352243
437.586 .0359712
438.509 .0348859
439.431 .0341128
440.351 .0335930
441.269 .0332705
442.187 .0330223
443.103 .0328260
444.018 .0327162
444.932 .0326500
445.844 .0326105
446.756 .0325922
447.666 .0325770
448.575 .0325467
449.482 .0325074
450.388 .0324599
451.294 .0324109
452.198 .0323712
453.100 .0323522
454.002 .0323510
454.902 .0323712
455.801 .0323964
456.699 .0324269
457.596 .0324495
458.492 .0324680
459.387 .0324677
460.280 .0324604
461.172 .0324489
462.064 .0324323
462.954 .0324210
463.843 .0324183
464.730 .0324153
465.617 .0324214
466.503 .0324216
467.387 .0324150
468.271 .0323913
469.153 .0323545
470.035 .0322959
470.915 .0322321
471.794 .0321582
472.673 .0320761
473.550 .0319920
474.426 .0319158
475.301 .0318448
476.175 .0317853
477.048 .0317336
477.920 .0316876
478.791 .0316434
479.661 .0316046
480.530 .0315600
481.398 .0315175
482.266 .0314797
483.132 .0314474
483.997 .0314169
484.861 .0313909
485.724 .0313695
486.587 .0313554
487.448 .0313463
488.308 .0313393
489.168 .0313338
490.026 .0313275
490.884 .0313140
491.741 .0312957
492.597 .0312737
493.452 .0312498
494.306 .0312244
495.159 .0312009
496.011 .0311784
496.862 .0311551
497.713 .0311283
498.562 .0310977
499.411 .0310647
500.259 .0310228
501.106 .0309729
501.952 .0309166
502.798 .0308586
503.642 .0307946
504.486 .0307235
505.329 .0306516
506.171 .0305727
507.012 .0304853
507.852 .0303856
508.692 .0302737
509.531 .0301524
510.369 .0300183
511.206 .0298765
512.043 .0297322
512.878 .0295874
513.713 .0294426
514.547 .0292970
515.381 .0291483
516.213 .0289941
517.045 .0288268
517.876 .0286425
518.706 .0284466
519.536 .0282310
520.365 .0280076
521.193 .0277778
522.020 .0275541
522.847 .0273388
523.673 .0271297
524.498 .0269331
525.323 .0267392
526.146 .0265492
526.969 .0263658
527.792 .0261756
528.614 .0259919
529.435 .0258147
530.255 .0256515
531.075 .0255017
531.894 .0253793
532.712 .0252793
533.530 .0252068
534.347 .0251590
535.163 .0251290
535.979 .0251149
536.794 .0251195
537.608 .0251354
538.422 .0251591
539.235 .0251942
540.048 .0252342
540.860 .0252711
541.671 .0253118
542.481 .0253454
543.292 .0253722
544.101 .0253977
544.910 .0254214
545.718 .0254455
546.526 .0254722
547.333 .0255013
548.139 .0255350
548.945 .0255703
549.750 .0256017
550.555 .0256277
551.359 .0256474
552.162 .0256654
552.965 .0256788
553.768 .0256947
554.569 .0257161
555.371 .0257448
556.171 .0257803
556.972 .0258221
557.771 .0258733
558.570 .0259286
559.369 .0259893
560.167 .0260558
560.964 .0261263
561.761 .0262001
562.558 .0262840
563.354 .0263796
564.149 .0264784
564.944 .0265833
565.738 .0266901
566.532 .0267952
567.325 .0268982
568.118 .0269996
568.910 .0270978
569.702 .0271959
570.494 .0272972
571.285 .0273937
572.075 .0274925
572.865 .0275913
573.654 .0276836
574.443 .0277662
575.232 .0278403
576.020 .0279044
576.807 .0279578
577.594 .0280073
578.381 .0280551
579.167 .0281007
579.952 .0281481
580.738 .0281937
581.522 .0282392
582.307 .0282835
583.091 .0283259
583.874 .0283652
584.657 .0284028
585.440 .0284417
586.222 .0284799
587.004 .0285178
587.785 .0285582
588.566 .0285978
589.346 .0286356
590.126 .0286701
590.906 .0286996
591.685 .0287233
592.464 .0287408
593.242 .0287539
594.020 .0287624
594.797 .0287689
595.575 .0287737
596.351 .0287738
597.128 .0287705
597.904 .0287639
598.679 .0287524
599.454 .0287365
600.229 .0287188
601.004 .0286991
601.778 .0286780
602.551 .0286574
603.325 .0286374
604.097 .0286181
604.870 .0286000
605.642 .0285840
606.414 .0285697
607.185 .0285572
607.956 .0285459
608.727 .0285363
609.497 .0285299
610.267 .0285255
611.037 .0285209
611.806 .0285150
612.575 .0285077
613.344 .0284976
614.112 .0284843
614.880 .0284688
615.647 .0284515
616.414 .0284337
617.181 .0284149
617.948 .0283955
618.714 .0283744
619.480 .0283524
620.245 .0283284
621.011 .0283022
621.775 .0282738
622.540 .0282435
623.304 .0282130
624.068 .0281849
624.832 .0281598
625.595 .0281384
626.358 .0281201
627.120 .0281058
627.883 .0280931
628.645 .0280810
629.406 .0280677
630.168 .0280545
630.929 .0280405
631.689 .0280268
632.450 .0280123
633.210 .0279990
633.970 .0279864
634.729 .0279756
635.489 .0279652
636.248 .0279548
637.006 .0279436
637.765 .0279319
638.523 .0279195
639.280 .0279072
640.038 .0278943
640.795 .0278828
641.552 .0278732
642.309 .0278659
643.065 .0278595
643.821 .0278546
644.577 .0278503
645.332 .0278464
646.088 .0278419
646.843 .0278370
647.597 .0278305
648.352 .0278234
649.106 .0278152
649.860 .0278050
650.613 .0277932
651.367 .0277802
652.120 .0277664
652.872 .0277518
653.625 .0277363
654.377 .0277200
655.129 .0277026
655.881 .0276857
656.632 .0276681
657.384 .0276496
658.135 .0276313
658.885 .0276122
659.636 .0275925
660.386 .0275716
661.136 .0275505
661.885 .0275293
662.635 .0275090
663.384 .0274898
664.133 .0274715
664.881 .0274543
665.630 .0274394
666.378 .0274256
667.126 .0274123
667.874 .0273999
668.621 .0273872
669.368 .0273741
670.115 .0273613
670.862 .0273484
671.608 .0273373
672.354 .0273276
673.100 .0273199
673.846 .0273131
674.591 .0273070
675.337 .0273013
676.082 .0272943
676.826 .0272859
677.571 .0272757
678.315 .0272626
679.059 .0272481
679.803 .0272327
680.547 .0272168
681.290 .0272012
682.033 .0271859
682.776 .0271710
683.518 .0271550
684.261 .0271376
685.003 .0271190
685.745 .0270991
686.487 .0270788
687.228 .0270580
687.969 .0270377
688.710 .0270193
689.451 .0270021
690.192 .0269864
690.932 .0269713
691.672 .0269565
692.412 .0269414
693.152 .0269260
693.891 .0269105
694.630 .0268957
695.369 .0268815
696.108 .0268687
696.846 .0268561
697.585 .0268442
698.323 .0268319
699.061 .0268190
699.798 .0268058
700.536 .0267916
701.273 .0267762
702.010 .0267615
702.746 .0267468
703.483 .0267333
704.219 .0267201
704.955 .0267078
705.691 .0266951
706.427 .0266820
707.162 .0266686
707.897 .0266544
708.632 .0266404
709.367 .0266276
710.101 .0266152
710.835 .0266045
711.569 .0265942
712.303 .0265843
713.037 .0265749
713.770 .0265653
714.503 .0265550
715.236 .0265437
715.969 .0265324
716.702 .0265209
717.434 .0265095
718.166 .0264986
718.898 .0264881
719.629 .0264771
720.361 .0264658
721.092 .0264531
721.823 .0264399
722.554 .0264258
723.284 .0264112
724.014 .0263965
724.744 .0263817
725.474 .0263667
726.204 .0263518
726.933 .0263365
727.662 .0263219
728.391 .0263063
729.120 .0262908
729.849 .0262753
730.577 .0262604
731.305 .0262458
732.033 .0262319
732.760 .0262189
733.488 .0262069
734.215 .0261946
734.942 .0261824
735.669 .0261698
736.395 .0261570
737.122 .0261438
737.848 .0261305
738.573 .0261170
739.299 .0261033
740.024 .0260891
740.750 .0260747
741.474 .0260595
742.199 .0260438
742.924 .0260273
743.648 .0260100
744.372 .0259929
745.096 .0259760
745.819 .0259594
746.543 .0259437
747.266 .0259294
747.989 .0259162
748.711 .0259036
749.434 .0258919
750.156 .0258804
750.878 .0258697
751.599 .0258594
752.321 .0258495
753.042 .0258407
753.763 .0258328
754.484 .0258254
755.205 .0258188
755.925 .0258130
756.645 .0258074
757.365 .0258014
758.085 .0257952
758.804 .0257882
759.523 .0257802
760.242 .0257712
760.961 .0257609
761.679 .0257497
762.397 .0257371
763.115 .0257220
763.833 .0257044
764.551 .0256844
765.268 .0256619
765.985 .0256370
766.702 .0256102
767.418 .0255824
768.134 .0255536
768.850 .0255245
769.566 .0254959
770.282 .0254677
770.997 .0254401
771.712 .0254139
772.427 .0253885
773.142 .0253645
773.856 .0253419
774.570 .0253214
775.284 .0253032
775.998 .0252878
776.711 .0252748
777.424 .0252638
778.137 .0252553
778.849 .0252483
779.562 .0252417
780.274 .0252356
780.986 .0252294
781.697 .0252223
782.409 .0252145
783.120 .0252065
783.831 .0251978
784.541 .0251891
785.252 .0251806
785.962 .0251723
786.671 .0251639
787.381 .0251557
788.090 .0251472
788.799 .0251382
789.508 .0251290
790.217 .0251191
790.925 .0251089
791.633 .0250988
792.341 .0250890
793.048 .0250790
793.755 .0250695
794.462 .0250603
795.169 .0250513
795.875 .0250421
796.581 .0250333
797.287 .0250245
797.993 .0250158
798.698 .0250073
799.403 .0249991
800.108 .0249913
800.812 .0249839
801.517 .0249762
802.221 .0249690
802.924 .0249614
803.628 .0249541
804.331 .0249462
805.034 .0249387
805.736 .0249317
806.439 .0249254
807.141 .0249198
807.843 .0249157
808.544 .0249127
809.245 .0249106
809.946 .0249089
810.647 .0249078
811.347 .0249069
812.047 .0249062
812.747 .0249058
813.447 .0249052
814.146 .0249046
814.845 .0249045
815.543 .0249043
816.242 .0249050
816.940 .0249050
817.638 .0249046
818.335 .0249034
819.032 .0249009
819.729 .0248969
820.426 .0248920
821.122 .0248861
821.818 .0248794
822.514 .0248718
823.209 .0248638
823.905 .0248551
824.599 .0248463
825.294 .0248374
825.988 .0248275
826.682 .0248177
827.376 .0248081
828.069 .0247983
828.762 .0247896
829.455 .0247818
830.147 .0247745
830.840 .0247681
831.531 .0247620
832.223 .0247553
832.914 .0247477
833.605 .0247393
834.296 .0247300
834.986 .0247200
835.676 .0247098
836.366 .0247000
837.055 .0246908
837.744 .0246827
838.433 .0246750
839.121 .0246673
839.809 .0246596
840.497 .0246515
841.185 .0246424
841.872 .0246321
842.559 .0246214
843.245 .0246101
843.932 .0245990
844.617 .0245887
845.303 .0245795
845.988 .0245711
846.673 .0245637
847.358 .0245568
848.042 .0245498
848.726 .0245434
849.410 .0245371
850.093 .0245305
850.776 .0245244
851.459 .0245179
852.141 .0245110
852.823 .0245037
853.505 .0244962
854.186 .0244879
854.867 .0244793
855.548 .0244700
856.228 .0244599
856.908 .0244494
857.588 .0244385
858.267 .0244273
858.946 .0244161
859.625 .0244044
860.303 .0243918
860.981 .0243787
861.659 .0243649
862.336 .0243503
863.013 .0243355
863.690 .0243205
864.366 .0243053
865.042 .0242899
865.718 .0242739
866.393 .0242578
867.068 .0242416
867.743 .0242251
868.417 .0242085
869.091 .0241914
869.765 .0241739
870.438 .0241560
871.111 .0241379
871.783 .0241197
872.456 .0241008
873.127 .0240816
873.799 .0240614
874.470 .0240410
875.141 .0240204
875.811 .0240001
876.481 .0239807
877.151 .0239623
877.820 .0239450
878.489 .0239283
879.158 .0239122
879.826 .0238965
880.494 .0238814
881.162 .0238660
881.829 .0238506
882.496 .0238356
883.163 .0238200
883.829 .0238052
884.495 .0237904
885.160 .0237762
885.825 .0237620
886.490 .0237483
887.154 .0237352
887.818 .0237226
888.482 .0237108
889.145 .0236990
889.808 .0236879
890.471 .0236773
891.133 .0236663
891.795 .0236550
892.456 .0236438
893.117 .0236327
893.778 .0236212
894.439 .0236104
895.099 .0236000
895.758 .0235908
896.417 .0235826
897.076 .0235747
897.735 .0235671
898.393 .0235594
899.051 .0235516
899.708 .0235428
900.365 .0235331
901.022 .0235227
901.678 .0235114
902.334 .0234997
902.990 .0234877
903.645 .0234758
904.300 .0234641
904.954 .0234528
905.608 .0234418
906.262 .0234310
906.915 .0234204
907.568 .0234099
908.221 .0233992
908.873 .0233878
909.525 .0233761
910.176 .0233636
910.828 .0233507
911.478 .0233384
912.129 .0233260
912.778 .0233139
913.428 .0233024
914.077 .0232920
914.726 .0232821
915.375 .0232734
916.023 .0232663
916.670 .0232601
917.318 .0232545
917.964 .0232498
918.611 .0232454
919.257 .0232422
919.903 .0232394
920.548 .0232369
921.193 .0232346
921.838 .0232332
922.482 .0232317
923.126 .0232308
923.770 .0232310
924.413 .0232317
925.056 .0232322
925.698 .0232327
926.340 .0232324
926.982 .0232309
927.623 .0232283
928.264 .0232248
928.904 .0232197
929.544 .0232142
930.184 .0232084
930.823 .0232030
931.462 .0231988
932.101 .0231957
932.739 .0231930
933.377 .0231905
934.014 .0231875
934.651 .0231833
935.288 .0231779
935.924 .0231723
936.560 .0231667
937.196 .0231614
937.831 .0231568
938.466 .0231533
939.100 .0231506
939.734 .0231485
940.368 .0231466
941.001 .0231438
941.634 .0231396
942.266 .0231340
942.899 .0231263
943.530 .0231172
944.162 .0231067
944.793 .0230955
945.423 .0230837
946.053 .0230713
946.683 .0230591
947.313 .0230465
947.942 .0230345
948.571 .0230228
949.199 .0230112
949.827 .0230004
950.455 .0229903
951.082 .0229808
951.709 .0229719
952.335 .0229639
952.961 .0229564
953.587 .0229498
954.212 .0229447
954.837 .0229406
955.462 .0229383
956.086 .0229374
956.710 .0229376
957.334 .0229380
957.957 .0229380
958.579 .0229363
959.202 .0229325
959.824 .0229272
960.445 .0229198
961.067 .0229117
961.688 .0229038
962.308 .0228968
962.928 .0228916
963.548 .0228880
964.168 .0228855
964.787 .0228842
965.406 .0228837
966.024 .0228834
966.642 .0228834
967.260 .0228836
967.877 .0228843
968.494 .0228853
969.110 .0228871
969.727 .0228892
970.342 .0228916
970.958 .0228942
971.573 .0228962
972.188 .0228976
972.802 .0228991
973.416 .0229003
974.030 .0229017
974.643 .0229029
975.256 .0229040
975.869 .0229048
976.481 .0229051
977.093 .0229041
977.705 .0229030
978.316 .0229013
978.927 .0228995
979.538 .0228970
980.148 .0228954
980.758 .0228940
981.367 .0228934
981.977 .0228933
982.586 .0228931
983.194 .0228925
983.802 .0228914
984.410 .0228890
985.018 .0228860
985.625 .0228821
986.232 .0228780
986.838 .0228730
987.445 .0228681
988.050 .0228628
988.656 .0228573
989.261 .0228519
989.866 .0228467
990.471 .0228413
991.075 .0228353
991.679 .0228283
992.282 .0228204
992.886 .0228117
993.489 .0228026
994.091 .0227930
994.694 .0227832
995.296 .0227732
995.897 .0227636
996.499 .0227538
997.100 .0227449
997.701 .0227370
998.301 .0227304
998.901 .0227250
999.501 .0227209
1000.101 .0227180
1000.700 .0227159
1001.299 .0227142
1001.898 .0227125
1002.496 .0227105
1003.094 .0227076
1003.692 .0227030
1004.289 .0226976
1004.887 .0226914
1005.484 .0226852
1006.080 .0226785
1006.677 .0226726
1007.273 .0226672
1007.868 .0226630
1008.464 .0226590
1009.059 .0226555
1009.654 .0226532
1010.249 .0226519
1010.843 .0226510
1011.437 .0226517
1012.031 .0226534
1012.625 .0226566
1013.218 .0226601
1013.811 .0226650
1014.404 .0226692
1014.997 .0226734
1015.589 .0226763
1016.181 .0226783
1016.773 .0226791
1017.365 .0226789
1017.956 .0226771
1018.547 .0226749
1019.138 .0226722
1019.728 .0226678
1020.319 .0226611
1020.909 .0226531
1021.499 .0226429
1022.088 .0226312
1022.678 .0226179
1023.267 .0226043
1023.856 .0225908
1024.445 .0225787
1025.033 .0225671
1025.621 .0225566
1026.209 .0225468
1026.797 .0225366
1027.385 .0225252
1027.972 .0225120
1028.560 .0224969
1029.147 .0224799
1029.734 .0224617
1030.320 .0224435
1030.907 .0224252
1031.493 .0224082
1032.079 .0223917
1032.665 .0223765
1033.250 .0223604
1033.836 .0223434
1034.421 .0223250
1035.006 .0223055
1035.591 .0222853
1036.176 .0222664
1036.761 .0222481
1037.345 .0222316
1037.929 .0222174
1038.514 .0222053
1039.097 .0221947
1039.681 .0221873
1040.265 .0221814
1040.848 .0221775
1041.432 .0221749
1042.015 .0221746
1042.598 .0221755
1043.181 .0221799
1043.764 .0221861
1044.346 .0221939
1044.929 .0222021
1045.511 .0222102
1046.094 .0222154
1046.676 .0222192
1047.258 .0222216
1047.840 .0222230
1048.422 .0222233
1049.003 .0222235
1049.585 .0222221
1050.166 .0222198
1050.748 .0222152
1051.329 .0222087
1051.910 .0221975
1052.491 .0221841
1053.072 .0221682
1053.653 .0221504
1054.234 .0221335
1054.815 .0221189
1055.396 .0221074
1055.976 .0221005
1056.557 .0220970
1057.138 .0220952
1057.718 .0220935
1058.298 .0220926
1058.879 .0220898
1059.459 .0220846
1060.039 .0220786
1060.620 .0220705
1061.200 .0220619
1061.780 .0220545
1062.360 .0220469
1062.940 .0220389
1063.520 .0220317
1064.101 .0220227
1064.681 .0220106
1065.261 .0219949
1065.841 .0219748
1066.421 .0219516
1067.001 .0219266
1067.581 .0219015
1068.161 .0218755
1068.741 .0218514
1069.321 .0218309
1069.901 .0218123
1070.482 .0217966
1071.062 .0217824
1071.642 .0217695
1072.222 .0217586
1072.803 .0217477
1073.383 .0217384
1073.963 .0217305
1074.544 .0217273
1075.124 .0217275
1075.705 .0217306
1076.286 .0217368
1076.866 .0217451
1077.447 .0217522
1078.028 .0217586
1078.609 .0217613
1079.190 .0217608
1079.771 .0217576
1080.352 .0217533
1080.934 .0217471
1081.515 .0217411
1082.097 .0217350
1082.679 .0217302
1083.260 .0217245
1083.842 .0217205
1084.424 .0217144
1085.007 .0217072
1085.589 .0216990
1086.172 .0216882
1086.754 .0216753
1087.337 .0216629
1087.920 .0216493
1088.503 .0216365
1089.087 .0216241
1089.670 .0216118
1090.254 .0215987
1090.838 .0215863
1091.422 .0215738
1092.006 .0215591
1092.590 .0215454
1093.175 .0215322
1093.760 .0215177
1094.345 .0215057
1094.930 .0214958
1095.516 .0214879
1096.102 .0214841
1096.688 .0214825
1097.274 .0214839
1097.860 .0214897
1098.447 .0214989
1099.034 .0215087
1099.622 .0215211
1100.209 .0215364
1100.797 .0215527
1101.385 .0215689
1101.973 .0215879
1102.562 .0216076
1103.151 .0216283
1103.740 .0216481
1104.330 .0216662
1104.920 .0216831
1105.510 .0216987
1106.101 .0217092
1106.691 .0217188
1107.283 .0217287
1107.874 .0217391
1108.466 .0217507
1109.058 .0217656
1109.651 .0217832
1110.244 .0218012
1110.837 .0218179
1111.431 .0218342
1112.025 .0218476
1112.620 .0218577
1113.215 .0218620
1113.810 .0218655
1114.406 .0218714
1115.002 .0218773
1115.599 .0218848
1116.196 .0218948
1116.793 .0219061
1117.391 .0219159
1117.989 .0219194
1118.588 .0219192
1119.187 .0219148
1119.787 .0219075
1120.387 .0218981
1120.988 .0218905
1121.589 .0218876
1122.190 .0218892
1122.793 .0218962
1123.395 .0219106
1123.998 .0219263
1124.602 .0219415
1125.206 .0219561
1125.811 .0219700
1126.416 .0219852
1127.022 .0219977
1127.628 .0220075
1128.235 .0220244
1128.843 .0220441
1129.451 .0220680
1130.059 .0220944
1130.669 .0221254
1131.278 .0221597
1131.889 .0221876
1132.500 .0222080
1133.112 .0222218
1133.724 .0222357
1134.337 .0222468
1134.950 .0222534
1135.564 .0222662
1136.179 .0222844
1136.795 .0223067
1137.411 .0223351
1138.028 .0223673
1138.645 .0223947
1139.263 .0224172
1139.882 .0224324
1140.502 .0224554
1141.122 .0224656
1141.743 .0224818
1142.365 .0224830
1142.987 .0224395
1143.611 .0228853
1144.235 .0223438
1144.859 .0226473
1145.485 .0221772
