Measurement Sequence started on: 10-20-44-796
Integration time: 35
Scans to Average: 2 
>>>>>Begin Spectral Data<<<<<
432.953 .0173594
433.882 .0370392
434.810 .0367190
435.737 .0340806
436.662 .0345798
437.586 .0340570
438.509 .0344138
439.431 .0340578
440.351 .0336986
441.269 .0333766
442.187 .0330080
443.103 .0326344
444.018 .0323166
444.932 .0320350
445.844 .0318114
446.756 .0316445
447.666 .0315450
448.575 .0314668
449.482 .0314051
450.388 .0313443
451.294 .0312800
452.198 .0312218
453.100 .0311781
454.002 .0311584
454.902 .0311557
455.801 .0311778
456.699 .0312125
457.596 .0312438
458.492 .0312677
459.387 .0312719
460.280 .0312461
461.172 .0311892
462.064 .0311081
462.954 .0310027
463.843 .0308939
464.730 .0307909
465.617 .0306925
466.503 .0306091
467.387 .0305435
468.271 .0304903
469.153 .0304500
470.035 .0304157
470.915 .0303863
471.794 .0303600
472.673 .0303369
473.550 .0303124
474.426 .0302909
475.301 .0302761
476.175 .0302633
477.048 .0302530
477.920 .0302466
478.791 .0302382
479.661 .0302268
480.530 .0302159
481.398 .0301990
482.266 .0301787
483.132 .0301555
483.997 .0301277
484.861 .0301014
485.724 .0300817
486.587 .0300653
487.448 .0300554
488.308 .0300518
489.168 .0300499
490.026 .0300458
490.884 .0300412
491.741 .0300327
492.597 .0300180
493.452 .0299996
494.306 .0299785
495.159 .0299522
496.011 .0299251
496.862 .0298940
497.713 .0298584
498.562 .0298176
499.411 .0297663
500.259 .0297010
501.106 .0296229
501.952 .0295360
502.798 .0294424
503.642 .0293460
504.486 .0292489
505.329 .0291541
506.171 .0290653
507.012 .0289876
507.852 .0289143
508.692 .0288418
509.531 .0287708
510.369 .0286959
511.206 .0286149
512.043 .0285279
512.878 .0284323
513.713 .0283372
514.547 .0282355
515.381 .0281303
516.213 .0280189
517.045 .0278994
517.876 .0277745
518.706 .0276385
519.536 .0274894
520.365 .0273206
521.193 .0271311
522.020 .0269335
522.847 .0267175
523.673 .0264867
524.498 .0262415
525.323 .0259823
526.146 .0257186
526.969 .0254520
527.792 .0251822
528.614 .0249163
529.435 .0246676
530.255 .0244313
531.075 .0242115
531.894 .0240243
532.712 .0238713
533.530 .0237503
534.347 .0236632
535.163 .0235999
535.979 .0235593
536.794 .0235464
537.608 .0235588
538.422 .0235913
539.235 .0236500
540.048 .0237174
540.860 .0237922
541.671 .0238703
542.481 .0239548
543.292 .0240340
544.101 .0241120
544.910 .0241862
545.718 .0242542
546.526 .0243216
547.333 .0243925
548.139 .0244724
548.945 .0245671
549.750 .0246631
550.555 .0247676
551.359 .0248702
552.162 .0249793
552.965 .0250909
553.768 .0252047
554.569 .0253187
555.371 .0254313
556.171 .0255365
556.972 .0256375
557.771 .0257352
558.570 .0258352
559.369 .0259279
560.167 .0260139
560.964 .0260916
561.761 .0261590
562.558 .0262166
563.354 .0262696
564.149 .0263139
564.944 .0263562
565.738 .0263938
566.532 .0264295
567.325 .0264651
568.118 .0265052
568.910 .0265524
569.702 .0266064
570.494 .0266687
571.285 .0267396
572.075 .0268160
572.865 .0269002
573.654 .0269868
574.443 .0270742
575.232 .0271598
576.020 .0272427
576.807 .0273229
577.594 .0273987
578.381 .0274719
579.167 .0275430
579.952 .0276151
580.738 .0276894
581.522 .0277619
582.307 .0278340
583.091 .0279044
583.874 .0279728
584.657 .0280366
585.440 .0280965
586.222 .0281530
587.004 .0282058
587.785 .0282561
588.566 .0283021
589.346 .0283468
590.126 .0283886
590.906 .0284258
591.685 .0284574
592.464 .0284827
593.242 .0285013
594.020 .0285132
594.797 .0285223
595.575 .0285282
596.351 .0285323
597.128 .0285354
597.904 .0285372
598.679 .0285380
599.454 .0285371
600.229 .0285336
601.004 .0285277
601.778 .0285202
602.551 .0285105
603.325 .0284996
604.097 .0284894
604.870 .0284803
605.642 .0284735
606.414 .0284670
607.185 .0284614
607.956 .0284563
608.727 .0284514
609.497 .0284457
610.267 .0284397
611.037 .0284334
611.806 .0284263
612.575 .0284181
613.344 .0284104
614.112 .0284012
614.880 .0283918
615.647 .0283811
616.414 .0283691
617.181 .0283566
617.948 .0283436
618.714 .0283296
619.480 .0283170
620.245 .0283052
621.011 .0282933
621.775 .0282805
622.540 .0282681
623.304 .0282544
624.068 .0282392
624.832 .0282223
625.595 .0282047
626.358 .0281866
627.120 .0281696
627.883 .0281530
628.645 .0281384
629.406 .0281253
630.168 .0281132
630.929 .0281006
631.689 .0280880
632.450 .0280733
633.210 .0280572
633.970 .0280405
634.729 .0280246
635.489 .0280097
636.248 .0279957
637.006 .0279842
637.765 .0279750
638.523 .0279669
639.280 .0279598
640.038 .0279530
640.795 .0279470
641.552 .0279404
642.309 .0279337
643.065 .0279271
643.821 .0279215
644.577 .0279166
645.332 .0279116
646.088 .0279068
646.843 .0279015
647.597 .0278943
648.352 .0278853
649.106 .0278757
649.860 .0278645
650.613 .0278522
651.367 .0278404
652.120 .0278293
652.872 .0278184
653.625 .0278070
654.377 .0277952
655.129 .0277823
655.881 .0277680
656.632 .0277510
657.384 .0277318
658.135 .0277124
658.885 .0276919
659.636 .0276712
660.386 .0276513
661.136 .0276333
661.885 .0276161
662.635 .0276001
663.384 .0275851
664.133 .0275710
664.881 .0275573
665.630 .0275442
666.378 .0275319
667.126 .0275212
667.874 .0275119
668.621 .0275036
669.368 .0274978
670.115 .0274937
670.862 .0274903
671.608 .0274882
672.354 .0274861
673.100 .0274840
673.846 .0274804
674.591 .0274758
675.337 .0274701
676.082 .0274638
676.826 .0274571
677.571 .0274501
678.315 .0274438
679.059 .0274375
679.803 .0274310
680.547 .0274242
681.290 .0274170
682.033 .0274080
682.776 .0273971
683.518 .0273843
684.261 .0273692
685.003 .0273532
685.745 .0273361
686.487 .0273192
687.228 .0273029
687.969 .0272870
688.710 .0272723
689.451 .0272572
690.192 .0272425
690.932 .0272268
691.672 .0272104
692.412 .0271940
693.152 .0271772
693.891 .0271607
694.630 .0271455
695.369 .0271325
696.108 .0271215
696.846 .0271118
697.585 .0271035
698.323 .0270959
699.061 .0270881
699.798 .0270796
700.536 .0270705
701.273 .0270603
702.010 .0270500
702.746 .0270389
703.483 .0270276
704.219 .0270162
704.955 .0270041
705.691 .0269909
706.427 .0269762
707.162 .0269598
707.897 .0269415
708.632 .0269220
709.367 .0269028
710.101 .0268832
710.835 .0268643
711.569 .0268453
712.303 .0268264
713.037 .0268071
713.770 .0267872
714.503 .0267661
715.236 .0267441
715.969 .0267213
716.702 .0266980
717.434 .0266745
718.166 .0266521
718.898 .0266300
719.629 .0266089
720.361 .0265883
721.092 .0265684
721.823 .0265484
722.554 .0265290
723.284 .0265100
724.014 .0264920
724.744 .0264746
725.474 .0264579
726.204 .0264417
726.933 .0264257
727.662 .0264098
728.391 .0263940
729.120 .0263780
729.849 .0263622
730.577 .0263462
731.305 .0263306
732.033 .0263150
732.760 .0262999
733.488 .0262846
734.215 .0262689
734.942 .0262526
735.669 .0262353
736.395 .0262167
737.122 .0261979
737.848 .0261788
738.573 .0261599
739.299 .0261419
740.024 .0261255
740.750 .0261107
741.474 .0260971
742.199 .0260849
742.924 .0260745
743.648 .0260653
744.372 .0260569
745.096 .0260498
745.819 .0260436
746.543 .0260389
747.266 .0260348
747.989 .0260315
748.711 .0260295
749.434 .0260279
750.156 .0260269
750.878 .0260261
751.599 .0260257
752.321 .0260250
753.042 .0260240
753.763 .0260234
754.484 .0260230
755.205 .0260225
755.925 .0260216
756.645 .0260207
757.365 .0260193
758.085 .0260169
758.804 .0260129
759.523 .0260074
760.242 .0260005
760.961 .0259919
761.679 .0259816
762.397 .0259697
763.115 .0259566
763.833 .0259422
764.551 .0259264
765.268 .0259088
765.985 .0258894
766.702 .0258679
767.418 .0258451
768.134 .0258218
768.850 .0257983
769.566 .0257756
770.282 .0257541
770.997 .0257341
771.712 .0257151
772.427 .0256965
773.142 .0256788
773.856 .0256612
774.570 .0256443
775.284 .0256275
775.998 .0256113
776.711 .0255964
777.424 .0255829
778.137 .0255708
778.849 .0255595
779.562 .0255487
780.274 .0255371
780.986 .0255241
781.697 .0255094
782.409 .0254924
783.120 .0254740
783.831 .0254552
784.541 .0254368
785.252 .0254190
785.962 .0254026
786.671 .0253879
787.381 .0253744
788.090 .0253619
788.799 .0253494
789.508 .0253365
790.217 .0253230
790.925 .0253082
791.633 .0252921
792.341 .0252755
793.048 .0252589
793.755 .0252421
794.462 .0252250
795.169 .0252080
795.875 .0251910
796.581 .0251742
797.287 .0251579
797.993 .0251420
798.698 .0251267
799.403 .0251120
800.108 .0250974
800.812 .0250829
801.517 .0250688
802.221 .0250546
802.924 .0250405
803.628 .0250272
804.331 .0250144
805.034 .0250024
805.736 .0249915
806.439 .0249823
807.141 .0249744
807.843 .0249676
808.544 .0249612
809.245 .0249543
809.946 .0249471
810.647 .0249388
811.347 .0249292
812.047 .0249188
812.747 .0249087
813.447 .0248986
814.146 .0248888
814.845 .0248801
815.543 .0248720
816.242 .0248642
816.940 .0248561
817.638 .0248464
818.335 .0248357
819.032 .0248232
819.729 .0248088
820.426 .0247932
821.122 .0247769
821.818 .0247597
822.514 .0247423
823.209 .0247252
823.905 .0247082
824.599 .0246903
825.294 .0246720
825.988 .0246526
826.682 .0246324
827.376 .0246112
828.069 .0245894
828.762 .0245678
829.455 .0245474
830.147 .0245273
830.840 .0245089
831.531 .0244925
832.223 .0244777
832.914 .0244640
833.605 .0244510
834.296 .0244380
834.986 .0244246
835.676 .0244102
836.366 .0243952
837.055 .0243799
837.744 .0243650
838.433 .0243501
839.121 .0243363
839.809 .0243239
840.497 .0243127
841.185 .0243026
841.872 .0242936
842.559 .0242852
843.245 .0242766
843.932 .0242681
844.617 .0242588
845.303 .0242499
845.988 .0242415
846.673 .0242336
847.358 .0242266
848.042 .0242200
848.726 .0242137
849.410 .0242074
850.093 .0242009
850.776 .0241941
851.459 .0241866
852.141 .0241786
852.823 .0241696
853.505 .0241601
854.186 .0241498
854.867 .0241395
855.548 .0241288
856.228 .0241180
856.908 .0241072
857.588 .0240966
858.267 .0240861
858.946 .0240760
859.625 .0240664
860.303 .0240569
860.981 .0240481
861.659 .0240401
862.336 .0240322
863.013 .0240249
863.690 .0240184
864.366 .0240130
865.042 .0240082
865.718 .0240039
866.393 .0239994
867.068 .0239951
867.743 .0239911
868.417 .0239863
869.091 .0239813
869.765 .0239764
870.438 .0239719
871.111 .0239677
871.783 .0239642
872.456 .0239612
873.127 .0239581
873.799 .0239548
874.470 .0239507
875.141 .0239451
875.811 .0239381
876.481 .0239300
877.151 .0239214
877.820 .0239125
878.489 .0239032
879.158 .0238940
879.826 .0238853
880.494 .0238763
881.162 .0238670
881.829 .0238570
882.496 .0238459
883.163 .0238343
883.829 .0238214
884.495 .0238079
885.160 .0237950
885.825 .0237829
886.490 .0237721
887.154 .0237627
887.818 .0237552
888.482 .0237490
889.145 .0237444
889.808 .0237413
890.471 .0237385
891.133 .0237362
891.795 .0237336
892.456 .0237302
893.117 .0237266
893.778 .0237236
894.439 .0237207
895.099 .0237182
895.758 .0237161
896.417 .0237142
897.076 .0237126
897.735 .0237115
898.393 .0237108
899.051 .0237101
899.708 .0237091
900.365 .0237078
901.022 .0237056
901.678 .0237037
902.334 .0237014
902.990 .0236990
903.645 .0236963
904.300 .0236937
904.954 .0236902
905.608 .0236860
906.262 .0236822
906.915 .0236779
907.568 .0236734
908.221 .0236678
908.873 .0236608
909.525 .0236527
910.176 .0236435
910.828 .0236329
911.478 .0236209
912.129 .0236081
912.778 .0235938
913.428 .0235781
914.077 .0235620
914.726 .0235456
915.375 .0235291
916.023 .0235127
916.670 .0234971
917.318 .0234819
917.964 .0234680
918.611 .0234548
919.257 .0234431
919.903 .0234323
920.548 .0234214
921.193 .0234103
921.838 .0233991
922.482 .0233879
923.126 .0233767
923.770 .0233660
924.413 .0233564
925.056 .0233478
925.698 .0233405
926.340 .0233338
926.982 .0233276
927.623 .0233206
928.264 .0233126
928.904 .0233029
929.544 .0232921
930.184 .0232806
930.823 .0232688
931.462 .0232575
932.101 .0232474
932.739 .0232381
933.377 .0232291
934.014 .0232196
934.651 .0232097
935.288 .0231982
935.924 .0231855
936.560 .0231713
937.196 .0231565
937.831 .0231417
938.466 .0231278
939.100 .0231141
939.734 .0231009
940.368 .0230879
941.001 .0230743
941.634 .0230591
942.266 .0230428
942.899 .0230246
943.530 .0230054
944.162 .0229854
944.793 .0229653
945.423 .0229448
946.053 .0229248
946.683 .0229046
947.313 .0228843
947.942 .0228629
948.571 .0228406
949.199 .0228167
949.827 .0227919
950.455 .0227666
951.082 .0227417
951.709 .0227170
952.335 .0226935
952.961 .0226699
953.587 .0226469
954.212 .0226232
954.837 .0225995
955.462 .0225755
956.086 .0225523
956.710 .0225303
957.334 .0225105
957.957 .0224929
958.579 .0224784
959.202 .0224660
959.824 .0224554
960.445 .0224448
961.067 .0224338
961.688 .0224215
962.308 .0224082
962.928 .0223941
963.548 .0223804
964.168 .0223673
964.787 .0223557
965.406 .0223458
966.024 .0223376
966.642 .0223305
967.260 .0223235
967.877 .0223157
968.494 .0223070
969.110 .0222962
969.727 .0222842
970.342 .0222709
970.958 .0222578
971.573 .0222451
972.188 .0222330
972.802 .0222217
973.416 .0222110
974.030 .0222013
974.643 .0221916
975.256 .0221818
975.869 .0221722
976.481 .0221617
977.093 .0221505
977.705 .0221392
978.316 .0221281
978.927 .0221173
979.538 .0221074
980.148 .0220985
980.758 .0220908
981.367 .0220849
981.977 .0220807
982.586 .0220784
983.194 .0220779
983.802 .0220787
984.410 .0220790
985.018 .0220795
985.625 .0220793
986.232 .0220776
986.838 .0220748
987.445 .0220711
988.050 .0220667
988.656 .0220619
989.261 .0220571
989.866 .0220531
990.471 .0220494
991.075 .0220467
991.679 .0220432
992.282 .0220389
992.886 .0220333
993.489 .0220260
994.091 .0220170
994.694 .0220074
995.296 .0219972
995.897 .0219872
996.499 .0219781
997.100 .0219702
997.701 .0219636
998.301 .0219589
998.901 .0219554
999.501 .0219527
1000.101 .0219500
1000.700 .0219469
1001.299 .0219432
1001.898 .0219395
1002.496 .0219355
1003.094 .0219315
1003.692 .0219286
1004.289 .0219261
1004.887 .0219245
1005.484 .0219243
1006.080 .0219252
1006.677 .0219273
1007.273 .0219301
1007.868 .0219335
1008.464 .0219373
1009.059 .0219426
1009.654 .0219489
1010.249 .0219560
1010.843 .0219644
1011.437 .0219732
1012.031 .0219820
1012.625 .0219906
1013.218 .0219986
1013.811 .0220061
1014.404 .0220131
1014.997 .0220201
1015.589 .0220265
1016.181 .0220326
1016.773 .0220383
1017.365 .0220433
1017.956 .0220476
1018.547 .0220496
1019.138 .0220488
1019.728 .0220450
1020.319 .0220402
1020.909 .0220338
1021.499 .0220267
1022.088 .0220197
1022.678 .0220135
1023.267 .0220084
1023.856 .0220043
1024.445 .0220018
1025.033 .0220009
1025.621 .0220019
1026.209 .0220045
1026.797 .0220073
1027.385 .0220116
1027.972 .0220162
1028.560 .0220225
1029.147 .0220295
1029.734 .0220379
1030.320 .0220462
1030.907 .0220555
1031.493 .0220664
1032.079 .0220788
1032.665 .0220927
1033.250 .0221081
1033.836 .0221244
1034.421 .0221408
1035.006 .0221556
1035.591 .0221690
1036.176 .0221794
1036.761 .0221881
1037.345 .0221942
1037.929 .0221983
1038.514 .0222009
1039.097 .0222042
1039.681 .0222083
1040.265 .0222142
1040.848 .0222224
1041.432 .0222304
1042.015 .0222383
1042.598 .0222469
1043.181 .0222545
1043.764 .0222608
1044.346 .0222667
1044.929 .0222738
1045.511 .0222815
1046.094 .0222920
1046.676 .0223050
1047.258 .0223210
1047.840 .0223402
1048.422 .0223612
1049.003 .0223810
1049.585 .0223999
1050.166 .0224158
1050.748 .0224277
1051.329 .0224359
1051.910 .0224396
1052.491 .0224383
1053.072 .0224343
1053.653 .0224275
1054.234 .0224190
1054.815 .0224081
1055.396 .0223968
1055.976 .0223851
1056.557 .0223740
1057.138 .0223622
1057.718 .0223498
1058.298 .0223366
1058.879 .0223239
1059.459 .0223102
1060.039 .0222972
1060.620 .0222833
1061.200 .0222703
1061.780 .0222589
1062.360 .0222494
1062.940 .0222416
1063.520 .0222363
1064.101 .0222338
1064.681 .0222337
1065.261 .0222343
1065.841 .0222338
1066.421 .0222320
1067.001 .0222296
1067.581 .0222245
1068.161 .0222169
1068.741 .0222073
1069.321 .0221969
1069.901 .0221865
1070.482 .0221783
1071.062 .0221739
1071.642 .0221727
1072.222 .0221760
1072.803 .0221823
1073.383 .0221916
1073.963 .0222026
1074.544 .0222152
1075.124 .0222285
1075.705 .0222430
1076.286 .0222570
1076.866 .0222708
1077.447 .0222845
1078.028 .0222981
1078.609 .0223105
1079.190 .0223216
1079.771 .0223292
1080.352 .0223333
1080.934 .0223320
1081.515 .0223286
1082.097 .0223227
1082.679 .0223166
1083.260 .0223074
1083.842 .0222961
1084.424 .0222824
1085.007 .0222669
1085.589 .0222478
1086.172 .0222261
1086.754 .0222044
1087.337 .0221828
1087.920 .0221635
1088.503 .0221480
1089.087 .0221360
1089.670 .0221307
1090.254 .0221290
1090.838 .0221301
1091.422 .0221324
1092.006 .0221358
1092.590 .0221403
1093.175 .0221459
1093.760 .0221541
1094.345 .0221633
1094.930 .0221720
1095.516 .0221810
1096.102 .0221910
1096.688 .0221999
1097.274 .0222101
1097.860 .0222208
1098.447 .0222328
1099.034 .0222452
1099.622 .0222561
1100.209 .0222665
1100.797 .0222747
1101.385 .0222776
1101.973 .0222728
1102.562 .0222582
1103.151 .0222373
1103.740 .0222087
1104.330 .0221767
1104.920 .0221426
1105.510 .0221102
1106.101 .0220775
1106.691 .0220443
1107.283 .0220097
1107.874 .0219749
1108.466 .0219367
1109.058 .0218968
1109.651 .0218567
1110.244 .0218177
1110.837 .0217818
1111.431 .0217522
1112.025 .0217313
1112.620 .0217164
1113.215 .0217086
1113.810 .0217056
1114.406 .0217049
1115.002 .0217091
1115.599 .0217140
1116.196 .0217196
1116.793 .0217262
1117.391 .0217315
1117.989 .0217337
1118.588 .0217357
1119.187 .0217399
1119.787 .0217436
1120.387 .0217522
1120.988 .0217677
1121.589 .0217884
1122.190 .0218119
1122.793 .0218401
1123.395 .0218671
1123.998 .0218946
1124.602 .0219197
1125.206 .0219401
1125.811 .0219584
1126.416 .0219758
1127.022 .0219916
1127.628 .0220097
1128.235 .0220339
1128.843 .0220641
1129.451 .0220994
1130.059 .0221391
1130.669 .0221785
1131.278 .0222182
1131.889 .0222567
1132.500 .0222940
1133.112 .0223288
1133.724 .0223657
1134.337 .0224002
1134.950 .0224398
1135.564 .0224834
1136.179 .0225300
1136.795 .0225839
1137.411 .0226423
1138.028 .0227031
1138.645 .0227614
1139.263 .0228238
1139.882 .0228852
1140.502 .0229460
1141.122 .0230065
1141.743 .0230509
1142.365 .0230951
1142.987 .0231406
1143.611 .0232694
1144.235 .0232574
1144.859 .0230130
1145.485 .0232394
