Measurement Sequence started on: 10-20-44-796
Integration time: 35
Scans to Average: 2 
>>>>>Begin Spectral Data<<<<<
432.953 .0741981
433.882 .0464203
434.810 .0422912
435.737 .0425022
436.662 .0409497
437.586 .0423227
438.509 .0408042
439.431 .0404285
440.351 .0402546
441.269 .0401262
442.187 .0400647
443.103 .0400245
444.018 .0399864
444.932 .0399546
445.844 .0399085
446.756 .0398824
447.666 .0398489
448.575 .0398110
449.482 .0397712
450.388 .0397508
451.294 .0397317
452.198 .0397160
453.100 .0397055
454.002 .0397070
454.902 .0396980
455.801 .0396826
456.699 .0396645
457.596 .0396434
458.492 .0396033
459.387 .0395515
460.280 .0394890
461.172 .0394297
462.064 .0393762
462.954 .0393238
463.843 .0392732
464.730 .0392346
465.617 .0391842
466.503 .0391306
467.387 .0390726
468.271 .0389995
469.153 .0389172
470.035 .0388290
470.915 .0387416
471.794 .0386527
472.673 .0385738
473.550 .0385077
474.426 .0384568
475.301 .0384207
476.175 .0383959
477.048 .0383752
477.920 .0383620
478.791 .0383421
479.661 .0383120
480.530 .0382725
481.398 .0382225
482.266 .0381600
483.132 .0380954
483.997 .0380282
484.861 .0379622
485.724 .0378981
486.587 .0378405
487.448 .0377790
488.308 .0377179
489.168 .0376509
490.026 .0375742
490.884 .0374842
491.741 .0373830
492.597 .0372729
493.452 .0371669
494.306 .0370690
495.159 .0369796
496.011 .0369037
496.862 .0368440
497.713 .0367923
498.562 .0367415
499.411 .0366917
500.259 .0366395
501.106 .0365804
501.952 .0365208
502.798 .0364594
503.642 .0363991
504.486 .0363477
505.329 .0363057
506.171 .0362691
507.012 .0362301
507.852 .0361837
508.692 .0361234
509.531 .0360492
510.369 .0359565
511.206 .0358443
512.043 .0357193
512.878 .0355862
513.713 .0354437
514.547 .0352919
515.381 .0351404
516.213 .0349850
517.045 .0348223
517.876 .0346537
518.706 .0344789
519.536 .0342990
520.365 .0341191
521.193 .0339471
522.020 .0337840
522.847 .0336241
523.673 .0334689
524.498 .0333087
525.323 .0331479
526.146 .0329844
526.969 .0328184
527.792 .0326509
528.614 .0324884
529.435 .0323307
530.255 .0321801
531.075 .0320430
531.894 .0319192
532.712 .0317976
533.530 .0316706
534.347 .0315336
535.163 .0313905
535.979 .0312396
536.794 .0310948
537.608 .0309542
538.422 .0308332
539.235 .0307335
540.048 .0306533
540.860 .0305946
541.671 .0305571
542.481 .0305354
543.292 .0305295
544.101 .0305270
544.910 .0305406
545.718 .0305701
546.526 .0306202
547.333 .0306847
548.139 .0307667
548.945 .0308561
549.750 .0309480
550.555 .0310358
551.359 .0311196
552.162 .0311961
552.965 .0312712
553.768 .0313408
554.569 .0314139
555.371 .0314967
556.171 .0315779
556.972 .0316544
557.771 .0317346
558.570 .0318004
559.369 .0318535
560.167 .0318939
560.964 .0319255
561.761 .0319573
562.558 .0319922
563.354 .0320314
564.149 .0320757
564.944 .0321311
565.738 .0321900
566.532 .0322395
567.325 .0322820
568.118 .0323106
568.910 .0323243
569.702 .0323315
570.494 .0323344
571.285 .0323367
572.075 .0323444
572.865 .0323611
573.654 .0323870
574.443 .0324163
575.232 .0324472
576.020 .0324810
576.807 .0325138
577.594 .0325466
578.381 .0325762
579.167 .0326075
579.952 .0326445
580.738 .0326854
581.522 .0327301
582.307 .0327779
583.091 .0328318
583.874 .0328847
584.657 .0329324
585.440 .0329766
586.222 .0330129
587.004 .0330415
587.785 .0330655
588.566 .0330842
589.346 .0331001
590.126 .0331164
590.906 .0331319
591.685 .0331480
592.464 .0331635
593.242 .0331774
594.020 .0331885
594.797 .0331981
595.575 .0332046
596.351 .0332068
597.128 .0332069
597.904 .0332067
598.679 .0332065
599.454 .0332060
600.229 .0332045
601.004 .0332019
601.778 .0331973
602.551 .0331890
603.325 .0331759
604.097 .0331587
604.870 .0331371
605.642 .0331117
606.414 .0330833
607.185 .0330531
607.956 .0330228
608.727 .0329933
609.497 .0329650
610.267 .0329372
611.037 .0329088
611.806 .0328798
612.575 .0328502
613.344 .0328205
614.112 .0327909
614.880 .0327608
615.647 .0327318
616.414 .0327055
617.181 .0326818
617.948 .0326600
618.714 .0326409
619.480 .0326245
620.245 .0326091
621.011 .0325935
621.775 .0325776
622.540 .0325606
623.304 .0325440
624.068 .0325268
624.832 .0325084
625.595 .0324885
626.358 .0324681
627.120 .0324456
627.883 .0324215
628.645 .0323958
629.406 .0323673
630.168 .0323371
630.929 .0323060
631.689 .0322749
632.450 .0322431
633.210 .0322120
633.970 .0321805
634.729 .0321477
635.489 .0321140
636.248 .0320777
637.006 .0320395
637.765 .0320006
638.523 .0319611
639.280 .0319214
640.038 .0318830
640.795 .0318475
641.552 .0318148
642.309 .0317852
643.065 .0317581
643.821 .0317335
644.577 .0317098
645.332 .0316875
646.088 .0316654
646.843 .0316440
647.597 .0316234
648.352 .0316030
649.106 .0315836
649.860 .0315655
650.613 .0315481
651.367 .0315316
652.120 .0315153
652.872 .0314993
653.625 .0314823
654.377 .0314651
655.129 .0314476
655.881 .0314298
656.632 .0314111
657.384 .0313927
658.135 .0313744
658.885 .0313568
659.636 .0313395
660.386 .0313225
661.136 .0313066
661.885 .0312916
662.635 .0312780
663.384 .0312659
664.133 .0312556
664.881 .0312466
665.630 .0312381
666.378 .0312306
667.126 .0312229
667.874 .0312146
668.621 .0312056
669.368 .0311953
670.115 .0311837
670.862 .0311699
671.608 .0311553
672.354 .0311413
673.100 .0311283
673.846 .0311156
674.591 .0311034
675.337 .0310921
676.082 .0310812
676.826 .0310708
677.571 .0310611
678.315 .0310524
679.059 .0310451
679.803 .0310385
680.547 .0310327
681.290 .0310274
682.033 .0310220
682.776 .0310154
683.518 .0310074
684.261 .0309972
685.003 .0309842
685.745 .0309687
686.487 .0309518
687.228 .0309337
687.969 .0309137
688.710 .0308920
689.451 .0308683
690.192 .0308426
690.932 .0308154
691.672 .0307860
692.412 .0307559
693.152 .0307255
693.891 .0306954
694.630 .0306658
695.369 .0306378
696.108 .0306109
696.846 .0305848
697.585 .0305585
698.323 .0305317
699.061 .0305039
699.798 .0304760
700.536 .0304481
701.273 .0304204
702.010 .0303940
702.746 .0303683
703.483 .0303428
704.219 .0303176
704.955 .0302913
705.691 .0302639
706.427 .0302353
707.162 .0302054
707.897 .0301744
708.632 .0301436
709.367 .0301135
710.101 .0300843
710.835 .0300569
711.569 .0300307
712.303 .0300047
713.037 .0299788
713.770 .0299529
714.503 .0299261
715.236 .0298995
715.969 .0298736
716.702 .0298485
717.434 .0298253
718.166 .0298035
718.898 .0297829
719.629 .0297637
720.361 .0297449
721.092 .0297261
721.823 .0297061
722.554 .0296846
723.284 .0296614
724.014 .0296367
724.744 .0296112
725.474 .0295848
726.204 .0295584
726.933 .0295320
727.662 .0295051
728.391 .0294779
729.120 .0294503
729.849 .0294222
730.577 .0293944
731.305 .0293663
732.033 .0293385
732.760 .0293112
733.488 .0292849
734.215 .0292596
734.942 .0292360
735.669 .0292132
736.395 .0291914
737.122 .0291698
737.848 .0291490
738.573 .0291294
739.299 .0291113
740.024 .0290946
740.750 .0290796
741.474 .0290664
742.199 .0290546
742.924 .0290430
743.648 .0290314
744.372 .0290195
745.096 .0290069
745.819 .0289942
746.543 .0289815
747.266 .0289697
747.989 .0289600
748.711 .0289532
749.434 .0289494
750.156 .0289488
750.878 .0289508
751.599 .0289552
752.321 .0289605
753.042 .0289667
753.763 .0289722
754.484 .0289773
755.205 .0289824
755.925 .0289873
756.645 .0289920
757.365 .0289973
758.085 .0290024
758.804 .0290080
759.523 .0290132
760.242 .0290176
760.961 .0290196
761.679 .0290191
762.397 .0290150
763.115 .0290068
763.833 .0289947
764.551 .0289796
765.268 .0289616
765.985 .0289427
766.702 .0289238
767.418 .0289052
768.134 .0288881
768.850 .0288730
769.566 .0288581
770.282 .0288438
770.997 .0288288
771.712 .0288132
772.427 .0287968
773.142 .0287804
773.856 .0287644
774.570 .0287496
775.284 .0287368
775.998 .0287255
776.711 .0287160
777.424 .0287078
778.137 .0286995
778.849 .0286906
779.562 .0286803
780.274 .0286690
780.986 .0286568
781.697 .0286443
782.409 .0286318
783.120 .0286204
783.831 .0286098
784.541 .0286001
785.252 .0285910
785.962 .0285821
786.671 .0285727
787.381 .0285627
788.090 .0285519
788.799 .0285403
789.508 .0285277
790.217 .0285144
790.925 .0284992
791.633 .0284827
792.341 .0284645
793.048 .0284441
793.755 .0284221
794.462 .0283988
795.169 .0283750
795.875 .0283517
796.581 .0283293
797.287 .0283086
797.993 .0282893
798.698 .0282716
799.403 .0282540
800.108 .0282361
800.812 .0282180
801.517 .0281989
802.221 .0281804
802.924 .0281625
803.628 .0281459
804.331 .0281314
805.034 .0281194
805.736 .0281090
806.439 .0281001
807.141 .0280913
807.843 .0280810
808.544 .0280689
809.245 .0280545
809.946 .0280372
810.647 .0280186
811.347 .0279992
812.047 .0279797
812.747 .0279597
813.447 .0279405
814.146 .0279207
814.845 .0279014
815.543 .0278824
816.242 .0278629
816.940 .0278428
817.638 .0278229
818.335 .0278026
819.032 .0277821
819.729 .0277617
820.426 .0277402
821.122 .0277171
821.818 .0276923
822.514 .0276648
823.209 .0276354
823.905 .0276048
824.599 .0275737
825.294 .0275431
825.988 .0275136
826.682 .0274859
827.376 .0274595
828.069 .0274350
828.762 .0274115
829.455 .0273878
830.147 .0273640
830.840 .0273399
831.531 .0273164
832.223 .0272942
832.914 .0272735
833.605 .0272555
834.296 .0272404
834.986 .0272275
835.676 .0272156
836.366 .0272045
837.055 .0271931
837.744 .0271802
838.433 .0271652
839.121 .0271476
839.809 .0271278
840.497 .0271068
841.185 .0270850
841.872 .0270631
842.559 .0270413
843.245 .0270200
843.932 .0269992
844.617 .0269796
845.303 .0269610
845.988 .0269428
846.673 .0269254
847.358 .0269096
848.042 .0268949
848.726 .0268814
849.410 .0268696
850.093 .0268599
850.776 .0268521
851.459 .0268456
852.141 .0268397
852.823 .0268354
853.505 .0268323
854.186 .0268296
854.867 .0268268
855.548 .0268240
856.228 .0268206
856.908 .0268162
857.588 .0268111
858.267 .0268050
858.946 .0267978
859.625 .0267896
860.303 .0267801
860.981 .0267697
861.659 .0267581
862.336 .0267451
863.013 .0267311
863.690 .0267165
864.366 .0267016
865.042 .0266863
865.718 .0266722
866.393 .0266595
867.068 .0266482
867.743 .0266387
868.417 .0266308
869.091 .0266239
869.765 .0266180
870.438 .0266123
871.111 .0266060
871.783 .0265998
872.456 .0265935
873.127 .0265874
873.799 .0265824
874.470 .0265786
875.141 .0265758
875.811 .0265741
876.481 .0265734
877.151 .0265733
877.820 .0265732
878.489 .0265728
879.158 .0265716
879.826 .0265696
880.494 .0265679
881.162 .0265660
881.829 .0265647
882.496 .0265647
883.163 .0265651
883.829 .0265667
884.495 .0265687
885.160 .0265706
885.825 .0265728
886.490 .0265749
887.154 .0265764
887.818 .0265773
888.482 .0265775
889.145 .0265768
889.808 .0265758
890.471 .0265748
891.133 .0265737
891.795 .0265723
892.456 .0265709
893.117 .0265695
893.778 .0265681
894.439 .0265673
895.099 .0265661
895.758 .0265652
896.417 .0265651
897.076 .0265646
897.735 .0265640
898.393 .0265635
899.051 .0265632
899.708 .0265628
900.365 .0265620
901.022 .0265604
901.678 .0265585
902.334 .0265566
902.990 .0265551
903.645 .0265539
904.300 .0265532
904.954 .0265531
905.608 .0265528
906.262 .0265521
906.915 .0265506
907.568 .0265472
908.221 .0265429
908.873 .0265370
909.525 .0265301
910.176 .0265221
910.828 .0265137
911.478 .0265061
912.129 .0264988
912.778 .0264915
913.428 .0264838
914.077 .0264752
914.726 .0264658
915.375 .0264554
916.023 .0264442
916.670 .0264329
917.318 .0264217
917.964 .0264111
918.611 .0264010
919.257 .0263917
919.903 .0263838
920.548 .0263769
921.193 .0263707
921.838 .0263648
922.482 .0263588
923.126 .0263536
923.770 .0263484
924.413 .0263432
925.056 .0263379
925.698 .0263324
926.340 .0263263
926.982 .0263191
927.623 .0263110
928.264 .0263023
928.904 .0262925
929.544 .0262818
930.184 .0262696
930.823 .0262560
931.462 .0262406
932.101 .0262238
932.739 .0262054
933.377 .0261852
934.014 .0261632
934.651 .0261402
935.288 .0261170
935.924 .0260940
936.560 .0260715
937.196 .0260500
937.831 .0260290
938.466 .0260083
939.100 .0259871
939.734 .0259657
940.368 .0259442
941.001 .0259225
941.634 .0259010
942.266 .0258799
942.899 .0258594
943.530 .0258402
944.162 .0258219
944.793 .0258044
945.423 .0257863
946.053 .0257673
946.683 .0257463
947.313 .0257233
947.942 .0256983
948.571 .0256715
949.199 .0256431
949.827 .0256142
950.455 .0255843
951.082 .0255548
951.709 .0255256
952.335 .0254968
952.961 .0254681
953.587 .0254396
954.212 .0254107
954.837 .0253812
955.462 .0253519
956.086 .0253239
956.710 .0252971
957.334 .0252722
957.957 .0252488
958.579 .0252269
959.202 .0252064
959.824 .0251874
960.445 .0251686
961.067 .0251498
961.688 .0251305
962.308 .0251107
962.928 .0250905
963.548 .0250706
964.168 .0250506
964.787 .0250310
965.406 .0250123
966.024 .0249939
966.642 .0249749
967.260 .0249557
967.877 .0249366
968.494 .0249172
969.110 .0248970
969.727 .0248766
970.342 .0248556
970.958 .0248354
971.573 .0248167
972.188 .0247987
972.802 .0247827
973.416 .0247686
974.030 .0247552
974.643 .0247422
975.256 .0247293
975.869 .0247156
976.481 .0247008
977.093 .0246858
977.705 .0246700
978.316 .0246537
978.927 .0246384
979.538 .0246241
980.148 .0246108
980.758 .0245992
981.367 .0245889
981.977 .0245785
982.586 .0245683
983.194 .0245578
983.802 .0245464
984.410 .0245348
985.018 .0245235
985.625 .0245124
986.232 .0245022
986.838 .0244938
987.445 .0244866
988.050 .0244807
988.656 .0244764
989.261 .0244718
989.866 .0244655
990.471 .0244576
991.075 .0244469
991.679 .0244321
992.282 .0244150
992.886 .0243964
993.489 .0243764
994.091 .0243558
994.694 .0243355
995.296 .0243166
995.897 .0242999
996.499 .0242854
997.100 .0242716
997.701 .0242598
998.301 .0242498
998.901 .0242398
999.501 .0242309
1000.101 .0242241
1000.700 .0242193
1001.299 .0242164
1001.898 .0242163
1002.496 .0242187
1003.094 .0242243
1003.692 .0242323
1004.289 .0242413
1004.887 .0242511
1005.484 .0242604
1006.080 .0242666
1006.677 .0242695
1007.273 .0242697
1007.868 .0242660
1008.464 .0242597
1009.059 .0242525
1009.654 .0242446
1010.249 .0242382
1010.843 .0242332
1011.437 .0242296
1012.031 .0242274
1012.625 .0242264
1013.218 .0242252
1013.811 .0242239
1014.404 .0242236
1014.997 .0242235
1015.589 .0242246
1016.181 .0242288
1016.773 .0242354
1017.365 .0242439
1017.956 .0242547
1018.547 .0242654
1019.138 .0242748
1019.728 .0242829
1020.319 .0242878
1020.909 .0242897
1021.499 .0242900
1022.088 .0242888
1022.678 .0242860
1023.267 .0242825
1023.856 .0242786
1024.445 .0242733
1025.033 .0242677
1025.621 .0242594
1026.209 .0242487
1026.797 .0242365
1027.385 .0242232
1027.972 .0242089
1028.560 .0241960
1029.147 .0241856
1029.734 .0241794
1030.320 .0241782
1030.907 .0241815
1031.493 .0241880
1032.079 .0241990
1032.665 .0242117
1033.250 .0242252
1033.836 .0242381
1034.421 .0242507
1035.006 .0242617
1035.591 .0242725
1036.176 .0242829
1036.761 .0242932
1037.345 .0243052
1037.929 .0243181
1038.514 .0243299
1039.097 .0243418
1039.681 .0243521
1040.265 .0243605
1040.848 .0243668
1041.432 .0243723
1042.015 .0243758
1042.598 .0243784
1043.181 .0243816
1043.764 .0243855
1044.346 .0243892
1044.929 .0243935
1045.511 .0243972
1046.094 .0244012
1046.676 .0244044
1047.258 .0244062
1047.840 .0244081
1048.422 .0244118
1049.003 .0244167
1049.585 .0244231
1050.166 .0244316
1050.748 .0244430
1051.329 .0244539
1051.910 .0244649
1052.491 .0244750
1053.072 .0244844
1053.653 .0244924
1054.234 .0245000
1054.815 .0245084
1055.396 .0245189
1055.976 .0245305
1056.557 .0245431
1057.138 .0245556
1057.718 .0245670
1058.298 .0245747
1058.879 .0245767
1059.459 .0245746
1060.039 .0245679
1060.620 .0245558
1061.200 .0245422
1061.780 .0245272
1062.360 .0245140
1062.940 .0245030
1063.520 .0244946
1064.101 .0244881
1064.681 .0244826
1065.261 .0244777
1065.841 .0244709
1066.421 .0244636
1067.001 .0244544
1067.581 .0244431
1068.161 .0244327
1068.741 .0244250
1069.321 .0244190
1069.901 .0244172
1070.482 .0244208
1071.062 .0244280
1071.642 .0244385
1072.222 .0244499
1072.803 .0244605
1073.383 .0244708
1073.963 .0244788
1074.544 .0244825
1075.124 .0244829
1075.705 .0244829
1076.286 .0244817
1076.866 .0244808
1077.447 .0244839
1078.028 .0244899
1078.609 .0244996
1079.190 .0245121
1079.771 .0245247
1080.352 .0245379
1080.934 .0245501
1081.515 .0245588
1082.097 .0245649
1082.679 .0245688
1083.260 .0245693
1083.842 .0245678
1084.424 .0245660
1085.007 .0245646
1085.589 .0245618
1086.172 .0245587
1086.754 .0245566
1087.337 .0245521
1087.920 .0245479
1088.503 .0245434
1089.087 .0245366
1089.670 .0245291
1090.254 .0245185
1090.838 .0245048
1091.422 .0244881
1092.006 .0244708
1092.590 .0244531
1093.175 .0244350
1093.760 .0244227
1094.345 .0244132
1094.930 .0244067
1095.516 .0244065
1096.102 .0244117
1096.688 .0244190
1097.274 .0244293
1097.860 .0244399
1098.447 .0244471
1099.034 .0244541
1099.622 .0244628
1100.209 .0244727
1100.797 .0244860
1101.385 .0245043
1101.973 .0245259
1102.562 .0245483
1103.151 .0245738
1103.740 .0245968
1104.330 .0246192
1104.920 .0246411
1105.510 .0246618
1106.101 .0246807
1106.691 .0247010
1107.283 .0247218
1107.874 .0247409
1108.466 .0247579
1109.058 .0247724
1109.651 .0247776
1110.244 .0247767
1110.837 .0247702
1111.431 .0247614
1112.025 .0247486
1112.620 .0247372
1113.215 .0247283
1113.810 .0247254
1114.406 .0247296
1115.002 .0247406
1115.599 .0247552
1116.196 .0247750
1116.793 .0247954
1117.391 .0248141
1117.989 .0248302
1118.588 .0248441
1119.187 .0248531
1119.787 .0248603
1120.387 .0248653
1120.988 .0248743
1121.589 .0248833
1122.190 .0248953
1122.793 .0249094
1123.395 .0249218
1123.998 .0249303
1124.602 .0249348
1125.206 .0249350
1125.811 .0249315
1126.416 .0249235
1127.022 .0249150
1127.628 .0249088
1128.235 .0249092
1128.843 .0249177
1129.451 .0249317
1130.059 .0249549
1130.669 .0249853
1131.278 .0250173
1131.889 .0250480
1132.500 .0250786
1133.112 .0251094
1133.724 .0251436
1134.337 .0251767
1134.950 .0252108
1135.564 .0252437
1136.179 .0252756
1136.795 .0253101
1137.411 .0253464
1138.028 .0253870
1138.645 .0254360
1139.263 .0254892
1139.882 .0255471
1140.502 .0256233
1141.122 .0257001
1141.743 .0258011
1142.365 .0259373
1142.987 .0258379
1143.611 .0263176
1144.235 .0259880
1144.859 .0266512
1145.485 .0273844
