Measurement Sequence started on: 10-20-44-796
Integration time: 35
Scans to Average: 2 
>>>>>Begin Spectral Data<<<<<
432.953 .0329054
433.882 .0385369
434.810 .0360781
435.737 .0334655
436.662 .0339717
437.586 .0350269
438.509 .0350690
439.431 .0349992
440.351 .0350281
441.269 .0351135
442.187 .0351416
443.103 .0351256
444.018 .0351183
444.932 .0351142
445.844 .0351108
446.756 .0351133
447.666 .0351191
448.575 .0351261
449.482 .0351242
450.388 .0351226
451.294 .0351081
452.198 .0350984
453.100 .0350614
454.002 .0350008
454.902 .0349316
455.801 .0348559
456.699 .0347827
457.596 .0347193
458.492 .0346699
459.387 .0346383
460.280 .0346167
461.172 .0346003
462.064 .0345830
462.954 .0345672
463.843 .0345355
464.730 .0344986
465.617 .0344536
466.503 .0344085
467.387 .0343607
468.271 .0343223
469.153 .0342929
470.035 .0342690
470.915 .0342542
471.794 .0342416
472.673 .0342330
473.550 .0342242
474.426 .0342103
475.301 .0341951
476.175 .0341719
477.048 .0341399
477.920 .0340960
478.791 .0340506
479.661 .0340004
480.530 .0339504
481.398 .0339044
482.266 .0338679
483.132 .0338412
483.997 .0338206
484.861 .0338028
485.724 .0337835
486.587 .0337624
487.448 .0337324
488.308 .0336950
489.168 .0336538
490.026 .0336058
490.884 .0335580
491.741 .0335095
492.597 .0334623
493.452 .0334126
494.306 .0333609
495.159 .0333057
496.011 .0332413
496.862 .0331676
497.713 .0330860
498.562 .0330005
499.411 .0329164
500.259 .0328300
501.106 .0327456
501.952 .0326660
502.798 .0325898
503.642 .0325140
504.486 .0324423
505.329 .0323720
506.171 .0323071
507.012 .0322470
507.852 .0321926
508.692 .0321433
509.531 .0320990
510.369 .0320569
511.206 .0320157
512.043 .0319651
512.878 .0319054
513.713 .0318299
514.547 .0317505
515.381 .0316582
516.213 .0315569
517.045 .0314489
517.876 .0313342
518.706 .0312130
519.536 .0310888
520.365 .0309566
521.193 .0308202
522.020 .0306726
522.847 .0305176
523.673 .0303474
524.498 .0301708
525.323 .0299843
526.146 .0298011
526.969 .0296199
527.792 .0294421
528.614 .0292691
529.435 .0291107
530.255 .0289628
531.075 .0288238
531.894 .0286960
532.712 .0285771
533.530 .0284675
534.347 .0283673
535.163 .0282757
535.979 .0282011
536.794 .0281485
537.608 .0281102
538.422 .0280879
539.235 .0280820
540.048 .0280892
540.860 .0281039
541.671 .0281279
542.481 .0281507
543.292 .0281748
544.101 .0281923
544.910 .0282067
545.718 .0282176
546.526 .0282348
547.333 .0282594
548.139 .0282941
548.945 .0283437
549.750 .0284070
550.555 .0284770
551.359 .0285547
552.162 .0286277
552.965 .0286965
553.768 .0287534
554.569 .0288003
555.371 .0288354
556.171 .0288670
556.972 .0288942
557.771 .0289237
558.570 .0289570
559.369 .0289984
560.167 .0290433
560.964 .0290873
561.761 .0291271
562.558 .0291601
563.354 .0291859
564.149 .0292067
564.944 .0292239
565.738 .0292497
566.532 .0292834
567.325 .0293298
568.118 .0293895
568.910 .0294623
569.702 .0295448
570.494 .0296353
571.285 .0297255
572.075 .0298135
572.865 .0299006
573.654 .0299836
574.443 .0300659
575.232 .0301459
576.020 .0302282
576.807 .0303123
577.594 .0303953
578.381 .0304779
579.167 .0305541
579.952 .0306263
580.738 .0306900
581.522 .0307427
582.307 .0307875
583.091 .0308230
583.874 .0308528
584.657 .0308789
585.440 .0309023
586.222 .0309252
587.004 .0309486
587.785 .0309708
588.566 .0309925
589.346 .0310127
590.126 .0310302
590.906 .0310450
591.685 .0310587
592.464 .0310702
593.242 .0310793
594.020 .0310861
594.797 .0310924
595.575 .0310968
596.351 .0311015
597.128 .0311048
597.904 .0311071
598.679 .0311100
599.454 .0311105
600.229 .0311092
601.004 .0311068
601.778 .0311025
602.551 .0310959
603.325 .0310865
604.097 .0310762
604.870 .0310643
605.642 .0310517
606.414 .0310383
607.185 .0310245
607.956 .0310122
608.727 .0310011
609.497 .0309909
610.267 .0309822
611.037 .0309752
611.806 .0309685
612.575 .0309626
613.344 .0309561
614.112 .0309492
614.880 .0309409
615.647 .0309322
616.414 .0309234
617.181 .0309142
617.948 .0309058
618.714 .0308982
619.480 .0308918
620.245 .0308868
621.011 .0308807
621.775 .0308747
622.540 .0308678
623.304 .0308602
624.068 .0308506
624.832 .0308388
625.595 .0308265
626.358 .0308144
627.120 .0308026
627.883 .0307915
628.645 .0307811
629.406 .0307712
630.168 .0307608
630.929 .0307499
631.689 .0307390
632.450 .0307272
633.210 .0307145
633.970 .0307007
634.729 .0306855
635.489 .0306691
636.248 .0306511
637.006 .0306321
637.765 .0306118
638.523 .0305889
639.280 .0305629
640.038 .0305340
640.795 .0305034
641.552 .0304721
642.309 .0304404
643.065 .0304100
643.821 .0303809
644.577 .0303529
645.332 .0303264
646.088 .0303016
646.843 .0302781
647.597 .0302545
648.352 .0302307
649.106 .0302071
649.860 .0301835
650.613 .0301611
651.367 .0301407
652.120 .0301227
652.872 .0301072
653.625 .0300938
654.377 .0300805
655.129 .0300668
655.881 .0300523
656.632 .0300360
657.384 .0300173
658.135 .0299973
658.885 .0299767
659.636 .0299548
660.386 .0299335
661.136 .0299131
661.885 .0298931
662.635 .0298746
663.384 .0298570
664.133 .0298394
664.881 .0298220
665.630 .0298050
666.378 .0297874
667.126 .0297704
667.874 .0297546
668.621 .0297395
669.368 .0297250
670.115 .0297116
670.862 .0296990
671.608 .0296872
672.354 .0296758
673.100 .0296647
673.846 .0296540
674.591 .0296434
675.337 .0296323
676.082 .0296210
676.826 .0296095
677.571 .0295978
678.315 .0295858
679.059 .0295731
679.803 .0295594
680.547 .0295452
681.290 .0295298
682.033 .0295128
682.776 .0294954
683.518 .0294767
684.261 .0294571
685.003 .0294382
685.745 .0294198
686.487 .0294022
687.228 .0293862
687.969 .0293714
688.710 .0293574
689.451 .0293439
690.192 .0293312
690.932 .0293181
691.672 .0293056
692.412 .0292938
693.152 .0292817
693.891 .0292703
694.630 .0292605
695.369 .0292513
696.108 .0292429
696.846 .0292341
697.585 .0292248
698.323 .0292143
699.061 .0292026
699.798 .0291891
700.536 .0291740
701.273 .0291583
702.010 .0291418
702.746 .0291248
703.483 .0291087
704.219 .0290937
704.955 .0290801
705.691 .0290674
706.427 .0290552
707.162 .0290429
707.897 .0290299
708.632 .0290164
709.367 .0290034
710.101 .0289905
710.835 .0289779
711.569 .0289654
712.303 .0289538
713.037 .0289429
713.770 .0289321
714.503 .0289218
715.236 .0289115
715.969 .0289013
716.702 .0288905
717.434 .0288786
718.166 .0288660
718.898 .0288526
719.629 .0288379
720.361 .0288215
721.092 .0288036
721.823 .0287832
722.554 .0287611
723.284 .0287380
724.014 .0287133
724.744 .0286872
725.474 .0286600
726.204 .0286325
726.933 .0286039
727.662 .0285750
728.391 .0285450
729.120 .0285143
729.849 .0284835
730.577 .0284525
731.305 .0284213
732.033 .0283906
732.760 .0283609
733.488 .0283325
734.215 .0283059
734.942 .0282809
735.669 .0282571
736.395 .0282347
737.122 .0282132
737.848 .0281922
738.573 .0281710
739.299 .0281499
740.024 .0281282
740.750 .0281058
741.474 .0280828
742.199 .0280589
742.924 .0280352
743.648 .0280122
744.372 .0279903
745.096 .0279694
745.819 .0279494
746.543 .0279301
747.266 .0279114
747.989 .0278926
748.711 .0278737
749.434 .0278540
750.156 .0278342
750.878 .0278144
751.599 .0277949
752.321 .0277764
753.042 .0277591
753.763 .0277430
754.484 .0277280
755.205 .0277135
755.925 .0276991
756.645 .0276839
757.365 .0276682
758.085 .0276512
758.804 .0276331
759.523 .0276133
760.242 .0275922
760.961 .0275703
761.679 .0275479
762.397 .0275250
763.115 .0275018
763.833 .0274788
764.551 .0274555
765.268 .0274326
765.985 .0274098
766.702 .0273874
767.418 .0273653
768.134 .0273433
768.850 .0273214
769.566 .0272998
770.282 .0272784
770.997 .0272572
771.712 .0272365
772.427 .0272170
773.142 .0271982
773.856 .0271808
774.570 .0271644
775.284 .0271489
775.998 .0271332
776.711 .0271169
777.424 .0270995
778.137 .0270810
778.849 .0270615
779.562 .0270418
780.274 .0270226
780.986 .0270047
781.697 .0269883
782.409 .0269735
783.120 .0269603
783.831 .0269482
784.541 .0269362
785.252 .0269242
785.962 .0269121
786.671 .0269002
787.381 .0268887
788.090 .0268789
788.799 .0268711
789.508 .0268653
790.217 .0268610
790.925 .0268569
791.633 .0268527
792.341 .0268472
793.048 .0268400
793.755 .0268309
794.462 .0268204
795.169 .0268090
795.875 .0267974
796.581 .0267866
797.287 .0267766
797.993 .0267678
798.698 .0267602
799.403 .0267533
800.108 .0267465
800.812 .0267396
801.517 .0267324
802.221 .0267253
802.924 .0267182
803.628 .0267116
804.331 .0267055
805.034 .0267003
805.736 .0266954
806.439 .0266908
807.141 .0266860
807.843 .0266811
808.544 .0266756
809.245 .0266692
809.946 .0266618
810.647 .0266536
811.347 .0266445
812.047 .0266354
812.747 .0266265
813.447 .0266179
814.146 .0266096
814.845 .0266023
815.543 .0265955
816.242 .0265893
816.940 .0265832
817.638 .0265771
818.335 .0265713
819.032 .0265648
819.729 .0265585
820.426 .0265521
821.122 .0265458
821.818 .0265393
822.514 .0265319
823.209 .0265240
823.905 .0265142
824.599 .0265022
825.294 .0264878
825.988 .0264709
826.682 .0264521
827.376 .0264315
828.069 .0264104
828.762 .0263892
829.455 .0263685
830.147 .0263480
830.840 .0263288
831.531 .0263107
832.223 .0262937
832.914 .0262785
833.605 .0262647
834.296 .0262531
834.986 .0262432
835.676 .0262349
836.366 .0262282
837.055 .0262221
837.744 .0262161
838.433 .0262093
839.121 .0262021
839.809 .0261940
840.497 .0261850
841.185 .0261760
841.872 .0261676
842.559 .0261598
843.245 .0261523
843.932 .0261447
844.617 .0261366
845.303 .0261272
845.988 .0261155
846.673 .0261021
847.358 .0260875
848.042 .0260720
848.726 .0260569
849.410 .0260429
850.093 .0260304
850.776 .0260191
851.459 .0260080
852.141 .0259969
852.823 .0259848
853.505 .0259707
854.186 .0259540
854.867 .0259359
855.548 .0259169
856.228 .0258970
856.908 .0258773
857.588 .0258585
858.267 .0258402
858.946 .0258229
859.625 .0258056
860.303 .0257880
860.981 .0257700
861.659 .0257517
862.336 .0257328
863.013 .0257135
863.690 .0256943
864.366 .0256746
865.042 .0256552
865.718 .0256360
866.393 .0256167
867.068 .0255972
867.743 .0255781
868.417 .0255589
869.091 .0255402
869.765 .0255217
870.438 .0255040
871.111 .0254874
871.783 .0254722
872.456 .0254578
873.127 .0254441
873.799 .0254311
874.470 .0254193
875.141 .0254078
875.811 .0253967
876.481 .0253849
877.151 .0253730
877.820 .0253602
878.489 .0253465
879.158 .0253314
879.826 .0253152
880.494 .0252979
881.162 .0252798
881.829 .0252605
882.496 .0252406
883.163 .0252199
883.829 .0251988
884.495 .0251769
885.160 .0251550
885.825 .0251328
886.490 .0251113
887.154 .0250909
887.818 .0250722
888.482 .0250549
889.145 .0250388
889.808 .0250236
890.471 .0250095
891.133 .0249960
891.795 .0249829
892.456 .0249693
893.117 .0249561
893.778 .0249430
894.439 .0249306
895.099 .0249182
895.758 .0249063
896.417 .0248941
897.076 .0248816
897.735 .0248685
898.393 .0248546
899.051 .0248400
899.708 .0248248
900.365 .0248097
901.022 .0247947
901.678 .0247797
902.334 .0247654
902.990 .0247517
903.645 .0247391
904.300 .0247263
904.954 .0247131
905.608 .0246992
906.262 .0246850
906.915 .0246705
907.568 .0246557
908.221 .0246407
908.873 .0246263
909.525 .0246124
910.176 .0245989
910.828 .0245867
911.478 .0245745
912.129 .0245624
912.778 .0245494
913.428 .0245345
914.077 .0245178
914.726 .0244989
915.375 .0244784
916.023 .0244571
916.670 .0244358
917.318 .0244158
917.964 .0243971
918.611 .0243807
919.257 .0243668
919.903 .0243543
920.548 .0243425
921.193 .0243310
921.838 .0243191
922.482 .0243074
923.126 .0242962
923.770 .0242864
924.413 .0242788
925.056 .0242738
925.698 .0242714
926.340 .0242707
926.982 .0242707
927.623 .0242702
928.264 .0242676
928.904 .0242633
929.544 .0242564
930.184 .0242471
930.823 .0242363
931.462 .0242251
932.101 .0242141
932.739 .0242036
933.377 .0241938
934.014 .0241844
934.651 .0241748
935.288 .0241650
935.924 .0241540
936.560 .0241425
937.196 .0241307
937.831 .0241186
938.466 .0241063
939.100 .0240948
939.734 .0240836
940.368 .0240731
941.001 .0240636
941.634 .0240547
942.266 .0240461
942.899 .0240374
943.530 .0240279
944.162 .0240172
944.793 .0240055
945.423 .0239922
946.053 .0239773
946.683 .0239617
947.313 .0239457
947.942 .0239295
948.571 .0239141
949.199 .0238989
949.827 .0238844
950.455 .0238702
951.082 .0238562
951.709 .0238423
952.335 .0238282
952.961 .0238139
953.587 .0238004
954.212 .0237871
954.837 .0237745
955.462 .0237629
956.086 .0237530
956.710 .0237438
957.334 .0237359
957.957 .0237287
958.579 .0237221
959.202 .0237165
959.824 .0237116
960.445 .0237065
961.067 .0237022
961.688 .0236982
962.308 .0236940
962.928 .0236898
963.548 .0236860
964.168 .0236818
964.787 .0236780
965.406 .0236749
966.024 .0236722
966.642 .0236706
967.260 .0236704
967.877 .0236709
968.494 .0236721
969.110 .0236736
969.727 .0236744
970.342 .0236747
970.958 .0236745
971.573 .0236732
972.188 .0236709
972.802 .0236683
973.416 .0236650
974.030 .0236613
974.643 .0236575
975.256 .0236537
975.869 .0236494
976.481 .0236458
977.093 .0236424
977.705 .0236399
978.316 .0236391
978.927 .0236397
979.538 .0236414
980.148 .0236446
980.758 .0236489
981.367 .0236543
981.977 .0236606
982.586 .0236680
983.194 .0236756
983.802 .0236845
984.410 .0236940
985.018 .0237040
985.625 .0237138
986.232 .0237232
986.838 .0237310
987.445 .0237374
988.050 .0237412
988.656 .0237426
989.261 .0237416
989.866 .0237388
990.471 .0237347
991.075 .0237305
991.679 .0237265
992.282 .0237235
992.886 .0237217
993.489 .0237218
994.091 .0237227
994.694 .0237243
995.296 .0237264
995.897 .0237292
996.499 .0237325
997.100 .0237361
997.701 .0237400
998.301 .0237454
998.901 .0237521
999.501 .0237592
1000.101 .0237667
1000.700 .0237741
1001.299 .0237809
1001.898 .0237863
1002.496 .0237900
1003.094 .0237924
1003.692 .0237935
1004.289 .0237935
1004.887 .0237929
1005.484 .0237921
1006.080 .0237918
1006.677 .0237916
1007.273 .0237918
1007.868 .0237918
1008.464 .0237911
1009.059 .0237888
1009.654 .0237866
1010.249 .0237845
1010.843 .0237827
1011.437 .0237809
1012.031 .0237801
1012.625 .0237808
1013.218 .0237829
1013.811 .0237854
1014.404 .0237886
1014.997 .0237922
1015.589 .0237959
1016.181 .0237986
1016.773 .0238005
1017.365 .0238020
1017.956 .0238031
1018.547 .0238033
1019.138 .0238031
1019.728 .0238031
1020.319 .0238040
1020.909 .0238058
1021.499 .0238087
1022.088 .0238122
1022.678 .0238147
1023.267 .0238161
1023.856 .0238158
1024.445 .0238131
1025.033 .0238087
1025.621 .0238024
1026.209 .0237956
1026.797 .0237902
1027.385 .0237856
1027.972 .0237831
1028.560 .0237828
1029.147 .0237843
1029.734 .0237865
1030.320 .0237879
1030.907 .0237880
1031.493 .0237867
1032.079 .0237847
1032.665 .0237820
1033.250 .0237782
1033.836 .0237761
1034.421 .0237757
1035.006 .0237770
1035.591 .0237797
1036.176 .0237832
1036.761 .0237858
1037.345 .0237875
1037.929 .0237865
1038.514 .0237826
1039.097 .0237756
1039.681 .0237668
1040.265 .0237558
1040.848 .0237432
1041.432 .0237306
1042.015 .0237182
1042.598 .0237056
1043.181 .0236944
1043.764 .0236827
1044.346 .0236712
1044.929 .0236587
1045.511 .0236459
1046.094 .0236320
1046.676 .0236183
1047.258 .0236053
1047.840 .0235936
1048.422 .0235836
1049.003 .0235758
1049.585 .0235682
1050.166 .0235611
1050.748 .0235547
1051.329 .0235475
1051.910 .0235387
1052.491 .0235300
1053.072 .0235201
1053.653 .0235105
1054.234 .0235021
1054.815 .0234949
1055.396 .0234886
1055.976 .0234833
1056.557 .0234782
1057.138 .0234723
1057.718 .0234656
1058.298 .0234575
1058.879 .0234481
1059.459 .0234383
1060.039 .0234275
1060.620 .0234140
1061.200 .0234007
1061.780 .0233863
1062.360 .0233706
1062.940 .0233546
1063.520 .0233374
1064.101 .0233206
1064.681 .0233031
1065.261 .0232851
1065.841 .0232659
1066.421 .0232459
1067.001 .0232257
1067.581 .0232023
1068.161 .0231782
1068.741 .0231534
1069.321 .0231281
1069.901 .0231049
1070.482 .0230844
1071.062 .0230657
1071.642 .0230509
1072.222 .0230401
1072.803 .0230318
1073.383 .0230256
1073.963 .0230202
1074.544 .0230159
1075.124 .0230116
1075.705 .0230074
1076.286 .0230016
1076.866 .0229956
1077.447 .0229925
1078.028 .0229912
1078.609 .0229932
1079.190 .0229978
1079.771 .0230043
1080.352 .0230119
1080.934 .0230184
1081.515 .0230214
1082.097 .0230207
1082.679 .0230163
1083.260 .0230075
1083.842 .0229940
1084.424 .0229780
1085.007 .0229619
1085.589 .0229495
1086.172 .0229410
1086.754 .0229368
1087.337 .0229369
1087.920 .0229407
1088.503 .0229441
1089.087 .0229475
1089.670 .0229463
1090.254 .0229401
1090.838 .0229287
1091.422 .0229134
1092.006 .0228951
1092.590 .0228766
1093.175 .0228587
1093.760 .0228429
1094.345 .0228303
1094.930 .0228187
1095.516 .0228038
1096.102 .0227874
1096.688 .0227679
1097.274 .0227424
1097.860 .0227109
1098.447 .0226763
1099.034 .0226419
1099.622 .0226120
1100.209 .0225909
1100.797 .0225781
1101.385 .0225770
1101.973 .0225851
1102.562 .0226006
1103.151 .0226212
1103.740 .0226453
1104.330 .0226714
1104.920 .0226975
1105.510 .0227246
1106.101 .0227544
1106.691 .0227809
1107.283 .0228101
1107.874 .0228394
1108.466 .0228690
1109.058 .0228947
1109.651 .0229163
1110.244 .0229328
1110.837 .0229470
1111.431 .0229540
1112.025 .0229575
1112.620 .0229524
1113.215 .0229454
1113.810 .0229290
1114.406 .0229048
1115.002 .0228735
1115.599 .0228373
1116.196 .0227956
1116.793 .0227506
1117.391 .0227008
1117.989 .0226545
1118.588 .0226084
1119.187 .0225678
1119.787 .0225303
1120.387 .0224964
1120.988 .0224644
1121.589 .0224383
1122.190 .0224135
1122.793 .0223947
1123.395 .0223809
1123.998 .0223757
1124.602 .0223802
1125.206 .0223975
1125.811 .0224236
1126.416 .0224533
1127.022 .0224939
1127.628 .0225356
1128.235 .0225742
1128.843 .0226131
1129.451 .0226497
1130.059 .0226870
1130.669 .0227242
1131.278 .0227618
1131.889 .0228002
1132.500 .0228457
1133.112 .0228952
1133.724 .0229394
1134.337 .0229852
1134.950 .0230225
1135.564 .0230510
1136.179 .0230707
1136.795 .0230883
1137.411 .0231014
1138.028 .0231197
1138.645 .0231456
1139.263 .0231762
1139.882 .0232168
1140.502 .0232588
1141.122 .0233061
1141.743 .0233753
1142.365 .0234631
1142.987 .0234724
1143.611 .0233591
1144.235 .0235711
1144.859 .0241190
1145.485 .0244048
