Measurement Sequence started on: 10-20-44-796
Integration time: 35
Scans to Average: 2 
>>>>>Begin Spectral Data<<<<<
432.953 .0297360
433.882 .0387982
434.810 .0369617
435.737 .0390060
436.662 .0361908
437.586 .0366279
438.509 .0367191
439.431 .0365442
440.351 .0364685
441.269 .0363718
442.187 .0363620
443.103 .0363252
444.018 .0363055
444.932 .0362670
445.844 .0362237
446.756 .0361815
447.666 .0361692
448.575 .0361770
449.482 .0362108
450.388 .0362687
451.294 .0363594
452.198 .0364650
453.100 .0365766
454.002 .0366870
454.902 .0367868
455.801 .0368742
456.699 .0369400
457.596 .0369809
458.492 .0370025
459.387 .0370103
460.280 .0370076
461.172 .0369990
462.064 .0369964
462.954 .0369917
463.843 .0369885
464.730 .0369834
465.617 .0369714
466.503 .0369499
467.387 .0369131
468.271 .0368633
469.153 .0368015
470.035 .0367341
470.915 .0366676
471.794 .0366071
472.673 .0365549
473.550 .0365117
474.426 .0364790
475.301 .0364497
476.175 .0364243
477.048 .0363957
477.920 .0363633
478.791 .0363269
479.661 .0362891
480.530 .0362520
481.398 .0362135
482.266 .0361843
483.132 .0361602
483.997 .0361397
484.861 .0361244
485.724 .0361129
486.587 .0361012
487.448 .0360909
488.308 .0360809
489.168 .0360696
490.026 .0360590
490.884 .0360478
491.741 .0360335
492.597 .0360180
493.452 .0359990
494.306 .0359764
495.159 .0359496
496.011 .0359236
496.862 .0358895
497.713 .0358494
498.562 .0358012
499.411 .0357419
500.259 .0356693
501.106 .0355860
501.952 .0354912
502.798 .0353877
503.642 .0352778
504.486 .0351656
505.329 .0350504
506.171 .0349355
507.012 .0348183
507.852 .0347001
508.692 .0345780
509.531 .0344501
510.369 .0343116
511.206 .0341711
512.043 .0340273
512.878 .0338815
513.713 .0337385
514.547 .0336021
515.381 .0334729
516.213 .0333493
517.045 .0332295
517.876 .0331081
518.706 .0329784
519.536 .0328449
520.365 .0327030
521.193 .0325538
522.020 .0323976
522.847 .0322351
523.673 .0320704
524.498 .0319052
525.323 .0317373
526.146 .0315663
526.969 .0314012
527.792 .0312428
528.614 .0310817
529.435 .0309233
530.255 .0307709
531.075 .0306225
531.894 .0304773
532.712 .0303354
533.530 .0301947
534.347 .0300619
535.163 .0299412
535.979 .0298330
536.794 .0297366
537.608 .0296565
538.422 .0295876
539.235 .0295263
540.048 .0294693
540.860 .0294117
541.671 .0293501
542.481 .0292934
543.292 .0292344
544.101 .0291751
544.910 .0291218
545.718 .0290805
546.526 .0290585
547.333 .0290574
548.139 .0290738
548.945 .0291047
549.750 .0291436
550.555 .0291906
551.359 .0292368
552.162 .0292835
552.965 .0293305
553.768 .0293811
554.569 .0294406
555.371 .0295047
556.171 .0295773
556.972 .0296620
557.771 .0297519
558.570 .0298444
559.369 .0299344
560.167 .0300163
560.964 .0300979
561.761 .0301799
562.558 .0302615
563.354 .0303493
564.149 .0304397
564.944 .0305340
565.738 .0306266
566.532 .0307183
567.325 .0308033
568.118 .0308773
568.910 .0309433
569.702 .0309992
570.494 .0310476
571.285 .0310944
572.075 .0311407
572.865 .0311929
573.654 .0312497
574.443 .0313066
575.232 .0313632
576.020 .0314193
576.807 .0314723
577.594 .0315221
578.381 .0315679
579.167 .0316135
579.952 .0316612
580.738 .0317127
581.522 .0317687
582.307 .0318280
583.091 .0318904
583.874 .0319517
584.657 .0320087
585.440 .0320609
586.222 .0321051
587.004 .0321413
587.785 .0321699
588.566 .0321914
589.346 .0322076
590.126 .0322193
590.906 .0322276
591.685 .0322342
592.464 .0322362
593.242 .0322354
594.020 .0322313
594.797 .0322253
595.575 .0322185
596.351 .0322100
597.128 .0322014
597.904 .0321912
598.679 .0321795
599.454 .0321649
600.229 .0321474
601.004 .0321280
601.778 .0321066
602.551 .0320830
603.325 .0320592
604.097 .0320357
604.870 .0320131
605.642 .0319922
606.414 .0319728
607.185 .0319539
607.956 .0319351
608.727 .0319154
609.497 .0318947
610.267 .0318720
611.037 .0318489
611.806 .0318250
612.575 .0318007
613.344 .0317776
614.112 .0317550
614.880 .0317344
615.647 .0317156
616.414 .0316977
617.181 .0316801
617.948 .0316629
618.714 .0316451
619.480 .0316258
620.245 .0316051
621.011 .0315829
621.775 .0315589
622.540 .0315346
623.304 .0315100
624.068 .0314861
624.832 .0314626
625.595 .0314400
626.358 .0314169
627.120 .0313931
627.883 .0313671
628.645 .0313389
629.406 .0313085
630.168 .0312763
630.929 .0312427
631.689 .0312088
632.450 .0311751
633.210 .0311431
633.970 .0311122
634.729 .0310827
635.489 .0310538
636.248 .0310254
637.006 .0309971
637.765 .0309694
638.523 .0309424
639.280 .0309168
640.038 .0308927
640.795 .0308710
641.552 .0308508
642.309 .0308320
643.065 .0308140
643.821 .0307961
644.577 .0307777
645.332 .0307588
646.088 .0307388
646.843 .0307187
647.597 .0306987
648.352 .0306798
649.106 .0306617
649.860 .0306443
650.613 .0306279
651.367 .0306119
652.120 .0305965
652.872 .0305814
653.625 .0305665
654.377 .0305524
655.129 .0305388
655.881 .0305261
656.632 .0305137
657.384 .0305022
658.135 .0304908
658.885 .0304793
659.636 .0304678
660.386 .0304554
661.136 .0304419
661.885 .0304279
662.635 .0304137
663.384 .0303993
664.133 .0303851
664.881 .0303710
665.630 .0303569
666.378 .0303435
667.126 .0303300
667.874 .0303165
668.621 .0303028
669.368 .0302890
670.115 .0302741
670.862 .0302592
671.608 .0302443
672.354 .0302295
673.100 .0302154
673.846 .0302014
674.591 .0301876
675.337 .0301738
676.082 .0301601
676.826 .0301468
677.571 .0301335
678.315 .0301205
679.059 .0301072
679.803 .0300940
680.547 .0300805
681.290 .0300663
682.033 .0300513
682.776 .0300350
683.518 .0300171
684.261 .0299981
685.003 .0299779
685.745 .0299573
686.487 .0299371
687.228 .0299169
687.969 .0298968
688.710 .0298766
689.451 .0298558
690.192 .0298343
690.932 .0298123
691.672 .0297893
692.412 .0297652
693.152 .0297410
693.891 .0297172
694.630 .0296940
695.369 .0296723
696.108 .0296518
696.846 .0296312
697.585 .0296108
698.323 .0295893
699.061 .0295666
699.798 .0295431
700.536 .0295183
701.273 .0294923
702.010 .0294657
702.746 .0294385
703.483 .0294109
704.219 .0293836
704.955 .0293566
705.691 .0293299
706.427 .0293037
707.162 .0292778
707.897 .0292528
708.632 .0292289
709.367 .0292065
710.101 .0291846
710.835 .0291637
711.569 .0291428
712.303 .0291214
713.037 .0291007
713.770 .0290800
714.503 .0290593
715.236 .0290390
715.969 .0290189
716.702 .0289989
717.434 .0289790
718.166 .0289587
718.898 .0289376
719.629 .0289166
720.361 .0288952
721.092 .0288731
721.823 .0288511
722.554 .0288297
723.284 .0288086
724.014 .0287876
724.744 .0287667
725.474 .0287450
726.204 .0287227
726.933 .0286997
727.662 .0286758
728.391 .0286515
729.120 .0286276
729.849 .0286046
730.577 .0285831
731.305 .0285628
732.033 .0285436
732.760 .0285249
733.488 .0285069
734.215 .0284889
734.942 .0284705
735.669 .0284522
736.395 .0284347
737.122 .0284178
737.848 .0284021
738.573 .0283879
739.299 .0283751
740.024 .0283635
740.750 .0283526
741.474 .0283416
742.199 .0283298
742.924 .0283170
743.648 .0283031
744.372 .0282880
745.096 .0282721
745.819 .0282558
746.543 .0282394
747.266 .0282239
747.989 .0282097
748.711 .0281968
749.434 .0281854
750.156 .0281754
750.878 .0281662
751.599 .0281580
752.321 .0281507
753.042 .0281444
753.763 .0281389
754.484 .0281343
755.205 .0281304
755.925 .0281271
756.645 .0281235
757.365 .0281193
758.085 .0281140
758.804 .0281072
759.523 .0280982
760.242 .0280867
760.961 .0280729
761.679 .0280573
762.397 .0280401
763.115 .0280219
763.833 .0280023
764.551 .0279820
765.268 .0279609
765.985 .0279390
766.702 .0279165
767.418 .0278939
768.134 .0278713
768.850 .0278496
769.566 .0278293
770.282 .0278106
770.997 .0277940
771.712 .0277798
772.427 .0277675
773.142 .0277567
773.856 .0277469
774.570 .0277375
775.284 .0277283
775.998 .0277197
776.711 .0277114
777.424 .0277032
778.137 .0276960
778.849 .0276891
779.562 .0276822
780.274 .0276755
780.986 .0276685
781.697 .0276611
782.409 .0276533
783.120 .0276445
783.831 .0276351
784.541 .0276254
785.252 .0276158
785.962 .0276063
786.671 .0275974
787.381 .0275888
788.090 .0275802
788.799 .0275714
789.508 .0275623
790.217 .0275524
790.925 .0275423
791.633 .0275320
792.341 .0275215
793.048 .0275109
793.755 .0275002
794.462 .0274895
795.169 .0274793
795.875 .0274693
796.581 .0274595
797.287 .0274495
797.993 .0274397
798.698 .0274296
799.403 .0274188
800.108 .0274075
800.812 .0273957
801.517 .0273834
802.221 .0273707
802.924 .0273577
803.628 .0273451
804.331 .0273334
805.034 .0273230
805.736 .0273134
806.439 .0273043
807.141 .0272960
807.843 .0272876
808.544 .0272788
809.245 .0272697
809.946 .0272600
810.647 .0272497
811.347 .0272395
812.047 .0272292
812.747 .0272190
813.447 .0272090
814.146 .0271990
814.845 .0271887
815.543 .0271778
816.242 .0271660
816.940 .0271524
817.638 .0271378
818.335 .0271219
819.032 .0271045
819.729 .0270862
820.426 .0270669
821.122 .0270466
821.818 .0270250
822.514 .0270027
823.209 .0269795
823.905 .0269559
824.599 .0269323
825.294 .0269086
825.988 .0268852
826.682 .0268622
827.376 .0268396
828.069 .0268172
828.762 .0267958
829.455 .0267748
830.147 .0267543
830.840 .0267349
831.531 .0267166
832.223 .0266995
832.914 .0266835
833.605 .0266685
834.296 .0266537
834.986 .0266391
835.676 .0266242
836.366 .0266084
837.055 .0265918
837.744 .0265739
838.433 .0265549
839.121 .0265352
839.809 .0265151
840.497 .0264943
841.185 .0264737
841.872 .0264531
842.559 .0264327
843.245 .0264119
843.932 .0263913
844.617 .0263709
845.303 .0263510
845.988 .0263321
846.673 .0263142
847.358 .0262982
848.042 .0262844
848.726 .0262723
849.410 .0262623
850.093 .0262537
850.776 .0262464
851.459 .0262391
852.141 .0262319
852.823 .0262240
853.505 .0262153
854.186 .0262055
854.867 .0261952
855.548 .0261841
856.228 .0261722
856.908 .0261600
857.588 .0261474
858.267 .0261344
858.946 .0261205
859.625 .0261053
860.303 .0260890
860.981 .0260713
861.659 .0260528
862.336 .0260332
863.013 .0260136
863.690 .0259943
864.366 .0259751
865.042 .0259563
865.718 .0259378
866.393 .0259199
867.068 .0259019
867.743 .0258845
868.417 .0258672
869.091 .0258499
869.765 .0258334
870.438 .0258177
871.111 .0258031
871.783 .0257891
872.456 .0257758
873.127 .0257628
873.799 .0257497
874.470 .0257368
875.141 .0257234
875.811 .0257102
876.481 .0256974
877.151 .0256850
877.820 .0256735
878.489 .0256630
879.158 .0256532
879.826 .0256441
880.494 .0256354
881.162 .0256259
881.829 .0256156
882.496 .0256043
883.163 .0255924
883.829 .0255805
884.495 .0255689
885.160 .0255586
885.825 .0255495
886.490 .0255426
887.154 .0255369
887.818 .0255323
888.482 .0255284
889.145 .0255241
889.808 .0255198
890.471 .0255149
891.133 .0255094
891.795 .0255038
892.456 .0254986
893.117 .0254941
893.778 .0254903
894.439 .0254876
895.099 .0254855
895.758 .0254842
896.417 .0254828
897.076 .0254811
897.735 .0254782
898.393 .0254750
899.051 .0254711
899.708 .0254666
900.365 .0254619
901.022 .0254574
901.678 .0254533
902.334 .0254502
902.990 .0254477
903.645 .0254462
904.300 .0254451
904.954 .0254447
905.608 .0254439
906.262 .0254426
906.915 .0254403
907.568 .0254372
908.221 .0254332
908.873 .0254285
909.525 .0254234
910.176 .0254182
910.828 .0254135
911.478 .0254094
912.129 .0254057
912.778 .0254022
913.428 .0253986
914.077 .0253947
914.726 .0253902
915.375 .0253853
916.023 .0253803
916.670 .0253761
917.318 .0253730
917.964 .0253711
918.611 .0253701
919.257 .0253701
919.903 .0253710
920.548 .0253721
921.193 .0253730
921.838 .0253738
922.482 .0253744
923.126 .0253746
923.770 .0253748
924.413 .0253752
925.056 .0253756
925.698 .0253763
926.340 .0253772
926.982 .0253775
927.623 .0253775
928.264 .0253766
928.904 .0253751
929.544 .0253727
930.184 .0253700
930.823 .0253663
931.462 .0253618
932.101 .0253573
932.739 .0253521
933.377 .0253464
934.014 .0253400
934.651 .0253331
935.288 .0253262
935.924 .0253191
936.560 .0253127
937.196 .0253061
937.831 .0253000
938.466 .0252935
939.100 .0252865
939.734 .0252785
940.368 .0252699
941.001 .0252605
941.634 .0252505
942.266 .0252403
942.899 .0252299
943.530 .0252193
944.162 .0252086
944.793 .0251975
945.423 .0251854
946.053 .0251719
946.683 .0251572
947.313 .0251408
947.942 .0251236
948.571 .0251056
949.199 .0250872
949.827 .0250688
950.455 .0250506
951.082 .0250334
951.709 .0250164
952.335 .0250003
952.961 .0249848
953.587 .0249695
954.212 .0249545
954.837 .0249397
955.462 .0249254
956.086 .0249118
956.710 .0248990
957.334 .0248871
957.957 .0248760
958.579 .0248660
959.202 .0248569
959.824 .0248485
960.445 .0248409
961.067 .0248341
961.688 .0248271
962.308 .0248203
962.928 .0248138
963.548 .0248070
964.168 .0248000
964.787 .0247924
965.406 .0247843
966.024 .0247755
966.642 .0247664
967.260 .0247570
967.877 .0247475
968.494 .0247383
969.110 .0247289
969.727 .0247190
970.342 .0247093
970.958 .0246991
971.573 .0246882
972.188 .0246769
972.802 .0246653
973.416 .0246534
974.030 .0246417
974.643 .0246307
975.256 .0246210
975.869 .0246125
976.481 .0246052
977.093 .0245986
977.705 .0245924
978.316 .0245862
978.927 .0245787
979.538 .0245697
980.148 .0245591
980.758 .0245464
981.367 .0245328
981.977 .0245193
982.586 .0245065
983.194 .0244953
983.802 .0244859
984.410 .0244782
985.018 .0244717
985.625 .0244658
986.232 .0244596
986.838 .0244526
987.445 .0244449
988.050 .0244359
988.656 .0244259
989.261 .0244163
989.866 .0244067
990.471 .0243983
991.075 .0243909
991.679 .0243837
992.282 .0243768
992.886 .0243699
993.489 .0243619
994.091 .0243527
994.694 .0243428
995.296 .0243315
995.897 .0243188
996.499 .0243052
997.100 .0242912
997.701 .0242774
998.301 .0242646
998.901 .0242526
999.501 .0242419
1000.101 .0242329
1000.700 .0242248
1001.299 .0242174
1001.898 .0242109
1002.496 .0242037
1003.094 .0241958
1003.692 .0241870
1004.289 .0241764
1004.887 .0241645
1005.484 .0241524
1006.080 .0241400
1006.677 .0241282
1007.273 .0241168
1007.868 .0241058
1008.464 .0240953
1009.059 .0240860
1009.654 .0240764
1010.249 .0240668
1010.843 .0240578
1011.437 .0240487
1012.031 .0240389
1012.625 .0240301
1013.218 .0240211
1013.811 .0240129
1014.404 .0240062
1014.997 .0240002
1015.589 .0239947
1016.181 .0239907
1016.773 .0239876
1017.365 .0239858
1017.956 .0239846
1018.547 .0239834
1019.138 .0239815
1019.728 .0239793
1020.319 .0239761
1020.909 .0239712
1021.499 .0239660
1022.088 .0239601
1022.678 .0239526
1023.267 .0239453
1023.856 .0239370
1024.445 .0239281
1025.033 .0239188
1025.621 .0239089
1026.209 .0238980
1026.797 .0238863
1027.385 .0238738
1027.972 .0238610
1028.560 .0238482
1029.147 .0238359
1029.734 .0238237
1030.320 .0238123
1030.907 .0238012
1031.493 .0237906
1032.079 .0237810
1032.665 .0237736
1033.250 .0237675
1033.836 .0237625
1034.421 .0237591
1035.006 .0237574
1035.591 .0237566
1036.176 .0237555
1036.761 .0237545
1037.345 .0237532
1037.929 .0237512
1038.514 .0237488
1039.097 .0237459
1039.681 .0237441
1040.265 .0237436
1040.848 .0237441
1041.432 .0237453
1042.015 .0237469
1042.598 .0237482
1043.181 .0237482
1043.764 .0237476
1044.346 .0237452
1044.929 .0237402
1045.511 .0237333
1046.094 .0237255
1046.676 .0237167
1047.258 .0237068
1047.840 .0236962
1048.422 .0236854
1049.003 .0236746
1049.585 .0236640
1050.166 .0236529
1050.748 .0236430
1051.329 .0236338
1051.910 .0236246
1052.491 .0236131
1053.072 .0236005
1053.653 .0235863
1054.234 .0235710
1054.815 .0235551
1055.396 .0235400
1055.976 .0235263
1056.557 .0235147
1057.138 .0235057
1057.718 .0234996
1058.298 .0234951
1058.879 .0234915
1059.459 .0234864
1060.039 .0234798
1060.620 .0234706
1061.200 .0234593
1061.780 .0234472
1062.360 .0234369
1062.940 .0234293
1063.520 .0234250
1064.101 .0234238
1064.681 .0234256
1065.261 .0234284
1065.841 .0234298
1066.421 .0234290
1067.001 .0234245
1067.581 .0234150
1068.161 .0234005
1068.741 .0233834
1069.321 .0233653
1069.901 .0233484
1070.482 .0233345
1071.062 .0233227
1071.642 .0233143
1072.222 .0233079
1072.803 .0233020
1073.383 .0232963
1073.963 .0232905
1074.544 .0232840
1075.124 .0232753
1075.705 .0232659
1076.286 .0232562
1076.866 .0232470
1077.447 .0232401
1078.028 .0232358
1078.609 .0232343
1079.190 .0232347
1079.771 .0232365
1080.352 .0232386
1080.934 .0232418
1081.515 .0232448
1082.097 .0232481
1082.679 .0232500
1083.260 .0232504
1083.842 .0232496
1084.424 .0232481
1085.007 .0232476
1085.589 .0232489
1086.172 .0232509
1086.754 .0232554
1087.337 .0232617
1087.920 .0232711
1088.503 .0232796
1089.087 .0232888
1089.670 .0232967
1090.254 .0233020
1090.838 .0233034
1091.422 .0233019
1092.006 .0232988
1092.590 .0232962
1093.175 .0232926
1093.760 .0232891
1094.345 .0232859
1094.930 .0232849
1095.516 .0232837
1096.102 .0232832
1096.688 .0232830
1097.274 .0232847
1097.860 .0232864
1098.447 .0232902
1099.034 .0232956
1099.622 .0233021
1100.209 .0233079
1100.797 .0233118
1101.385 .0233121
1101.973 .0233079
1102.562 .0232987
1103.151 .0232870
1103.740 .0232738
1104.330 .0232632
1104.920 .0232563
1105.510 .0232569
1106.101 .0232661
1106.691 .0232822
1107.283 .0233025
1107.874 .0233247
1108.466 .0233445
1109.058 .0233610
1109.651 .0233743
1110.244 .0233850
1110.837 .0233964
1111.431 .0234094
1112.025 .0234246
1112.620 .0234462
1113.215 .0234724
1113.810 .0235046
1114.406 .0235382
1115.002 .0235710
1115.599 .0235992
1116.196 .0236211
1116.793 .0236365
1117.391 .0236440
1117.989 .0236464
1118.588 .0236468
1119.187 .0236460
1119.787 .0236460
1120.387 .0236464
1120.988 .0236499
1121.589 .0236566
1122.190 .0236646
1122.793 .0236702
1123.395 .0236776
1123.998 .0236821
1124.602 .0236860
1125.206 .0236912
1125.811 .0236968
1126.416 .0237048
1127.022 .0237143
1127.628 .0237255
1128.235 .0237375
1128.843 .0237517
1129.451 .0237682
1130.059 .0237865
1130.669 .0238133
1131.278 .0238444
1131.889 .0238790
1132.500 .0239183
1133.112 .0239616
1133.724 .0240032
1134.337 .0240419
1134.950 .0240736
1135.564 .0241021
1136.179 .0241265
1136.795 .0241508
1137.411 .0241770
1138.028 .0242092
1138.645 .0242512
1139.263 .0242982
1139.882 .0243453
1140.502 .0244009
1141.122 .0244576
1141.743 .0245362
1142.365 .0246167
1142.987 .0244864
1143.611 .0247682
1144.235 .0248107
1144.859 .0253843
1145.485 .0251658
