Measurement Sequence started on: 10-20-44-796
Integration time: 35
Scans to Average: 2 
>>>>>Begin Spectral Data<<<<<
432.953 .0268555
433.882 .0352237
434.810 .0331541
435.737 .0324010
436.662 .0323837
437.586 .0328901
438.509 .0332311
439.431 .0333820
440.351 .0336486
441.269 .0339421
442.187 .0342203
443.103 .0344532
444.018 .0346758
444.932 .0348550
445.844 .0349884
446.756 .0351260
447.666 .0352732
448.575 .0354122
449.482 .0355458
450.388 .0356542
451.294 .0357315
452.198 .0357610
453.100 .0357462
454.002 .0356974
454.902 .0356149
455.801 .0355117
456.699 .0354005
457.596 .0352958
458.492 .0352071
459.387 .0351241
460.280 .0350519
461.172 .0349758
462.064 .0348990
462.954 .0348189
463.843 .0347395
464.730 .0346658
465.617 .0346062
466.503 .0345534
467.387 .0345148
468.271 .0344811
469.153 .0344540
470.035 .0344286
470.915 .0344082
471.794 .0343872
472.673 .0343659
473.550 .0343449
474.426 .0343339
475.301 .0343289
476.175 .0343340
477.048 .0343380
477.920 .0343392
478.791 .0343341
479.661 .0343203
480.530 .0342982
481.398 .0342727
482.266 .0342460
483.132 .0342235
483.997 .0342025
484.861 .0341898
485.724 .0341845
486.587 .0341861
487.448 .0341906
488.308 .0341915
489.168 .0341846
490.026 .0341681
490.884 .0341438
491.741 .0341148
492.597 .0340843
493.452 .0340548
494.306 .0340270
495.159 .0340010
496.011 .0339782
496.862 .0339571
497.713 .0339353
498.562 .0339097
499.411 .0338755
500.259 .0338298
501.106 .0337739
501.952 .0337090
502.798 .0336417
503.642 .0335738
504.486 .0335090
505.329 .0334445
506.171 .0333831
507.012 .0333259
507.852 .0332701
508.692 .0332143
509.531 .0331547
510.369 .0330881
511.206 .0330147
512.043 .0329318
512.878 .0328407
513.713 .0327412
514.547 .0326364
515.381 .0325243
516.213 .0324036
517.045 .0322736
517.876 .0321310
518.706 .0319715
519.536 .0317975
520.365 .0316045
521.193 .0313910
522.020 .0311644
522.847 .0309253
523.673 .0306816
524.498 .0304313
525.323 .0301813
526.146 .0299379
526.969 .0297076
527.792 .0294918
528.614 .0292936
529.435 .0291139
530.255 .0289605
531.075 .0288260
531.894 .0287142
532.712 .0286211
533.530 .0285474
534.347 .0284887
535.163 .0284398
535.979 .0283965
536.794 .0283614
537.608 .0283334
538.422 .0283177
539.235 .0283053
540.048 .0282969
540.860 .0282908
541.671 .0282858
542.481 .0282783
543.292 .0282671
544.101 .0282477
544.910 .0282246
545.718 .0282010
546.526 .0281776
547.333 .0281639
548.139 .0281658
548.945 .0281864
549.750 .0282210
550.555 .0282689
551.359 .0283262
552.162 .0283837
552.965 .0284465
553.768 .0285066
554.569 .0285618
555.371 .0286117
556.171 .0286578
556.972 .0287015
557.771 .0287442
558.570 .0287869
559.369 .0288313
560.167 .0288814
560.964 .0289335
561.761 .0289884
562.558 .0290450
563.354 .0291053
564.149 .0291658
564.944 .0292264
565.738 .0292881
566.532 .0293497
567.325 .0294132
568.118 .0294761
568.910 .0295384
569.702 .0296019
570.494 .0296639
571.285 .0297283
572.075 .0297917
572.865 .0298560
573.654 .0299178
574.443 .0299771
575.232 .0300317
576.020 .0300823
576.807 .0301289
577.594 .0301739
578.381 .0302174
579.167 .0302618
579.952 .0303081
580.738 .0303584
581.522 .0304124
582.307 .0304678
583.091 .0305220
583.874 .0305747
584.657 .0306223
585.440 .0306657
586.222 .0307030
587.004 .0307341
587.785 .0307599
588.566 .0307819
589.346 .0307999
590.126 .0308145
590.906 .0308261
591.685 .0308372
592.464 .0308468
593.242 .0308554
594.020 .0308611
594.797 .0308650
595.575 .0308676
596.351 .0308686
597.128 .0308678
597.904 .0308660
598.679 .0308638
599.454 .0308610
600.229 .0308578
601.004 .0308551
601.778 .0308523
602.551 .0308498
603.325 .0308468
604.097 .0308441
604.870 .0308396
605.642 .0308342
606.414 .0308266
607.185 .0308172
607.956 .0308064
608.727 .0307943
609.497 .0307814
610.267 .0307689
611.037 .0307568
611.806 .0307452
612.575 .0307343
613.344 .0307245
614.112 .0307145
614.880 .0307042
615.647 .0306929
616.414 .0306804
617.181 .0306663
617.948 .0306514
618.714 .0306358
619.480 .0306201
620.245 .0306045
621.011 .0305884
621.775 .0305719
622.540 .0305547
623.304 .0305362
624.068 .0305157
624.832 .0304928
625.595 .0304680
626.358 .0304415
627.120 .0304136
627.883 .0303847
628.645 .0303558
629.406 .0303272
630.168 .0302985
630.929 .0302699
631.689 .0302412
632.450 .0302127
633.210 .0301838
633.970 .0301548
634.729 .0301254
635.489 .0300971
636.248 .0300692
637.006 .0300421
637.765 .0300160
638.523 .0299907
639.280 .0299659
640.038 .0299415
640.795 .0299182
641.552 .0298954
642.309 .0298734
643.065 .0298530
643.821 .0298328
644.577 .0298133
645.332 .0297938
646.088 .0297750
646.843 .0297558
647.597 .0297365
648.352 .0297163
649.106 .0296959
649.860 .0296758
650.613 .0296554
651.367 .0296352
652.120 .0296157
652.872 .0295964
653.625 .0295767
654.377 .0295568
655.129 .0295367
655.881 .0295157
656.632 .0294942
657.384 .0294715
658.135 .0294485
658.885 .0294250
659.636 .0294015
660.386 .0293776
661.136 .0293537
661.885 .0293303
662.635 .0293072
663.384 .0292852
664.133 .0292636
664.881 .0292427
665.630 .0292229
666.378 .0292042
667.126 .0291863
667.874 .0291683
668.621 .0291510
669.368 .0291338
670.115 .0291165
670.862 .0290993
671.608 .0290826
672.354 .0290672
673.100 .0290535
673.846 .0290411
674.591 .0290296
675.337 .0290190
676.082 .0290087
676.826 .0289984
677.571 .0289874
678.315 .0289762
679.059 .0289648
679.803 .0289536
680.547 .0289434
681.290 .0289339
682.033 .0289252
682.776 .0289171
683.518 .0289085
684.261 .0288990
685.003 .0288874
685.745 .0288741
686.487 .0288598
687.228 .0288446
687.969 .0288293
688.710 .0288137
689.451 .0287984
690.192 .0287833
690.932 .0287675
691.672 .0287506
692.412 .0287325
693.152 .0287134
693.891 .0286930
694.630 .0286718
695.369 .0286507
696.108 .0286300
696.846 .0286100
697.585 .0285908
698.323 .0285721
699.061 .0285535
699.798 .0285347
700.536 .0285156
701.273 .0284961
702.010 .0284768
702.746 .0284578
703.483 .0284398
704.219 .0284233
704.955 .0284082
705.691 .0283941
706.427 .0283811
707.162 .0283689
707.897 .0283568
708.632 .0283444
709.367 .0283322
710.101 .0283197
710.835 .0283070
711.569 .0282943
712.303 .0282813
713.037 .0282685
713.770 .0282559
714.503 .0282428
715.236 .0282290
715.969 .0282149
716.702 .0281996
717.434 .0281833
718.166 .0281655
718.898 .0281470
719.629 .0281279
720.361 .0281085
721.092 .0280891
721.823 .0280697
722.554 .0280509
723.284 .0280324
724.014 .0280133
724.744 .0279944
725.474 .0279745
726.204 .0279544
726.933 .0279337
727.662 .0279127
728.391 .0278915
729.120 .0278707
729.849 .0278504
730.577 .0278309
731.305 .0278118
732.033 .0277935
732.760 .0277756
733.488 .0277581
734.215 .0277403
734.942 .0277216
735.669 .0277020
736.395 .0276821
737.122 .0276614
737.848 .0276406
738.573 .0276202
739.299 .0276005
740.024 .0275817
740.750 .0275635
741.474 .0275459
742.199 .0275280
742.924 .0275100
743.648 .0274912
744.372 .0274715
745.096 .0274518
745.819 .0274321
746.543 .0274136
747.266 .0273973
747.989 .0273832
748.711 .0273713
749.434 .0273612
750.156 .0273526
750.878 .0273445
751.599 .0273370
752.321 .0273289
753.042 .0273207
753.763 .0273124
754.484 .0273048
755.205 .0272977
755.925 .0272912
756.645 .0272854
757.365 .0272793
758.085 .0272722
758.804 .0272630
759.523 .0272513
760.242 .0272371
760.961 .0272201
761.679 .0272009
762.397 .0271795
763.115 .0271565
763.833 .0271325
764.551 .0271079
765.268 .0270827
765.985 .0270570
766.702 .0270305
767.418 .0270036
768.134 .0269769
768.850 .0269504
769.566 .0269250
770.282 .0269010
770.997 .0268790
771.712 .0268591
772.427 .0268416
773.142 .0268261
773.856 .0268127
774.570 .0268007
775.284 .0267898
775.998 .0267790
776.711 .0267692
777.424 .0267593
778.137 .0267493
778.849 .0267390
779.562 .0267279
780.274 .0267158
780.986 .0267028
781.697 .0266892
782.409 .0266755
783.120 .0266621
783.831 .0266496
784.541 .0266378
785.252 .0266278
785.962 .0266192
786.671 .0266115
787.381 .0266041
788.090 .0265976
788.799 .0265906
789.508 .0265834
790.217 .0265758
790.925 .0265680
791.633 .0265604
792.341 .0265526
793.048 .0265441
793.755 .0265349
794.462 .0265248
795.169 .0265132
795.875 .0264996
796.581 .0264846
797.287 .0264677
797.993 .0264497
798.698 .0264314
799.403 .0264131
800.108 .0263953
800.812 .0263783
801.517 .0263622
802.221 .0263476
802.924 .0263338
803.628 .0263214
804.331 .0263104
805.034 .0263009
805.736 .0262919
806.439 .0262835
807.141 .0262758
807.843 .0262686
808.544 .0262610
809.245 .0262532
809.946 .0262446
810.647 .0262361
811.347 .0262273
812.047 .0262182
812.747 .0262092
813.447 .0262003
814.146 .0261910
814.845 .0261822
815.543 .0261734
816.242 .0261652
816.940 .0261574
817.638 .0261508
818.335 .0261449
819.032 .0261395
819.729 .0261348
820.426 .0261305
821.122 .0261262
821.818 .0261215
822.514 .0261157
823.209 .0261093
823.905 .0261021
824.599 .0260942
825.294 .0260854
825.988 .0260763
826.682 .0260668
827.376 .0260569
828.069 .0260464
828.762 .0260353
829.455 .0260236
830.147 .0260115
830.840 .0259990
831.531 .0259863
832.223 .0259740
832.914 .0259624
833.605 .0259518
834.296 .0259421
834.986 .0259332
835.676 .0259250
836.366 .0259171
837.055 .0259099
837.744 .0259028
838.433 .0258960
839.121 .0258895
839.809 .0258831
840.497 .0258771
841.185 .0258711
841.872 .0258652
842.559 .0258591
843.245 .0258530
843.932 .0258463
844.617 .0258388
845.303 .0258311
845.988 .0258233
846.673 .0258157
847.358 .0258088
848.042 .0258024
848.726 .0257967
849.410 .0257913
850.093 .0257858
850.776 .0257796
851.459 .0257728
852.141 .0257647
852.823 .0257560
853.505 .0257467
854.186 .0257372
854.867 .0257282
855.548 .0257207
856.228 .0257146
856.908 .0257099
857.588 .0257061
858.267 .0257026
858.946 .0256988
859.625 .0256944
860.303 .0256888
860.981 .0256828
861.659 .0256760
862.336 .0256690
863.013 .0256618
863.690 .0256549
864.366 .0256484
865.042 .0256421
865.718 .0256360
866.393 .0256295
867.068 .0256222
867.743 .0256140
868.417 .0256049
869.091 .0255952
869.765 .0255849
870.438 .0255742
871.111 .0255633
871.783 .0255521
872.456 .0255407
873.127 .0255296
873.799 .0255188
874.470 .0255084
875.141 .0254989
875.811 .0254902
876.481 .0254823
877.151 .0254753
877.820 .0254689
878.489 .0254634
879.158 .0254585
879.826 .0254535
880.494 .0254483
881.162 .0254428
881.829 .0254368
882.496 .0254302
883.163 .0254233
883.829 .0254160
884.495 .0254080
885.160 .0254001
885.825 .0253923
886.490 .0253848
887.154 .0253777
887.818 .0253710
888.482 .0253645
889.145 .0253579
889.808 .0253513
890.471 .0253443
891.133 .0253377
891.795 .0253309
892.456 .0253237
893.117 .0253167
893.778 .0253096
894.439 .0253027
895.099 .0252956
895.758 .0252887
896.417 .0252814
897.076 .0252737
897.735 .0252659
898.393 .0252576
899.051 .0252491
899.708 .0252402
900.365 .0252309
901.022 .0252214
901.678 .0252115
902.334 .0252008
902.990 .0251896
903.645 .0251785
904.300 .0251673
904.954 .0251562
905.608 .0251452
906.262 .0251354
906.915 .0251263
907.568 .0251178
908.221 .0251096
908.873 .0251011
909.525 .0250925
910.176 .0250826
910.828 .0250718
911.478 .0250605
912.129 .0250484
912.778 .0250358
913.428 .0250228
914.077 .0250097
914.726 .0249963
915.375 .0249826
916.023 .0249694
916.670 .0249562
917.318 .0249431
917.964 .0249294
918.611 .0249154
919.257 .0249013
919.903 .0248865
920.548 .0248711
921.193 .0248561
921.838 .0248414
922.482 .0248271
923.126 .0248132
923.770 .0248004
924.413 .0247882
925.056 .0247767
925.698 .0247656
926.340 .0247547
926.982 .0247437
927.623 .0247323
928.264 .0247202
928.904 .0247079
929.544 .0246948
930.184 .0246805
930.823 .0246656
931.462 .0246503
932.101 .0246341
932.739 .0246172
933.377 .0245994
934.014 .0245804
934.651 .0245604
935.288 .0245396
935.924 .0245180
936.560 .0244968
937.196 .0244764
937.831 .0244565
938.466 .0244377
939.100 .0244200
939.734 .0244032
940.368 .0243873
941.001 .0243723
941.634 .0243574
942.266 .0243424
942.899 .0243272
943.530 .0243116
944.162 .0242955
944.793 .0242792
945.423 .0242621
946.053 .0242443
946.683 .0242259
947.313 .0242070
947.942 .0241868
948.571 .0241661
949.199 .0241448
949.827 .0241225
950.455 .0240992
951.082 .0240756
951.709 .0240519
952.335 .0240287
952.961 .0240059
953.587 .0239839
954.212 .0239626
954.837 .0239426
955.462 .0239235
956.086 .0239055
956.710 .0238890
957.334 .0238734
957.957 .0238581
958.579 .0238432
959.202 .0238282
959.824 .0238132
960.445 .0237983
961.067 .0237839
961.688 .0237695
962.308 .0237554
962.928 .0237416
963.548 .0237282
964.168 .0237149
964.787 .0237016
965.406 .0236881
966.024 .0236742
966.642 .0236600
967.260 .0236456
967.877 .0236315
968.494 .0236181
969.110 .0236055
969.727 .0235934
970.342 .0235823
970.958 .0235721
971.573 .0235625
972.188 .0235531
972.802 .0235439
973.416 .0235346
974.030 .0235248
974.643 .0235152
975.256 .0235063
975.869 .0234982
976.481 .0234914
977.093 .0234857
977.705 .0234811
978.316 .0234768
978.927 .0234726
979.538 .0234679
980.148 .0234623
980.758 .0234560
981.367 .0234489
981.977 .0234416
982.586 .0234351
983.194 .0234298
983.802 .0234261
984.410 .0234238
985.018 .0234228
985.625 .0234218
986.232 .0234203
986.838 .0234179
987.445 .0234146
988.050 .0234102
988.656 .0234054
989.261 .0234004
989.866 .0233955
990.471 .0233915
991.075 .0233878
991.679 .0233840
992.282 .0233802
992.886 .0233762
993.489 .0233717
994.091 .0233667
994.694 .0233615
995.296 .0233562
995.897 .0233511
996.499 .0233465
997.100 .0233418
997.701 .0233379
998.301 .0233346
998.901 .0233320
999.501 .0233298
1000.101 .0233286
1000.700 .0233280
1001.299 .0233280
1001.898 .0233288
1002.496 .0233298
1003.094 .0233314
1003.692 .0233339
1004.289 .0233370
1004.887 .0233418
1005.484 .0233471
1006.080 .0233530
1006.677 .0233584
1007.273 .0233634
1007.868 .0233673
1008.464 .0233699
1009.059 .0233714
1009.654 .0233721
1010.249 .0233718
1010.843 .0233713
1011.437 .0233698
1012.031 .0233682
1012.625 .0233661
1013.218 .0233627
1013.811 .0233577
1014.404 .0233517
1014.997 .0233447
1015.589 .0233383
1016.181 .0233330
1016.773 .0233302
1017.365 .0233294
1017.956 .0233310
1018.547 .0233344
1019.138 .0233394
1019.728 .0233453
1020.319 .0233521
1020.909 .0233588
1021.499 .0233668
1022.088 .0233759
1022.678 .0233861
1023.267 .0233977
1023.856 .0234104
1024.445 .0234232
1025.033 .0234350
1025.621 .0234445
1026.209 .0234518
1026.797 .0234560
1027.385 .0234585
1027.972 .0234595
1028.560 .0234603
1029.147 .0234607
1029.734 .0234619
1030.320 .0234636
1030.907 .0234661
1031.493 .0234688
1032.079 .0234713
1032.665 .0234737
1033.250 .0234755
1033.836 .0234772
1034.421 .0234789
1035.006 .0234808
1035.591 .0234839
1036.176 .0234872
1036.761 .0234915
1037.345 .0234963
1037.929 .0235013
1038.514 .0235065
1039.097 .0235121
1039.681 .0235185
1040.265 .0235250
1040.848 .0235330
1041.432 .0235414
1042.015 .0235495
1042.598 .0235575
1043.181 .0235651
1043.764 .0235718
1044.346 .0235771
1044.929 .0235814
1045.511 .0235848
1046.094 .0235885
1046.676 .0235929
1047.258 .0235980
1047.840 .0236048
1048.422 .0236127
1049.003 .0236203
1049.585 .0236272
1050.166 .0236338
1050.748 .0236389
1051.329 .0236428
1051.910 .0236462
1052.491 .0236484
1053.072 .0236509
1053.653 .0236535
1054.234 .0236576
1054.815 .0236634
1055.396 .0236701
1055.976 .0236766
1056.557 .0236834
1057.138 .0236900
1057.718 .0236948
1058.298 .0236980
1058.879 .0237006
1059.459 .0237021
1060.039 .0237017
1060.620 .0236981
1061.200 .0236919
1061.780 .0236837
1062.360 .0236733
1062.940 .0236606
1063.520 .0236478
1064.101 .0236353
1064.681 .0236232
1065.261 .0236134
1065.841 .0236058
1066.421 .0235987
1067.001 .0235924
1067.581 .0235860
1068.161 .0235790
1068.741 .0235714
1069.321 .0235640
1069.901 .0235583
1070.482 .0235556
1071.062 .0235555
1071.642 .0235580
1072.222 .0235629
1072.803 .0235701
1073.383 .0235765
1073.963 .0235817
1074.544 .0235855
1075.124 .0235868
1075.705 .0235856
1076.286 .0235832
1076.866 .0235806
1077.447 .0235779
1078.028 .0235755
1078.609 .0235743
1079.190 .0235741
1079.771 .0235746
1080.352 .0235753
1080.934 .0235779
1081.515 .0235824
1082.097 .0235900
1082.679 .0235999
1083.260 .0236119
1083.842 .0236257
1084.424 .0236386
1085.007 .0236512
1085.589 .0236621
1086.172 .0236700
1086.754 .0236747
1087.337 .0236769
1087.920 .0236776
1088.503 .0236762
1089.087 .0236738
1089.670 .0236713
1090.254 .0236685
1090.838 .0236656
1091.422 .0236614
1092.006 .0236564
1092.590 .0236520
1093.175 .0236485
1093.760 .0236436
1094.345 .0236390
1094.930 .0236331
1095.516 .0236277
1096.102 .0236235
1096.688 .0236206
1097.274 .0236201
1097.860 .0236225
1098.447 .0236282
1099.034 .0236344
1099.622 .0236410
1100.209 .0236486
1100.797 .0236554
1101.385 .0236611
1101.973 .0236637
1102.562 .0236647
1103.151 .0236646
1103.740 .0236639
1104.330 .0236630
1104.920 .0236626
1105.510 .0236619
1106.101 .0236607
1106.691 .0236584
1107.283 .0236531
1107.874 .0236458
1108.466 .0236359
1109.058 .0236250
1109.651 .0236121
1110.244 .0235971
1110.837 .0235795
1111.431 .0235613
1112.025 .0235446
1112.620 .0235246
1113.215 .0235024
1113.810 .0234807
1114.406 .0234626
1115.002 .0234466
1115.599 .0234343
1116.196 .0234294
1116.793 .0234307
1117.391 .0234401
1117.989 .0234515
1118.588 .0234649
1119.187 .0234800
1119.787 .0234955
1120.387 .0235101
1120.988 .0235236
1121.589 .0235402
1122.190 .0235580
1122.793 .0235798
1123.395 .0236068
1123.998 .0236360
1124.602 .0236652
1125.206 .0236947
1125.811 .0237241
1126.416 .0237459
1127.022 .0237637
1127.628 .0237753
1128.235 .0237830
1128.843 .0237884
1129.451 .0237901
1130.059 .0237898
1130.669 .0237917
1131.278 .0237980
1131.889 .0238012
1132.500 .0238095
1133.112 .0238237
1133.724 .0238442
1134.337 .0238724
1134.950 .0239087
1135.564 .0239514
1136.179 .0240009
1136.795 .0240597
1137.411 .0241246
1138.028 .0241961
1138.645 .0242804
1139.263 .0243740
1139.882 .0244773
1140.502 .0245892
1141.122 .0247089
1141.743 .0248331
1142.365 .0249694
1142.987 .0250784
1143.611 .0252185
1144.235 .0253000
1144.859 .0254493
1145.485 .0258326
