Measurement Sequence started on: 10-20-44-796
Integration time: 35
Scans to Average: 2 
>>>>>Begin Spectral Data<<<<<
432.953 .0434700
433.882 .0396380
434.810 .0448928
435.737 .0440076
436.662 .0422917
437.586 .0414376
438.509 .0409712
439.431 .0405783
440.351 .0400868
441.269 .0397007
442.187 .0394113
443.103 .0391834
444.018 .0389848
444.932 .0388018
445.844 .0386529
446.756 .0385217
447.666 .0384082
448.575 .0382963
449.482 .0382140
450.388 .0381384
451.294 .0380693
452.198 .0380103
453.100 .0379620
454.002 .0379191
454.902 .0378945
455.801 .0378702
456.699 .0378625
457.596 .0378598
458.492 .0378556
459.387 .0378437
460.280 .0378260
461.172 .0377991
462.064 .0377686
462.954 .0377320
463.843 .0376960
464.730 .0376550
465.617 .0376164
466.503 .0375690
467.387 .0375147
468.271 .0374514
469.153 .0373828
470.035 .0373026
470.915 .0372237
471.794 .0371382
472.673 .0370547
473.550 .0369762
474.426 .0369048
475.301 .0368384
476.175 .0367762
477.048 .0367135
477.920 .0366522
478.791 .0365907
479.661 .0365328
480.530 .0364748
481.398 .0364270
482.266 .0363884
483.132 .0363595
483.997 .0363337
484.861 .0363140
485.724 .0362970
486.587 .0362835
487.448 .0362679
488.308 .0362495
489.168 .0362282
490.026 .0362077
490.884 .0361882
491.741 .0361701
492.597 .0361518
493.452 .0361344
494.306 .0361139
495.159 .0360920
496.011 .0360628
496.862 .0360272
497.713 .0359820
498.562 .0359282
499.411 .0358651
500.259 .0357881
501.106 .0357000
501.952 .0356031
502.798 .0355009
503.642 .0353937
504.486 .0352786
505.329 .0351597
506.171 .0350381
507.012 .0349151
507.852 .0347918
508.692 .0346658
509.531 .0345424
510.369 .0344214
511.206 .0343014
512.043 .0341847
512.878 .0340730
513.713 .0339691
514.547 .0338710
515.381 .0337793
516.213 .0336896
517.045 .0335985
517.876 .0335043
518.706 .0334091
519.536 .0333102
520.365 .0332088
521.193 .0331020
522.020 .0329910
522.847 .0328737
523.673 .0327490
524.498 .0326129
525.323 .0324734
526.146 .0323284
526.969 .0321854
527.792 .0320346
528.614 .0318881
529.435 .0317507
530.255 .0316269
531.075 .0315094
531.894 .0314026
532.712 .0312969
533.530 .0311891
534.347 .0310786
535.163 .0309681
535.979 .0308587
536.794 .0307651
537.608 .0306829
538.422 .0306200
539.235 .0305779
540.048 .0305554
540.860 .0305440
541.671 .0305443
542.481 .0305474
543.292 .0305411
544.101 .0305328
544.910 .0305211
545.718 .0305059
546.526 .0304964
547.333 .0304945
548.139 .0304989
548.945 .0305150
549.750 .0305342
550.555 .0305566
551.359 .0305816
552.162 .0306074
552.965 .0306302
553.768 .0306577
554.569 .0306887
555.371 .0307171
556.171 .0307478
556.972 .0307853
557.771 .0308233
558.570 .0308679
559.369 .0309189
560.167 .0309761
560.964 .0310453
561.761 .0311247
562.558 .0312113
563.354 .0313073
564.149 .0314099
564.944 .0315108
565.738 .0316079
566.532 .0317010
567.325 .0317826
568.118 .0318553
568.910 .0319249
569.702 .0319887
570.494 .0320493
571.285 .0321088
572.075 .0321666
572.865 .0322219
573.654 .0322753
574.443 .0323253
575.232 .0323726
576.020 .0324185
576.807 .0324632
577.594 .0325046
578.381 .0325470
579.167 .0325895
579.952 .0326312
580.738 .0326745
581.522 .0327177
582.307 .0327591
583.091 .0327991
583.874 .0328357
584.657 .0328679
585.440 .0328945
586.222 .0329160
587.004 .0329304
587.785 .0329405
588.566 .0329471
589.346 .0329505
590.126 .0329522
590.906 .0329540
591.685 .0329565
592.464 .0329595
593.242 .0329631
594.020 .0329666
594.797 .0329701
595.575 .0329739
596.351 .0329767
597.128 .0329788
597.904 .0329804
598.679 .0329829
599.454 .0329844
600.229 .0329858
601.004 .0329867
601.778 .0329855
602.551 .0329812
603.325 .0329738
604.097 .0329627
604.870 .0329472
605.642 .0329286
606.414 .0329075
607.185 .0328848
607.956 .0328614
608.727 .0328383
609.497 .0328164
610.267 .0327958
611.037 .0327767
611.806 .0327573
612.575 .0327381
613.344 .0327190
614.112 .0326987
614.880 .0326781
615.647 .0326573
616.414 .0326367
617.181 .0326164
617.948 .0325972
618.714 .0325791
619.480 .0325621
620.245 .0325454
621.011 .0325281
621.775 .0325094
622.540 .0324898
623.304 .0324685
624.068 .0324461
624.832 .0324232
625.595 .0324002
626.358 .0323773
627.120 .0323554
627.883 .0323331
628.645 .0323113
629.406 .0322897
630.168 .0322680
630.929 .0322457
631.689 .0322229
632.450 .0321995
633.210 .0321749
633.970 .0321498
634.729 .0321238
635.489 .0320964
636.248 .0320685
637.006 .0320394
637.765 .0320101
638.523 .0319813
639.280 .0319537
640.038 .0319276
640.795 .0319042
641.552 .0318832
642.309 .0318642
643.065 .0318467
643.821 .0318300
644.577 .0318129
645.332 .0317951
646.088 .0317764
646.843 .0317570
647.597 .0317374
648.352 .0317182
649.106 .0317004
649.860 .0316835
650.613 .0316673
651.367 .0316518
652.120 .0316367
652.872 .0316208
653.625 .0316036
654.377 .0315843
655.129 .0315633
655.881 .0315414
656.632 .0315190
657.384 .0314963
658.135 .0314745
658.885 .0314543
659.636 .0314355
660.386 .0314183
661.136 .0314025
661.885 .0313875
662.635 .0313738
663.384 .0313600
664.133 .0313454
664.881 .0313299
665.630 .0313139
666.378 .0312975
667.126 .0312809
667.874 .0312642
668.621 .0312471
669.368 .0312303
670.115 .0312135
670.862 .0311963
671.608 .0311797
672.354 .0311635
673.100 .0311473
673.846 .0311311
674.591 .0311148
675.337 .0310983
676.082 .0310821
676.826 .0310660
677.571 .0310500
678.315 .0310339
679.059 .0310181
679.803 .0310024
680.547 .0309873
681.290 .0309721
682.033 .0309563
682.776 .0309394
683.518 .0309206
684.261 .0308995
685.003 .0308759
685.745 .0308498
686.487 .0308224
687.228 .0307942
687.969 .0307651
688.710 .0307361
689.451 .0307077
690.192 .0306793
690.932 .0306512
691.672 .0306236
692.412 .0305963
693.152 .0305697
693.891 .0305444
694.630 .0305204
695.369 .0304985
696.108 .0304791
696.846 .0304614
697.585 .0304448
698.323 .0304296
699.061 .0304148
699.798 .0303995
700.536 .0303841
701.273 .0303684
702.010 .0303524
702.746 .0303367
703.483 .0303206
704.219 .0303040
704.955 .0302867
705.691 .0302683
706.427 .0302483
707.162 .0302269
707.897 .0302043
708.632 .0301806
709.367 .0301560
710.101 .0301311
710.835 .0301059
711.569 .0300812
712.303 .0300567
713.037 .0300325
713.770 .0300086
714.503 .0299850
715.236 .0299618
715.969 .0299394
716.702 .0299183
717.434 .0298988
718.166 .0298804
718.898 .0298630
719.629 .0298469
720.361 .0298315
721.092 .0298163
721.823 .0298009
722.554 .0297850
723.284 .0297680
724.014 .0297494
724.744 .0297291
725.474 .0297073
726.204 .0296842
726.933 .0296601
727.662 .0296349
728.391 .0296094
729.120 .0295836
729.849 .0295580
730.577 .0295325
731.305 .0295071
732.033 .0294817
732.760 .0294556
733.488 .0294293
734.215 .0294037
734.942 .0293788
735.669 .0293553
736.395 .0293334
737.122 .0293136
737.848 .0292956
738.573 .0292791
739.299 .0292635
740.024 .0292484
740.750 .0292334
741.474 .0292178
742.199 .0292013
742.924 .0291845
743.648 .0291677
744.372 .0291514
745.096 .0291364
745.819 .0291225
746.543 .0291098
747.266 .0290984
747.989 .0290874
748.711 .0290771
749.434 .0290666
750.156 .0290566
750.878 .0290470
751.599 .0290382
752.321 .0290303
753.042 .0290237
753.763 .0290186
754.484 .0290145
755.205 .0290107
755.925 .0290074
756.645 .0290033
757.365 .0289986
758.085 .0289930
758.804 .0289862
759.523 .0289787
760.242 .0289707
760.961 .0289614
761.679 .0289518
762.397 .0289410
763.115 .0289292
763.833 .0289157
764.551 .0289004
765.268 .0288829
765.985 .0288633
766.702 .0288422
767.418 .0288200
768.134 .0287969
768.850 .0287741
769.566 .0287512
770.282 .0287295
770.997 .0287087
771.712 .0286892
772.427 .0286706
773.142 .0286529
773.856 .0286351
774.570 .0286176
775.284 .0285996
775.998 .0285815
776.711 .0285635
777.424 .0285458
778.137 .0285282
778.849 .0285109
779.562 .0284940
780.274 .0284778
780.986 .0284619
781.697 .0284466
782.409 .0284310
783.120 .0284159
783.831 .0284007
784.541 .0283860
785.252 .0283722
785.962 .0283590
786.671 .0283463
787.381 .0283343
788.090 .0283229
788.799 .0283120
789.508 .0283015
790.217 .0282916
790.925 .0282819
791.633 .0282720
792.341 .0282613
793.048 .0282499
793.755 .0282373
794.462 .0282236
795.169 .0282087
795.875 .0281925
796.581 .0281759
797.287 .0281589
797.993 .0281424
798.698 .0281270
799.403 .0281129
800.108 .0280996
800.812 .0280870
801.517 .0280749
802.221 .0280625
802.924 .0280498
803.628 .0280368
804.331 .0280235
805.034 .0280100
805.736 .0279967
806.439 .0279835
807.141 .0279710
807.843 .0279592
808.544 .0279471
809.245 .0279349
809.946 .0279222
810.647 .0279083
811.347 .0278934
812.047 .0278782
812.747 .0278629
813.447 .0278474
814.146 .0278325
814.845 .0278183
815.543 .0278050
816.242 .0277930
816.940 .0277819
817.638 .0277713
818.335 .0277616
819.032 .0277517
819.729 .0277416
820.426 .0277313
821.122 .0277207
821.818 .0277091
822.514 .0276969
823.209 .0276839
823.905 .0276695
824.599 .0276539
825.294 .0276372
825.988 .0276190
826.682 .0275995
827.376 .0275788
828.069 .0275571
828.762 .0275348
829.455 .0275125
830.147 .0274898
830.840 .0274674
831.531 .0274457
832.223 .0274248
832.914 .0274046
833.605 .0273855
834.296 .0273675
834.986 .0273506
835.676 .0273351
836.366 .0273210
837.055 .0273081
837.744 .0272965
838.433 .0272857
839.121 .0272753
839.809 .0272651
840.497 .0272553
841.185 .0272452
841.872 .0272348
842.559 .0272244
843.245 .0272135
843.932 .0272024
844.617 .0271906
845.303 .0271785
845.988 .0271657
846.673 .0271518
847.358 .0271369
848.042 .0271211
848.726 .0271049
849.410 .0270887
850.093 .0270726
850.776 .0270576
851.459 .0270435
852.141 .0270302
852.823 .0270174
853.505 .0270055
854.186 .0269935
854.867 .0269814
855.548 .0269691
856.228 .0269571
856.908 .0269453
857.588 .0269343
858.267 .0269241
858.946 .0269148
859.625 .0269065
860.303 .0268987
860.981 .0268912
861.659 .0268842
862.336 .0268766
863.013 .0268685
863.690 .0268598
864.366 .0268505
865.042 .0268401
865.718 .0268294
866.393 .0268181
867.068 .0268059
867.743 .0267933
868.417 .0267800
869.091 .0267664
869.765 .0267528
870.438 .0267388
871.111 .0267244
871.783 .0267103
872.456 .0266962
873.127 .0266822
873.799 .0266688
874.470 .0266555
875.141 .0266424
875.811 .0266296
876.481 .0266170
877.151 .0266049
877.820 .0265938
878.489 .0265838
879.158 .0265746
879.826 .0265668
880.494 .0265596
881.162 .0265530
881.829 .0265468
882.496 .0265399
883.163 .0265317
883.829 .0265219
884.495 .0265102
885.160 .0264972
885.825 .0264842
886.490 .0264713
887.154 .0264593
887.818 .0264490
888.482 .0264398
889.145 .0264316
889.808 .0264247
890.471 .0264183
891.133 .0264118
891.795 .0264054
892.456 .0263990
893.117 .0263932
893.778 .0263885
894.439 .0263854
895.099 .0263836
895.758 .0263836
896.417 .0263846
897.076 .0263855
897.735 .0263862
898.393 .0263867
899.051 .0263865
899.708 .0263852
900.365 .0263828
901.022 .0263798
901.678 .0263761
902.334 .0263718
902.990 .0263669
903.645 .0263613
904.300 .0263553
904.954 .0263486
905.608 .0263408
906.262 .0263326
906.915 .0263243
907.568 .0263157
908.221 .0263069
908.873 .0262977
909.525 .0262879
910.176 .0262777
910.828 .0262671
911.478 .0262561
912.129 .0262449
912.778 .0262334
913.428 .0262219
914.077 .0262106
914.726 .0261994
915.375 .0261880
916.023 .0261770
916.670 .0261666
917.318 .0261566
917.964 .0261468
918.611 .0261372
919.257 .0261276
919.903 .0261187
920.548 .0261099
921.193 .0261006
921.838 .0260918
922.482 .0260836
923.126 .0260752
923.770 .0260673
924.413 .0260593
925.056 .0260514
925.698 .0260436
926.340 .0260357
926.982 .0260270
927.623 .0260184
928.264 .0260095
928.904 .0260004
929.544 .0259911
930.184 .0259823
930.823 .0259731
931.462 .0259636
932.101 .0259539
932.739 .0259434
933.377 .0259316
934.014 .0259188
934.651 .0259045
935.288 .0258895
935.924 .0258734
936.560 .0258572
937.196 .0258411
937.831 .0258254
938.466 .0258098
939.100 .0257940
939.734 .0257774
940.368 .0257601
941.001 .0257416
941.634 .0257223
942.266 .0257025
942.899 .0256826
943.530 .0256628
944.162 .0256437
944.793 .0256253
945.423 .0256073
946.053 .0255893
946.683 .0255716
947.313 .0255536
947.942 .0255351
948.571 .0255164
949.199 .0254976
949.827 .0254788
950.455 .0254603
951.082 .0254426
951.709 .0254259
952.335 .0254103
952.961 .0253952
953.587 .0253807
954.212 .0253665
954.837 .0253526
955.462 .0253384
956.086 .0253245
956.710 .0253115
957.334 .0252988
957.957 .0252864
958.579 .0252745
959.202 .0252628
959.824 .0252511
960.445 .0252390
961.067 .0252263
961.688 .0252133
962.308 .0251999
962.928 .0251863
963.548 .0251725
964.168 .0251592
964.787 .0251459
965.406 .0251326
966.024 .0251196
966.642 .0251062
967.260 .0250922
967.877 .0250780
968.494 .0250629
969.110 .0250473
969.727 .0250311
970.342 .0250148
970.958 .0249983
971.573 .0249826
972.188 .0249675
972.802 .0249532
973.416 .0249400
974.030 .0249284
974.643 .0249171
975.256 .0249069
975.869 .0248973
976.481 .0248885
977.093 .0248808
977.705 .0248750
978.316 .0248705
978.927 .0248678
979.538 .0248660
980.148 .0248652
980.758 .0248642
981.367 .0248637
981.977 .0248628
982.586 .0248621
983.194 .0248609
983.802 .0248599
984.410 .0248588
985.018 .0248582
985.625 .0248574
986.232 .0248564
986.838 .0248540
987.445 .0248500
988.050 .0248439
988.656 .0248358
989.261 .0248260
989.866 .0248153
990.471 .0248036
991.075 .0247920
991.679 .0247805
992.282 .0247701
992.886 .0247603
993.489 .0247519
994.091 .0247439
994.694 .0247366
995.296 .0247302
995.897 .0247244
996.499 .0247193
997.100 .0247155
997.701 .0247131
998.301 .0247121
998.901 .0247123
999.501 .0247143
1000.101 .0247174
1000.700 .0247217
1001.299 .0247263
1001.898 .0247301
1002.496 .0247326
1003.094 .0247335
1003.692 .0247322
1004.289 .0247291
1004.887 .0247246
1005.484 .0247191
1006.080 .0247123
1006.677 .0247057
1007.273 .0246994
1007.868 .0246933
1008.464 .0246880
1009.059 .0246826
1009.654 .0246768
1010.249 .0246710
1010.843 .0246651
1011.437 .0246594
1012.031 .0246550
1012.625 .0246522
1013.218 .0246505
1013.811 .0246502
1014.404 .0246515
1014.997 .0246537
1015.589 .0246565
1016.181 .0246595
1016.773 .0246614
1017.365 .0246620
1017.956 .0246610
1018.547 .0246582
1019.138 .0246544
1019.728 .0246502
1020.319 .0246459
1020.909 .0246417
1021.499 .0246377
1022.088 .0246337
1022.678 .0246292
1023.267 .0246245
1023.856 .0246197
1024.445 .0246139
1025.033 .0246069
1025.621 .0245994
1026.209 .0245918
1026.797 .0245851
1027.385 .0245796
1027.972 .0245760
1028.560 .0245744
1029.147 .0245749
1029.734 .0245762
1030.320 .0245779
1030.907 .0245799
1031.493 .0245823
1032.079 .0245842
1032.665 .0245863
1033.250 .0245882
1033.836 .0245901
1034.421 .0245921
1035.006 .0245943
1035.591 .0245961
1036.176 .0245980
1036.761 .0245986
1037.345 .0245979
1037.929 .0245956
1038.514 .0245919
1039.097 .0245867
1039.681 .0245814
1040.265 .0245759
1040.848 .0245707
1041.432 .0245651
1042.015 .0245607
1042.598 .0245566
1043.181 .0245533
1043.764 .0245506
1044.346 .0245484
1044.929 .0245465
1045.511 .0245451
1046.094 .0245437
1046.676 .0245432
1047.258 .0245433
1047.840 .0245435
1048.422 .0245420
1049.003 .0245394
1049.585 .0245354
1050.166 .0245299
1050.748 .0245228
1051.329 .0245160
1051.910 .0245092
1052.491 .0245021
1053.072 .0244955
1053.653 .0244879
1054.234 .0244799
1054.815 .0244704
1055.396 .0244584
1055.976 .0244435
1056.557 .0244262
1057.138 .0244082
1057.718 .0243895
1058.298 .0243725
1058.879 .0243580
1059.459 .0243449
1060.039 .0243334
1060.620 .0243223
1061.200 .0243101
1061.780 .0242962
1062.360 .0242805
1062.940 .0242634
1063.520 .0242464
1064.101 .0242301
1064.681 .0242156
1065.261 .0242036
1065.841 .0241946
1066.421 .0241869
1067.001 .0241780
1067.581 .0241690
1068.161 .0241588
1068.741 .0241477
1069.321 .0241369
1069.901 .0241278
1070.482 .0241216
1071.062 .0241188
1071.642 .0241193
1072.222 .0241224
1072.803 .0241273
1073.383 .0241330
1073.963 .0241379
1074.544 .0241430
1075.124 .0241484
1075.705 .0241541
1076.286 .0241620
1076.866 .0241736
1077.447 .0241875
1078.028 .0242042
1078.609 .0242233
1079.190 .0242448
1079.771 .0242662
1080.352 .0242862
1080.934 .0243032
1081.515 .0243170
1082.097 .0243282
1082.679 .0243351
1083.260 .0243378
1083.842 .0243378
1084.424 .0243339
1085.007 .0243276
1085.589 .0243183
1086.172 .0243089
1086.754 .0242998
1087.337 .0242918
1087.920 .0242851
1088.503 .0242779
1089.087 .0242691
1089.670 .0242596
1090.254 .0242483
1090.838 .0242367
1091.422 .0242233
1092.006 .0242100
1092.590 .0241974
1093.175 .0241864
1093.760 .0241784
1094.345 .0241723
1094.930 .0241674
1095.516 .0241643
1096.102 .0241597
1096.688 .0241533
1097.274 .0241456
1097.860 .0241366
1098.447 .0241281
1099.034 .0241192
1099.622 .0241117
1100.209 .0241049
1100.797 .0241003
1101.385 .0241008
1101.973 .0241055
1102.562 .0241139
1103.151 .0241267
1103.740 .0241417
1104.330 .0241613
1104.920 .0241811
1105.510 .0242031
1106.101 .0242257
1106.691 .0242468
1107.283 .0242647
1107.874 .0242782
1108.466 .0242858
1109.058 .0242921
1109.651 .0242943
1110.244 .0242949
1110.837 .0242939
1111.431 .0242927
1112.025 .0242890
1112.620 .0242838
1113.215 .0242784
1113.810 .0242724
1114.406 .0242658
1115.002 .0242634
1115.599 .0242628
1116.196 .0242649
1116.793 .0242708
1117.391 .0242766
1117.989 .0242799
1118.588 .0242796
1119.187 .0242719
1119.787 .0242601
1120.387 .0242451
1120.988 .0242284
1121.589 .0242126
1122.190 .0242020
1122.793 .0241990
1123.395 .0241974
1123.998 .0241996
1124.602 .0242041
1125.206 .0242072
1125.811 .0242095
1126.416 .0242092
1127.022 .0242091
1127.628 .0242159
1128.235 .0242305
1128.843 .0242576
1129.451 .0242983
1130.059 .0243526
1130.669 .0244186
1131.278 .0244914
1131.889 .0245644
1132.500 .0246330
1133.112 .0246936
1133.724 .0247476
1134.337 .0247943
1134.950 .0248350
1135.564 .0248741
1136.179 .0249173
1136.795 .0249700
1137.411 .0250311
1138.028 .0250994
1138.645 .0251767
1139.263 .0252596
1139.882 .0253439
1140.502 .0254339
1141.122 .0255313
1141.743 .0256480
1142.365 .0257719
1142.987 .0257022
1143.611 .0260123
1144.235 .0262465
1144.859 .0266226
1145.485 .0265164
