Measurement Sequence started on: 10-20-44-796
Integration time: 35
Scans to Average: 2 
>>>>>Begin Spectral Data<<<<<
432.953 .0422492
433.882 .0394629
434.810 .0407228
435.737 .0380585
436.662 .0359959
437.586 .0372482
438.509 .0367858
439.431 .0365077
440.351 .0362830
441.269 .0361912
442.187 .0361619
443.103 .0361361
444.018 .0361260
444.932 .0361082
445.844 .0361161
446.756 .0361374
447.666 .0361554
448.575 .0361675
449.482 .0361657
450.388 .0361520
451.294 .0361180
452.198 .0360752
453.100 .0360128
454.002 .0359493
454.902 .0358863
455.801 .0358199
456.699 .0357593
457.596 .0357071
458.492 .0356564
459.387 .0356150
460.280 .0355727
461.172 .0355238
462.064 .0354708
462.954 .0354176
463.843 .0353623
464.730 .0353074
465.617 .0352582
466.503 .0352116
467.387 .0351647
468.271 .0351149
469.153 .0350615
470.035 .0350009
470.915 .0349391
471.794 .0348716
472.673 .0348010
473.550 .0347334
474.426 .0346693
475.301 .0346116
476.175 .0345662
477.048 .0345287
477.920 .0344992
478.791 .0344729
479.661 .0344545
480.530 .0344373
481.398 .0344231
482.266 .0344138
483.132 .0344121
483.997 .0344129
484.861 .0344182
485.724 .0344264
486.587 .0344383
487.448 .0344499
488.308 .0344595
489.168 .0344648
490.026 .0344648
490.884 .0344556
491.741 .0344363
492.597 .0344040
493.452 .0343652
494.306 .0343133
495.159 .0342532
496.011 .0341862
496.862 .0341158
497.713 .0340420
498.562 .0339685
499.411 .0338962
500.259 .0338218
501.106 .0337429
501.952 .0336607
502.798 .0335712
503.642 .0334769
504.486 .0333762
505.329 .0332727
506.171 .0331693
507.012 .0330687
507.852 .0329658
508.692 .0328656
509.531 .0327678
510.369 .0326742
511.206 .0325803
512.043 .0324869
512.878 .0323902
513.713 .0322887
514.547 .0321829
515.381 .0320718
516.213 .0319562
517.045 .0318354
517.876 .0317086
518.706 .0315761
519.536 .0314376
520.365 .0312965
521.193 .0311536
522.020 .0310157
522.847 .0308744
523.673 .0307263
524.498 .0305679
525.323 .0304012
526.146 .0302274
526.969 .0300470
527.792 .0298649
528.614 .0296837
529.435 .0295165
530.255 .0293559
531.075 .0292053
531.894 .0290663
532.712 .0289411
533.530 .0288232
534.347 .0287117
535.163 .0286037
535.979 .0285053
536.794 .0284221
537.608 .0283547
538.422 .0282951
539.235 .0282446
540.048 .0281937
540.860 .0281478
541.671 .0281013
542.481 .0280640
543.292 .0280341
544.101 .0280314
544.910 .0280477
545.718 .0280859
546.526 .0281419
547.333 .0282145
548.139 .0282972
548.945 .0283809
549.750 .0284523
550.555 .0285119
551.359 .0285610
552.162 .0286054
552.965 .0286449
553.768 .0286861
554.569 .0287286
555.371 .0287738
556.171 .0288186
556.972 .0288617
557.771 .0288953
558.570 .0289241
559.369 .0289484
560.167 .0289701
560.964 .0289905
561.761 .0290117
562.558 .0290423
563.354 .0290851
564.149 .0291349
564.944 .0291890
565.738 .0292455
566.532 .0293036
567.325 .0293576
568.118 .0294077
568.910 .0294561
569.702 .0295048
570.494 .0295567
571.285 .0296128
572.075 .0296749
572.865 .0297452
573.654 .0298216
574.443 .0299031
575.232 .0299858
576.020 .0300679
576.807 .0301448
577.594 .0302165
578.381 .0302828
579.167 .0303431
579.952 .0303993
580.738 .0304536
581.522 .0305081
582.307 .0305619
583.091 .0306148
583.874 .0306663
584.657 .0307144
585.440 .0307574
586.222 .0307932
587.004 .0308216
587.785 .0308431
588.566 .0308585
589.346 .0308688
590.126 .0308770
590.906 .0308831
591.685 .0308877
592.464 .0308917
593.242 .0308943
594.020 .0308957
594.797 .0308957
595.575 .0308954
596.351 .0308944
597.128 .0308933
597.904 .0308912
598.679 .0308874
599.454 .0308820
600.229 .0308758
601.004 .0308687
601.778 .0308610
602.551 .0308531
603.325 .0308458
604.097 .0308382
604.870 .0308310
605.642 .0308237
606.414 .0308155
607.185 .0308062
607.956 .0307958
608.727 .0307836
609.497 .0307698
610.267 .0307551
611.037 .0307399
611.806 .0307244
612.575 .0307095
613.344 .0306937
614.112 .0306770
614.880 .0306593
615.647 .0306396
616.414 .0306182
617.181 .0305958
617.948 .0305727
618.714 .0305494
619.480 .0305265
620.245 .0305036
621.011 .0304807
621.775 .0304578
622.540 .0304341
623.304 .0304097
624.068 .0303845
624.832 .0303586
625.595 .0303325
626.358 .0303071
627.120 .0302822
627.883 .0302576
628.645 .0302338
629.406 .0302095
630.168 .0301851
630.929 .0301602
631.689 .0301350
632.450 .0301105
633.210 .0300864
633.970 .0300636
634.729 .0300415
635.489 .0300205
636.248 .0299997
637.006 .0299784
637.765 .0299564
638.523 .0299329
639.280 .0299082
640.038 .0298820
640.795 .0298557
641.552 .0298295
642.309 .0298038
643.065 .0297797
643.821 .0297572
644.577 .0297355
645.332 .0297139
646.088 .0296931
646.843 .0296711
647.597 .0296483
648.352 .0296246
649.106 .0295996
649.860 .0295747
650.613 .0295504
651.367 .0295273
652.120 .0295068
652.872 .0294897
653.625 .0294755
654.377 .0294642
655.129 .0294556
655.881 .0294477
656.632 .0294400
657.384 .0294320
658.135 .0294232
658.885 .0294126
659.636 .0294010
660.386 .0293886
661.136 .0293763
661.885 .0293645
662.635 .0293530
663.384 .0293426
664.133 .0293322
664.881 .0293212
665.630 .0293090
666.378 .0292954
667.126 .0292803
667.874 .0292631
668.621 .0292448
669.368 .0292248
670.115 .0292041
670.862 .0291827
671.608 .0291623
672.354 .0291436
673.100 .0291262
673.846 .0291106
674.591 .0290966
675.337 .0290842
676.082 .0290730
676.826 .0290627
677.571 .0290529
678.315 .0290431
679.059 .0290335
679.803 .0290235
680.547 .0290139
681.290 .0290044
682.033 .0289957
682.776 .0289870
683.518 .0289785
684.261 .0289693
685.003 .0289594
685.745 .0289492
686.487 .0289382
687.228 .0289268
687.969 .0289148
688.710 .0289024
689.451 .0288898
690.192 .0288772
690.932 .0288650
691.672 .0288522
692.412 .0288395
693.152 .0288262
693.891 .0288125
694.630 .0287986
695.369 .0287849
696.108 .0287713
696.846 .0287579
697.585 .0287443
698.323 .0287299
699.061 .0287145
699.798 .0286980
700.536 .0286798
701.273 .0286602
702.010 .0286396
702.746 .0286179
703.483 .0285960
704.219 .0285745
704.955 .0285534
705.691 .0285323
706.427 .0285110
707.162 .0284893
707.897 .0284668
708.632 .0284436
709.367 .0284198
710.101 .0283953
710.835 .0283710
711.569 .0283467
712.303 .0283231
713.037 .0283001
713.770 .0282779
714.503 .0282558
715.236 .0282338
715.969 .0282114
716.702 .0281888
717.434 .0281660
718.166 .0281436
718.898 .0281211
719.629 .0280990
720.361 .0280774
721.092 .0280565
721.823 .0280357
722.554 .0280153
723.284 .0279946
724.014 .0279736
724.744 .0279518
725.474 .0279289
726.204 .0279052
726.933 .0278808
727.662 .0278552
728.391 .0278289
729.120 .0278020
729.849 .0277750
730.577 .0277483
731.305 .0277226
732.033 .0276974
732.760 .0276727
733.488 .0276488
734.215 .0276251
734.942 .0276014
735.669 .0275780
736.395 .0275546
737.122 .0275320
737.848 .0275104
738.573 .0274895
739.299 .0274702
740.024 .0274525
740.750 .0274357
741.474 .0274191
742.199 .0274022
742.924 .0273846
743.648 .0273659
744.372 .0273461
745.096 .0273264
745.819 .0273064
746.543 .0272873
747.266 .0272693
747.989 .0272527
748.711 .0272376
749.434 .0272236
750.156 .0272106
750.878 .0271981
751.599 .0271859
752.321 .0271745
753.042 .0271636
753.763 .0271542
754.484 .0271465
755.205 .0271401
755.925 .0271353
756.645 .0271320
757.365 .0271287
758.085 .0271254
758.804 .0271211
759.523 .0271155
760.242 .0271077
760.961 .0270981
761.679 .0270862
762.397 .0270725
763.115 .0270573
763.833 .0270406
764.551 .0270220
765.268 .0270025
765.985 .0269816
766.702 .0269592
767.418 .0269363
768.134 .0269126
768.850 .0268887
769.566 .0268655
770.282 .0268429
770.997 .0268216
771.712 .0268021
772.427 .0267852
773.142 .0267703
773.856 .0267574
774.570 .0267462
775.284 .0267361
775.998 .0267273
776.711 .0267195
777.424 .0267119
778.137 .0267052
778.849 .0266993
779.562 .0266934
780.274 .0266876
780.986 .0266815
781.697 .0266748
782.409 .0266675
783.120 .0266593
783.831 .0266499
784.541 .0266398
785.252 .0266296
785.962 .0266194
786.671 .0266095
787.381 .0266000
788.090 .0265908
788.799 .0265822
789.508 .0265741
790.217 .0265661
790.925 .0265581
791.633 .0265509
792.341 .0265440
793.048 .0265378
793.755 .0265323
794.462 .0265270
795.169 .0265223
795.875 .0265178
796.581 .0265129
797.287 .0265075
797.993 .0265018
798.698 .0264956
799.403 .0264889
800.108 .0264820
800.812 .0264745
801.517 .0264666
802.221 .0264588
802.924 .0264505
803.628 .0264412
804.331 .0264316
805.034 .0264218
805.736 .0264119
806.439 .0264023
807.141 .0263928
807.843 .0263839
808.544 .0263754
809.245 .0263668
809.946 .0263575
810.647 .0263478
811.347 .0263380
812.047 .0263275
812.747 .0263174
813.447 .0263079
814.146 .0262987
814.845 .0262908
815.543 .0262833
816.242 .0262764
816.940 .0262694
817.638 .0262615
818.335 .0262526
819.032 .0262429
819.729 .0262325
820.426 .0262214
821.122 .0262106
821.818 .0262005
822.514 .0261908
823.209 .0261813
823.905 .0261717
824.599 .0261610
825.294 .0261491
825.988 .0261354
826.682 .0261196
827.376 .0261024
828.069 .0260841
828.762 .0260651
829.455 .0260461
830.147 .0260275
830.840 .0260093
831.531 .0259912
832.223 .0259737
832.914 .0259561
833.605 .0259380
834.296 .0259199
834.986 .0259019
835.676 .0258843
836.366 .0258671
837.055 .0258503
837.744 .0258339
838.433 .0258179
839.121 .0258022
839.809 .0257865
840.497 .0257711
841.185 .0257559
841.872 .0257406
842.559 .0257254
843.245 .0257102
843.932 .0256950
844.617 .0256797
845.303 .0256645
845.988 .0256489
846.673 .0256329
847.358 .0256166
848.042 .0256001
848.726 .0255837
849.410 .0255674
850.093 .0255515
850.776 .0255360
851.459 .0255209
852.141 .0255061
852.823 .0254914
853.505 .0254774
854.186 .0254633
854.867 .0254491
855.548 .0254346
856.228 .0254201
856.908 .0254050
857.588 .0253896
858.267 .0253740
858.946 .0253579
859.625 .0253413
860.303 .0253245
860.981 .0253072
861.659 .0252897
862.336 .0252723
863.013 .0252549
863.690 .0252377
864.366 .0252211
865.042 .0252045
865.718 .0251882
866.393 .0251728
867.068 .0251580
867.743 .0251436
868.417 .0251301
869.091 .0251173
869.765 .0251051
870.438 .0250936
871.111 .0250827
871.783 .0250723
872.456 .0250624
873.127 .0250526
873.799 .0250424
874.470 .0250313
875.141 .0250196
875.811 .0250067
876.481 .0249924
877.151 .0249778
877.820 .0249621
878.489 .0249455
879.158 .0249286
879.826 .0249108
880.494 .0248922
881.162 .0248728
881.829 .0248527
882.496 .0248319
883.163 .0248106
883.829 .0247895
884.495 .0247685
885.160 .0247486
885.825 .0247303
886.490 .0247132
887.154 .0246976
887.818 .0246836
888.482 .0246705
889.145 .0246583
889.808 .0246470
890.471 .0246360
891.133 .0246256
891.795 .0246157
892.456 .0246062
893.117 .0245972
893.778 .0245888
894.439 .0245809
895.099 .0245733
895.758 .0245665
896.417 .0245597
897.076 .0245531
897.735 .0245467
898.393 .0245403
899.051 .0245337
899.708 .0245271
900.365 .0245203
901.022 .0245137
901.678 .0245073
902.334 .0245011
902.990 .0244951
903.645 .0244899
904.300 .0244847
904.954 .0244797
905.608 .0244745
906.262 .0244692
906.915 .0244635
907.568 .0244575
908.221 .0244514
908.873 .0244453
909.525 .0244392
910.176 .0244333
910.828 .0244275
911.478 .0244220
912.129 .0244163
912.778 .0244102
913.428 .0244038
914.077 .0243973
914.726 .0243908
915.375 .0243845
916.023 .0243793
916.670 .0243752
917.318 .0243720
917.964 .0243693
918.611 .0243669
919.257 .0243645
919.903 .0243619
920.548 .0243588
921.193 .0243550
921.838 .0243510
922.482 .0243467
923.126 .0243425
923.770 .0243388
924.413 .0243360
925.056 .0243336
925.698 .0243318
926.340 .0243305
926.982 .0243290
927.623 .0243273
928.264 .0243251
928.904 .0243222
929.544 .0243184
930.184 .0243136
930.823 .0243079
931.462 .0243020
932.101 .0242965
932.739 .0242910
933.377 .0242857
934.014 .0242807
934.651 .0242759
935.288 .0242708
935.924 .0242658
936.560 .0242606
937.196 .0242552
937.831 .0242496
938.466 .0242438
939.100 .0242380
939.734 .0242321
940.368 .0242261
941.001 .0242202
941.634 .0242142
942.266 .0242078
942.899 .0242004
943.530 .0241923
944.162 .0241829
944.793 .0241726
945.423 .0241610
946.053 .0241483
946.683 .0241345
947.313 .0241201
947.942 .0241048
948.571 .0240887
949.199 .0240719
949.827 .0240548
950.455 .0240378
951.082 .0240214
951.709 .0240056
952.335 .0239909
952.961 .0239775
953.587 .0239658
954.212 .0239550
954.837 .0239452
955.462 .0239360
956.086 .0239274
956.710 .0239189
957.334 .0239106
957.957 .0239026
958.579 .0238955
959.202 .0238892
959.824 .0238836
960.445 .0238787
961.067 .0238746
961.688 .0238709
962.308 .0238670
962.928 .0238629
963.548 .0238583
964.168 .0238527
964.787 .0238466
965.406 .0238403
966.024 .0238345
966.642 .0238293
967.260 .0238251
967.877 .0238219
968.494 .0238193
969.110 .0238174
969.727 .0238156
970.342 .0238136
970.958 .0238117
971.573 .0238088
972.188 .0238053
972.802 .0238016
973.416 .0237977
974.030 .0237937
974.643 .0237896
975.256 .0237856
975.869 .0237813
976.481 .0237765
977.093 .0237715
977.705 .0237660
978.316 .0237609
978.927 .0237557
979.538 .0237500
980.148 .0237446
980.758 .0237392
981.367 .0237336
981.977 .0237285
982.586 .0237237
983.194 .0237194
983.802 .0237154
984.410 .0237117
985.018 .0237085
985.625 .0237060
986.232 .0237042
986.838 .0237026
987.445 .0237008
988.050 .0236990
988.656 .0236963
989.261 .0236931
989.866 .0236890
990.471 .0236835
991.075 .0236773
991.679 .0236701
992.282 .0236623
992.886 .0236545
993.489 .0236472
994.091 .0236409
994.694 .0236357
995.296 .0236314
995.897 .0236276
996.499 .0236248
997.100 .0236230
997.701 .0236223
998.301 .0236230
998.901 .0236256
999.501 .0236297
1000.101 .0236355
1000.700 .0236425
1001.299 .0236494
1001.898 .0236561
1002.496 .0236620
1003.094 .0236660
1003.692 .0236685
1004.289 .0236688
1004.887 .0236676
1005.484 .0236654
1006.080 .0236621
1006.677 .0236573
1007.273 .0236507
1007.868 .0236425
1008.464 .0236323
1009.059 .0236198
1009.654 .0236063
1010.249 .0235926
1010.843 .0235797
1011.437 .0235682
1012.031 .0235579
1012.625 .0235491
1013.218 .0235417
1013.811 .0235349
1014.404 .0235284
1014.997 .0235220
1015.589 .0235153
1016.181 .0235086
1016.773 .0235018
1017.365 .0234958
1017.956 .0234901
1018.547 .0234855
1019.138 .0234813
1019.728 .0234769
1020.319 .0234723
1020.909 .0234672
1021.499 .0234616
1022.088 .0234558
1022.678 .0234492
1023.267 .0234421
1023.856 .0234347
1024.445 .0234270
1025.033 .0234188
1025.621 .0234103
1026.209 .0234014
1026.797 .0233922
1027.385 .0233820
1027.972 .0233708
1028.560 .0233585
1029.147 .0233459
1029.734 .0233335
1030.320 .0233212
1030.907 .0233096
1031.493 .0232987
1032.079 .0232885
1032.665 .0232792
1033.250 .0232702
1033.836 .0232619
1034.421 .0232541
1035.006 .0232469
1035.591 .0232405
1036.176 .0232348
1036.761 .0232296
1037.345 .0232249
1037.929 .0232205
1038.514 .0232158
1039.097 .0232105
1039.681 .0232046
1040.265 .0231982
1040.848 .0231916
1041.432 .0231850
1042.015 .0231785
1042.598 .0231715
1043.181 .0231653
1043.764 .0231585
1044.346 .0231508
1044.929 .0231418
1045.511 .0231316
1046.094 .0231201
1046.676 .0231083
1047.258 .0230963
1047.840 .0230856
1048.422 .0230758
1049.003 .0230677
1049.585 .0230600
1050.166 .0230526
1050.748 .0230445
1051.329 .0230352
1051.910 .0230251
1052.491 .0230151
1053.072 .0230035
1053.653 .0229922
1054.234 .0229813
1054.815 .0229716
1055.396 .0229628
1055.976 .0229545
1056.557 .0229468
1057.138 .0229396
1057.718 .0229322
1058.298 .0229249
1058.879 .0229167
1059.459 .0229078
1060.039 .0228967
1060.620 .0228828
1061.200 .0228667
1061.780 .0228485
1062.360 .0228280
1062.940 .0228077
1063.520 .0227879
1064.101 .0227696
1064.681 .0227520
1065.261 .0227363
1065.841 .0227225
1066.421 .0227096
1067.001 .0226973
1067.581 .0226853
1068.161 .0226732
1068.741 .0226626
1069.321 .0226524
1069.901 .0226448
1070.482 .0226399
1071.062 .0226382
1071.642 .0226374
1072.222 .0226387
1072.803 .0226398
1073.383 .0226402
1073.963 .0226383
1074.544 .0226360
1075.124 .0226326
1075.705 .0226291
1076.286 .0226270
1076.866 .0226266
1077.447 .0226275
1078.028 .0226297
1078.609 .0226302
1079.190 .0226299
1079.771 .0226273
1080.352 .0226229
1080.934 .0226162
1081.515 .0226109
1082.097 .0226071
1082.679 .0226045
1083.260 .0226043
1083.842 .0226067
1084.424 .0226090
1085.007 .0226092
1085.589 .0226058
1086.172 .0225977
1086.754 .0225852
1087.337 .0225679
1087.920 .0225475
1088.503 .0225274
1089.087 .0225097
1089.670 .0224941
1090.254 .0224812
1090.838 .0224697
1091.422 .0224588
1092.006 .0224460
1092.590 .0224323
1093.175 .0224151
1093.760 .0223952
1094.345 .0223733
1094.930 .0223514
1095.516 .0223304
1096.102 .0223131
1096.688 .0222982
1097.274 .0222893
1097.860 .0222844
1098.447 .0222835
1099.034 .0222837
1099.622 .0222858
1100.209 .0222875
1100.797 .0222883
1101.385 .0222873
1101.973 .0222854
1102.562 .0222815
1103.151 .0222787
1103.740 .0222757
1104.330 .0222740
1104.920 .0222743
1105.510 .0222770
1106.101 .0222797
1106.691 .0222831
1107.283 .0222852
1107.874 .0222864
1108.466 .0222873
1109.058 .0222895
1109.651 .0222950
1110.244 .0223048
1110.837 .0223219
1111.431 .0223444
1112.025 .0223710
1112.620 .0224039
1113.215 .0224381
1113.810 .0224741
1114.406 .0225103
1115.002 .0225438
1115.599 .0225748
1116.196 .0226014
1116.793 .0226263
1117.391 .0226474
1117.989 .0226644
1118.588 .0226778
1119.187 .0226840
1119.787 .0226854
1120.387 .0226828
1120.988 .0226757
1121.589 .0226690
1122.190 .0226627
1122.793 .0226569
1123.395 .0226539
1123.998 .0226551
1124.602 .0226632
1125.206 .0226770
1125.811 .0226989
1126.416 .0227300
1127.022 .0227654
1127.628 .0228056
1128.235 .0228491
1128.843 .0228916
1129.451 .0229337
1130.059 .0229688
1130.669 .0229971
1131.278 .0230202
1131.889 .0230344
1132.500 .0230453
1133.112 .0230527
1133.724 .0230610
1134.337 .0230714
1134.950 .0230826
1135.564 .0230971
1136.179 .0231153
1136.795 .0231406
1137.411 .0231739
1138.028 .0232147
1138.645 .0232689
1139.263 .0233332
1139.882 .0234079
1140.502 .0235004
1141.122 .0236164
1141.743 .0237478
1142.365 .0239042
1142.987 .0238580
1143.611 .0241815
1144.235 .0246192
1144.859 .0246597
1145.485 .0249817
