Measurement Sequence started on: 10-20-44-796
Integration time: 35
Scans to Average: 2 
>>>>>Begin Spectral Data<<<<<
432.953 .0313215
433.882 .0321172
434.810 .0287242
435.737 .0283157
436.662 .0288376
437.586 .0304062
438.509 .0305828
439.431 .0307581
440.351 .0309644
441.269 .0310907
442.187 .0311320
443.103 .0310955
444.018 .0310366
444.932 .0309964
445.844 .0309644
446.756 .0309526
447.666 .0309635
448.575 .0309970
449.482 .0310258
450.388 .0310679
451.294 .0311060
452.198 .0311438
453.100 .0311851
454.002 .0312382
454.902 .0312830
455.801 .0313405
456.699 .0314036
457.596 .0314765
458.492 .0315498
459.387 .0316349
460.280 .0317134
461.172 .0317849
462.064 .0318427
462.954 .0318833
463.843 .0319092
464.730 .0319273
465.617 .0319366
466.503 .0319418
467.387 .0319406
468.271 .0319332
469.153 .0319218
470.035 .0319150
470.915 .0319063
471.794 .0318959
472.673 .0318900
473.550 .0318889
474.426 .0318885
475.301 .0318888
476.175 .0318915
477.048 .0318916
477.920 .0318900
478.791 .0318813
479.661 .0318649
480.530 .0318457
481.398 .0318256
482.266 .0318049
483.132 .0317853
483.997 .0317671
484.861 .0317446
485.724 .0317223
486.587 .0317011
487.448 .0316709
488.308 .0316353
489.168 .0315968
490.026 .0315540
490.884 .0315045
491.741 .0314539
492.597 .0313998
493.452 .0313444
494.306 .0312910
495.159 .0312356
496.011 .0311777
496.862 .0311218
497.713 .0310653
498.562 .0310054
499.411 .0309441
500.259 .0308788
501.106 .0308085
501.952 .0307416
502.798 .0306778
503.642 .0306174
504.486 .0305585
505.329 .0305069
506.171 .0304554
507.012 .0304034
507.852 .0303480
508.692 .0302854
509.531 .0302153
510.369 .0301401
511.206 .0300567
512.043 .0299696
512.878 .0298814
513.713 .0297922
514.547 .0296967
515.381 .0295954
516.213 .0294820
517.045 .0293543
517.876 .0292100
518.706 .0290577
519.536 .0288941
520.365 .0287209
521.193 .0285427
522.020 .0283616
522.847 .0281792
523.673 .0279901
524.498 .0277843
525.323 .0275651
526.146 .0273285
526.969 .0270772
527.792 .0268188
528.614 .0265633
529.435 .0263196
530.255 .0260857
531.075 .0258711
531.894 .0256771
532.712 .0254990
533.530 .0253362
534.347 .0251879
535.163 .0250568
535.979 .0249496
536.794 .0248601
537.608 .0247966
538.422 .0247658
539.235 .0247671
540.048 .0247924
540.860 .0248415
541.671 .0249163
542.481 .0250138
543.292 .0251209
544.101 .0252393
544.910 .0253611
545.718 .0254843
546.526 .0256054
547.333 .0257192
548.139 .0258246
548.945 .0259203
549.750 .0260032
550.555 .0260765
551.359 .0261354
552.162 .0261804
552.965 .0262107
553.768 .0262293
554.569 .0262353
555.371 .0262276
556.171 .0262127
556.972 .0261909
557.771 .0261670
558.570 .0261371
559.369 .0261069
560.167 .0260794
560.964 .0260632
561.761 .0260590
562.558 .0260732
563.354 .0261108
564.149 .0261708
564.944 .0262500
565.738 .0263470
566.532 .0264565
567.325 .0265783
568.118 .0267012
568.910 .0268275
569.702 .0269471
570.494 .0270649
571.285 .0271772
572.075 .0272899
572.865 .0273971
573.654 .0275009
574.443 .0276012
575.232 .0276967
576.020 .0277869
576.807 .0278731
577.594 .0279523
578.381 .0280304
579.167 .0281066
579.952 .0281815
580.738 .0282554
581.522 .0283337
582.307 .0284107
583.091 .0284897
583.874 .0285653
584.657 .0286363
585.440 .0286986
586.222 .0287560
587.004 .0288055
587.785 .0288468
588.566 .0288837
589.346 .0289154
590.126 .0289429
590.906 .0289676
591.685 .0289888
592.464 .0290068
593.242 .0290224
594.020 .0290338
594.797 .0290405
595.575 .0290439
596.351 .0290444
597.128 .0290434
597.904 .0290419
598.679 .0290410
599.454 .0290406
600.229 .0290407
601.004 .0290420
601.778 .0290421
602.551 .0290425
603.325 .0290402
604.097 .0290366
604.870 .0290314
605.642 .0290246
606.414 .0290176
607.185 .0290107
607.956 .0290055
608.727 .0290017
609.497 .0289994
610.267 .0289976
611.037 .0289946
611.806 .0289906
612.575 .0289835
613.344 .0289730
614.112 .0289586
614.880 .0289410
615.647 .0289216
616.414 .0289022
617.181 .0288826
617.948 .0288635
618.714 .0288457
619.480 .0288276
620.245 .0288101
621.011 .0287920
621.775 .0287736
622.540 .0287552
623.304 .0287368
624.068 .0287194
624.832 .0287015
625.595 .0286852
626.358 .0286698
627.120 .0286558
627.883 .0286440
628.645 .0286317
629.406 .0286203
630.168 .0286095
630.929 .0285984
631.689 .0285866
632.450 .0285734
633.210 .0285598
633.970 .0285440
634.729 .0285264
635.489 .0285055
636.248 .0284832
637.006 .0284597
637.765 .0284356
638.523 .0284105
639.280 .0283860
640.038 .0283621
640.795 .0283386
641.552 .0283150
642.309 .0282913
643.065 .0282676
643.821 .0282443
644.577 .0282197
645.332 .0281963
646.088 .0281725
646.843 .0281498
647.597 .0281275
648.352 .0281065
649.106 .0280868
649.860 .0280687
650.613 .0280526
651.367 .0280387
652.120 .0280270
652.872 .0280174
653.625 .0280083
654.377 .0280004
655.129 .0279918
655.881 .0279824
656.632 .0279712
657.384 .0279588
658.135 .0279454
658.885 .0279310
659.636 .0279165
660.386 .0279022
661.136 .0278882
661.885 .0278745
662.635 .0278605
663.384 .0278463
664.133 .0278314
664.881 .0278161
665.630 .0277994
666.378 .0277824
667.126 .0277654
667.874 .0277488
668.621 .0277331
669.368 .0277189
670.115 .0277062
670.862 .0276951
671.608 .0276852
672.354 .0276766
673.100 .0276691
673.846 .0276631
674.591 .0276578
675.337 .0276534
676.082 .0276498
676.826 .0276471
677.571 .0276447
678.315 .0276425
679.059 .0276400
679.803 .0276368
680.547 .0276324
681.290 .0276266
682.033 .0276192
682.776 .0276105
683.518 .0276002
684.261 .0275889
685.003 .0275761
685.745 .0275620
686.487 .0275469
687.228 .0275302
687.969 .0275129
688.710 .0274944
689.451 .0274744
690.192 .0274536
690.932 .0274327
691.672 .0274124
692.412 .0273929
693.152 .0273754
693.891 .0273588
694.630 .0273436
695.369 .0273298
696.108 .0273160
696.846 .0273017
697.585 .0272877
698.323 .0272734
699.061 .0272592
699.798 .0272456
700.536 .0272326
701.273 .0272206
702.010 .0272106
702.746 .0272007
703.483 .0271909
704.219 .0271804
704.955 .0271690
705.691 .0271550
706.427 .0271398
707.162 .0271224
707.897 .0271042
708.632 .0270860
709.367 .0270688
710.101 .0270518
710.835 .0270358
711.569 .0270196
712.303 .0270041
713.037 .0269885
713.770 .0269722
714.503 .0269543
715.236 .0269365
715.969 .0269178
716.702 .0268988
717.434 .0268804
718.166 .0268633
718.898 .0268469
719.629 .0268315
720.361 .0268154
721.092 .0267989
721.823 .0267815
722.554 .0267628
723.284 .0267420
724.014 .0267198
724.744 .0266954
725.474 .0266696
726.204 .0266430
726.933 .0266169
727.662 .0265908
728.391 .0265656
729.120 .0265411
729.849 .0265172
730.577 .0264935
731.305 .0264701
732.033 .0264471
732.760 .0264249
733.488 .0264028
734.215 .0263816
734.942 .0263614
735.669 .0263422
736.395 .0263235
737.122 .0263060
737.848 .0262882
738.573 .0262703
739.299 .0262519
740.024 .0262324
740.750 .0262124
741.474 .0261924
742.199 .0261721
742.924 .0261523
743.648 .0261332
744.372 .0261150
745.096 .0260981
745.819 .0260825
746.543 .0260673
747.266 .0260525
747.989 .0260385
748.711 .0260253
749.434 .0260128
750.156 .0260010
750.878 .0259905
751.599 .0259819
752.321 .0259753
753.042 .0259703
753.763 .0259674
754.484 .0259661
755.205 .0259658
755.925 .0259663
756.645 .0259668
757.365 .0259668
758.085 .0259671
758.804 .0259673
759.523 .0259667
760.242 .0259653
760.961 .0259630
761.679 .0259598
762.397 .0259560
763.115 .0259506
763.833 .0259427
764.551 .0259327
765.268 .0259206
765.985 .0259057
766.702 .0258883
767.418 .0258697
768.134 .0258496
768.850 .0258289
769.566 .0258084
770.282 .0257878
770.997 .0257677
771.712 .0257488
772.427 .0257308
773.142 .0257136
773.856 .0256962
774.570 .0256793
775.284 .0256628
775.998 .0256477
776.711 .0256340
777.424 .0256215
778.137 .0256108
778.849 .0256021
779.562 .0255941
780.274 .0255870
780.986 .0255801
781.697 .0255733
782.409 .0255658
783.120 .0255575
783.831 .0255488
784.541 .0255395
785.252 .0255311
785.962 .0255232
786.671 .0255157
787.381 .0255090
788.090 .0255024
788.799 .0254953
789.508 .0254875
790.217 .0254787
790.925 .0254690
791.633 .0254579
792.341 .0254462
793.048 .0254330
793.755 .0254193
794.462 .0254054
795.169 .0253913
795.875 .0253777
796.581 .0253649
797.287 .0253523
797.993 .0253400
798.698 .0253282
799.403 .0253162
800.108 .0253035
800.812 .0252905
801.517 .0252769
802.221 .0252626
802.924 .0252477
803.628 .0252328
804.331 .0252189
805.034 .0252068
805.736 .0251958
806.439 .0251859
807.141 .0251774
807.843 .0251702
808.544 .0251634
809.245 .0251560
809.946 .0251484
810.647 .0251407
811.347 .0251323
812.047 .0251235
812.747 .0251144
813.447 .0251053
814.146 .0250966
814.845 .0250885
815.543 .0250808
816.242 .0250733
816.940 .0250664
817.638 .0250594
818.335 .0250520
819.032 .0250440
819.729 .0250345
820.426 .0250241
821.122 .0250129
821.818 .0250010
822.514 .0249879
823.209 .0249749
823.905 .0249624
824.599 .0249498
825.294 .0249374
825.988 .0249245
826.682 .0249112
827.376 .0248977
828.069 .0248833
828.762 .0248681
829.455 .0248524
830.147 .0248371
830.840 .0248217
831.531 .0248063
832.223 .0247911
832.914 .0247763
833.605 .0247619
834.296 .0247478
834.986 .0247336
835.676 .0247196
836.366 .0247060
837.055 .0246925
837.744 .0246791
838.433 .0246659
839.121 .0246528
839.809 .0246401
840.497 .0246275
841.185 .0246151
841.872 .0246022
842.559 .0245898
843.245 .0245772
843.932 .0245641
844.617 .0245503
845.303 .0245360
845.988 .0245211
846.673 .0245057
847.358 .0244892
848.042 .0244725
848.726 .0244564
849.410 .0244409
850.093 .0244258
850.776 .0244116
851.459 .0243977
852.141 .0243841
852.823 .0243702
853.505 .0243563
854.186 .0243415
854.867 .0243265
855.548 .0243119
856.228 .0242979
856.908 .0242854
857.588 .0242746
858.267 .0242656
858.946 .0242582
859.625 .0242512
860.303 .0242441
860.981 .0242365
861.659 .0242280
862.336 .0242183
863.013 .0242078
863.690 .0241967
864.366 .0241852
865.042 .0241737
865.718 .0241630
866.393 .0241529
867.068 .0241425
867.743 .0241318
868.417 .0241204
869.091 .0241088
869.765 .0240970
870.438 .0240857
871.111 .0240754
871.783 .0240661
872.456 .0240581
873.127 .0240503
873.799 .0240429
874.470 .0240350
875.141 .0240261
875.811 .0240162
876.481 .0240053
877.151 .0239938
877.820 .0239818
878.489 .0239710
879.158 .0239616
879.826 .0239524
880.494 .0239439
881.162 .0239351
881.829 .0239260
882.496 .0239155
883.163 .0239041
883.829 .0238917
884.495 .0238793
885.160 .0238672
885.825 .0238562
886.490 .0238461
887.154 .0238379
887.818 .0238307
888.482 .0238243
889.145 .0238185
889.808 .0238127
890.471 .0238065
891.133 .0238008
891.795 .0237948
892.456 .0237893
893.117 .0237834
893.778 .0237783
894.439 .0237730
895.099 .0237679
895.758 .0237624
896.417 .0237564
897.076 .0237503
897.735 .0237440
898.393 .0237377
899.051 .0237313
899.708 .0237244
900.365 .0237170
901.022 .0237089
901.678 .0237005
902.334 .0236916
902.990 .0236829
903.645 .0236743
904.300 .0236667
904.954 .0236600
905.608 .0236543
906.262 .0236495
906.915 .0236459
907.568 .0236427
908.221 .0236394
908.873 .0236361
909.525 .0236324
910.176 .0236285
910.828 .0236244
911.478 .0236199
912.129 .0236147
912.778 .0236090
913.428 .0236032
914.077 .0235962
914.726 .0235888
915.375 .0235808
916.023 .0235720
916.670 .0235627
917.318 .0235529
917.964 .0235427
918.611 .0235323
919.257 .0235223
919.903 .0235124
920.548 .0235026
921.193 .0234936
921.838 .0234851
922.482 .0234776
923.126 .0234711
923.770 .0234654
924.413 .0234596
925.056 .0234547
925.698 .0234507
926.340 .0234472
926.982 .0234442
927.623 .0234419
928.264 .0234399
928.904 .0234376
929.544 .0234350
930.184 .0234314
930.823 .0234266
931.462 .0234203
932.101 .0234121
932.739 .0234021
933.377 .0233908
934.014 .0233789
934.651 .0233671
935.288 .0233552
935.924 .0233434
936.560 .0233310
937.196 .0233184
937.831 .0233054
938.466 .0232921
939.100 .0232787
939.734 .0232653
940.368 .0232524
941.001 .0232403
941.634 .0232290
942.266 .0232193
942.899 .0232109
943.530 .0232034
944.162 .0231962
944.793 .0231884
945.423 .0231796
946.053 .0231696
946.683 .0231584
947.313 .0231461
947.942 .0231325
948.571 .0231179
949.199 .0231022
949.827 .0230859
950.455 .0230692
951.082 .0230523
951.709 .0230352
952.335 .0230187
952.961 .0230027
953.587 .0229871
954.212 .0229725
954.837 .0229590
955.462 .0229471
956.086 .0229365
956.710 .0229266
957.334 .0229177
957.957 .0229089
958.579 .0229009
959.202 .0228931
959.824 .0228860
960.445 .0228797
961.067 .0228738
961.688 .0228685
962.308 .0228635
962.928 .0228584
963.548 .0228530
964.168 .0228467
964.787 .0228391
965.406 .0228301
966.024 .0228198
966.642 .0228088
967.260 .0227978
967.877 .0227867
968.494 .0227767
969.110 .0227670
969.727 .0227579
970.342 .0227496
970.958 .0227412
971.573 .0227334
972.188 .0227258
972.802 .0227180
973.416 .0227102
974.030 .0227024
974.643 .0226948
975.256 .0226876
975.869 .0226806
976.481 .0226739
977.093 .0226672
977.705 .0226613
978.316 .0226564
978.927 .0226522
979.538 .0226489
980.148 .0226463
980.758 .0226433
981.367 .0226408
981.977 .0226374
982.586 .0226335
983.194 .0226294
983.802 .0226249
984.410 .0226205
985.018 .0226166
985.625 .0226143
986.232 .0226146
986.838 .0226170
987.445 .0226213
988.050 .0226260
988.656 .0226305
989.261 .0226339
989.866 .0226346
990.471 .0226332
991.075 .0226291
991.679 .0226229
992.282 .0226154
992.886 .0226071
993.489 .0225991
994.091 .0225919
994.694 .0225846
995.296 .0225772
995.897 .0225680
996.499 .0225554
997.100 .0225392
997.701 .0225201
998.301 .0224988
998.901 .0224762
999.501 .0224543
1000.101 .0224349
1000.700 .0224189
1001.299 .0224068
1001.898 .0223981
1002.496 .0223927
1003.094 .0223891
1003.692 .0223859
1004.289 .0223827
1004.887 .0223800
1005.484 .0223782
1006.080 .0223779
1006.677 .0223801
1007.273 .0223849
1007.868 .0223920
1008.464 .0224001
1009.059 .0224085
1009.654 .0224160
1010.249 .0224209
1010.843 .0224225
1011.437 .0224216
1012.031 .0224183
1012.625 .0224133
1013.218 .0224077
1013.811 .0224024
1014.404 .0223974
1014.997 .0223926
1015.589 .0223872
1016.181 .0223816
1016.773 .0223754
1017.365 .0223685
1017.956 .0223608
1018.547 .0223538
1019.138 .0223479
1019.728 .0223434
1020.319 .0223411
1020.909 .0223409
1021.499 .0223415
1022.088 .0223429
1022.678 .0223441
1023.267 .0223460
1023.856 .0223479
1024.445 .0223500
1025.033 .0223518
1025.621 .0223531
1026.209 .0223534
1026.797 .0223512
1027.385 .0223467
1027.972 .0223401
1028.560 .0223305
1029.147 .0223188
1029.734 .0223061
1030.320 .0222938
1030.907 .0222831
1031.493 .0222747
1032.079 .0222685
1032.665 .0222642
1033.250 .0222595
1033.836 .0222544
1034.421 .0222473
1035.006 .0222395
1035.591 .0222319
1036.176 .0222246
1036.761 .0222204
1037.345 .0222193
1037.929 .0222220
1038.514 .0222285
1039.097 .0222380
1039.681 .0222495
1040.265 .0222605
1040.848 .0222701
1041.432 .0222780
1042.015 .0222835
1042.598 .0222877
1043.181 .0222923
1043.764 .0222976
1044.346 .0223044
1044.929 .0223136
1045.511 .0223235
1046.094 .0223361
1046.676 .0223489
1047.258 .0223610
1047.840 .0223709
1048.422 .0223792
1049.003 .0223850
1049.585 .0223868
1050.166 .0223856
1050.748 .0223821
1051.329 .0223747
1051.910 .0223667
1052.491 .0223551
1053.072 .0223427
1053.653 .0223290
1054.234 .0223149
1054.815 .0222984
1055.396 .0222830
1055.976 .0222661
1056.557 .0222496
1057.138 .0222337
1057.718 .0222187
1058.298 .0222039
1058.879 .0221914
1059.459 .0221809
1060.039 .0221739
1060.620 .0221677
1061.200 .0221640
1061.780 .0221592
1062.360 .0221562
1062.940 .0221526
1063.520 .0221485
1064.101 .0221444
1064.681 .0221406
1065.261 .0221369
1065.841 .0221332
1066.421 .0221281
1067.001 .0221242
1067.581 .0221184
1068.161 .0221105
1068.741 .0221000
1069.321 .0220880
1069.901 .0220734
1070.482 .0220596
1071.062 .0220461
1071.642 .0220329
1072.222 .0220217
1072.803 .0220116
1073.383 .0220020
1073.963 .0219942
1074.544 .0219883
1075.124 .0219830
1075.705 .0219779
1076.286 .0219735
1076.866 .0219678
1077.447 .0219631
1078.028 .0219593
1078.609 .0219537
1079.190 .0219483
1079.771 .0219428
1080.352 .0219375
1080.934 .0219331
1081.515 .0219324
1082.097 .0219353
1082.679 .0219414
1083.260 .0219492
1083.842 .0219571
1084.424 .0219653
1085.007 .0219722
1085.589 .0219767
1086.172 .0219797
1086.754 .0219802
1087.337 .0219800
1087.920 .0219795
1088.503 .0219796
1089.087 .0219816
1089.670 .0219848
1090.254 .0219864
1090.838 .0219861
1091.422 .0219836
1092.006 .0219776
1092.590 .0219677
1093.175 .0219573
1093.760 .0219442
1094.345 .0219286
1094.930 .0219112
1095.516 .0218916
1096.102 .0218692
1096.688 .0218480
1097.274 .0218276
1097.860 .0218101
1098.447 .0217981
1099.034 .0217904
1099.622 .0217865
1100.209 .0217881
1100.797 .0217920
1101.385 .0217977
1101.973 .0218001
1102.562 .0218008
1103.151 .0217978
1103.740 .0217933
1104.330 .0217874
1104.920 .0217857
1105.510 .0217905
1106.101 .0218031
1106.691 .0218208
1107.283 .0218441
1107.874 .0218673
1108.466 .0218882
1109.058 .0219022
1109.651 .0219070
1110.244 .0219032
1110.837 .0218933
1111.431 .0218755
1112.025 .0218611
1112.620 .0218512
1113.215 .0218489
1113.810 .0218539
1114.406 .0218667
1115.002 .0218800
1115.599 .0218926
1116.196 .0219001
1116.793 .0219021
1117.391 .0218993
1117.989 .0218936
1118.588 .0218879
1119.187 .0218848
1119.787 .0218874
1120.387 .0218943
1120.988 .0219052
1121.589 .0219233
1122.190 .0219421
1122.793 .0219629
1123.395 .0219823
1123.998 .0220030
1124.602 .0220244
1125.206 .0220452
1125.811 .0220657
1126.416 .0220845
1127.022 .0221036
1127.628 .0221182
1128.235 .0221308
1128.843 .0221400
1129.451 .0221496
1130.059 .0221627
1130.669 .0221761
1131.278 .0221962
1131.889 .0222156
1132.500 .0222363
1133.112 .0222540
1133.724 .0222682
1134.337 .0222802
1134.950 .0222881
1135.564 .0223011
1136.179 .0223181
1136.795 .0223480
1137.411 .0223949
1138.028 .0224573
1138.645 .0225411
1139.263 .0226403
1139.882 .0227491
1140.502 .0228715
1141.122 .0230119
1141.743 .0231777
1142.365 .0233746
1142.987 .0233201
1143.611 .0236733
1144.235 .0240421
1144.859 .0245056
1145.485 .0249512
