Measurement Sequence started on: 10-20-44-796
Integration time: 35
Scans to Average: 2 
>>>>>Begin Spectral Data<<<<<
432.953 .0411879
433.882 .0422416
434.810 .0386749
435.737 .0370417
436.662 .0344926
437.586 .0353634
438.509 .0345006
439.431 .0337511
440.351 .0332187
441.269 .0328194
442.187 .0325387
443.103 .0323045
444.018 .0321459
444.932 .0320366
445.844 .0319606
446.756 .0318977
447.666 .0318475
448.575 .0317946
449.482 .0317421
450.388 .0316863
451.294 .0316293
452.198 .0315895
453.100 .0315591
454.002 .0315454
454.902 .0315495
455.801 .0315543
456.699 .0315544
457.596 .0315458
458.492 .0315191
459.387 .0314767
460.280 .0314294
461.172 .0313769
462.064 .0313296
462.954 .0312920
463.843 .0312717
464.730 .0312715
465.617 .0312886
466.503 .0313143
467.387 .0313379
468.271 .0313560
469.153 .0313586
470.035 .0313417
470.915 .0313178
471.794 .0312895
472.673 .0312674
473.550 .0312569
474.426 .0312619
475.301 .0312804
476.175 .0313091
477.048 .0313418
477.920 .0313693
478.791 .0313869
479.661 .0313891
480.530 .0313755
481.398 .0313525
482.266 .0313234
483.132 .0312932
483.997 .0312664
484.861 .0312460
485.724 .0312295
486.587 .0312129
487.448 .0311934
488.308 .0311679
489.168 .0311354
490.026 .0310962
490.884 .0310498
491.741 .0309986
492.597 .0309459
493.452 .0308923
494.306 .0308397
495.159 .0307897
496.011 .0307400
496.862 .0306908
497.713 .0306406
498.562 .0305891
499.411 .0305353
500.259 .0304815
501.106 .0304247
501.952 .0303634
502.798 .0302974
503.642 .0302250
504.486 .0301462
505.329 .0300636
506.171 .0299781
507.012 .0298931
507.852 .0298089
508.692 .0297280
509.531 .0296461
510.369 .0295645
511.206 .0294811
512.043 .0293901
512.878 .0292911
513.713 .0291826
514.547 .0290623
515.381 .0289386
516.213 .0288114
517.045 .0286834
517.876 .0285539
518.706 .0284222
519.536 .0282849
520.365 .0281368
521.193 .0279783
522.020 .0278066
522.847 .0276203
523.673 .0274293
524.498 .0272340
525.323 .0270397
526.146 .0268573
526.969 .0266887
527.792 .0265366
528.614 .0264019
529.435 .0262803
530.255 .0261736
531.075 .0260766
531.894 .0259908
532.712 .0259088
533.530 .0258288
534.347 .0257543
535.163 .0256763
535.979 .0256053
536.794 .0255432
537.608 .0254879
538.422 .0254482
539.235 .0254235
540.048 .0254064
540.860 .0253950
541.671 .0253881
542.481 .0253778
543.292 .0253643
544.101 .0253432
544.910 .0253115
545.718 .0252776
546.526 .0252474
547.333 .0252242
548.139 .0252105
548.945 .0252179
549.750 .0252367
550.555 .0252668
551.359 .0253101
552.162 .0253558
552.965 .0254060
553.768 .0254589
554.569 .0255071
555.371 .0255502
556.171 .0255924
556.972 .0256341
557.771 .0256764
558.570 .0257241
559.369 .0257734
560.167 .0258246
560.964 .0258787
561.761 .0259337
562.558 .0259850
563.354 .0260368
564.149 .0260881
564.944 .0261338
565.738 .0261820
566.532 .0262324
567.325 .0262889
568.118 .0263554
568.910 .0264327
569.702 .0265178
570.494 .0266107
571.285 .0267081
572.075 .0268089
572.865 .0269091
573.654 .0270085
574.443 .0271046
575.232 .0271985
576.020 .0272890
576.807 .0273782
577.594 .0274664
578.381 .0275552
579.167 .0276405
579.952 .0277238
580.738 .0278048
581.522 .0278830
582.307 .0279569
583.091 .0280278
583.874 .0280955
584.657 .0281601
585.440 .0282184
586.222 .0282713
587.004 .0283192
587.785 .0283629
588.566 .0284014
589.346 .0284354
590.126 .0284655
590.906 .0284925
591.685 .0285156
592.464 .0285362
593.242 .0285533
594.020 .0285668
594.797 .0285762
595.575 .0285818
596.351 .0285835
597.128 .0285815
597.904 .0285764
598.679 .0285703
599.454 .0285633
600.229 .0285563
601.004 .0285487
601.778 .0285418
602.551 .0285352
603.325 .0285286
604.097 .0285219
604.870 .0285151
605.642 .0285076
606.414 .0284996
607.185 .0284906
607.956 .0284808
608.727 .0284708
609.497 .0284600
610.267 .0284481
611.037 .0284349
611.806 .0284198
612.575 .0284026
613.344 .0283834
614.112 .0283633
614.880 .0283414
615.647 .0283188
616.414 .0282958
617.181 .0282713
617.948 .0282471
618.714 .0282228
619.480 .0281989
620.245 .0281756
621.011 .0281525
621.775 .0281301
622.540 .0281083
623.304 .0280879
624.068 .0280681
624.832 .0280500
625.595 .0280339
626.358 .0280185
627.120 .0280037
627.883 .0279893
628.645 .0279749
629.406 .0279603
630.168 .0279457
630.929 .0279306
631.689 .0279157
632.450 .0279009
633.210 .0278864
633.970 .0278723
634.729 .0278578
635.489 .0278431
636.248 .0278270
637.006 .0278100
637.765 .0277916
638.523 .0277728
639.280 .0277548
640.038 .0277378
640.795 .0277231
641.552 .0277094
642.309 .0276969
643.065 .0276852
643.821 .0276728
644.577 .0276596
645.332 .0276451
646.088 .0276294
646.843 .0276125
647.597 .0275955
648.352 .0275790
649.106 .0275639
649.860 .0275502
650.613 .0275379
651.367 .0275264
652.120 .0275156
652.872 .0275045
653.625 .0274928
654.377 .0274808
655.129 .0274682
655.881 .0274551
656.632 .0274427
657.384 .0274305
658.135 .0274199
658.885 .0274110
659.636 .0274040
660.386 .0273987
661.136 .0273950
661.885 .0273927
662.635 .0273911
663.384 .0273900
664.133 .0273886
664.881 .0273861
665.630 .0273832
666.378 .0273792
667.126 .0273742
667.874 .0273689
668.621 .0273633
669.368 .0273572
670.115 .0273506
670.862 .0273432
671.608 .0273351
672.354 .0273262
673.100 .0273158
673.846 .0273040
674.591 .0272910
675.337 .0272768
676.082 .0272622
676.826 .0272476
677.571 .0272329
678.315 .0272179
679.059 .0272032
679.803 .0271887
680.547 .0271742
681.290 .0271596
682.033 .0271446
682.776 .0271295
683.518 .0271140
684.261 .0270973
685.003 .0270803
685.745 .0270639
686.487 .0270476
687.228 .0270318
687.969 .0270166
688.710 .0270021
689.451 .0269876
690.192 .0269732
690.932 .0269582
691.672 .0269420
692.412 .0269247
693.152 .0269059
693.891 .0268861
694.630 .0268661
695.369 .0268454
696.108 .0268246
696.846 .0268042
697.585 .0267834
698.323 .0267617
699.061 .0267397
699.798 .0267167
700.536 .0266929
701.273 .0266683
702.010 .0266438
702.746 .0266196
703.483 .0265964
704.219 .0265745
704.955 .0265541
705.691 .0265352
706.427 .0265172
707.162 .0265000
707.897 .0264840
708.632 .0264686
709.367 .0264539
710.101 .0264397
710.835 .0264267
711.569 .0264140
712.303 .0264019
713.037 .0263898
713.770 .0263781
714.503 .0263660
715.236 .0263539
715.969 .0263419
716.702 .0263305
717.434 .0263197
718.166 .0263097
718.898 .0263004
719.629 .0262917
720.361 .0262828
721.092 .0262737
721.823 .0262641
722.554 .0262538
723.284 .0262424
724.014 .0262304
724.744 .0262182
725.474 .0262061
726.204 .0261937
726.933 .0261815
727.662 .0261694
728.391 .0261571
729.120 .0261446
729.849 .0261322
730.577 .0261200
731.305 .0261084
732.033 .0260969
732.760 .0260853
733.488 .0260736
734.215 .0260618
734.942 .0260492
735.669 .0260357
736.395 .0260217
737.122 .0260072
737.848 .0259924
738.573 .0259781
739.299 .0259650
740.024 .0259528
740.750 .0259419
741.474 .0259318
742.199 .0259218
742.924 .0259117
743.648 .0259012
744.372 .0258902
745.096 .0258793
745.819 .0258685
746.543 .0258581
747.266 .0258487
747.989 .0258414
748.711 .0258355
749.434 .0258308
750.156 .0258274
750.878 .0258247
751.599 .0258219
752.321 .0258189
753.042 .0258151
753.763 .0258109
754.484 .0258063
755.205 .0258012
755.925 .0257959
756.645 .0257906
757.365 .0257853
758.085 .0257798
758.804 .0257737
759.523 .0257668
760.242 .0257586
760.961 .0257490
761.679 .0257380
762.397 .0257254
763.115 .0257113
763.833 .0256958
764.551 .0256793
765.268 .0256617
765.985 .0256425
766.702 .0256218
767.418 .0255997
768.134 .0255765
768.850 .0255526
769.566 .0255287
770.282 .0255058
770.997 .0254838
771.712 .0254634
772.427 .0254441
773.142 .0254264
773.856 .0254097
774.570 .0253932
775.284 .0253765
775.998 .0253590
776.711 .0253408
777.424 .0253222
778.137 .0253035
778.849 .0252853
779.562 .0252670
780.274 .0252490
780.986 .0252312
781.697 .0252133
782.409 .0251951
783.120 .0251768
783.831 .0251582
784.541 .0251393
785.252 .0251204
785.962 .0251021
786.671 .0250846
787.381 .0250683
788.090 .0250537
788.799 .0250398
789.508 .0250263
790.217 .0250135
790.925 .0250007
791.633 .0249879
792.341 .0249748
793.048 .0249611
793.755 .0249465
794.462 .0249316
795.169 .0249156
795.875 .0248990
796.581 .0248824
797.287 .0248656
797.993 .0248481
798.698 .0248307
799.403 .0248138
800.108 .0247968
800.812 .0247805
801.517 .0247652
802.221 .0247507
802.924 .0247372
803.628 .0247251
804.331 .0247147
805.034 .0247064
805.736 .0247000
806.439 .0246951
807.141 .0246919
807.843 .0246898
808.544 .0246885
809.245 .0246870
809.946 .0246853
810.647 .0246833
811.347 .0246807
812.047 .0246778
812.747 .0246752
813.447 .0246725
814.146 .0246699
814.845 .0246672
815.543 .0246643
816.242 .0246605
816.940 .0246557
817.638 .0246497
818.335 .0246423
819.032 .0246341
819.729 .0246252
820.426 .0246157
821.122 .0246068
821.818 .0245980
822.514 .0245890
823.209 .0245800
823.905 .0245710
824.599 .0245609
825.294 .0245505
825.988 .0245394
826.682 .0245277
827.376 .0245158
828.069 .0245040
828.762 .0244921
829.455 .0244806
830.147 .0244695
830.840 .0244584
831.531 .0244476
832.223 .0244374
832.914 .0244269
833.605 .0244171
834.296 .0244080
834.986 .0243997
835.676 .0243923
836.366 .0243861
837.055 .0243806
837.744 .0243761
838.433 .0243719
839.121 .0243677
839.809 .0243637
840.497 .0243601
841.185 .0243565
841.872 .0243531
842.559 .0243503
843.245 .0243480
843.932 .0243460
844.617 .0243447
845.303 .0243432
845.988 .0243413
846.673 .0243386
847.358 .0243349
848.042 .0243301
848.726 .0243243
849.410 .0243178
850.093 .0243113
850.776 .0243052
851.459 .0242995
852.141 .0242939
852.823 .0242886
853.505 .0242833
854.186 .0242772
854.867 .0242699
855.548 .0242613
856.228 .0242515
856.908 .0242411
857.588 .0242306
858.267 .0242201
858.946 .0242100
859.625 .0242006
860.303 .0241915
860.981 .0241823
861.659 .0241725
862.336 .0241618
863.013 .0241501
863.690 .0241378
864.366 .0241249
865.042 .0241119
865.718 .0240995
866.393 .0240879
867.068 .0240771
867.743 .0240668
868.417 .0240569
869.091 .0240468
869.765 .0240366
870.438 .0240261
871.111 .0240152
871.783 .0240040
872.456 .0239928
873.127 .0239821
873.799 .0239717
874.470 .0239616
875.141 .0239517
875.811 .0239420
876.481 .0239320
877.151 .0239215
877.820 .0239106
878.489 .0238988
879.158 .0238868
879.826 .0238739
880.494 .0238602
881.162 .0238457
881.829 .0238306
882.496 .0238146
883.163 .0237983
883.829 .0237820
884.495 .0237657
885.160 .0237499
885.825 .0237351
886.490 .0237210
887.154 .0237077
887.818 .0236953
888.482 .0236834
889.145 .0236718
889.808 .0236609
890.471 .0236501
891.133 .0236400
891.795 .0236304
892.456 .0236215
893.117 .0236128
893.778 .0236047
894.439 .0235965
895.099 .0235877
895.758 .0235780
896.417 .0235673
897.076 .0235551
897.735 .0235419
898.393 .0235275
899.051 .0235128
899.708 .0234980
900.365 .0234837
901.022 .0234698
901.678 .0234564
902.334 .0234434
902.990 .0234306
903.645 .0234179
904.300 .0234055
904.954 .0233929
905.608 .0233808
906.262 .0233692
906.915 .0233586
907.568 .0233488
908.221 .0233398
908.873 .0233314
909.525 .0233232
910.176 .0233145
910.828 .0233053
911.478 .0232949
912.129 .0232840
912.778 .0232723
913.428 .0232602
914.077 .0232479
914.726 .0232358
915.375 .0232240
916.023 .0232125
916.670 .0232012
917.318 .0231898
917.964 .0231779
918.611 .0231659
919.257 .0231536
919.903 .0231411
920.548 .0231288
921.193 .0231169
921.838 .0231056
922.482 .0230954
923.126 .0230859
923.770 .0230768
924.413 .0230682
925.056 .0230598
925.698 .0230511
926.340 .0230421
926.982 .0230330
927.623 .0230238
928.264 .0230149
928.904 .0230063
929.544 .0229981
930.184 .0229904
930.823 .0229831
931.462 .0229757
932.101 .0229681
932.739 .0229599
933.377 .0229508
934.014 .0229407
934.651 .0229304
935.288 .0229197
935.924 .0229095
936.560 .0228995
937.196 .0228905
937.831 .0228820
938.466 .0228736
939.100 .0228649
939.734 .0228556
940.368 .0228455
941.001 .0228342
941.634 .0228217
942.266 .0228087
942.899 .0227956
943.530 .0227830
944.162 .0227712
944.793 .0227602
945.423 .0227496
946.053 .0227394
946.683 .0227286
947.313 .0227172
947.942 .0227047
948.571 .0226909
949.199 .0226761
949.827 .0226605
950.455 .0226446
951.082 .0226290
951.709 .0226141
952.335 .0226004
952.961 .0225877
953.587 .0225758
954.212 .0225639
954.837 .0225520
955.462 .0225397
956.086 .0225272
956.710 .0225146
957.334 .0225024
957.957 .0224908
958.579 .0224800
959.202 .0224701
959.824 .0224613
960.445 .0224539
961.067 .0224478
961.688 .0224425
962.308 .0224383
962.928 .0224349
963.548 .0224320
964.168 .0224301
964.787 .0224283
965.406 .0224264
966.024 .0224247
966.642 .0224228
967.260 .0224210
967.877 .0224197
968.494 .0224196
969.110 .0224204
969.727 .0224228
970.342 .0224264
970.958 .0224305
971.573 .0224350
972.188 .0224399
972.802 .0224440
973.416 .0224472
974.030 .0224491
974.643 .0224497
975.256 .0224495
975.869 .0224494
976.481 .0224489
977.093 .0224488
977.705 .0224500
978.316 .0224519
978.927 .0224541
979.538 .0224569
980.148 .0224595
980.758 .0224620
981.367 .0224639
981.977 .0224652
982.586 .0224658
983.194 .0224662
983.802 .0224666
984.410 .0224671
985.018 .0224682
985.625 .0224703
986.232 .0224733
986.838 .0224778
987.445 .0224831
988.050 .0224882
988.656 .0224935
989.261 .0224986
989.866 .0225027
990.471 .0225061
991.075 .0225090
991.679 .0225117
992.282 .0225144
992.886 .0225178
993.489 .0225216
994.091 .0225264
994.694 .0225319
995.296 .0225372
995.897 .0225418
996.499 .0225451
997.100 .0225467
997.701 .0225466
998.301 .0225451
998.901 .0225425
999.501 .0225391
1000.101 .0225362
1000.700 .0225339
1001.299 .0225319
1001.898 .0225304
1002.496 .0225289
1003.094 .0225264
1003.692 .0225232
1004.289 .0225188
1004.887 .0225140
1005.484 .0225092
1006.080 .0225056
1006.677 .0225037
1007.273 .0225037
1007.868 .0225060
1008.464 .0225096
1009.059 .0225141
1009.654 .0225187
1010.249 .0225219
1010.843 .0225241
1011.437 .0225252
1012.031 .0225250
1012.625 .0225248
1013.218 .0225252
1013.811 .0225267
1014.404 .0225301
1014.997 .0225348
1015.589 .0225402
1016.181 .0225455
1016.773 .0225503
1017.365 .0225536
1017.956 .0225552
1018.547 .0225556
1019.138 .0225538
1019.728 .0225515
1020.319 .0225490
1020.909 .0225459
1021.499 .0225429
1022.088 .0225408
1022.678 .0225380
1023.267 .0225348
1023.856 .0225308
1024.445 .0225255
1025.033 .0225187
1025.621 .0225107
1026.209 .0225012
1026.797 .0224904
1027.385 .0224793
1027.972 .0224677
1028.560 .0224556
1029.147 .0224448
1029.734 .0224345
1030.320 .0224255
1030.907 .0224178
1031.493 .0224111
1032.079 .0224048
1032.665 .0223995
1033.250 .0223947
1033.836 .0223904
1034.421 .0223864
1035.006 .0223832
1035.591 .0223804
1036.176 .0223784
1036.761 .0223767
1037.345 .0223751
1037.929 .0223736
1038.514 .0223723
1039.097 .0223697
1039.681 .0223668
1040.265 .0223630
1040.848 .0223590
1041.432 .0223547
1042.015 .0223502
1042.598 .0223457
1043.181 .0223411
1043.764 .0223362
1044.346 .0223305
1044.929 .0223233
1045.511 .0223150
1046.094 .0223053
1046.676 .0222948
1047.258 .0222830
1047.840 .0222709
1048.422 .0222589
1049.003 .0222478
1049.585 .0222371
1050.166 .0222260
1050.748 .0222148
1051.329 .0222029
1051.910 .0221900
1052.491 .0221750
1053.072 .0221597
1053.653 .0221444
1054.234 .0221296
1054.815 .0221173
1055.396 .0221073
1055.976 .0220996
1056.557 .0220934
1057.138 .0220881
1057.718 .0220827
1058.298 .0220761
1058.879 .0220689
1059.459 .0220590
1060.039 .0220489
1060.620 .0220380
1061.200 .0220266
1061.780 .0220158
1062.360 .0220068
1062.940 .0219987
1063.520 .0219897
1064.101 .0219802
1064.681 .0219689
1065.261 .0219556
1065.841 .0219404
1066.421 .0219235
1067.001 .0219054
1067.581 .0218872
1068.161 .0218690
1068.741 .0218513
1069.321 .0218360
1069.901 .0218234
1070.482 .0218123
1071.062 .0218031
1071.642 .0217947
1072.222 .0217858
1072.803 .0217761
1073.383 .0217671
1073.963 .0217577
1074.544 .0217485
1075.124 .0217390
1075.705 .0217303
1076.286 .0217231
1076.866 .0217185
1077.447 .0217151
1078.028 .0217127
1078.609 .0217109
1079.190 .0217086
1079.771 .0217043
1080.352 .0216991
1080.934 .0216930
1081.515 .0216873
1082.097 .0216818
1082.679 .0216758
1083.260 .0216690
1083.842 .0216631
1084.424 .0216569
1085.007 .0216513
1085.589 .0216450
1086.172 .0216382
1086.754 .0216319
1087.337 .0216257
1087.920 .0216196
1088.503 .0216146
1089.087 .0216105
1089.670 .0216055
1090.254 .0215991
1090.838 .0215916
1091.422 .0215821
1092.006 .0215722
1092.590 .0215626
1093.175 .0215523
1093.760 .0215412
1094.345 .0215295
1094.930 .0215168
1095.516 .0215046
1096.102 .0214946
1096.688 .0214853
1097.274 .0214790
1097.860 .0214767
1098.447 .0214772
1099.034 .0214786
1099.622 .0214803
1100.209 .0214818
1100.797 .0214811
1101.385 .0214775
1101.973 .0214729
1102.562 .0214680
1103.151 .0214673
1103.740 .0214702
1104.330 .0214770
1104.920 .0214886
1105.510 .0215016
1106.101 .0215142
1106.691 .0215240
1107.283 .0215295
1107.874 .0215295
1108.466 .0215229
1109.058 .0215132
1109.651 .0215022
1110.244 .0214907
1110.837 .0214815
1111.431 .0214748
1112.025 .0214709
1112.620 .0214689
1113.215 .0214656
1113.810 .0214635
1114.406 .0214622
1115.002 .0214594
1115.599 .0214544
1116.196 .0214443
1116.793 .0214328
1117.391 .0214197
1117.989 .0214059
1118.588 .0213950
1119.187 .0213872
1119.787 .0213841
1120.387 .0213855
1120.988 .0213917
1121.589 .0214018
1122.190 .0214125
1122.793 .0214218
1123.395 .0214273
1123.998 .0214278
1124.602 .0214261
1125.206 .0214251
1125.811 .0214288
1126.416 .0214425
1127.022 .0214649
1127.628 .0214940
1128.235 .0215314
1128.843 .0215728
1129.451 .0216166
1130.059 .0216598
1130.669 .0216996
1131.278 .0217356
1131.889 .0217663
1132.500 .0217948
1133.112 .0218234
1133.724 .0218545
1134.337 .0218932
1134.950 .0219363
1135.564 .0219857
1136.179 .0220394
1136.795 .0220955
1137.411 .0221537
1138.028 .0222100
1138.645 .0222633
1139.263 .0223139
1139.882 .0223640
1140.502 .0224231
1141.122 .0224917
1141.743 .0225649
1142.365 .0226507
1142.987 .0226991
1143.611 .0229675
1144.235 .0230716
1144.859 .0229226
1145.485 .0231354
