Measurement Sequence started on: 10-20-44-796
Integration time: 35
Scans to Average: 2 
>>>>>Begin Spectral Data<<<<<
432.953 .0390949
433.882 .0448476
434.810 .0397617
435.737 .0374019
436.662 .0369555
437.586 .0376235
438.509 .0371344
439.431 .0366189
440.351 .0363516
441.269 .0361948
442.187 .0360879
443.103 .0360066
444.018 .0359816
444.932 .0359846
445.844 .0359952
446.756 .0359861
447.666 .0359739
448.575 .0359579
449.482 .0359284
450.388 .0359053
451.294 .0359025
452.198 .0359154
453.100 .0359536
454.002 .0360034
454.902 .0360616
455.801 .0361094
456.699 .0361448
457.596 .0361558
458.492 .0361467
459.387 .0361197
460.280 .0360849
461.172 .0360463
462.064 .0360152
462.954 .0359820
463.843 .0359545
464.730 .0359346
465.617 .0359216
466.503 .0358987
467.387 .0358729
468.271 .0358360
469.153 .0357953
470.035 .0357494
470.915 .0357073
471.794 .0356708
472.673 .0356485
473.550 .0356396
474.426 .0356442
475.301 .0356596
476.175 .0356858
477.048 .0357091
477.920 .0357327
478.791 .0357486
479.661 .0357534
480.530 .0357475
481.398 .0357374
482.266 .0357224
483.132 .0357031
483.997 .0356798
484.861 .0356534
485.724 .0356239
486.587 .0355892
487.448 .0355491
488.308 .0355021
489.168 .0354533
490.026 .0354010
490.884 .0353459
491.741 .0352930
492.597 .0352424
493.452 .0351918
494.306 .0351425
495.159 .0350918
496.011 .0350386
496.862 .0349773
497.713 .0349126
498.562 .0348415
499.411 .0347629
500.259 .0346790
501.106 .0345877
501.952 .0344856
502.798 .0343767
503.642 .0342553
504.486 .0341253
505.329 .0339883
506.171 .0338471
507.012 .0337028
507.852 .0335608
508.692 .0334244
509.531 .0332896
510.369 .0331628
511.206 .0330451
512.043 .0329281
512.878 .0328094
513.713 .0326846
514.547 .0325545
515.381 .0324252
516.213 .0322993
517.045 .0321707
517.876 .0320480
518.706 .0319256
519.536 .0318035
520.365 .0316807
521.193 .0315564
522.020 .0314303
522.847 .0312969
523.673 .0311570
524.498 .0310026
525.323 .0308409
526.146 .0306844
526.969 .0305305
527.792 .0303868
528.614 .0302474
529.435 .0301135
530.255 .0299788
531.075 .0298492
531.894 .0297160
532.712 .0295768
533.530 .0294302
534.347 .0292729
535.163 .0291062
535.979 .0289413
536.794 .0287874
537.608 .0286486
538.422 .0285390
539.235 .0284542
540.048 .0283848
540.860 .0283424
541.671 .0283251
542.481 .0283294
543.292 .0283533
544.101 .0283955
544.910 .0284561
545.718 .0285365
546.526 .0286372
547.333 .0287507
548.139 .0288783
548.945 .0290083
549.750 .0291279
550.555 .0292331
551.359 .0293225
552.162 .0293908
552.965 .0294426
553.768 .0294801
554.569 .0295079
555.371 .0295300
556.171 .0295461
556.972 .0295612
557.771 .0295731
558.570 .0295778
559.369 .0295755
560.167 .0295688
560.964 .0295603
561.761 .0295539
562.558 .0295576
563.354 .0295729
564.149 .0296026
564.944 .0296512
565.738 .0297128
566.532 .0297836
567.325 .0298591
568.118 .0299331
568.910 .0300041
569.702 .0300736
570.494 .0301411
571.285 .0302088
572.075 .0302812
572.865 .0303575
573.654 .0304354
574.443 .0305148
575.232 .0305923
576.020 .0306662
576.807 .0307334
577.594 .0307947
578.381 .0308494
579.167 .0308999
579.952 .0309511
580.738 .0310051
581.522 .0310609
582.307 .0311164
583.091 .0311720
583.874 .0312254
584.657 .0312733
585.440 .0313155
586.222 .0313496
587.004 .0313771
587.785 .0313999
588.566 .0314180
589.346 .0314325
590.126 .0314454
590.906 .0314545
591.685 .0314592
592.464 .0314598
593.242 .0314553
594.020 .0314458
594.797 .0314343
595.575 .0314216
596.351 .0314090
597.128 .0313980
597.904 .0313893
598.679 .0313825
599.454 .0313779
600.229 .0313730
601.004 .0313669
601.778 .0313597
602.551 .0313508
603.325 .0313397
604.097 .0313281
604.870 .0313159
605.642 .0313038
606.414 .0312922
607.185 .0312804
607.956 .0312679
608.727 .0312541
609.497 .0312394
610.267 .0312218
611.037 .0312014
611.806 .0311793
612.575 .0311552
613.344 .0311298
614.112 .0311028
614.880 .0310747
615.647 .0310458
616.414 .0310163
617.181 .0309868
617.948 .0309579
618.714 .0309302
619.480 .0309043
620.245 .0308795
621.011 .0308561
621.775 .0308344
622.540 .0308123
623.304 .0307908
624.068 .0307699
624.832 .0307480
625.595 .0307250
626.358 .0307018
627.120 .0306788
627.883 .0306557
628.645 .0306332
629.406 .0306111
630.168 .0305888
630.929 .0305667
631.689 .0305437
632.450 .0305186
633.210 .0304935
633.970 .0304669
634.729 .0304388
635.489 .0304101
636.248 .0303804
637.006 .0303503
637.765 .0303203
638.523 .0302910
639.280 .0302620
640.038 .0302343
640.795 .0302083
641.552 .0301831
642.309 .0301598
643.065 .0301382
643.821 .0301180
644.577 .0300990
645.332 .0300814
646.088 .0300641
646.843 .0300477
647.597 .0300319
648.352 .0300159
649.106 .0300012
649.860 .0299869
650.613 .0299731
651.367 .0299604
652.120 .0299488
652.872 .0299381
653.625 .0299281
654.377 .0299194
655.129 .0299110
655.881 .0299026
656.632 .0298941
657.384 .0298846
658.135 .0298749
658.885 .0298644
659.636 .0298533
660.386 .0298428
661.136 .0298328
661.885 .0298226
662.635 .0298127
663.384 .0298029
664.133 .0297927
664.881 .0297814
665.630 .0297687
666.378 .0297547
667.126 .0297392
667.874 .0297222
668.621 .0297033
669.368 .0296833
670.115 .0296631
670.862 .0296421
671.608 .0296216
672.354 .0296023
673.100 .0295839
673.846 .0295672
674.591 .0295517
675.337 .0295375
676.082 .0295241
676.826 .0295111
677.571 .0294982
678.315 .0294854
679.059 .0294722
679.803 .0294590
680.547 .0294465
681.290 .0294350
682.033 .0294240
682.776 .0294131
683.518 .0294023
684.261 .0293912
685.003 .0293789
685.745 .0293648
686.487 .0293492
687.228 .0293321
687.969 .0293132
688.710 .0292927
689.451 .0292716
690.192 .0292504
690.932 .0292290
691.672 .0292075
692.412 .0291858
693.152 .0291636
693.891 .0291411
694.630 .0291176
695.369 .0290940
696.108 .0290702
696.846 .0290458
697.585 .0290210
698.323 .0289960
699.061 .0289709
699.798 .0289461
700.536 .0289218
701.273 .0288984
702.010 .0288758
702.746 .0288537
703.483 .0288322
704.219 .0288111
704.955 .0287897
705.691 .0287677
706.427 .0287441
707.162 .0287202
707.897 .0286949
708.632 .0286692
709.367 .0286433
710.101 .0286178
710.835 .0285934
711.569 .0285693
712.303 .0285458
713.037 .0285224
713.770 .0284991
714.503 .0284758
715.236 .0284518
715.969 .0284279
716.702 .0284045
717.434 .0283822
718.166 .0283608
718.898 .0283409
719.629 .0283223
720.361 .0283050
721.092 .0282884
721.823 .0282717
722.554 .0282547
723.284 .0282369
724.014 .0282182
724.744 .0281980
725.474 .0281765
726.204 .0281542
726.933 .0281310
727.662 .0281074
728.391 .0280838
729.120 .0280604
729.849 .0280371
730.577 .0280150
731.305 .0279937
732.033 .0279733
732.760 .0279533
733.488 .0279338
734.215 .0279150
734.942 .0278965
735.669 .0278783
736.395 .0278606
737.122 .0278440
737.848 .0278286
738.573 .0278136
739.299 .0277992
740.024 .0277855
740.750 .0277719
741.474 .0277579
742.199 .0277433
742.924 .0277281
743.648 .0277131
744.372 .0276980
745.096 .0276834
745.819 .0276696
746.543 .0276569
747.266 .0276453
747.989 .0276343
748.711 .0276244
749.434 .0276150
750.156 .0276060
750.878 .0275979
751.599 .0275908
752.321 .0275850
753.042 .0275803
753.763 .0275773
754.484 .0275755
755.205 .0275748
755.925 .0275744
756.645 .0275743
757.365 .0275740
758.085 .0275734
758.804 .0275716
759.523 .0275685
760.242 .0275640
760.961 .0275584
761.679 .0275516
762.397 .0275433
763.115 .0275332
763.833 .0275212
764.551 .0275070
765.268 .0274911
765.985 .0274730
766.702 .0274539
767.418 .0274338
768.134 .0274135
768.850 .0273929
769.566 .0273730
770.282 .0273536
770.997 .0273352
771.712 .0273178
772.427 .0273014
773.142 .0272862
773.856 .0272721
774.570 .0272597
775.284 .0272492
775.998 .0272404
776.711 .0272328
777.424 .0272255
778.137 .0272185
778.849 .0272104
779.562 .0272006
780.274 .0271892
780.986 .0271762
781.697 .0271624
782.409 .0271480
783.120 .0271338
783.831 .0271205
784.541 .0271085
785.252 .0270979
785.962 .0270883
786.671 .0270794
787.381 .0270707
788.090 .0270624
788.799 .0270545
789.508 .0270471
790.217 .0270401
790.925 .0270340
791.633 .0270289
792.341 .0270244
793.048 .0270205
793.755 .0270161
794.462 .0270113
795.169 .0270055
795.875 .0269980
796.581 .0269888
797.287 .0269779
797.993 .0269657
798.698 .0269523
799.403 .0269380
800.108 .0269232
800.812 .0269078
801.517 .0268927
802.221 .0268774
802.924 .0268622
803.628 .0268473
804.331 .0268330
805.034 .0268192
805.736 .0268060
806.439 .0267932
807.141 .0267811
807.843 .0267696
808.544 .0267585
809.245 .0267476
809.946 .0267367
810.647 .0267261
811.347 .0267156
812.047 .0267052
812.747 .0266954
813.447 .0266855
814.146 .0266758
814.845 .0266664
815.543 .0266571
816.242 .0266476
816.940 .0266375
817.638 .0266268
818.335 .0266155
819.032 .0266037
819.729 .0265915
820.426 .0265786
821.122 .0265655
821.818 .0265517
822.514 .0265369
823.209 .0265212
823.905 .0265046
824.599 .0264865
825.294 .0264672
825.988 .0264466
826.682 .0264253
827.376 .0264035
828.069 .0263817
828.762 .0263597
829.455 .0263377
830.147 .0263158
830.840 .0262939
831.531 .0262722
832.223 .0262512
832.914 .0262305
833.605 .0262100
834.296 .0261902
834.986 .0261708
835.676 .0261517
836.366 .0261332
837.055 .0261150
837.744 .0260970
838.433 .0260786
839.121 .0260601
839.809 .0260412
840.497 .0260224
841.185 .0260037
841.872 .0259848
842.559 .0259658
843.245 .0259469
843.932 .0259280
844.617 .0259090
845.303 .0258903
845.988 .0258715
846.673 .0258532
847.358 .0258353
848.042 .0258177
848.726 .0258010
849.410 .0257851
850.093 .0257704
850.776 .0257566
851.459 .0257436
852.141 .0257313
852.823 .0257199
853.505 .0257094
854.186 .0256993
854.867 .0256899
855.548 .0256808
856.228 .0256717
856.908 .0256627
857.588 .0256535
858.267 .0256438
858.946 .0256334
859.625 .0256221
860.303 .0256100
860.981 .0255970
861.659 .0255834
862.336 .0255693
863.013 .0255548
863.690 .0255403
864.366 .0255257
865.042 .0255108
865.718 .0254957
866.393 .0254805
867.068 .0254652
867.743 .0254498
868.417 .0254347
869.091 .0254200
869.765 .0254061
870.438 .0253934
871.111 .0253816
871.783 .0253703
872.456 .0253598
873.127 .0253497
873.799 .0253391
874.470 .0253279
875.141 .0253159
875.811 .0253030
876.481 .0252894
877.151 .0252757
877.820 .0252616
878.489 .0252478
879.158 .0252344
879.826 .0252209
880.494 .0252077
881.162 .0251941
881.829 .0251799
882.496 .0251652
883.163 .0251501
883.829 .0251350
884.495 .0251199
885.160 .0251062
885.825 .0250942
886.490 .0250843
887.154 .0250768
887.818 .0250708
888.482 .0250660
889.145 .0250615
889.808 .0250567
890.471 .0250511
891.133 .0250448
891.795 .0250385
892.456 .0250326
893.117 .0250277
893.778 .0250242
894.439 .0250224
895.099 .0250218
895.758 .0250222
896.417 .0250225
897.076 .0250220
897.735 .0250205
898.393 .0250181
899.051 .0250148
899.708 .0250111
900.365 .0250077
901.022 .0250047
901.678 .0250021
902.334 .0249999
902.990 .0249973
903.645 .0249944
904.300 .0249909
904.954 .0249870
905.608 .0249826
906.262 .0249783
906.915 .0249743
907.568 .0249707
908.221 .0249671
908.873 .0249635
909.525 .0249597
910.176 .0249553
910.828 .0249503
911.478 .0249449
912.129 .0249392
912.778 .0249339
913.428 .0249294
914.077 .0249262
914.726 .0249244
915.375 .0249238
916.023 .0249239
916.670 .0249246
917.318 .0249252
917.964 .0249252
918.611 .0249249
919.257 .0249242
919.903 .0249228
920.548 .0249209
921.193 .0249193
921.838 .0249182
922.482 .0249182
923.126 .0249196
923.770 .0249221
924.413 .0249262
925.056 .0249308
925.698 .0249356
926.340 .0249402
926.982 .0249445
927.623 .0249478
928.264 .0249500
928.904 .0249513
929.544 .0249515
930.184 .0249510
930.823 .0249503
931.462 .0249490
932.101 .0249477
932.739 .0249459
933.377 .0249426
934.014 .0249376
934.651 .0249310
935.288 .0249218
935.924 .0249110
936.560 .0248985
937.196 .0248851
937.831 .0248713
938.466 .0248575
939.100 .0248442
939.734 .0248316
940.368 .0248200
941.001 .0248088
941.634 .0247977
942.266 .0247873
942.899 .0247771
943.530 .0247673
944.162 .0247585
944.793 .0247501
945.423 .0247425
946.053 .0247351
946.683 .0247279
947.313 .0247202
947.942 .0247118
948.571 .0247020
949.199 .0246904
949.827 .0246769
950.455 .0246615
951.082 .0246445
951.709 .0246268
952.335 .0246084
952.961 .0245898
953.587 .0245710
954.212 .0245525
954.837 .0245342
955.462 .0245166
956.086 .0244989
956.710 .0244817
957.334 .0244646
957.957 .0244483
958.579 .0244326
959.202 .0244178
959.824 .0244039
960.445 .0243913
961.067 .0243804
961.688 .0243709
962.308 .0243627
962.928 .0243562
963.548 .0243504
964.168 .0243457
964.787 .0243407
965.406 .0243358
966.024 .0243304
966.642 .0243246
967.260 .0243181
967.877 .0243113
968.494 .0243039
969.110 .0242961
969.727 .0242881
970.342 .0242801
970.958 .0242716
971.573 .0242628
972.188 .0242539
972.802 .0242448
973.416 .0242359
974.030 .0242268
974.643 .0242172
975.256 .0242076
975.869 .0241973
976.481 .0241862
977.093 .0241751
977.705 .0241647
978.316 .0241548
978.927 .0241456
979.538 .0241373
980.148 .0241296
980.758 .0241226
981.367 .0241161
981.977 .0241097
982.586 .0241034
983.194 .0240972
983.802 .0240906
984.410 .0240833
985.018 .0240760
985.625 .0240682
986.232 .0240597
986.838 .0240512
987.445 .0240420
988.050 .0240321
988.656 .0240213
989.261 .0240106
989.866 .0239991
990.471 .0239872
991.075 .0239755
991.679 .0239638
992.282 .0239524
992.886 .0239414
993.489 .0239305
994.091 .0239207
994.694 .0239115
995.296 .0239021
995.897 .0238924
996.499 .0238828
997.100 .0238728
997.701 .0238626
998.301 .0238530
998.901 .0238446
999.501 .0238366
1000.101 .0238296
1000.700 .0238234
1001.299 .0238170
1001.898 .0238107
1002.496 .0238032
1003.094 .0237947
1003.692 .0237853
1004.289 .0237747
1004.887 .0237638
1005.484 .0237534
1006.080 .0237450
1006.677 .0237373
1007.273 .0237302
1007.868 .0237241
1008.464 .0237179
1009.059 .0237107
1009.654 .0237029
1010.249 .0236949
1010.843 .0236868
1011.437 .0236791
1012.031 .0236717
1012.625 .0236656
1013.218 .0236610
1013.811 .0236569
1014.404 .0236524
1014.997 .0236472
1015.589 .0236413
1016.181 .0236337
1016.773 .0236252
1017.365 .0236163
1017.956 .0236071
1018.547 .0235979
1019.138 .0235886
1019.728 .0235794
1020.319 .0235703
1020.909 .0235612
1021.499 .0235515
1022.088 .0235420
1022.678 .0235321
1023.267 .0235218
1023.856 .0235121
1024.445 .0235038
1025.033 .0234968
1025.621 .0234903
1026.209 .0234841
1026.797 .0234782
1027.385 .0234718
1027.972 .0234638
1028.560 .0234542
1029.147 .0234437
1029.734 .0234328
1030.320 .0234214
1030.907 .0234101
1031.493 .0234001
1032.079 .0233917
1032.665 .0233850
1033.250 .0233790
1033.836 .0233734
1034.421 .0233677
1035.006 .0233613
1035.591 .0233539
1036.176 .0233453
1036.761 .0233361
1037.345 .0233267
1037.929 .0233177
1038.514 .0233091
1039.097 .0233015
1039.681 .0232947
1040.265 .0232891
1040.848 .0232846
1041.432 .0232806
1042.015 .0232769
1042.598 .0232730
1043.181 .0232692
1043.764 .0232649
1044.346 .0232600
1044.929 .0232551
1045.511 .0232506
1046.094 .0232463
1046.676 .0232428
1047.258 .0232398
1047.840 .0232383
1048.422 .0232388
1049.003 .0232401
1049.585 .0232416
1050.166 .0232425
1050.748 .0232425
1051.329 .0232411
1051.910 .0232371
1052.491 .0232308
1053.072 .0232223
1053.653 .0232133
1054.234 .0232034
1054.815 .0231938
1055.396 .0231855
1055.976 .0231797
1056.557 .0231753
1057.138 .0231726
1057.718 .0231696
1058.298 .0231671
1058.879 .0231638
1059.459 .0231589
1060.039 .0231521
1060.620 .0231441
1061.200 .0231348
1061.780 .0231257
1062.360 .0231160
1062.940 .0231070
1063.520 .0230967
1064.101 .0230872
1064.681 .0230761
1065.261 .0230640
1065.841 .0230508
1066.421 .0230380
1067.001 .0230251
1067.581 .0230141
1068.161 .0230042
1068.741 .0229969
1069.321 .0229921
1069.901 .0229895
1070.482 .0229874
1071.062 .0229852
1071.642 .0229815
1072.222 .0229771
1072.803 .0229711
1073.383 .0229654
1073.963 .0229590
1074.544 .0229544
1075.124 .0229517
1075.705 .0229509
1076.286 .0229512
1076.866 .0229527
1077.447 .0229543
1078.028 .0229551
1078.609 .0229543
1079.190 .0229527
1079.771 .0229497
1080.352 .0229470
1080.934 .0229447
1081.515 .0229434
1082.097 .0229437
1082.679 .0229440
1083.260 .0229428
1083.842 .0229412
1084.424 .0229375
1085.007 .0229304
1085.589 .0229211
1086.172 .0229116
1086.754 .0229025
1087.337 .0228950
1087.920 .0228896
1088.503 .0228870
1089.087 .0228872
1089.670 .0228900
1090.254 .0228923
1090.838 .0228936
1091.422 .0228965
1092.006 .0228984
1092.590 .0229017
1093.175 .0229071
1093.760 .0229146
1094.345 .0229243
1094.930 .0229344
1095.516 .0229426
1096.102 .0229475
1096.688 .0229490
1097.274 .0229472
1097.860 .0229410
1098.447 .0229329
1099.034 .0229234
1099.622 .0229125
1100.209 .0229023
1100.797 .0228944
1101.385 .0228866
1101.973 .0228804
1102.562 .0228734
1103.151 .0228672
1103.740 .0228625
1104.330 .0228594
1104.920 .0228590
1105.510 .0228623
1106.101 .0228697
1106.691 .0228782
1107.283 .0228874
1107.874 .0228981
1108.466 .0229078
1109.058 .0229160
1109.651 .0229241
1110.244 .0229306
1110.837 .0229379
1111.431 .0229453
1112.025 .0229536
1112.620 .0229653
1113.215 .0229788
1113.810 .0229926
1114.406 .0230077
1115.002 .0230242
1115.599 .0230401
1116.196 .0230536
1116.793 .0230682
1117.391 .0230822
1117.989 .0230957
1118.588 .0231098
1119.187 .0231243
1119.787 .0231394
1120.387 .0231560
1120.988 .0231720
1121.589 .0231840
1122.190 .0231927
1122.793 .0231958
1123.395 .0231931
1123.998 .0231848
1124.602 .0231752
1125.206 .0231654
1125.811 .0231592
1126.416 .0231588
1127.022 .0231642
1127.628 .0231731
1128.235 .0231875
1128.843 .0232022
1129.451 .0232149
1130.059 .0232266
1130.669 .0232430
1131.278 .0232637
1131.889 .0232949
1132.500 .0233385
1133.112 .0233966
1133.724 .0234695
1134.337 .0235559
1134.950 .0236472
1135.564 .0237408
1136.179 .0238345
1136.795 .0239250
1137.411 .0240107
1138.028 .0240961
1138.645 .0241842
1139.263 .0242837
1139.882 .0243864
1140.502 .0244947
1141.122 .0246061
1141.743 .0247185
1142.365 .0248250
1142.987 .0249210
1143.611 .0250492
1144.235 .0250919
1144.859 .0251832
1145.485 .0252115
