Measurement Sequence started on: 10-20-44-796
Integration time: 35
Scans to Average: 2 
>>>>>Begin Spectral Data<<<<<
432.953 .0338582
433.882 .0362815
434.810 .0365871
435.737 .0358237
436.662 .0339750
437.586 .0344849
438.509 .0342682
439.431 .0340207
440.351 .0338251
441.269 .0337033
442.187 .0336539
443.103 .0336208
444.018 .0336022
444.932 .0335964
445.844 .0336042
446.756 .0336212
447.666 .0336415
448.575 .0336475
449.482 .0336511
450.388 .0336628
451.294 .0336742
452.198 .0336938
453.100 .0337117
454.002 .0337309
454.902 .0337524
455.801 .0337703
456.699 .0337838
457.596 .0337877
458.492 .0337818
459.387 .0337673
460.280 .0337416
461.172 .0337072
462.064 .0336682
462.954 .0336308
463.843 .0335886
464.730 .0335445
465.617 .0334970
466.503 .0334451
467.387 .0333922
468.271 .0333362
469.153 .0332776
470.035 .0332137
470.915 .0331520
471.794 .0330855
472.673 .0330148
473.550 .0329482
474.426 .0328835
475.301 .0328250
476.175 .0327755
477.048 .0327304
477.920 .0326913
478.791 .0326567
479.661 .0326260
480.530 .0325936
481.398 .0325566
482.266 .0325158
483.132 .0324723
483.997 .0324276
484.861 .0323856
485.724 .0323517
486.587 .0323326
487.448 .0323264
488.308 .0323305
489.168 .0323418
490.026 .0323575
490.884 .0323742
491.741 .0323888
492.597 .0323975
493.452 .0324052
494.306 .0324113
495.159 .0324169
496.011 .0324258
496.862 .0324367
497.713 .0324457
498.562 .0324486
499.411 .0324421
500.259 .0324192
501.106 .0323753
501.952 .0323167
502.798 .0322401
503.642 .0321518
504.486 .0320526
505.329 .0319457
506.171 .0318329
507.012 .0317158
507.852 .0315912
508.692 .0314604
509.531 .0313259
510.369 .0311864
511.206 .0310441
512.043 .0309043
512.878 .0307665
513.713 .0306356
514.547 .0305065
515.381 .0303843
516.213 .0302623
517.045 .0301446
517.876 .0300217
518.706 .0299032
519.536 .0297883
520.365 .0296733
521.193 .0295627
522.020 .0294586
522.847 .0293545
523.673 .0292479
524.498 .0291376
525.323 .0290164
526.146 .0288885
526.969 .0287568
527.792 .0286109
528.614 .0284651
529.435 .0283199
530.255 .0281757
531.075 .0280336
531.894 .0279031
532.712 .0277793
533.530 .0276501
534.347 .0275266
535.163 .0273967
535.979 .0272715
536.794 .0271532
537.608 .0270473
538.422 .0269629
539.235 .0269110
540.048 .0268859
540.860 .0268831
541.671 .0269041
542.481 .0269423
543.292 .0269780
544.101 .0270131
544.910 .0270370
545.718 .0270555
546.526 .0270591
547.333 .0270598
548.139 .0270561
548.945 .0270592
549.750 .0270666
550.555 .0270808
551.359 .0270990
552.162 .0271232
552.965 .0271471
553.768 .0271762
554.569 .0272104
555.371 .0272508
556.171 .0272945
556.972 .0273434
557.771 .0273954
558.570 .0274521
559.369 .0275083
560.167 .0275685
560.964 .0276326
561.761 .0277039
562.558 .0277834
563.354 .0278735
564.149 .0279752
564.944 .0280859
565.738 .0282017
566.532 .0283173
567.325 .0284248
568.118 .0285233
568.910 .0286122
569.702 .0286906
570.494 .0287679
571.285 .0288458
572.075 .0289269
572.865 .0290117
573.654 .0290974
574.443 .0291837
575.232 .0292669
576.020 .0293442
576.807 .0294146
577.594 .0294777
578.381 .0295360
579.167 .0295865
579.952 .0296339
580.738 .0296822
581.522 .0297322
582.307 .0297804
583.091 .0298282
583.874 .0298736
584.657 .0299160
585.440 .0299539
586.222 .0299857
587.004 .0300146
587.785 .0300395
588.566 .0300614
589.346 .0300802
590.126 .0300966
590.906 .0301124
591.685 .0301256
592.464 .0301374
593.242 .0301470
594.020 .0301530
594.797 .0301564
595.575 .0301582
596.351 .0301591
597.128 .0301587
597.904 .0301571
598.679 .0301554
599.454 .0301543
600.229 .0301530
601.004 .0301513
601.778 .0301488
602.551 .0301458
603.325 .0301411
604.097 .0301336
604.870 .0301248
605.642 .0301147
606.414 .0301031
607.185 .0300908
607.956 .0300775
608.727 .0300645
609.497 .0300516
610.267 .0300381
611.037 .0300243
611.806 .0300108
612.575 .0299966
613.344 .0299817
614.112 .0299665
614.880 .0299507
615.647 .0299345
616.414 .0299177
617.181 .0299003
617.948 .0298815
618.714 .0298622
619.480 .0298420
620.245 .0298207
621.011 .0297990
621.775 .0297766
622.540 .0297537
623.304 .0297316
624.068 .0297095
624.832 .0296869
625.595 .0296646
626.358 .0296422
627.120 .0296195
627.883 .0295972
628.645 .0295754
629.406 .0295545
630.168 .0295351
630.929 .0295178
631.689 .0295020
632.450 .0294876
633.210 .0294747
633.970 .0294621
634.729 .0294495
635.489 .0294361
636.248 .0294208
637.006 .0294035
637.765 .0293845
638.523 .0293628
639.280 .0293387
640.038 .0293128
640.795 .0292859
641.552 .0292577
642.309 .0292296
643.065 .0292027
643.821 .0291770
644.577 .0291528
645.332 .0291312
646.088 .0291113
646.843 .0290931
647.597 .0290759
648.352 .0290598
649.106 .0290451
649.860 .0290323
650.613 .0290209
651.367 .0290112
652.120 .0290039
652.872 .0289992
653.625 .0289958
654.377 .0289939
655.129 .0289926
655.881 .0289903
656.632 .0289864
657.384 .0289800
658.135 .0289711
658.885 .0289595
659.636 .0289462
660.386 .0289316
661.136 .0289156
661.885 .0288999
662.635 .0288843
663.384 .0288696
664.133 .0288566
664.881 .0288446
665.630 .0288329
666.378 .0288215
667.126 .0288106
667.874 .0287987
668.621 .0287871
669.368 .0287756
670.115 .0287631
670.862 .0287506
671.608 .0287390
672.354 .0287278
673.100 .0287173
673.846 .0287078
674.591 .0286988
675.337 .0286893
676.082 .0286799
676.826 .0286689
677.571 .0286570
678.315 .0286449
679.059 .0286324
679.803 .0286192
680.547 .0286068
681.290 .0285949
682.033 .0285835
682.776 .0285733
683.518 .0285632
684.261 .0285525
685.003 .0285413
685.745 .0285290
686.487 .0285158
687.228 .0285012
687.969 .0284861
688.710 .0284698
689.451 .0284528
690.192 .0284350
690.932 .0284151
691.672 .0283940
692.412 .0283716
693.152 .0283481
693.891 .0283233
694.630 .0282975
695.369 .0282717
696.108 .0282462
696.846 .0282213
697.585 .0281971
698.323 .0281734
699.061 .0281504
699.798 .0281280
700.536 .0281055
701.273 .0280832
702.010 .0280614
702.746 .0280399
703.483 .0280191
704.219 .0279987
704.955 .0279786
705.691 .0279587
706.427 .0279392
707.162 .0279202
707.897 .0279013
708.632 .0278827
709.367 .0278643
710.101 .0278458
710.835 .0278276
711.569 .0278091
712.303 .0277903
713.037 .0277714
713.770 .0277523
714.503 .0277327
715.236 .0277132
715.969 .0276938
716.702 .0276746
717.434 .0276559
718.166 .0276374
718.898 .0276182
719.629 .0275987
720.361 .0275788
721.092 .0275579
721.823 .0275363
722.554 .0275140
723.284 .0274915
724.014 .0274688
724.744 .0274461
725.474 .0274232
726.204 .0274003
726.933 .0273777
727.662 .0273548
728.391 .0273317
729.120 .0273093
729.849 .0272876
730.577 .0272666
731.305 .0272464
732.033 .0272273
732.760 .0272086
733.488 .0271901
734.215 .0271718
734.942 .0271530
735.669 .0271335
736.395 .0271137
737.122 .0270937
737.848 .0270739
738.573 .0270548
739.299 .0270361
740.024 .0270175
740.750 .0269996
741.474 .0269815
742.199 .0269630
742.924 .0269446
743.648 .0269262
744.372 .0269076
745.096 .0268896
745.819 .0268725
746.543 .0268567
747.266 .0268425
747.989 .0268303
748.711 .0268195
749.434 .0268106
750.156 .0268032
750.878 .0267973
751.599 .0267931
752.321 .0267905
753.042 .0267887
753.763 .0267879
754.484 .0267875
755.205 .0267869
755.925 .0267863
756.645 .0267851
757.365 .0267836
758.085 .0267814
758.804 .0267782
759.523 .0267741
760.242 .0267688
760.961 .0267623
761.679 .0267545
762.397 .0267451
763.115 .0267340
763.833 .0267208
764.551 .0267061
765.268 .0266894
765.985 .0266716
766.702 .0266527
767.418 .0266334
768.134 .0266142
768.850 .0265955
769.566 .0265774
770.282 .0265606
770.997 .0265448
771.712 .0265303
772.427 .0265166
773.142 .0265035
773.856 .0264908
774.570 .0264787
775.284 .0264667
775.998 .0264554
776.711 .0264446
777.424 .0264345
778.137 .0264244
778.849 .0264145
779.562 .0264042
780.274 .0263936
780.986 .0263826
781.697 .0263717
782.409 .0263610
783.120 .0263513
783.831 .0263422
784.541 .0263341
785.252 .0263271
785.962 .0263203
786.671 .0263135
787.381 .0263058
788.090 .0262974
788.799 .0262882
789.508 .0262782
790.217 .0262679
790.925 .0262574
791.633 .0262473
792.341 .0262370
793.048 .0262266
793.755 .0262153
794.462 .0262029
795.169 .0261896
795.875 .0261755
796.581 .0261610
797.287 .0261467
797.993 .0261330
798.698 .0261204
799.403 .0261093
800.108 .0260991
800.812 .0260899
801.517 .0260818
802.221 .0260741
802.924 .0260665
803.628 .0260587
804.331 .0260512
805.034 .0260437
805.736 .0260365
806.439 .0260294
807.141 .0260217
807.843 .0260138
808.544 .0260049
809.245 .0259948
809.946 .0259840
810.647 .0259723
811.347 .0259600
812.047 .0259477
812.747 .0259358
813.447 .0259247
814.146 .0259144
814.845 .0259053
815.543 .0258967
816.242 .0258885
816.940 .0258799
817.638 .0258707
818.335 .0258614
819.032 .0258517
819.729 .0258418
820.426 .0258323
821.122 .0258233
821.818 .0258146
822.514 .0258061
823.209 .0257981
823.905 .0257902
824.599 .0257820
825.294 .0257729
825.988 .0257629
826.682 .0257520
827.376 .0257405
828.069 .0257282
828.762 .0257154
829.455 .0257025
830.147 .0256890
830.840 .0256754
831.531 .0256615
832.223 .0256476
832.914 .0256331
833.605 .0256184
834.296 .0256036
834.986 .0255884
835.676 .0255735
836.366 .0255588
837.055 .0255447
837.744 .0255313
838.433 .0255185
839.121 .0255065
839.809 .0254955
840.497 .0254857
841.185 .0254763
841.872 .0254677
842.559 .0254598
843.245 .0254523
843.932 .0254450
844.617 .0254378
845.303 .0254306
845.988 .0254230
846.673 .0254150
847.358 .0254061
848.042 .0253967
848.726 .0253866
849.410 .0253754
850.093 .0253635
850.776 .0253510
851.459 .0253381
852.141 .0253246
852.823 .0253113
853.505 .0252981
854.186 .0252843
854.867 .0252708
855.548 .0252568
856.228 .0252433
856.908 .0252300
857.588 .0252176
858.267 .0252060
858.946 .0251954
859.625 .0251862
860.303 .0251776
860.981 .0251700
861.659 .0251630
862.336 .0251557
863.013 .0251479
863.690 .0251390
864.366 .0251294
865.042 .0251185
865.718 .0251074
866.393 .0250958
867.068 .0250841
867.743 .0250723
868.417 .0250602
869.091 .0250477
869.765 .0250346
870.438 .0250207
871.111 .0250060
871.783 .0249906
872.456 .0249746
873.127 .0249582
873.799 .0249423
874.470 .0249270
875.141 .0249130
875.811 .0248999
876.481 .0248881
877.151 .0248773
877.820 .0248674
878.489 .0248582
879.158 .0248491
879.826 .0248401
880.494 .0248307
881.162 .0248205
881.829 .0248098
882.496 .0247982
883.163 .0247863
883.829 .0247739
884.495 .0247612
885.160 .0247490
885.825 .0247374
886.490 .0247270
887.154 .0247174
887.818 .0247089
888.482 .0247007
889.145 .0246927
889.808 .0246845
890.471 .0246758
891.133 .0246670
891.795 .0246580
892.456 .0246492
893.117 .0246406
893.778 .0246326
894.439 .0246255
895.099 .0246190
895.758 .0246131
896.417 .0246072
897.076 .0246011
897.735 .0245942
898.393 .0245867
899.051 .0245787
899.708 .0245702
900.365 .0245618
901.022 .0245535
901.678 .0245460
902.334 .0245389
902.990 .0245324
903.645 .0245261
904.300 .0245203
904.954 .0245144
905.608 .0245078
906.262 .0245010
906.915 .0244944
907.568 .0244879
908.221 .0244817
908.873 .0244758
909.525 .0244706
910.176 .0244652
910.828 .0244598
911.478 .0244539
912.129 .0244473
912.778 .0244397
913.428 .0244313
914.077 .0244222
914.726 .0244125
915.375 .0244022
916.023 .0243918
916.670 .0243815
917.318 .0243715
917.964 .0243609
918.611 .0243493
919.257 .0243368
919.903 .0243234
920.548 .0243082
921.193 .0242916
921.838 .0242744
922.482 .0242567
923.126 .0242394
923.770 .0242226
924.413 .0242065
925.056 .0241916
925.698 .0241777
926.340 .0241643
926.982 .0241514
927.623 .0241384
928.264 .0241254
928.904 .0241130
929.544 .0241012
930.184 .0240901
930.823 .0240795
931.462 .0240698
932.101 .0240610
932.739 .0240520
933.377 .0240422
934.014 .0240312
934.651 .0240189
935.288 .0240053
935.924 .0239903
936.560 .0239746
937.196 .0239589
937.831 .0239435
938.466 .0239281
939.100 .0239122
939.734 .0238958
940.368 .0238785
941.001 .0238603
941.634 .0238415
942.266 .0238225
942.899 .0238034
943.530 .0237850
944.162 .0237677
944.793 .0237515
945.423 .0237363
946.053 .0237221
946.683 .0237086
947.313 .0236958
947.942 .0236832
948.571 .0236708
949.199 .0236587
949.827 .0236468
950.455 .0236347
951.082 .0236227
951.709 .0236106
952.335 .0235981
952.961 .0235849
953.587 .0235712
954.212 .0235570
954.837 .0235428
955.462 .0235286
956.086 .0235147
956.710 .0235020
957.334 .0234900
957.957 .0234784
958.579 .0234675
959.202 .0234570
959.824 .0234467
960.445 .0234365
961.067 .0234263
961.688 .0234162
962.308 .0234064
962.928 .0233971
963.548 .0233885
964.168 .0233802
964.787 .0233722
965.406 .0233638
966.024 .0233556
966.642 .0233473
967.260 .0233385
967.877 .0233294
968.494 .0233199
969.110 .0233099
969.727 .0232995
970.342 .0232887
970.958 .0232783
971.573 .0232686
972.188 .0232600
972.802 .0232522
973.416 .0232451
974.030 .0232385
974.643 .0232321
975.256 .0232257
975.869 .0232190
976.481 .0232114
977.093 .0232035
977.705 .0231956
978.316 .0231882
978.927 .0231819
979.538 .0231764
980.148 .0231719
980.758 .0231679
981.367 .0231639
981.977 .0231604
982.586 .0231563
983.194 .0231523
983.802 .0231488
984.410 .0231461
985.018 .0231445
985.625 .0231436
986.232 .0231441
986.838 .0231457
987.445 .0231478
988.050 .0231496
988.656 .0231504
989.261 .0231504
989.866 .0231492
990.471 .0231465
991.075 .0231431
991.679 .0231391
992.282 .0231346
992.886 .0231302
993.489 .0231263
994.091 .0231229
994.694 .0231207
995.296 .0231197
995.897 .0231200
996.499 .0231211
997.100 .0231228
997.701 .0231249
998.301 .0231275
998.901 .0231308
999.501 .0231339
1000.101 .0231374
1000.700 .0231417
1001.299 .0231464
1001.898 .0231523
1002.496 .0231590
1003.094 .0231664
1003.692 .0231733
1004.289 .0231794
1004.887 .0231844
1005.484 .0231879
1006.080 .0231904
1006.677 .0231917
1007.273 .0231925
1007.868 .0231926
1008.464 .0231927
1009.059 .0231933
1009.654 .0231946
1010.249 .0231967
1010.843 .0231998
1011.437 .0232036
1012.031 .0232076
1012.625 .0232117
1013.218 .0232158
1013.811 .0232197
1014.404 .0232234
1014.997 .0232260
1015.589 .0232281
1016.181 .0232293
1016.773 .0232306
1017.365 .0232319
1017.956 .0232340
1018.547 .0232366
1019.138 .0232391
1019.728 .0232419
1020.319 .0232448
1020.909 .0232472
1021.499 .0232491
1022.088 .0232501
1022.678 .0232508
1023.267 .0232509
1023.856 .0232509
1024.445 .0232505
1025.033 .0232507
1025.621 .0232511
1026.209 .0232518
1026.797 .0232520
1027.385 .0232522
1027.972 .0232521
1028.560 .0232522
1029.147 .0232530
1029.734 .0232545
1030.320 .0232569
1030.907 .0232594
1031.493 .0232623
1032.079 .0232658
1032.665 .0232687
1033.250 .0232720
1033.836 .0232764
1034.421 .0232825
1035.006 .0232903
1035.591 .0232992
1036.176 .0233094
1036.761 .0233201
1037.345 .0233309
1037.929 .0233396
1038.514 .0233457
1039.097 .0233497
1039.681 .0233515
1040.265 .0233511
1040.848 .0233506
1041.432 .0233503
1042.015 .0233510
1042.598 .0233529
1043.181 .0233551
1043.764 .0233571
1044.346 .0233583
1044.929 .0233579
1045.511 .0233560
1046.094 .0233522
1046.676 .0233468
1047.258 .0233402
1047.840 .0233327
1048.422 .0233248
1049.003 .0233165
1049.585 .0233079
1050.166 .0232996
1050.748 .0232923
1051.329 .0232859
1051.910 .0232803
1052.491 .0232764
1053.072 .0232740
1053.653 .0232723
1054.234 .0232714
1054.815 .0232707
1055.396 .0232697
1055.976 .0232686
1056.557 .0232677
1057.138 .0232668
1057.718 .0232679
1058.298 .0232710
1058.879 .0232746
1059.459 .0232792
1060.039 .0232830
1060.620 .0232841
1061.200 .0232818
1061.780 .0232767
1062.360 .0232668
1062.940 .0232535
1063.520 .0232383
1064.101 .0232217
1064.681 .0232042
1065.261 .0231878
1065.841 .0231724
1066.421 .0231587
1067.001 .0231459
1067.581 .0231326
1068.161 .0231189
1068.741 .0231069
1069.321 .0230952
1069.901 .0230854
1070.482 .0230779
1071.062 .0230736
1071.642 .0230713
1072.222 .0230720
1072.803 .0230752
1073.383 .0230804
1073.963 .0230869
1074.544 .0230945
1075.124 .0231023
1075.705 .0231105
1076.286 .0231192
1076.866 .0231282
1077.447 .0231385
1078.028 .0231509
1078.609 .0231640
1079.190 .0231779
1079.771 .0231926
1080.352 .0232072
1080.934 .0232204
1081.515 .0232325
1082.097 .0232428
1082.679 .0232507
1083.260 .0232573
1083.842 .0232621
1084.424 .0232646
1085.007 .0232663
1085.589 .0232669
1086.172 .0232660
1086.754 .0232638
1087.337 .0232614
1087.920 .0232585
1088.503 .0232553
1089.087 .0232529
1089.670 .0232493
1090.254 .0232446
1090.838 .0232387
1091.422 .0232294
1092.006 .0232178
1092.590 .0232048
1093.175 .0231904
1093.760 .0231755
1094.345 .0231620
1094.930 .0231511
1095.516 .0231424
1096.102 .0231371
1096.688 .0231335
1097.274 .0231304
1097.860 .0231258
1098.447 .0231189
1099.034 .0231080
1099.622 .0230971
1100.209 .0230864
1100.797 .0230763
1101.385 .0230681
1101.973 .0230638
1102.562 .0230614
1103.151 .0230592
1103.740 .0230563
1104.330 .0230522
1104.920 .0230456
1105.510 .0230373
1106.101 .0230249
1106.691 .0230123
1107.283 .0230011
1107.874 .0229917
1108.466 .0229838
1109.058 .0229812
1109.651 .0229812
1110.244 .0229852
1110.837 .0229935
1111.431 .0230059
1112.025 .0230202
1112.620 .0230369
1113.215 .0230538
1113.810 .0230692
1114.406 .0230835
1115.002 .0230956
1115.599 .0231045
1116.196 .0231115
1116.793 .0231147
1117.391 .0231141
1117.989 .0231105
1118.588 .0231055
1119.187 .0230972
1119.787 .0230866
1120.387 .0230724
1120.988 .0230552
1121.589 .0230372
1122.190 .0230166
1122.793 .0229957
1123.395 .0229758
1123.998 .0229610
1124.602 .0229523
1125.206 .0229473
1125.811 .0229477
1126.416 .0229534
1127.022 .0229655
1127.628 .0229786
1128.235 .0229940
1128.843 .0230140
1129.451 .0230383
1130.059 .0230644
1130.669 .0230933
1131.278 .0231242
1131.889 .0231529
1132.500 .0231783
1133.112 .0231981
1133.724 .0232107
1134.337 .0232178
1134.950 .0232148
1135.564 .0232087
1136.179 .0232039
1136.795 .0232057
1137.411 .0232149
1138.028 .0232369
1138.645 .0232725
1139.263 .0233152
1139.882 .0233589
1140.502 .0234130
1141.122 .0234762
1141.743 .0235654
1142.365 .0236651
1142.987 .0234541
1143.611 .0237978
1144.235 .0240293
1144.859 .0245827
1145.485 .0244695
