Measurement Sequence started on: 10-20-44-796
Integration time: 35
Scans to Average: 2 
>>>>>Begin Spectral Data<<<<<
432.953 .0420560
433.882 .0384203
434.810 .0372103
435.737 .0386233
436.662 .0388909
437.586 .0389087
438.509 .0388331
439.431 .0388426
440.351 .0388449
441.269 .0387840
442.187 .0387089
443.103 .0386335
444.018 .0385665
444.932 .0385080
445.844 .0384343
446.756 .0383447
447.666 .0382442
448.575 .0381240
449.482 .0379979
450.388 .0378666
451.294 .0377441
452.198 .0376410
453.100 .0375548
454.002 .0374973
454.902 .0374539
455.801 .0374205
456.699 .0373966
457.596 .0373771
458.492 .0373527
459.387 .0373304
460.280 .0373089
461.172 .0372863
462.064 .0372640
462.954 .0372398
463.843 .0372202
464.730 .0371963
465.617 .0371669
466.503 .0371276
467.387 .0370732
468.271 .0370064
469.153 .0369293
470.035 .0368455
470.915 .0367639
471.794 .0366820
472.673 .0366031
473.550 .0365289
474.426 .0364607
475.301 .0363945
476.175 .0363273
477.048 .0362609
477.920 .0361951
478.791 .0361243
479.661 .0360593
480.530 .0359974
481.398 .0359423
482.266 .0358943
483.132 .0358520
483.997 .0358141
484.861 .0357813
485.724 .0357539
486.587 .0357300
487.448 .0357101
488.308 .0356952
489.168 .0356820
490.026 .0356714
490.884 .0356637
491.741 .0356536
492.597 .0356435
493.452 .0356333
494.306 .0356189
495.159 .0356036
496.011 .0355847
496.862 .0355646
497.713 .0355414
498.562 .0355130
499.411 .0354757
500.259 .0354241
501.106 .0353613
501.952 .0352858
502.798 .0351996
503.642 .0351074
504.486 .0350119
505.329 .0349185
506.171 .0348298
507.012 .0347430
507.852 .0346596
508.692 .0345781
509.531 .0344933
510.369 .0344079
511.206 .0343183
512.043 .0342264
512.878 .0341313
513.713 .0340347
514.547 .0339397
515.381 .0338423
516.213 .0337415
517.045 .0336313
517.876 .0335057
518.706 .0333668
519.536 .0332116
520.365 .0330454
521.193 .0328746
522.020 .0327059
522.847 .0325385
523.673 .0323708
524.498 .0322003
525.323 .0320212
526.146 .0318392
526.969 .0316499
527.792 .0314582
528.614 .0312657
529.435 .0310857
530.255 .0309145
531.075 .0307588
531.894 .0306288
532.712 .0305165
533.530 .0304156
534.347 .0303257
535.163 .0302282
535.979 .0301386
536.794 .0300516
537.608 .0299790
538.422 .0299205
539.235 .0298843
540.048 .0298654
540.860 .0298662
541.671 .0298928
542.481 .0299356
543.292 .0299821
544.101 .0300370
544.910 .0300850
545.718 .0301220
546.526 .0301458
547.333 .0301649
548.139 .0301777
548.945 .0301935
549.750 .0301987
550.555 .0302033
551.359 .0302122
552.162 .0302279
552.965 .0302470
553.768 .0302732
554.569 .0303086
555.371 .0303477
556.171 .0303941
556.972 .0304487
557.771 .0305033
558.570 .0305645
559.369 .0306249
560.167 .0306850
560.964 .0307437
561.761 .0308033
562.558 .0308622
563.354 .0309274
564.149 .0309962
564.944 .0310631
565.738 .0311314
566.532 .0312037
567.325 .0312751
568.118 .0313418
568.910 .0314050
569.702 .0314639
570.494 .0315211
571.285 .0315768
572.075 .0316300
572.865 .0316858
573.654 .0317426
574.443 .0317981
575.232 .0318502
576.020 .0319031
576.807 .0319548
577.594 .0320046
578.381 .0320550
579.167 .0321044
579.952 .0321537
580.738 .0322012
581.522 .0322469
582.307 .0322897
583.091 .0323305
583.874 .0323661
584.657 .0323989
585.440 .0324303
586.222 .0324602
587.004 .0324906
587.785 .0325223
588.566 .0325552
589.346 .0325870
590.126 .0326164
590.906 .0326429
591.685 .0326659
592.464 .0326845
593.242 .0326992
594.020 .0327112
594.797 .0327221
595.575 .0327309
596.351 .0327380
597.128 .0327443
597.904 .0327484
598.679 .0327499
599.454 .0327484
600.229 .0327435
601.004 .0327355
601.778 .0327237
602.551 .0327096
603.325 .0326937
604.097 .0326762
604.870 .0326566
605.642 .0326352
606.414 .0326125
607.185 .0325888
607.956 .0325642
608.727 .0325392
609.497 .0325144
610.267 .0324907
611.037 .0324678
611.806 .0324460
612.575 .0324252
613.344 .0324051
614.112 .0323846
614.880 .0323635
615.647 .0323408
616.414 .0323166
617.181 .0322918
617.948 .0322671
618.714 .0322421
619.480 .0322174
620.245 .0321927
621.011 .0321679
621.775 .0321426
622.540 .0321176
623.304 .0320915
624.068 .0320651
624.832 .0320391
625.595 .0320132
626.358 .0319889
627.120 .0319668
627.883 .0319460
628.645 .0319264
629.406 .0319074
630.168 .0318879
630.929 .0318667
631.689 .0318451
632.450 .0318223
633.210 .0317983
633.970 .0317747
634.729 .0317517
635.489 .0317284
636.248 .0317059
637.006 .0316832
637.765 .0316597
638.523 .0316360
639.280 .0316110
640.038 .0315851
640.795 .0315604
641.552 .0315371
642.309 .0315154
643.065 .0314958
643.821 .0314790
644.577 .0314635
645.332 .0314489
646.088 .0314345
646.843 .0314190
647.597 .0314025
648.352 .0313850
649.106 .0313655
649.860 .0313450
650.613 .0313233
651.367 .0313013
652.120 .0312792
652.872 .0312574
653.625 .0312362
654.377 .0312160
655.129 .0311971
655.881 .0311793
656.632 .0311621
657.384 .0311462
658.135 .0311310
658.885 .0311162
659.636 .0311010
660.386 .0310862
661.136 .0310707
661.885 .0310555
662.635 .0310408
663.384 .0310269
664.133 .0310134
664.881 .0310001
665.630 .0309862
666.378 .0309717
667.126 .0309560
667.874 .0309383
668.621 .0309192
669.368 .0308990
670.115 .0308777
670.862 .0308561
671.608 .0308350
672.354 .0308154
673.100 .0307969
673.846 .0307800
674.591 .0307641
675.337 .0307488
676.082 .0307339
676.826 .0307187
677.571 .0307039
678.315 .0306896
679.059 .0306752
679.803 .0306612
680.547 .0306479
681.290 .0306348
682.033 .0306217
682.776 .0306085
683.518 .0305942
684.261 .0305789
685.003 .0305626
685.745 .0305445
686.487 .0305260
687.228 .0305073
687.969 .0304885
688.710 .0304688
689.451 .0304496
690.192 .0304294
690.932 .0304082
691.672 .0303865
692.412 .0303641
693.152 .0303411
693.891 .0303188
694.630 .0302969
695.369 .0302763
696.108 .0302572
696.846 .0302399
697.585 .0302230
698.323 .0302076
699.061 .0301924
699.798 .0301771
700.536 .0301615
701.273 .0301464
702.010 .0301310
702.746 .0301153
703.483 .0300994
704.219 .0300829
704.955 .0300654
705.691 .0300470
706.427 .0300271
707.162 .0300065
707.897 .0299847
708.632 .0299626
709.367 .0299397
710.101 .0299171
710.835 .0298948
711.569 .0298726
712.303 .0298503
713.037 .0298282
713.770 .0298058
714.503 .0297830
715.236 .0297606
715.969 .0297386
716.702 .0297176
717.434 .0296983
718.166 .0296803
718.898 .0296635
719.629 .0296477
720.361 .0296325
721.092 .0296170
721.823 .0296008
722.554 .0295838
723.284 .0295650
724.014 .0295452
724.744 .0295240
725.474 .0295017
726.204 .0294788
726.933 .0294560
727.662 .0294326
728.391 .0294090
729.120 .0293850
729.849 .0293609
730.577 .0293367
731.305 .0293123
732.033 .0292873
732.760 .0292619
733.488 .0292368
734.215 .0292117
734.942 .0291871
735.669 .0291639
736.395 .0291416
737.122 .0291205
737.848 .0291006
738.573 .0290818
739.299 .0290637
740.024 .0290463
740.750 .0290291
741.474 .0290121
742.199 .0289949
742.924 .0289774
743.648 .0289601
744.372 .0289435
745.096 .0289276
745.819 .0289122
746.543 .0288978
747.266 .0288843
747.989 .0288710
748.711 .0288577
749.434 .0288442
750.156 .0288306
750.878 .0288172
751.599 .0288040
752.321 .0287917
753.042 .0287810
753.763 .0287720
754.484 .0287643
755.205 .0287580
755.925 .0287526
756.645 .0287468
757.365 .0287402
758.085 .0287325
758.804 .0287230
759.523 .0287118
760.242 .0286991
760.961 .0286849
761.679 .0286696
762.397 .0286537
763.115 .0286368
763.833 .0286191
764.551 .0286009
765.268 .0285814
765.985 .0285605
766.702 .0285388
767.418 .0285165
768.134 .0284939
768.850 .0284719
769.566 .0284510
770.282 .0284310
770.997 .0284126
771.712 .0283952
772.427 .0283785
773.142 .0283624
773.856 .0283468
774.570 .0283309
775.284 .0283149
775.998 .0282989
776.711 .0282827
777.424 .0282668
778.137 .0282511
778.849 .0282350
779.562 .0282186
780.274 .0282015
780.986 .0281839
781.697 .0281661
782.409 .0281487
783.120 .0281319
783.831 .0281164
784.541 .0281028
785.252 .0280914
785.962 .0280823
786.671 .0280752
787.381 .0280696
788.090 .0280647
788.799 .0280597
789.508 .0280545
790.217 .0280486
790.925 .0280424
791.633 .0280355
792.341 .0280280
793.048 .0280194
793.755 .0280095
794.462 .0279983
795.169 .0279858
795.875 .0279723
796.581 .0279580
797.287 .0279429
797.993 .0279282
798.698 .0279142
799.403 .0279013
800.108 .0278896
800.812 .0278793
801.517 .0278696
802.221 .0278604
802.924 .0278512
803.628 .0278420
804.331 .0278330
805.034 .0278245
805.736 .0278161
806.439 .0278084
807.141 .0278011
807.843 .0277941
808.544 .0277867
809.245 .0277790
809.946 .0277695
810.647 .0277582
811.347 .0277451
812.047 .0277303
812.747 .0277142
813.447 .0276978
814.146 .0276814
814.845 .0276657
815.543 .0276507
816.242 .0276369
816.940 .0276237
817.638 .0276114
818.335 .0275993
819.032 .0275873
819.729 .0275754
820.426 .0275639
821.122 .0275520
821.818 .0275401
822.514 .0275279
823.209 .0275154
823.905 .0275025
824.599 .0274894
825.294 .0274757
825.988 .0274616
826.682 .0274471
827.376 .0274326
828.069 .0274179
828.762 .0274032
829.455 .0273882
830.147 .0273725
830.840 .0273566
831.531 .0273399
832.223 .0273229
832.914 .0273061
833.605 .0272901
834.296 .0272754
834.986 .0272619
835.676 .0272499
836.366 .0272391
837.055 .0272289
837.744 .0272190
838.433 .0272086
839.121 .0271975
839.809 .0271859
840.497 .0271745
841.185 .0271634
841.872 .0271534
842.559 .0271445
843.245 .0271365
843.932 .0271292
844.617 .0271220
845.303 .0271141
845.988 .0271051
846.673 .0270953
847.358 .0270848
848.042 .0270740
848.726 .0270636
849.410 .0270534
850.093 .0270441
850.776 .0270358
851.459 .0270275
852.141 .0270190
852.823 .0270100
853.505 .0270006
854.186 .0269901
854.867 .0269792
855.548 .0269679
856.228 .0269568
856.908 .0269465
857.588 .0269368
858.267 .0269273
858.946 .0269181
859.625 .0269089
860.303 .0268996
860.981 .0268900
861.659 .0268803
862.336 .0268699
863.013 .0268595
863.690 .0268488
864.366 .0268376
865.042 .0268258
865.718 .0268141
866.393 .0268021
867.068 .0267903
867.743 .0267781
868.417 .0267659
869.091 .0267533
869.765 .0267401
870.438 .0267254
871.111 .0267095
871.783 .0266917
872.456 .0266732
873.127 .0266540
873.799 .0266350
874.470 .0266169
875.141 .0266002
875.811 .0265851
876.481 .0265715
877.151 .0265588
877.820 .0265469
878.489 .0265350
879.158 .0265238
879.826 .0265126
880.494 .0265019
881.162 .0264919
881.829 .0264832
882.496 .0264751
883.163 .0264675
883.829 .0264599
884.495 .0264520
885.160 .0264438
885.825 .0264350
886.490 .0264259
887.154 .0264164
887.818 .0264074
888.482 .0263988
889.145 .0263902
889.808 .0263823
890.471 .0263742
891.133 .0263659
891.795 .0263575
892.456 .0263488
893.117 .0263403
893.778 .0263323
894.439 .0263255
895.099 .0263195
895.758 .0263150
896.417 .0263114
897.076 .0263086
897.735 .0263062
898.393 .0263046
899.051 .0263027
899.708 .0263006
900.365 .0262980
901.022 .0262951
901.678 .0262918
902.334 .0262881
902.990 .0262841
903.645 .0262802
904.300 .0262763
904.954 .0262725
905.608 .0262679
906.262 .0262634
906.915 .0262578
907.568 .0262505
908.221 .0262409
908.873 .0262292
909.525 .0262156
910.176 .0262008
910.828 .0261854
911.478 .0261703
912.129 .0261556
912.778 .0261414
913.428 .0261278
914.077 .0261144
914.726 .0261008
915.375 .0260869
916.023 .0260728
916.670 .0260593
917.318 .0260461
917.964 .0260339
918.611 .0260233
919.257 .0260144
919.903 .0260071
920.548 .0260003
921.193 .0259941
921.838 .0259882
922.482 .0259825
923.126 .0259764
923.770 .0259700
924.413 .0259633
925.056 .0259564
925.698 .0259492
926.340 .0259415
926.982 .0259334
927.623 .0259250
928.264 .0259162
928.904 .0259070
929.544 .0258970
930.184 .0258871
930.823 .0258766
931.462 .0258662
932.101 .0258557
932.739 .0258448
933.377 .0258333
934.014 .0258207
934.651 .0258075
935.288 .0257936
935.924 .0257788
936.560 .0257635
937.196 .0257482
937.831 .0257330
938.466 .0257175
939.100 .0257020
939.734 .0256866
940.368 .0256712
941.001 .0256557
941.634 .0256399
942.266 .0256238
942.899 .0256075
943.530 .0255909
944.162 .0255739
944.793 .0255567
945.423 .0255388
946.053 .0255202
946.683 .0255009
947.313 .0254812
947.942 .0254604
948.571 .0254389
949.199 .0254168
949.827 .0253939
950.455 .0253707
951.082 .0253478
951.709 .0253253
952.335 .0253039
952.961 .0252833
953.587 .0252637
954.212 .0252450
954.837 .0252275
955.462 .0252115
956.086 .0251971
956.710 .0251849
957.334 .0251745
957.957 .0251657
958.579 .0251589
959.202 .0251535
959.824 .0251487
960.445 .0251443
961.067 .0251395
961.688 .0251344
962.308 .0251283
962.928 .0251217
963.548 .0251137
964.168 .0251049
964.787 .0250943
965.406 .0250820
966.024 .0250678
966.642 .0250523
967.260 .0250351
967.877 .0250172
968.494 .0249989
969.110 .0249810
969.727 .0249634
970.342 .0249464
970.958 .0249298
971.573 .0249143
972.188 .0248990
972.802 .0248839
973.416 .0248691
974.030 .0248550
974.643 .0248417
975.256 .0248301
975.869 .0248197
976.481 .0248111
977.093 .0248042
977.705 .0247982
978.316 .0247927
978.927 .0247873
979.538 .0247814
980.148 .0247746
980.758 .0247674
981.367 .0247598
981.977 .0247524
982.586 .0247456
983.194 .0247402
983.802 .0247360
984.410 .0247330
985.018 .0247307
985.625 .0247284
986.232 .0247254
986.838 .0247216
987.445 .0247161
988.050 .0247100
988.656 .0247032
989.261 .0246964
989.866 .0246892
990.471 .0246824
991.075 .0246762
991.679 .0246704
992.282 .0246649
992.886 .0246594
993.489 .0246535
994.091 .0246475
994.694 .0246409
995.296 .0246340
995.897 .0246272
996.499 .0246210
997.100 .0246152
997.701 .0246105
998.301 .0246067
998.901 .0246041
999.501 .0246026
1000.101 .0246020
1000.700 .0246015
1001.299 .0246010
1001.898 .0246001
1002.496 .0245987
1003.094 .0245967
1003.692 .0245947
1004.289 .0245924
1004.887 .0245908
1005.484 .0245896
1006.080 .0245889
1006.677 .0245893
1007.273 .0245908
1007.868 .0245932
1008.464 .0245965
1009.059 .0246001
1009.654 .0246040
1010.249 .0246077
1010.843 .0246115
1011.437 .0246146
1012.031 .0246174
1012.625 .0246196
1013.218 .0246207
1013.811 .0246211
1014.404 .0246210
1014.997 .0246203
1015.589 .0246197
1016.181 .0246189
1016.773 .0246181
1017.365 .0246171
1017.956 .0246159
1018.547 .0246140
1019.138 .0246116
1019.728 .0246093
1020.319 .0246070
1020.909 .0246051
1021.499 .0246040
1022.088 .0246031
1022.678 .0246022
1023.267 .0246014
1023.856 .0245994
1024.445 .0245962
1025.033 .0245922
1025.621 .0245873
1026.209 .0245820
1026.797 .0245768
1027.385 .0245717
1027.972 .0245667
1028.560 .0245623
1029.147 .0245576
1029.734 .0245528
1030.320 .0245482
1030.907 .0245436
1031.493 .0245396
1032.079 .0245369
1032.665 .0245358
1033.250 .0245360
1033.836 .0245382
1034.421 .0245413
1035.006 .0245444
1035.591 .0245470
1036.176 .0245482
1036.761 .0245482
1037.345 .0245469
1037.929 .0245441
1038.514 .0245407
1039.097 .0245369
1039.681 .0245331
1040.265 .0245288
1040.848 .0245246
1041.432 .0245194
1042.015 .0245131
1042.598 .0245050
1043.181 .0244964
1043.764 .0244877
1044.346 .0244794
1044.929 .0244727
1045.511 .0244682
1046.094 .0244661
1046.676 .0244666
1047.258 .0244692
1047.840 .0244741
1048.422 .0244803
1049.003 .0244878
1049.585 .0244953
1050.166 .0245031
1050.748 .0245112
1051.329 .0245195
1051.910 .0245290
1052.491 .0245392
1053.072 .0245493
1053.653 .0245596
1054.234 .0245689
1054.815 .0245760
1055.396 .0245798
1055.976 .0245800
1056.557 .0245763
1057.138 .0245681
1057.718 .0245556
1058.298 .0245400
1058.879 .0245219
1059.459 .0245021
1060.039 .0244814
1060.620 .0244605
1061.200 .0244401
1061.780 .0244204
1062.360 .0244018
1062.940 .0243852
1063.520 .0243693
1064.101 .0243553
1064.681 .0243418
1065.261 .0243304
1065.841 .0243198
1066.421 .0243094
1067.001 .0243000
1067.581 .0242923
1068.161 .0242854
1068.741 .0242794
1069.321 .0242741
1069.901 .0242713
1070.482 .0242696
1071.062 .0242689
1071.642 .0242679
1072.222 .0242680
1072.803 .0242677
1073.383 .0242665
1073.963 .0242644
1074.544 .0242624
1075.124 .0242607
1075.705 .0242605
1076.286 .0242613
1076.866 .0242651
1077.447 .0242713
1078.028 .0242793
1078.609 .0242880
1079.190 .0242976
1079.771 .0243053
1080.352 .0243098
1080.934 .0243126
1081.515 .0243135
1082.097 .0243131
1082.679 .0243118
1083.260 .0243115
1083.842 .0243129
1084.424 .0243163
1085.007 .0243197
1085.589 .0243220
1086.172 .0243252
1086.754 .0243266
1087.337 .0243255
1087.920 .0243233
1088.503 .0243220
1089.087 .0243218
1089.670 .0243225
1090.254 .0243248
1090.838 .0243270
1091.422 .0243306
1092.006 .0243328
1092.590 .0243326
1093.175 .0243295
1093.760 .0243224
1094.345 .0243124
1094.930 .0242988
1095.516 .0242838
1096.102 .0242664
1096.688 .0242509
1097.274 .0242384
1097.860 .0242293
1098.447 .0242236
1099.034 .0242218
1099.622 .0242268
1100.209 .0242362
1100.797 .0242483
1101.385 .0242640
1101.973 .0242801
1102.562 .0242967
1103.151 .0243120
1103.740 .0243271
1104.330 .0243421
1104.920 .0243581
1105.510 .0243751
1106.101 .0243927
1106.691 .0244113
1107.283 .0244308
1107.874 .0244478
1108.466 .0244631
1109.058 .0244737
1109.651 .0244766
1110.244 .0244739
1110.837 .0244650
1111.431 .0244501
1112.025 .0244313
1112.620 .0244105
1113.215 .0243901
1113.810 .0243690
1114.406 .0243492
1115.002 .0243328
1115.599 .0243179
1116.196 .0243040
1116.793 .0242859
1117.391 .0242654
1117.989 .0242413
1118.588 .0242150
1119.187 .0241878
1119.787 .0241618
1120.387 .0241406
1120.988 .0241260
1121.589 .0241154
1122.190 .0241144
1122.793 .0241206
1123.395 .0241359
1123.998 .0241597
1124.602 .0241890
1125.206 .0242235
1125.811 .0242628
1126.416 .0243053
1127.022 .0243503
1127.628 .0243935
1128.235 .0244351
1128.843 .0244687
1129.451 .0244988
1130.059 .0245232
1130.669 .0245404
1131.278 .0245557
1131.889 .0245688
1132.500 .0245828
1133.112 .0246001
1133.724 .0246182
1134.337 .0246435
1134.950 .0246722
1135.564 .0247030
1136.179 .0247359
1136.795 .0247727
1137.411 .0248154
1138.028 .0248632
1138.645 .0249254
1139.263 .0250025
1139.882 .0250986
1140.502 .0252099
1141.122 .0253399
1141.743 .0254775
1142.365 .0256152
1142.987 .0258478
1143.611 .0258768
1144.235 .0262115
1144.859 .0261234
1145.485 .0260552
