Measurement Sequence started on: 10-20-44-796
Integration time: 35
Scans to Average: 2 
>>>>>Begin Spectral Data<<<<<
432.953 .0560022
433.882 .0391371
434.810 .0346697
435.737 .0364036
436.662 .0353038
437.586 .0366792
438.509 .0358921
439.431 .0357368
440.351 .0356901
441.269 .0355566
442.187 .0354328
443.103 .0352998
444.018 .0351769
444.932 .0350659
445.844 .0349911
446.756 .0349547
447.666 .0349270
448.575 .0348741
449.482 .0348267
450.388 .0347521
451.294 .0346622
452.198 .0345558
453.100 .0344400
454.002 .0343363
454.902 .0342488
455.801 .0341800
456.699 .0341255
457.596 .0340851
458.492 .0340510
459.387 .0340108
460.280 .0339601
461.172 .0339020
462.064 .0338335
462.954 .0337650
463.843 .0337026
464.730 .0336434
465.617 .0335962
466.503 .0335599
467.387 .0335277
468.271 .0334990
469.153 .0334649
470.035 .0334263
470.915 .0333811
471.794 .0333348
472.673 .0332820
473.550 .0332325
474.426 .0331920
475.301 .0331585
476.175 .0331298
477.048 .0331049
477.920 .0330748
478.791 .0330425
479.661 .0330033
480.530 .0329547
481.398 .0328983
482.266 .0328451
483.132 .0327941
483.997 .0327467
484.861 .0327061
485.724 .0326759
486.587 .0326519
487.448 .0326318
488.308 .0326057
489.168 .0325728
490.026 .0325318
490.884 .0324807
491.741 .0324155
492.597 .0323441
493.452 .0322673
494.306 .0321865
495.159 .0321057
496.011 .0320265
496.862 .0319479
497.713 .0318728
498.562 .0317999
499.411 .0317308
500.259 .0316613
501.106 .0315934
501.952 .0315266
502.798 .0314615
503.642 .0314012
504.486 .0313436
505.329 .0312955
506.171 .0312568
507.012 .0312269
507.852 .0312075
508.692 .0311933
509.531 .0311857
510.369 .0311825
511.206 .0311749
512.043 .0311572
512.878 .0311263
513.713 .0310778
514.547 .0310110
515.381 .0309311
516.213 .0308383
517.045 .0307421
517.876 .0306379
518.706 .0305244
519.536 .0303971
520.365 .0302676
521.193 .0301327
522.020 .0299851
522.847 .0298355
523.673 .0296758
524.498 .0295016
525.323 .0293236
526.146 .0291423
526.969 .0289690
527.792 .0288011
528.614 .0286465
529.435 .0285006
530.255 .0283786
531.075 .0282665
531.894 .0281646
532.712 .0280767
533.530 .0279912
534.347 .0278983
535.163 .0277998
535.979 .0277041
536.794 .0276147
537.608 .0275347
538.422 .0274768
539.235 .0274282
540.048 .0273972
540.860 .0273668
541.671 .0273378
542.481 .0273061
543.292 .0272648
544.101 .0272065
544.910 .0271403
545.718 .0270713
546.526 .0270077
547.333 .0269564
548.139 .0269346
548.945 .0269370
549.750 .0269576
550.555 .0269935
551.359 .0270457
552.162 .0271086
552.965 .0271874
553.768 .0272736
554.569 .0273743
555.371 .0274825
556.171 .0276004
556.972 .0277220
557.771 .0278481
558.570 .0279738
559.369 .0280916
560.167 .0282005
560.964 .0283042
561.761 .0284047
562.558 .0285086
563.354 .0286121
564.149 .0287165
564.944 .0288145
565.738 .0289063
566.532 .0289861
567.325 .0290537
568.118 .0291090
568.910 .0291586
569.702 .0292021
570.494 .0292472
571.285 .0292935
572.075 .0293487
572.865 .0294097
573.654 .0294764
574.443 .0295423
575.232 .0296065
576.020 .0296643
576.807 .0297204
577.594 .0297737
578.381 .0298285
579.167 .0298845
579.952 .0299483
580.738 .0300162
581.522 .0300883
582.307 .0301598
583.091 .0302328
583.874 .0303019
584.657 .0303649
585.440 .0304191
586.222 .0304654
587.004 .0305045
587.785 .0305383
588.566 .0305656
589.346 .0305907
590.126 .0306125
590.906 .0306322
591.685 .0306481
592.464 .0306614
593.242 .0306726
594.020 .0306818
594.797 .0306898
595.575 .0306973
596.351 .0307036
597.128 .0307101
597.904 .0307172
598.679 .0307245
599.454 .0307305
600.229 .0307352
601.004 .0307381
601.778 .0307389
602.551 .0307372
603.325 .0307337
604.097 .0307294
604.870 .0307251
605.642 .0307207
606.414 .0307153
607.185 .0307094
607.956 .0307042
608.727 .0306980
609.497 .0306923
610.267 .0306857
611.037 .0306781
611.806 .0306696
612.575 .0306614
613.344 .0306532
614.112 .0306450
614.880 .0306370
615.647 .0306293
616.414 .0306208
617.181 .0306117
617.948 .0306010
618.714 .0305892
619.480 .0305759
620.245 .0305618
621.011 .0305453
621.775 .0305287
622.540 .0305110
623.304 .0304929
624.068 .0304747
624.832 .0304565
625.595 .0304387
626.358 .0304205
627.120 .0304026
627.883 .0303852
628.645 .0303684
629.406 .0303530
630.168 .0303377
630.929 .0303232
631.689 .0303086
632.450 .0302927
633.210 .0302747
633.970 .0302547
634.729 .0302340
635.489 .0302111
636.248 .0301868
637.006 .0301615
637.765 .0301353
638.523 .0301076
639.280 .0300791
640.038 .0300494
640.795 .0300187
641.552 .0299870
642.309 .0299548
643.065 .0299222
643.821 .0298912
644.577 .0298612
645.332 .0298337
646.088 .0298093
646.843 .0297885
647.597 .0297685
648.352 .0297508
649.106 .0297357
649.860 .0297225
650.613 .0297117
651.367 .0297039
652.120 .0296985
652.872 .0296951
653.625 .0296928
654.377 .0296907
655.129 .0296873
655.881 .0296836
656.632 .0296774
657.384 .0296696
658.135 .0296605
658.885 .0296501
659.636 .0296388
660.386 .0296272
661.136 .0296151
661.885 .0296026
662.635 .0295902
663.384 .0295780
664.133 .0295647
664.881 .0295521
665.630 .0295401
666.378 .0295288
667.126 .0295179
667.874 .0295081
668.621 .0294982
669.368 .0294891
670.115 .0294801
670.862 .0294716
671.608 .0294641
672.354 .0294572
673.100 .0294501
673.846 .0294430
674.591 .0294358
675.337 .0294280
676.082 .0294189
676.826 .0294103
677.571 .0294000
678.315 .0293886
679.059 .0293770
679.803 .0293650
680.547 .0293530
681.290 .0293413
682.033 .0293297
682.776 .0293184
683.518 .0293079
684.261 .0292974
685.003 .0292867
685.745 .0292767
686.487 .0292676
687.228 .0292582
687.969 .0292487
688.710 .0292399
689.451 .0292302
690.192 .0292207
690.932 .0292112
691.672 .0292011
692.412 .0291912
693.152 .0291815
693.891 .0291719
694.630 .0291622
695.369 .0291525
696.108 .0291422
696.846 .0291298
697.585 .0291169
698.323 .0291025
699.061 .0290862
699.798 .0290695
700.536 .0290521
701.273 .0290333
702.010 .0290143
702.746 .0289950
703.483 .0289755
704.219 .0289557
704.955 .0289355
705.691 .0289146
706.427 .0288932
707.162 .0288719
707.897 .0288503
708.632 .0288287
709.367 .0288083
710.101 .0287876
710.835 .0287669
711.569 .0287467
712.303 .0287266
713.037 .0287069
713.770 .0286877
714.503 .0286687
715.236 .0286501
715.969 .0286315
716.702 .0286133
717.434 .0285957
718.166 .0285782
718.898 .0285610
719.629 .0285428
720.361 .0285245
721.092 .0285052
721.823 .0284851
722.554 .0284643
723.284 .0284421
724.014 .0284188
724.744 .0283938
725.474 .0283666
726.204 .0283381
726.933 .0283088
727.662 .0282785
728.391 .0282480
729.120 .0282174
729.849 .0281866
730.577 .0281567
731.305 .0281276
732.033 .0280994
732.760 .0280717
733.488 .0280443
734.215 .0280171
734.942 .0279899
735.669 .0279632
736.395 .0279369
737.122 .0279114
737.848 .0278870
738.573 .0278640
739.299 .0278417
740.024 .0278207
740.750 .0278005
741.474 .0277815
742.199 .0277624
742.924 .0277429
743.648 .0277222
744.372 .0277009
745.096 .0276792
745.819 .0276579
746.543 .0276375
747.266 .0276193
747.989 .0276036
748.711 .0275903
749.434 .0275791
750.156 .0275697
750.878 .0275607
751.599 .0275524
752.321 .0275431
753.042 .0275335
753.763 .0275230
754.484 .0275127
755.205 .0275028
755.925 .0274937
756.645 .0274857
757.365 .0274781
758.085 .0274710
758.804 .0274632
759.523 .0274539
760.242 .0274433
760.961 .0274304
761.679 .0274158
762.397 .0273991
763.115 .0273813
763.833 .0273626
764.551 .0273439
765.268 .0273250
765.985 .0273066
766.702 .0272892
767.418 .0272721
768.134 .0272551
768.850 .0272380
769.566 .0272202
770.282 .0272021
770.997 .0271836
771.712 .0271642
772.427 .0271448
773.142 .0271265
773.856 .0271085
774.570 .0270916
775.284 .0270762
775.998 .0270617
776.711 .0270483
777.424 .0270357
778.137 .0270232
778.849 .0270103
779.562 .0269977
780.274 .0269849
780.986 .0269724
781.697 .0269613
782.409 .0269505
783.120 .0269411
783.831 .0269335
784.541 .0269264
785.252 .0269201
785.962 .0269148
786.671 .0269098
787.381 .0269049
788.090 .0268994
788.799 .0268933
789.508 .0268862
790.217 .0268782
790.925 .0268686
791.633 .0268579
792.341 .0268464
793.048 .0268341
793.755 .0268206
794.462 .0268074
795.169 .0267942
795.875 .0267816
796.581 .0267698
797.287 .0267588
797.993 .0267487
798.698 .0267396
799.403 .0267305
800.108 .0267223
800.812 .0267141
801.517 .0267061
802.221 .0266979
802.924 .0266898
803.628 .0266817
804.331 .0266745
805.034 .0266680
805.736 .0266626
806.439 .0266571
807.141 .0266516
807.843 .0266457
808.544 .0266385
809.245 .0266296
809.946 .0266188
810.647 .0266065
811.347 .0265933
812.047 .0265794
812.747 .0265664
813.447 .0265545
814.146 .0265447
814.845 .0265368
815.543 .0265306
816.242 .0265261
816.940 .0265228
817.638 .0265200
818.335 .0265176
819.032 .0265145
819.729 .0265111
820.426 .0265073
821.122 .0265029
821.818 .0264980
822.514 .0264924
823.209 .0264866
823.905 .0264801
824.599 .0264726
825.294 .0264644
825.988 .0264544
826.682 .0264431
827.376 .0264287
828.069 .0264114
828.762 .0263904
829.455 .0263664
830.147 .0263396
830.840 .0263115
831.531 .0262830
832.223 .0262557
832.914 .0262300
833.605 .0262062
834.296 .0261840
834.986 .0261627
835.676 .0261405
836.366 .0261174
837.055 .0260923
837.744 .0260659
838.433 .0260381
839.121 .0260118
839.809 .0259871
840.497 .0259656
841.185 .0259477
841.872 .0259336
842.559 .0259230
843.245 .0259147
843.932 .0259073
844.617 .0259008
845.303 .0258944
845.988 .0258875
846.673 .0258803
847.358 .0258737
848.042 .0258672
848.726 .0258611
849.410 .0258545
850.093 .0258471
850.776 .0258378
851.459 .0258256
852.141 .0258091
852.823 .0257887
853.505 .0257648
854.186 .0257370
854.867 .0257064
855.548 .0256740
856.228 .0256404
856.908 .0256063
857.588 .0255728
858.267 .0255401
858.946 .0255088
859.625 .0254794
860.303 .0254520
860.981 .0254271
861.659 .0254042
862.336 .0253835
863.013 .0253648
863.690 .0253488
864.366 .0253344
865.042 .0253218
865.718 .0253105
866.393 .0253001
867.068 .0252900
867.743 .0252791
868.417 .0252673
869.091 .0252541
869.765 .0252387
870.438 .0252214
871.111 .0252025
871.783 .0251828
872.456 .0251625
873.127 .0251423
873.799 .0251219
874.470 .0251018
875.141 .0250818
875.811 .0250612
876.481 .0250399
877.151 .0250189
877.820 .0249978
878.489 .0249770
879.158 .0249574
879.826 .0249389
880.494 .0249223
881.162 .0249074
881.829 .0248936
882.496 .0248801
883.163 .0248663
883.829 .0248520
884.495 .0248365
885.160 .0248210
885.825 .0248056
886.490 .0247910
887.154 .0247781
887.818 .0247667
888.482 .0247560
889.145 .0247460
889.808 .0247360
890.471 .0247253
891.133 .0247137
891.795 .0247007
892.456 .0246865
893.117 .0246719
893.778 .0246574
894.439 .0246426
895.099 .0246282
895.758 .0246149
896.417 .0246023
897.076 .0245900
897.735 .0245783
898.393 .0245668
899.051 .0245556
899.708 .0245443
900.365 .0245331
901.022 .0245218
901.678 .0245112
902.334 .0245006
902.990 .0244909
903.645 .0244825
904.300 .0244757
904.954 .0244704
905.608 .0244672
906.262 .0244654
906.915 .0244644
907.568 .0244634
908.221 .0244618
908.873 .0244594
909.525 .0244557
910.176 .0244507
910.828 .0244449
911.478 .0244388
912.129 .0244329
912.778 .0244274
913.428 .0244231
914.077 .0244193
914.726 .0244154
915.375 .0244109
916.023 .0244052
916.670 .0243982
917.318 .0243899
917.964 .0243798
918.611 .0243697
919.257 .0243593
919.903 .0243487
920.548 .0243383
921.193 .0243283
921.838 .0243187
922.482 .0243093
923.126 .0243004
923.770 .0242917
924.413 .0242831
925.056 .0242758
925.698 .0242690
926.340 .0242635
926.982 .0242591
927.623 .0242554
928.264 .0242520
928.904 .0242487
929.544 .0242444
930.184 .0242395
930.823 .0242338
931.462 .0242274
932.101 .0242204
932.739 .0242128
933.377 .0242044
934.014 .0241952
934.651 .0241850
935.288 .0241737
935.924 .0241609
936.560 .0241475
937.196 .0241332
937.831 .0241191
938.466 .0241056
939.100 .0240930
939.734 .0240818
940.368 .0240719
941.001 .0240634
941.634 .0240561
942.266 .0240501
942.899 .0240448
943.530 .0240400
944.162 .0240357
944.793 .0240312
945.423 .0240261
946.053 .0240198
946.683 .0240124
947.313 .0240041
947.942 .0239940
948.571 .0239823
949.199 .0239697
949.827 .0239566
950.455 .0239434
951.082 .0239303
951.709 .0239178
952.335 .0239058
952.961 .0238946
953.587 .0238836
954.212 .0238725
954.837 .0238623
955.462 .0238523
956.086 .0238430
956.710 .0238354
957.334 .0238287
957.957 .0238233
958.579 .0238194
959.202 .0238164
959.824 .0238141
960.445 .0238115
961.067 .0238087
961.688 .0238058
962.308 .0238028
962.928 .0237997
963.548 .0237962
964.168 .0237933
964.787 .0237899
965.406 .0237861
966.024 .0237823
966.642 .0237776
967.260 .0237725
967.877 .0237671
968.494 .0237611
969.110 .0237553
969.727 .0237500
970.342 .0237448
970.958 .0237402
971.573 .0237365
972.188 .0237333
972.802 .0237298
973.416 .0237266
974.030 .0237242
974.643 .0237217
975.256 .0237200
975.869 .0237181
976.481 .0237158
977.093 .0237143
977.705 .0237123
978.316 .0237103
978.927 .0237085
979.538 .0237069
980.148 .0237050
980.758 .0237026
981.367 .0237001
981.977 .0236977
982.586 .0236959
983.194 .0236944
983.802 .0236925
984.410 .0236902
985.018 .0236879
985.625 .0236856
986.232 .0236844
986.838 .0236842
987.445 .0236839
988.050 .0236848
988.656 .0236864
989.261 .0236886
989.866 .0236912
990.471 .0236944
991.075 .0236983
991.679 .0237017
992.282 .0237043
992.886 .0237057
993.489 .0237066
994.091 .0237076
994.694 .0237076
995.296 .0237068
995.897 .0237060
996.499 .0237051
997.100 .0237043
997.701 .0237049
998.301 .0237068
998.901 .0237094
999.501 .0237126
1000.101 .0237149
1000.700 .0237150
1001.299 .0237125
1001.898 .0237080
1002.496 .0237010
1003.094 .0236923
1003.692 .0236826
1004.289 .0236723
1004.887 .0236631
1005.484 .0236554
1006.080 .0236474
1006.677 .0236388
1007.273 .0236288
1007.868 .0236164
1008.464 .0236005
1009.059 .0235824
1009.654 .0235634
1010.249 .0235448
1010.843 .0235292
1011.437 .0235173
1012.031 .0235094
1012.625 .0235064
1013.218 .0235065
1013.811 .0235086
1014.404 .0235109
1014.997 .0235130
1015.589 .0235138
1016.181 .0235151
1016.773 .0235183
1017.365 .0235245
1017.956 .0235342
1018.547 .0235483
1019.138 .0235655
1019.728 .0235840
1020.319 .0236016
1020.909 .0236172
1021.499 .0236289
1022.088 .0236365
1022.678 .0236388
1023.267 .0236384
1023.856 .0236357
1024.445 .0236326
1025.033 .0236281
1025.621 .0236235
1026.209 .0236173
1026.797 .0236084
1027.385 .0235953
1027.972 .0235793
1028.560 .0235597
1029.147 .0235386
1029.734 .0235170
1030.320 .0234982
1030.907 .0234824
1031.493 .0234718
1032.079 .0234657
1032.665 .0234640
1033.250 .0234644
1033.836 .0234656
1034.421 .0234668
1035.006 .0234688
1035.591 .0234700
1036.176 .0234718
1036.761 .0234746
1037.345 .0234794
1037.929 .0234840
1038.514 .0234877
1039.097 .0234900
1039.681 .0234895
1040.265 .0234854
1040.848 .0234771
1041.432 .0234652
1042.015 .0234511
1042.598 .0234359
1043.181 .0234206
1043.764 .0234062
1044.346 .0233928
1044.929 .0233798
1045.511 .0233666
1046.094 .0233525
1046.676 .0233381
1047.258 .0233219
1047.840 .0233060
1048.422 .0232912
1049.003 .0232767
1049.585 .0232633
1050.166 .0232500
1050.748 .0232369
1051.329 .0232221
1051.910 .0232050
1052.491 .0231852
1053.072 .0231626
1053.653 .0231394
1054.234 .0231157
1054.815 .0230928
1055.396 .0230726
1055.976 .0230557
1056.557 .0230420
1057.138 .0230309
1057.718 .0230218
1058.298 .0230141
1058.879 .0230058
1059.459 .0229963
1060.039 .0229845
1060.620 .0229709
1061.200 .0229558
1061.780 .0229404
1062.360 .0229262
1062.940 .0229151
1063.520 .0229071
1064.101 .0229028
1064.681 .0229000
1065.261 .0228976
1065.841 .0228913
1066.421 .0228809
1067.001 .0228653
1067.581 .0228457
1068.161 .0228224
1068.741 .0227993
1069.321 .0227788
1069.901 .0227638
1070.482 .0227539
1071.062 .0227494
1071.642 .0227481
1072.222 .0227484
1072.803 .0227472
1073.383 .0227427
1073.963 .0227346
1074.544 .0227243
1075.124 .0227119
1075.705 .0227002
1076.286 .0226885
1076.866 .0226790
1077.447 .0226709
1078.028 .0226651
1078.609 .0226602
1079.190 .0226561
1079.771 .0226528
1080.352 .0226490
1080.934 .0226450
1081.515 .0226415
1082.097 .0226370
1082.679 .0226324
1083.260 .0226274
1083.842 .0226228
1084.424 .0226184
1085.007 .0226149
1085.589 .0226124
1086.172 .0226120
1086.754 .0226138
1087.337 .0226172
1087.920 .0226203
1088.503 .0226240
1089.087 .0226272
1089.670 .0226284
1090.254 .0226277
1090.838 .0226250
1091.422 .0226212
1092.006 .0226176
1092.590 .0226131
1093.175 .0226086
1093.760 .0226037
1094.345 .0225997
1094.930 .0225955
1095.516 .0225899
1096.102 .0225839
1096.688 .0225776
1097.274 .0225721
1097.860 .0225668
1098.447 .0225626
1099.034 .0225590
1099.622 .0225542
1100.209 .0225484
1100.797 .0225410
1101.385 .0225306
1101.973 .0225175
1102.562 .0225029
1103.151 .0224894
1103.740 .0224765
1104.330 .0224673
1104.920 .0224628
1105.510 .0224632
1106.101 .0224688
1106.691 .0224763
1107.283 .0224827
1107.874 .0224890
1108.466 .0224907
1109.058 .0224882
1109.651 .0224843
1110.244 .0224817
1110.837 .0224812
1111.431 .0224851
1112.025 .0224957
1112.620 .0225129
1113.215 .0225330
1113.810 .0225564
1114.406 .0225760
1115.002 .0225921
1115.599 .0226044
1116.196 .0226105
1116.793 .0226128
1117.391 .0226110
1117.989 .0226062
1118.588 .0226023
1119.187 .0225947
1119.787 .0225867
1120.387 .0225762
1120.988 .0225659
1121.589 .0225530
1122.190 .0225382
1122.793 .0225215
1123.395 .0225064
1123.998 .0224912
1124.602 .0224791
1125.206 .0224688
1125.811 .0224613
1126.416 .0224549
1127.022 .0224523
1127.628 .0224555
1128.235 .0224660
1128.843 .0224802
1129.451 .0225061
1130.059 .0225391
1130.669 .0225826
1131.278 .0226280
1131.889 .0226747
1132.500 .0227227
1133.112 .0227675
1133.724 .0228073
1134.337 .0228427
1134.950 .0228737
1135.564 .0229037
1136.179 .0229365
1136.795 .0229716
1137.411 .0230065
1138.028 .0230441
1138.645 .0230849
1139.263 .0231269
1139.882 .0231686
1140.502 .0232132
1141.122 .0232599
1141.743 .0233232
1142.365 .0233549
1142.987 .0233740
1143.611 .0235247
1144.235 .0235624
1144.859 .0239255
1145.485 .0228008
