Measurement Sequence started on: 10-20-44-796
Integration time: 35
Scans to Average: 2 
>>>>>Begin Spectral Data<<<<<
432.953 .0480081
433.882 .0491211
434.810 .0423145
435.737 .0409605
436.662 .0388656
437.586 .0404670
438.509 .0397929
439.431 .0393506
440.351 .0392723
441.269 .0393478
442.187 .0395375
443.103 .0397667
444.018 .0400418
444.932 .0403440
445.844 .0406395
446.756 .0409189
447.666 .0411690
448.575 .0413933
449.482 .0415727
450.388 .0417251
451.294 .0418402
452.198 .0419495
453.100 .0420423
454.002 .0421327
454.902 .0422015
455.801 .0422643
456.699 .0423075
457.596 .0423314
458.492 .0423250
459.387 .0422964
460.280 .0422267
461.172 .0421348
462.064 .0420204
462.954 .0418889
463.843 .0417474
464.730 .0416140
465.617 .0414882
466.503 .0413715
467.387 .0412617
468.271 .0411534
469.153 .0410426
470.035 .0409377
470.915 .0408316
471.794 .0407271
472.673 .0406299
473.550 .0405458
474.426 .0404784
475.301 .0404281
476.175 .0403933
477.048 .0403671
477.920 .0403472
478.791 .0403266
479.661 .0403029
480.530 .0402732
481.398 .0402427
482.266 .0402116
483.132 .0401804
483.997 .0401519
484.861 .0401247
485.724 .0401005
486.587 .0400788
487.448 .0400530
488.308 .0400243
489.168 .0399892
490.026 .0399555
490.884 .0399236
491.741 .0398977
492.597 .0398763
493.452 .0398566
494.306 .0398372
495.159 .0398151
496.011 .0397885
496.862 .0397546
497.713 .0397107
498.562 .0396538
499.411 .0395868
500.259 .0395081
501.106 .0394199
501.952 .0393288
502.798 .0392333
503.642 .0391329
504.486 .0390292
505.329 .0389211
506.171 .0388097
507.012 .0387008
507.852 .0385972
508.692 .0384970
509.531 .0384025
510.369 .0383116
511.206 .0382252
512.043 .0381461
512.878 .0380733
513.713 .0379953
514.547 .0379163
515.381 .0378355
516.213 .0377444
517.045 .0376484
517.876 .0375423
518.706 .0374281
519.536 .0373080
520.365 .0371861
521.193 .0370547
522.020 .0369156
522.847 .0367676
523.673 .0366006
524.498 .0364114
525.323 .0361927
526.146 .0359519
526.969 .0356921
527.792 .0354227
528.614 .0351534
529.435 .0348941
530.255 .0346627
531.075 .0344458
531.894 .0342593
532.712 .0340787
533.530 .0338899
534.347 .0336980
535.163 .0334911
535.979 .0332816
536.794 .0330807
537.608 .0328969
538.422 .0327482
539.235 .0326431
540.048 .0325784
540.860 .0325337
541.671 .0325100
542.481 .0324887
543.292 .0324480
544.101 .0323814
544.910 .0323030
545.718 .0322160
546.526 .0321410
547.333 .0320904
548.139 .0320633
548.945 .0320707
549.750 .0321117
550.555 .0321745
551.359 .0322592
552.162 .0323542
552.965 .0324624
553.768 .0325749
554.569 .0326978
555.371 .0328313
556.171 .0329725
556.972 .0331284
557.771 .0332917
558.570 .0334492
559.369 .0336067
560.167 .0337506
560.964 .0338873
561.761 .0340111
562.558 .0341249
563.354 .0342244
564.149 .0343138
564.944 .0343904
565.738 .0344544
566.532 .0345057
567.325 .0345443
568.118 .0345727
568.910 .0345953
569.702 .0346146
570.494 .0346337
571.285 .0346580
572.075 .0346918
572.865 .0347276
573.654 .0347711
574.443 .0348157
575.232 .0348598
576.020 .0349028
576.807 .0349455
577.594 .0349900
578.381 .0350353
579.167 .0350807
579.952 .0351239
580.738 .0351683
581.522 .0352136
582.307 .0352566
583.091 .0353006
583.874 .0353434
584.657 .0353855
585.440 .0354218
586.222 .0354521
587.004 .0354762
587.785 .0354937
588.566 .0355056
589.346 .0355104
590.126 .0355090
590.906 .0355026
591.685 .0354928
592.464 .0354797
593.242 .0354644
594.020 .0354470
594.797 .0354265
595.575 .0354030
596.351 .0353765
597.128 .0353476
597.904 .0353167
598.679 .0352861
599.454 .0352557
600.229 .0352268
601.004 .0351999
601.778 .0351743
602.551 .0351506
603.325 .0351290
604.097 .0351076
604.870 .0350864
605.642 .0350673
606.414 .0350501
607.185 .0350349
607.956 .0350226
608.727 .0350132
609.497 .0350063
610.267 .0350010
611.037 .0349970
611.806 .0349936
612.575 .0349907
613.344 .0349876
614.112 .0349825
614.880 .0349765
615.647 .0349686
616.414 .0349585
617.181 .0349468
617.948 .0349341
618.714 .0349194
619.480 .0349040
620.245 .0348890
621.011 .0348742
621.775 .0348603
622.540 .0348478
623.304 .0348357
624.068 .0348233
624.832 .0348102
625.595 .0347959
626.358 .0347804
627.120 .0347652
627.883 .0347489
628.645 .0347325
629.406 .0347171
630.168 .0347022
630.929 .0346879
631.689 .0346751
632.450 .0346623
633.210 .0346479
633.970 .0346325
634.729 .0346151
635.489 .0345943
636.248 .0345715
637.006 .0345464
637.765 .0345182
638.523 .0344876
639.280 .0344549
640.038 .0344198
640.795 .0343845
641.552 .0343491
642.309 .0343129
643.065 .0342777
643.821 .0342435
644.577 .0342090
645.332 .0341747
646.088 .0341412
646.843 .0341071
647.597 .0340720
648.352 .0340376
649.106 .0340030
649.860 .0339693
650.613 .0339374
651.367 .0339073
652.120 .0338796
652.872 .0338550
653.625 .0338324
654.377 .0338117
655.129 .0337930
655.881 .0337754
656.632 .0337588
657.384 .0337426
658.135 .0337264
658.885 .0337095
659.636 .0336915
660.386 .0336729
661.136 .0336530
661.885 .0336325
662.635 .0336116
663.384 .0335907
664.133 .0335711
664.881 .0335513
665.630 .0335334
666.378 .0335164
667.126 .0334998
667.874 .0334830
668.621 .0334655
669.368 .0334473
670.115 .0334280
670.862 .0334088
671.608 .0333903
672.354 .0333726
673.100 .0333569
673.846 .0333432
674.591 .0333325
675.337 .0333243
676.082 .0333183
676.826 .0333127
677.571 .0333082
678.315 .0333030
679.059 .0332960
679.803 .0332875
680.547 .0332777
681.290 .0332668
682.033 .0332540
682.776 .0332410
683.518 .0332279
684.261 .0332147
685.003 .0332021
685.745 .0331892
686.487 .0331764
687.228 .0331629
687.969 .0331481
688.710 .0331325
689.451 .0331168
690.192 .0331014
690.932 .0330857
691.672 .0330710
692.412 .0330572
693.152 .0330440
693.891 .0330311
694.630 .0330190
695.369 .0330068
696.108 .0329944
696.846 .0329809
697.585 .0329664
698.323 .0329511
699.061 .0329348
699.798 .0329172
700.536 .0328988
701.273 .0328794
702.010 .0328601
702.746 .0328399
703.483 .0328201
704.219 .0328007
704.955 .0327816
705.691 .0327624
706.427 .0327427
707.162 .0327226
707.897 .0327019
708.632 .0326806
709.367 .0326594
710.101 .0326376
710.835 .0326163
711.569 .0325951
712.303 .0325737
713.037 .0325524
713.770 .0325305
714.503 .0325070
715.236 .0324822
715.969 .0324564
716.702 .0324296
717.434 .0324032
718.166 .0323781
718.898 .0323543
719.629 .0323318
720.361 .0323100
721.092 .0322889
721.823 .0322675
722.554 .0322460
723.284 .0322233
724.014 .0321990
724.744 .0321737
725.474 .0321469
726.204 .0321196
726.933 .0320921
727.662 .0320637
728.391 .0320341
729.120 .0320035
729.849 .0319723
730.577 .0319402
731.305 .0319072
732.033 .0318736
732.760 .0318399
733.488 .0318054
734.215 .0317702
734.942 .0317350
735.669 .0317006
736.395 .0316669
737.122 .0316339
737.848 .0316023
738.573 .0315720
739.299 .0315431
740.024 .0315156
740.750 .0314890
741.474 .0314631
742.199 .0314368
742.924 .0314102
743.648 .0313834
744.372 .0313565
745.096 .0313296
745.819 .0313029
746.543 .0312771
747.266 .0312526
747.989 .0312289
748.711 .0312077
749.434 .0311888
750.156 .0311725
750.878 .0311581
751.599 .0311464
752.321 .0311367
753.042 .0311286
753.763 .0311218
754.484 .0311162
755.205 .0311112
755.925 .0311073
756.645 .0311037
757.365 .0311009
758.085 .0310990
758.804 .0310980
759.523 .0310964
760.242 .0310954
760.961 .0310936
761.679 .0310909
762.397 .0310863
763.115 .0310800
763.833 .0310720
764.551 .0310625
765.268 .0310514
765.985 .0310388
766.702 .0310248
767.418 .0310106
768.134 .0309959
768.850 .0309820
769.566 .0309685
770.282 .0309557
770.997 .0309440
771.712 .0309332
772.427 .0309222
773.142 .0309109
773.856 .0308988
774.570 .0308861
775.284 .0308723
775.998 .0308568
776.711 .0308411
777.424 .0308263
778.137 .0308123
778.849 .0307991
779.562 .0307867
780.274 .0307753
780.986 .0307638
781.697 .0307526
782.409 .0307409
783.120 .0307286
783.831 .0307172
784.541 .0307066
785.252 .0306971
785.962 .0306893
786.671 .0306825
787.381 .0306763
788.090 .0306711
788.799 .0306657
789.508 .0306588
790.217 .0306514
790.925 .0306433
791.633 .0306342
792.341 .0306238
793.048 .0306126
793.755 .0306000
794.462 .0305861
795.169 .0305706
795.875 .0305522
796.581 .0305317
797.287 .0305090
797.993 .0304844
798.698 .0304588
799.403 .0304327
800.108 .0304059
800.812 .0303786
801.517 .0303514
802.221 .0303236
802.924 .0302959
803.628 .0302688
804.331 .0302424
805.034 .0302174
805.736 .0301937
806.439 .0301715
807.141 .0301504
807.843 .0301310
808.544 .0301120
809.245 .0300928
809.946 .0300734
810.647 .0300532
811.347 .0300328
812.047 .0300125
812.747 .0299929
813.447 .0299741
814.146 .0299562
814.845 .0299387
815.543 .0299210
816.242 .0299028
816.940 .0298836
817.638 .0298630
818.335 .0298409
819.032 .0298175
819.729 .0297930
820.426 .0297673
821.122 .0297412
821.818 .0297139
822.514 .0296865
823.209 .0296577
823.905 .0296273
824.599 .0295951
825.294 .0295614
825.988 .0295260
826.682 .0294898
827.376 .0294528
828.069 .0294158
828.762 .0293791
829.455 .0293432
830.147 .0293076
830.840 .0292727
831.531 .0292387
832.223 .0292051
832.914 .0291720
833.605 .0291402
834.296 .0291088
834.986 .0290789
835.676 .0290509
836.366 .0290240
837.055 .0289984
837.744 .0289735
838.433 .0289490
839.121 .0289246
839.809 .0289001
840.497 .0288752
841.185 .0288497
841.872 .0288248
842.559 .0288006
843.245 .0287765
843.932 .0287537
844.617 .0287318
845.303 .0287106
845.988 .0286906
846.673 .0286716
847.358 .0286535
848.042 .0286369
848.726 .0286213
849.410 .0286067
850.093 .0285925
850.776 .0285795
851.459 .0285671
852.141 .0285556
852.823 .0285447
853.505 .0285342
854.186 .0285236
854.867 .0285140
855.548 .0285046
856.228 .0284960
856.908 .0284876
857.588 .0284797
858.267 .0284717
858.946 .0284632
859.625 .0284540
860.303 .0284445
860.981 .0284343
861.659 .0284244
862.336 .0284136
863.013 .0284026
863.690 .0283914
864.366 .0283802
865.042 .0283684
865.718 .0283565
866.393 .0283437
867.068 .0283297
867.743 .0283154
868.417 .0283005
869.091 .0282853
869.765 .0282707
870.438 .0282570
871.111 .0282438
871.783 .0282321
872.456 .0282214
873.127 .0282112
873.799 .0282018
874.470 .0281929
875.141 .0281838
875.811 .0281753
876.481 .0281673
877.151 .0281603
877.820 .0281540
878.489 .0281497
879.158 .0281459
879.826 .0281433
880.494 .0281415
881.162 .0281397
881.829 .0281374
882.496 .0281346
883.163 .0281307
883.829 .0281262
884.495 .0281209
885.160 .0281154
885.825 .0281096
886.490 .0281043
887.154 .0280988
887.818 .0280937
888.482 .0280881
889.145 .0280824
889.808 .0280759
890.471 .0280692
891.133 .0280620
891.795 .0280553
892.456 .0280491
893.117 .0280438
893.778 .0280396
894.439 .0280367
895.099 .0280346
895.758 .0280335
896.417 .0280325
897.076 .0280320
897.735 .0280311
898.393 .0280306
899.051 .0280299
899.708 .0280294
900.365 .0280290
901.022 .0280285
901.678 .0280272
902.334 .0280243
902.990 .0280199
903.645 .0280143
904.300 .0280073
904.954 .0279995
905.608 .0279902
906.262 .0279804
906.915 .0279704
907.568 .0279602
908.221 .0279497
908.873 .0279393
909.525 .0279294
910.176 .0279197
910.828 .0279109
911.478 .0279035
912.129 .0278974
912.778 .0278930
913.428 .0278900
914.077 .0278872
914.726 .0278841
915.375 .0278798
916.023 .0278743
916.670 .0278681
917.318 .0278609
917.964 .0278524
918.611 .0278436
919.257 .0278342
919.903 .0278237
920.548 .0278117
921.193 .0277986
921.838 .0277837
922.482 .0277670
923.126 .0277486
923.770 .0277286
924.413 .0277077
925.056 .0276866
925.698 .0276653
926.340 .0276446
926.982 .0276244
927.623 .0276039
928.264 .0275834
928.904 .0275629
929.544 .0275419
930.184 .0275206
930.823 .0274992
931.462 .0274775
932.101 .0274560
932.739 .0274349
933.377 .0274135
934.014 .0273927
934.651 .0273725
935.288 .0273527
935.924 .0273331
936.560 .0273143
937.196 .0272961
937.831 .0272781
938.466 .0272603
939.100 .0272414
939.734 .0272221
940.368 .0272022
941.001 .0271812
941.634 .0271602
942.266 .0271392
942.899 .0271182
943.530 .0270967
944.162 .0270746
944.793 .0270518
945.423 .0270275
946.053 .0270015
946.683 .0269733
947.313 .0269435
947.942 .0269120
948.571 .0268792
949.199 .0268455
949.827 .0268115
950.455 .0267771
951.082 .0267427
951.709 .0267088
952.335 .0266751
952.961 .0266419
953.587 .0266096
954.212 .0265774
954.837 .0265456
955.462 .0265132
956.086 .0264809
956.710 .0264486
957.334 .0264172
957.957 .0263864
958.579 .0263568
959.202 .0263293
959.824 .0263040
960.445 .0262806
961.067 .0262593
961.688 .0262391
962.308 .0262197
962.928 .0261996
963.548 .0261787
964.168 .0261551
964.787 .0261303
965.406 .0261047
966.024 .0260789
966.642 .0260538
967.260 .0260304
967.877 .0260095
968.494 .0259910
969.110 .0259739
969.727 .0259573
970.342 .0259411
970.958 .0259252
971.573 .0259078
972.188 .0258900
972.802 .0258724
973.416 .0258556
974.030 .0258394
974.643 .0258256
975.256 .0258138
975.869 .0258035
976.481 .0257952
977.093 .0257881
977.705 .0257815
978.316 .0257750
978.927 .0257676
979.538 .0257596
980.148 .0257510
980.758 .0257418
981.367 .0257314
981.977 .0257216
982.586 .0257119
983.194 .0257024
983.802 .0256929
984.410 .0256839
985.018 .0256745
985.625 .0256649
986.232 .0256549
986.838 .0256447
987.445 .0256347
988.050 .0256254
988.656 .0256161
989.261 .0256078
989.866 .0255996
990.471 .0255918
991.075 .0255838
991.679 .0255758
992.282 .0255676
992.886 .0255599
993.489 .0255522
994.091 .0255451
994.694 .0255390
995.296 .0255343
995.897 .0255304
996.499 .0255277
997.100 .0255255
997.701 .0255239
998.301 .0255216
998.901 .0255185
999.501 .0255141
1000.101 .0255089
1000.700 .0255027
1001.299 .0254952
1001.898 .0254873
1002.496 .0254796
1003.094 .0254721
1003.692 .0254656
1004.289 .0254608
1004.887 .0254580
1005.484 .0254555
1006.080 .0254541
1006.677 .0254518
1007.273 .0254483
1007.868 .0254429
1008.464 .0254369
1009.059 .0254300
1009.654 .0254245
1010.249 .0254217
1010.843 .0254220
1011.437 .0254278
1012.031 .0254389
1012.625 .0254531
1013.218 .0254697
1013.811 .0254872
1014.404 .0255029
1014.997 .0255160
1015.589 .0255276
1016.181 .0255370
1016.773 .0255461
1017.365 .0255560
1017.956 .0255661
1018.547 .0255770
1019.138 .0255898
1019.728 .0256031
1020.319 .0256155
1020.909 .0256278
1021.499 .0256381
1022.088 .0256462
1022.678 .0256535
1023.267 .0256604
1023.856 .0256664
1024.445 .0256732
1025.033 .0256800
1025.621 .0256867
1026.209 .0256943
1026.797 .0257023
1027.385 .0257102
1027.972 .0257185
1028.560 .0257270
1029.147 .0257346
1029.734 .0257420
1030.320 .0257492
1030.907 .0257559
1031.493 .0257626
1032.079 .0257689
1032.665 .0257753
1033.250 .0257822
1033.836 .0257900
1034.421 .0257988
1035.006 .0258090
1035.591 .0258203
1036.176 .0258312
1036.761 .0258429
1037.345 .0258544
1037.929 .0258658
1038.514 .0258767
1039.097 .0258877
1039.681 .0258981
1040.265 .0259092
1040.848 .0259201
1041.432 .0259303
1042.015 .0259404
1042.598 .0259500
1043.181 .0259578
1043.764 .0259642
1044.346 .0259702
1044.929 .0259761
1045.511 .0259821
1046.094 .0259892
1046.676 .0259966
1047.258 .0260048
1047.840 .0260130
1048.422 .0260201
1049.003 .0260264
1049.585 .0260310
1050.166 .0260330
1050.748 .0260333
1051.329 .0260329
1051.910 .0260328
1052.491 .0260331
1053.072 .0260348
1053.653 .0260382
1054.234 .0260433
1054.815 .0260492
1055.396 .0260553
1055.976 .0260612
1056.557 .0260665
1057.138 .0260710
1057.718 .0260741
1058.298 .0260776
1058.879 .0260817
1059.459 .0260859
1060.039 .0260899
1060.620 .0260920
1061.200 .0260922
1061.780 .0260878
1062.360 .0260792
1062.940 .0260663
1063.520 .0260491
1064.101 .0260279
1064.681 .0260034
1065.261 .0259774
1065.841 .0259503
1066.421 .0259229
1067.001 .0258947
1067.581 .0258667
1068.161 .0258398
1068.741 .0258119
1069.321 .0257858
1069.901 .0257633
1070.482 .0257455
1071.062 .0257323
1071.642 .0257237
1072.222 .0257195
1072.803 .0257179
1073.383 .0257192
1073.963 .0257211
1074.544 .0257249
1075.124 .0257297
1075.705 .0257359
1076.286 .0257439
1076.866 .0257554
1077.447 .0257709
1078.028 .0257882
1078.609 .0258072
1079.190 .0258248
1079.771 .0258394
1080.352 .0258509
1080.934 .0258572
1081.515 .0258628
1082.097 .0258671
1082.679 .0258723
1083.260 .0258783
1083.842 .0258866
1084.424 .0258942
1085.007 .0259019
1085.589 .0259068
1086.172 .0259075
1086.754 .0259037
1087.337 .0258980
1087.920 .0258887
1088.503 .0258780
1089.087 .0258662
1089.670 .0258545
1090.254 .0258405
1090.838 .0258262
1091.422 .0258047
1092.006 .0257783
1092.590 .0257449
1093.175 .0257050
1093.760 .0256576
1094.345 .0256075
1094.930 .0255542
1095.516 .0255028
1096.102 .0254548
1096.688 .0254146
1097.274 .0253813
1097.860 .0253576
1098.447 .0253405
1099.034 .0253327
1099.622 .0253302
1100.209 .0253325
1100.797 .0253368
1101.385 .0253460
1101.973 .0253570
1102.562 .0253715
1103.151 .0253892
1103.740 .0254124
1104.330 .0254410
1104.920 .0254745
1105.510 .0255085
1106.101 .0255446
1106.691 .0255777
1107.283 .0256042
1107.874 .0256226
1108.466 .0256331
1109.058 .0256350
1109.651 .0256322
1110.244 .0256277
1110.837 .0256233
1111.431 .0256208
1112.025 .0256202
1112.620 .0256202
1113.215 .0256207
1113.810 .0256177
1114.406 .0256092
1115.002 .0255953
1115.599 .0255792
1116.196 .0255603
1116.793 .0255419
1117.391 .0255287
1117.989 .0255209
1118.588 .0255203
1119.187 .0255225
1119.787 .0255270
1120.387 .0255316
1120.988 .0255307
1121.589 .0255271
1122.190 .0255195
1122.793 .0255107
1123.395 .0255014
1123.998 .0254996
1124.602 .0255100
1125.206 .0255329
1125.811 .0255686
1126.416 .0256132
1127.022 .0256639
1127.628 .0257138
1128.235 .0257568
1128.843 .0257913
1129.451 .0258233
1130.059 .0258494
1130.669 .0258689
1131.278 .0258928
1131.889 .0259205
1132.500 .0259575
1133.112 .0260053
1133.724 .0260666
1134.337 .0261396
1134.950 .0262145
1135.564 .0262887
1136.179 .0263577
1136.795 .0264199
1137.411 .0264721
1138.028 .0265122
1138.645 .0265502
1139.263 .0265857
1139.882 .0266236
1140.502 .0266744
1141.122 .0267219
1141.743 .0267687
1142.365 .0267956
1142.987 .0269318
1143.611 .0271950
1144.235 .0267708
1144.859 .0266604
1145.485 .0263961
